Data from hue_100_FLMS001491_00073.txt Node
Date: Tue Feb 07 17:03:37 GMT 2017
User: dcchb
Spectrometer: FLMS00149
Trigger mode: 0
Integration Time (sec): 2.000000E-2
Scans to average: 10
Electric dark correction enabled: true
Nonlinearity correction enabled: false
Boxcar width: 0
XAxis mode: Wavelengths
Number of Pixels in Spectrum: 2048
>>>>>Begin Spectral Data<<<<<
341.393	-6.23
341.776	-6.23
342.16	-6.23
342.543	-71.54
342.927	-76.51
343.31	-63.18
343.693	-62.5
344.077	-75.83
344.46	-52.1
344.843	-46
345.226	-40.58
345.61	-35.15
345.993	-17.3
346.376	-30.18
346.759	-2.16
347.142	32.87
347.525	34.9
347.908	70.38
348.291	91.17
348.674	91.17
349.057	104.5
349.44	109.02
349.823	149.02
350.206	167.78
350.588	211.17
350.971	203.48
351.354	244.16
351.737	259.3
352.119	252.07
352.502	279.41
352.884	263.14
353.267	282.13
353.65	290.03
354.032	301.56
354.414	328.23
354.797	339.75
355.179	325.29
355.562	323.03
355.944	332.07
356.326	335.46
356.709	350.6
357.091	349.02
357.473	368.9
357.855	357.15
358.238	337.04
358.62	344.27
359.002	322.58
359.384	342.69
359.766	354.21
360.148	327.77
360.53	348.11
360.912	343.37
361.294	348.11
361.676	335.01
362.057	344.95
362.439	346.98
362.821	327.55
363.203	340.2
363.584	340.88
363.966	323.25
364.348	337.04
364.729	319.19
365.111	328.45
365.493	298.85
365.874	325.74
366.256	338.62
366.637	310.15
367.019	355.8
367.4	316.02
367.781	330.49
368.163	327.1
368.544	327.32
368.925	337.49
369.306	350.15
369.688	312.63
370.069	352.86
370.45	324.61
370.831	312.86
371.212	312.86
371.593	324.61
371.974	334.55
372.355	294.33
372.736	316.7
373.117	326.19
373.498	319.64
373.879	316.93
374.26	326.42
374.641	329.13
375.021	313.54
375.402	315.12
375.783	325.74
376.163	338.4
376.544	343.14
376.925	342.91
377.305	350.82
377.686	339.3
378.066	350.37
378.447	349.24
378.827	355.8
379.208	321.9
379.588	350.82
379.968	342.46
380.349	356.93
380.729	349.69
381.109	326.42
381.489	342.24
381.87	352.41
382.25	351.28
382.63	358.06
383.01	332.97
383.39	346.76
383.77	354.21
384.15	370.71
384.53	360.09
384.91	358.73
385.29	365.06
385.67	369.35
386.049	377.49
386.429	349.47
386.809	361.67
387.189	393.76
387.568	377.26
387.948	400.09
388.328	391.5
388.707	364.38
389.087	376.59
389.466	368
389.846	381.11
390.225	392.63
390.605	363.71
390.984	378.17
391.363	391.73
391.743	395.79
392.122	387.89
392.501	407.77
392.881	387.43
393.26	399.86
393.639	399.18
394.018	408.68
394.397	400.99
394.776	397.83
395.155	393.99
395.534	401.22
395.913	415.46
396.292	415.23
396.671	430.6
397.05	395.12
397.429	422.91
397.808	417.49
398.186	419.3
398.565	413.65
398.944	423.14
399.323	414.1
399.701	412.97
400.08	425.17
400.458	441.67
400.837	434.89
401.215	432.18
401.594	419.07
401.972	439.18
402.351	443.7
402.729	436.25
403.107	453.65
403.486	452.52
403.864	453.42
404.242	457.71
404.62	466.3
404.999	442.8
405.377	462.23
405.755	481.22
406.133	463.59
406.511	454.78
406.889	443.93
407.267	471.95
407.645	463.82
408.023	468.79
408.401	462.91
408.779	506.53
409.156	483.7
409.534	482.8
409.912	510.14
410.29	515.34
410.667	486.41
411.045	497.49
411.422	492.97
411.8	510.37
412.178	520.54
412.555	511.5
412.933	516.24
413.31	534.32
413.687	519.63
414.065	543.59
414.442	524.6
414.819	557.37
415.197	528.45
415.574	558.73
415.951	523.25
416.328	548.56
416.705	548.11
417.082	564.15
417.46	558.5
417.837	576.58
418.214	577.94
418.591	558.05
418.967	578.84
419.344	578.84
419.721	575
420.098	617.26
420.475	595.56
420.852	615.9
421.228	605.51
421.605	610.25
421.982	586.07
422.358	602.57
422.735	619.29
423.111	631.04
423.488	605.73
423.864	649.57
424.241	622.91
424.617	644.15
424.994	653.64
425.37	654.09
425.746	678.73
426.123	658.84
426.499	673.98
426.875	666.97
427.251	675.56
427.627	684.15
428.003	704.26
428.379	705.39
428.756	688.67
429.132	706.07
429.507	699.52
429.883	711.49
430.259	729.8
430.635	713.75
431.011	752.85
431.387	746.29
431.763	743.36
432.138	762.34
432.514	768.67
432.89	783.13
433.265	805.28
433.641	814.31
434.016	787.42
434.392	815.9
434.767	826.97
435.143	821.09
435.518	809.8
435.894	838.49
436.269	875.56
436.644	851.38
437.02	848.21
437.395	856.35
437.77	860.87
438.145	868.32
438.52	876.46
438.895	871.04
439.271	895.44
439.646	928.44
440.021	904.48
440.395	920.53
440.77	926.18
441.145	934.09
441.52	953.97
441.895	923.69
442.27	928.44
442.645	936.57
443.019	957.59
443.394	967.31
443.769	981.77
444.143	975.89
444.518	981.77
444.892	1000.98
445.267	985.38
445.641	983.58
446.016	1003.24
446.39	1021.99
446.764	1024.7
447.139	1009.79
447.513	1061.09
447.887	1047.08
448.262	1026.74
448.636	1046.85
449.01	1068.32
449.384	1073.97
449.758	1073.29
450.132	1062.67
450.506	1100.63
450.88	1098.38
451.254	1090.01
451.628	1130.24
452.002	1153.29
452.376	1110.13
452.75	1146.51
453.123	1171.59
453.497	1180.41
453.871	1161.88
454.244	1216.11
454.618	1232.38
454.992	1221.54
455.365	1231.25
455.739	1237.58
456.112	1244.36
456.486	1264.7
456.859	1301.76
457.232	1329.56
457.606	1318.03
457.979	1340.63
458.352	1352.38
458.725	1390.12
459.099	1376.33
459.472	1418.82
459.845	1410.23
460.218	1429.21
460.591	1453.17
460.964	1451.13
461.337	1498.82
461.71	1515.99
462.083	1523.45
462.456	1516.44
462.829	1537.91
463.201	1577.68
463.574	1606.38
463.947	1588.76
464.32	1639.38
464.692	1688.42
465.065	1709.21
465.438	1716.66
465.81	1739.49
466.183	1747.62
466.555	1808.86
466.928	1839.6
467.3	1814.51
467.672	1852.48
468.045	1907.85
468.417	1918.47
468.789	1920.27
469.161	2003.21
469.534	2040.95
469.906	2069.42
470.278	2060.38
470.65	2096.99
471.022	2152.81
471.394	2221.74
471.766	2245.24
472.138	2202.53
472.51	2344.44
472.882	2364.33
473.253	2400.49
473.625	2445.01
473.997	2537.66
474.369	2563.42
474.74	2587.83
475.112	2682.51
475.484	2719.35
475.855	2807.26
476.227	2822.4
476.598	2962.05
476.97	3006.35
477.341	3064.65
477.713	3156.4
478.084	3200.24
478.455	3346.9
478.827	3401.82
479.198	3514.58
479.569	3580.8
479.94	3635.48
480.311	3726.78
480.682	3858.98
481.053	3996.83
481.424	4044.96
481.795	4161.35
482.166	4253.55
482.537	4361.11
482.908	4457.16
483.279	4624.16
483.65	4716.59
484.021	4870.93
484.391	4981.21
484.762	5033.41
485.133	5151.6
485.503	5281.54
485.874	5477.24
486.244	5565.38
486.615	5727.41
486.985	5865.48
487.356	6008.53
487.726	6146.83
488.097	6321.97
488.467	6406.71
488.837	6644.9
489.207	6741.62
489.578	6963.31
489.948	7031.1
490.318	7200.14
490.688	7292.11
491.058	7507.7
491.428	7712.21
491.798	7830.85
492.168	8025.65
492.538	8149.26
492.908	8319.65
493.278	8459.31
493.648	8609.59
494.017	8780.21
494.387	8933.2
494.757	9088.22
495.126	9232.62
495.496	9300.19
495.866	9358.27
496.235	9648.88
496.605	9793.06
496.974	9903.34
497.344	10008.88
497.713	10156.22
498.082	10278.25
498.452	10434.63
498.821	10605.47
499.19	10612.25
499.559	10832.13
499.928	10909.87
500.298	10987.61
500.667	11143.99
501.036	11208.39
501.405	11372
501.774	11419.91
502.143	11624.43
502.512	11649.96
502.88	11766.34
503.249	11860.8
503.618	11990.07
503.987	12054.47
504.356	12190.29
504.724	12348.25
505.093	12331.3
505.462	12388.47
505.83	12553.44
506.199	12670.05
506.567	12844.28
506.936	12793.21
507.304	12977.61
507.672	13044.28
508.041	13088.12
508.409	13227.77
508.777	13358.17
509.145	13471.38
509.514	13466.86
509.882	13574.88
510.25	13567.2
510.618	13686.74
510.986	13748.89
511.354	13856.68
511.722	13898.94
512.09	14181.42
512.458	13997.24
512.826	14147.07
513.193	14270.01
513.561	14250.12
513.929	14380.06
514.297	14475.65
514.664	14509.55
515.032	14625.25
515.4	14639.26
515.767	14740.5
516.135	14828.64
516.502	14733.72
516.869	14937.56
517.237	14961.29
517.604	14878.58
517.972	15046.48
518.339	15205.8
518.706	15049.65
519.073	15133.94
519.44	15243.99
519.808	15337.1
520.175	15298
520.542	15402.86
520.909	15392.91
521.276	15476.08
521.643	15485.34
522.009	15569.86
522.376	15694.38
522.743	15770.76
523.11	15841.94
523.477	15909.51
523.843	15908.61
524.21	16041.03
524.577	16108.38
524.943	16115.61
525.31	16169.17
525.676	16298.88
526.043	16284.64
526.409	16320.8
526.776	16411.87
527.142	16396.5
527.508	16452.55
527.874	16480.8
528.241	16499.78
528.607	16496.39
528.973	16580.91
529.339	16596.95
529.705	16650.06
530.071	16697.96
530.437	16778.64
530.803	16804.63
531.169	16848.7
531.535	16725.76
531.901	16736.16
532.267	16695.71
532.632	16841.92
532.998	16812.09
533.364	16776.61
533.73	16770.28
534.095	16882.14
534.461	16899.09
534.826	16876.72
535.192	16843.5
535.557	16873.78
535.923	16828.58
536.288	16909.48
536.653	16896.15
537.019	16725.08
537.384	16788.58
537.749	16771.41
538.114	16712.65
538.479	16657.97
538.845	16780.9
539.21	16724.63
539.575	16714.46
539.94	16737.29
540.305	16756.72
540.67	16679.21
541.034	16658.87
541.399	16682.37
541.764	16535.26
542.129	16574.35
542.494	16574.8
542.858	16627.91
543.223	16450.74
543.587	16552.21
543.952	16477.41
544.316	16469.5
544.681	16423.17
545.045	16434.69
545.41	16442.6
545.774	16455.03
546.138	16339.1
546.503	16368.26
546.867	16239.9
547.231	16335.04
547.595	16303.62
547.959	16296.17
548.324	16181.59
548.688	16267.02
549.052	16187.7
549.416	16186.34
549.779	16109.96
550.143	16132.33
550.507	16147.7
550.871	16058.66
551.235	16049.39
551.599	16131.43
551.962	16088.04
552.326	16109.05
552.689	16067.02
553.053	15851.89
553.417	15967.59
553.78	16093.69
554.143	16032.67
554.507	15993.8
554.87	15989.51
555.234	16002.62
555.597	15891.43
555.96	15944.09
556.323	15904.77
556.686	15857.08
557.05	15919.45
557.413	15956.74
557.776	15928.72
558.139	16022.73
558.502	15917.42
558.865	15909.29
559.228	16064.76
559.59	16014.82
559.953	15986.8
560.316	16048.26
560.679	16008.72
561.041	16098.66
561.404	16075.83
561.767	16087.13
562.129	16084.42
562.492	16111.99
562.854	16160.13
563.217	16110.86
563.579	16088.72
563.941	16114.48
564.304	16184.08
564.666	16206.45
565.028	16215.27
565.39	16227.69
565.753	16238.77
566.115	16301.14
566.477	16333.91
566.839	16351.08
567.201	16385.88
567.563	16291.65
567.925	16415.03
568.287	16418.2
568.648	16411.87
569.01	16516.73
569.372	16503.39
569.734	16428.14
570.095	16495.03
570.457	16617.74
570.819	16518.08
571.18	16578.65
571.542	16683.95
571.903	16693.22
572.265	16653.9
572.626	16685.31
572.987	16680.56
573.349	16731.86
573.71	16772.54
574.071	16734.35
574.432	16801.69
574.794	16823.16
575.155	16811.86
575.516	16834.46
575.877	16747.23
576.238	16848.02
576.599	16864.51
576.96	16812.54
577.32	16938.86
577.681	16843.72
578.042	16897.06
578.403	16842.82
578.763	16815.25
579.124	16902.03
579.485	16972.31
579.845	16951.97
580.206	16907.22
580.566	16846.89
580.927	16954.46
581.287	16932.99
581.648	16878.07
582.008	16951.29
582.368	16843.95
582.728	16949.94
583.089	16848.02
583.449	16899.09
583.809	16812.99
584.169	16899.77
584.529	16871.97
584.889	16894.57
585.249	16857.28
585.609	16829.71
585.969	16840.56
586.329	16781.13
586.688	16773.22
587.048	16906.55
587.408	16809.15
587.768	16821.35
588.127	16794.69
588.487	16703.39
588.846	16842.14
589.206	16764.63
589.565	16755.14
589.925	16813.89
590.284	16721.69
590.643	16718.53
591.003	16725.08
591.362	16756.95
591.721	16737.96
592.08	16716.5
592.44	16780.45
592.799	16698.87
593.158	16720.34
593.517	16700.68
593.876	16669.04
594.235	16648.7
594.593	16661.13
594.952	16604.18
595.311	16634.92
595.67	16680.34
596.029	16641.02
596.387	16732.99
596.746	16706.33
597.104	16624.75
597.463	16690.73
597.822	16732.77
598.18	16700
598.538	16676.04
598.897	16662.26
599.255	16545.88
599.613	16792.65
599.972	16580.68
600.33	16704.97
600.688	16632.88
601.046	16736.38
601.404	16675.37
601.762	16699.09
602.12	16687.57
602.478	16790.62
602.836	16758.98
603.194	16745.42
603.552	16704.74
603.91	16560.12
604.268	16667.91
604.625	16679.43
604.983	16743.39
605.341	16681.69
605.698	16688.47
606.056	16747.23
606.413	16653.67
606.771	16666.55
607.128	16695.93
607.485	16707.68
607.843	16669.49
608.2	16742.94
608.557	16791.52
608.914	16721.47
609.272	16859.32
609.629	16808.24
609.986	16808.47
610.343	16728.02
610.7	16928.02
611.057	16862.25
611.414	16844.63
611.771	16939.54
612.127	16943.38
612.484	16989.26
612.841	17033.32
613.198	16985.87
613.554	16980.67
613.911	17022.93
614.267	16928.69
614.624	16991.29
614.98	16995.81
615.337	17118.29
615.693	17055.92
616.05	16950.84
616.406	17174.34
616.762	17008.24
617.118	17089.82
617.475	17043.94
617.831	17189.25
618.187	17215.01
618.543	17106.77
618.899	17234.22
619.255	17107.22
619.611	17230.38
619.967	17293.2
620.323	17342.69
620.678	17225.86
621.034	17074.68
621.39	17109.03
621.746	17199.42
622.101	17333.88
622.457	17281.45
622.812	17208.91
623.168	17225.41
623.523	17250.49
623.879	17389.92
624.234	17227.44
624.589	17329.36
624.945	17342.02
625.3	17262.47
625.655	17296.37
626.01	17235.58
626.365	17254.56
626.72	17238.06
627.075	17271.51
627.43	17067.22
627.785	17149.48
628.14	17126.2
628.495	17213.88
628.85	17120.55
629.205	17020.89
629.559	17164.85
629.914	17192.87
630.269	17147.22
630.623	17020.44
630.978	17072.42
631.332	17106.99
631.687	17116.03
632.041	17055.47
632.396	16997.17
632.75	16960.78
633.104	16956.49
633.459	17015.02
633.813	16942.93
634.167	16914.46
634.521	16941.8
634.875	16953.33
635.229	16891.86
635.583	16856.83
635.937	16879.66
636.291	16815.93
636.645	16794.01
636.999	16756.95
637.352	16735.48
637.706	16681.02
638.06	16790.62
638.413	16647.8
638.767	16756.72
639.121	16636.27
639.474	16577.29
639.828	16620.23
640.181	16662.49
640.534	16669.04
640.888	16652.54
641.241	16556.5
641.594	16542.49
641.947	16584.3
642.301	16551.75
642.654	16539.1
643.007	16531.42
643.36	16554.01
643.713	16514.24
644.066	16495.71
644.419	16436.95
644.771	16347.24
645.124	16161.71
645.477	16116.51
645.83	16143.86
646.182	15989.51
646.535	15972.56
646.888	15956.74
647.24	15876.07
647.593	15955.61
647.945	15957.42
648.298	15856.18
648.65	15848.72
649.002	15817.54
649.355	15919.45
649.707	15848.5
650.059	16034.48
650.411	16189.05
650.763	16068.15
651.115	16254.36
651.467	16253.46
651.819	16295.94
652.171	16261.14
652.523	16169.17
652.875	16182.5
653.227	16142.27
653.578	16237.64
653.93	16229.5
654.282	16221.14
654.633	16181.59
654.985	16160.35
655.337	16180.01
655.688	16169.62
656.039	16237.64
656.391	16060.24
656.742	16280.8
657.094	16186.57
657.445	16225.66
657.796	16236.73
658.147	16100.01
658.498	16197.87
658.849	16280.35
659.2	16228.37
659.551	16266.56
659.902	16237.19
660.253	16306.11
660.604	16252.55
660.955	16200.12
661.306	16197.64
661.656	16318.99
662.007	16234.7
662.358	16353.34
662.708	16338.43
663.059	16333
663.409	16123.06
663.76	16354.25
664.11	16267.47
664.461	16297.75
664.811	16350.63
665.161	16268.37
665.511	16202.61
665.862	16174.14
666.212	16336.39
666.562	16185.89
666.912	16339.78
667.262	16213.23
667.612	16212.1
667.962	16248.94
668.312	16187.47
668.662	16301.37
669.011	16299.56
669.361	16168.04
669.711	16274.93
670.06	16236.96
670.41	16176.17
670.76	16184.53
671.109	16253.23
671.459	16193.8
671.808	16196.51
672.157	16226.56
672.507	16202.38
672.856	16130.07
673.205	16184.08
673.554	16117.64
673.904	16073.35
674.253	16115.61
674.602	16123.06
674.951	15847.37
675.3	15796.97
675.649	16095.72
675.998	16027.93
676.346	16037.64
676.695	16070.86
677.044	15846.69
677.393	15964.88
677.741	15977.98
678.09	15969.62
678.438	15933.47
678.787	16005.33
679.135	15863.41
679.484	15762.4
679.832	15942.96
680.181	15712
680.529	15834.94
680.877	15691.21
681.225	15756.97
681.573	15768.27
681.922	15667.48
682.27	15590.42
682.618	15695.73
682.966	15549.75
683.314	15576.19
683.661	15570.76
684.009	15430.2
684.357	15489.64
684.705	15413.7
685.053	15489.64
685.4	15368.73
685.748	15225.69
686.095	15304.1
686.443	15288.74
686.79	15097.78
687.138	15180.26
687.485	15296.19
687.832	15154.73
688.18	15096.2
688.527	15050.78
688.874	15026.14
689.221	15026.6
689.568	14992.25
689.915	14924.45
690.262	14956.99
690.609	14798.81
690.956	14889.65
691.303	14724.23
691.65	14776.66
691.997	14746.38
692.344	14557.91
692.69	14611.69
693.037	14566.5
693.383	14455.09
693.73	14510.45
694.077	14372.38
694.423	14453.28
694.769	14349.33
695.116	14357.24
695.462	14249.44
695.808	14136
696.155	14131.48
696.501	14078.82
696.847	14143.68
697.193	13994.76
697.539	13986.4
697.885	13866.63
698.231	13839.51
698.577	13831.83
698.923	13783.92
699.269	13670.47
699.614	13684.94
699.96	13545.28
700.306	13515.9
700.651	13459.86
700.997	13487.2
701.342	13375.79
701.688	13446.98
702.033	13339.18
702.379	13337.6
702.724	13320.43
703.069	13254.67
703.415	13090.15
703.76	13186.19
704.105	13078.63
704.45	13137.15
704.795	13017.61
705.14	13033.88
705.485	12891.29
705.83	12870.27
706.175	12936.93
706.52	12800.89
706.865	12808.12
707.209	12747.11
707.554	12711.86
707.899	12734
708.243	12617.39
708.588	12660.1
708.932	12544.18
709.277	12452.2
709.621	12536.27
709.966	12401.13
710.31	12400
710.654	12343.96
710.998	12335.14
711.342	12314.58
711.687	12267.8
712.031	12156.84
712.375	12218.76
712.719	12204.3
713.063	12176.28
713.407	12246.78
713.75	12082.49
714.094	12104.87
714.438	11974.47
714.782	12025.32
715.125	12046.11
715.469	11955.72
715.812	11946.68
716.156	11851.99
716.499	11861.26
716.843	11899
717.186	11806.12
717.53	11898.09
717.873	11901.71
718.216	11847.47
718.559	11863.06
718.902	11669.17
719.246	11720.47
719.589	11670.75
719.932	11700.36
720.275	11715.05
720.617	11626.69
720.96	11645.67
721.303	11705.1
721.646	11646.57
721.989	11614.71
722.331	11680.24
722.674	11643.86
723.016	11618.32
723.359	11624.43
723.701	11527.03
724.044	11590.98
724.386	11427.14
724.729	11502.62
725.071	11500.81
725.413	11528.61
725.755	11469.63
726.097	11464.66
726.439	11433.47
726.782	11385.79
727.124	11409.52
727.465	11339.69
727.807	11350.08
728.149	11352.12
728.491	11336.52
728.833	11352.34
729.175	11279.58
729.516	11331.78
729.858	11310.31
730.199	11315.73
730.541	11336.07
730.882	11327.71
731.224	11340.37
731.565	11306.02
731.906	11251.78
732.248	11318.9
732.589	11250.88
732.93	11209.3
733.271	11232.12
733.612	11278.67
733.953	11269.41
734.294	11289.75
734.635	11198.22
734.976	11267.6
735.317	11189.64
735.658	11285.45
735.999	11253.81
736.339	11221.27
736.68	11269.86
737.021	11254.04
737.361	11174.27
737.702	11242.06
738.042	11216.53
738.383	11316.41
738.723	11291.55
739.063	11339.46
739.404	11327.48
739.744	11309.63
740.084	11331.1
740.424	11333.36
740.764	11298.11
741.104	11364.32
741.444	11340.59
741.784	11339.46
742.124	11336.07
742.464	11365.45
742.804	11398.22
743.143	11432.34
743.483	11479.57
743.823	11416.97
744.162	11421.27
744.502	11569.96
744.841	11521.83
745.181	11545.11
745.52	11528.61
745.86	11709.17
746.199	11669.85
746.538	11699
746.877	11708.27
747.216	11741.94
747.556	11828.94
747.895	11914.59
748.234	11914.81
748.573	11922.05
748.911	12003.63
749.25	12093.79
749.589	12100.12
749.928	12203.39
750.267	12378.76
750.605	12349.38
750.944	12444.97
751.283	12498.3
751.621	12593.67
751.96	12630.5
752.298	12743.04
752.636	12869.14
752.975	12902.81
753.313	13040.21
753.651	13126.76
753.989	13322.91
754.327	13352.74
754.666	13408.11
755.004	13645.39
755.342	13715.9
755.679	13904.37
756.017	13885.61
