Data from hue_250_FLMS001491_00085.txt Node
Date: Tue Feb 07 16:01:35 GMT 2017
User: dcchb
Spectrometer: FLMS00149
Trigger mode: 0
Integration Time (sec): 2.000000E-2
Scans to average: 10
Electric dark correction enabled: true
Nonlinearity correction enabled: false
Boxcar width: 0
XAxis mode: Wavelengths
Number of Pixels in Spectrum: 2048
>>>>>Begin Spectral Data<<<<<
341.393	-5.59
341.776	-5.59
342.16	-5.59
342.543	-67.96
342.927	-65.7
343.31	-56.89
343.693	-68.19
344.077	-54.63
344.46	-73.16
344.843	-36.55
345.226	-23.22
345.61	-31.58
345.993	-35.2
346.376	-11.92
346.759	1.19
347.142	17.23
347.525	47.06
347.908	55.65
348.291	70.11
348.674	89.55
349.057	110.56
349.44	120.73
349.823	133.39
350.206	161.18
350.588	197.11
350.971	200.5
351.354	218.58
351.737	232.14
352.119	240.05
352.502	241.41
352.884	259.71
353.267	273.72
353.65	290.67
354.032	302.65
354.414	311.69
354.797	323.44
355.179	289.77
355.562	308.52
355.944	316.88
356.326	310.1
356.709	313.49
357.091	337.45
357.473	320.5
357.855	326.6
358.238	318.01
358.62	336.54
359.002	334.74
359.384	332.25
359.766	337.45
360.148	339.03
360.53	320.05
360.912	324.12
361.294	310.33
361.676	326.83
362.057	313.49
362.439	309.88
362.821	332.48
363.203	316.43
363.584	317.79
363.966	323.89
364.348	312.36
364.729	314.4
365.111	329.77
365.493	318.24
365.874	311.23
366.256	313.95
366.637	294.51
367.019	309.65
367.4	304.46
367.781	309.65
368.163	320.73
368.544	313.27
368.925	320.73
369.306	292.03
369.688	317.34
370.069	318.92
370.45	298.81
370.831	295.42
371.212	318.69
371.593	335.87
371.974	311.01
372.355	281.86
372.736	317.11
373.117	319.14
373.498	306.26
373.879	306.26
374.26	310.33
374.641	326.15
375.021	307.85
375.402	316.88
375.783	310.33
376.163	333.61
376.544	320.5
376.925	310.1
377.305	331.35
377.686	325.47
378.066	331.12
378.447	332.93
378.827	327.51
379.208	333.16
379.588	321.4
379.968	326.6
380.349	347.17
380.729	313.72
381.109	351.23
381.489	351.91
381.87	331.12
382.25	335.19
382.63	336.32
383.01	342.42
383.39	317.34
383.77	336.32
384.15	361.85
384.53	336.09
384.91	341.52
385.29	339.03
385.67	338.8
386.049	369.54
386.429	343.1
386.809	364.34
387.189	352.59
387.568	354.4
387.948	357.56
388.328	339.71
388.707	338.8
389.087	344.23
389.466	360.27
389.846	363.44
390.225	369.31
390.605	367.96
390.984	378.8
391.363	356.88
391.743	374.74
392.122	354.62
392.501	374.96
392.881	365.7
393.26	384.23
393.639	383.78
394.018	371.8
394.397	379.48
394.776	382.19
395.155	366.15
395.534	386.94
395.913	407.5
396.292	403.44
396.671	384.23
397.05	375.19
397.429	377.9
397.808	393.27
398.186	393.72
398.565	399.14
398.944	389.88
399.323	389.88
399.701	400.5
400.08	422.87
400.458	430.78
400.837	406.15
401.215	389.88
401.594	406.37
401.972	413.15
402.351	417.22
402.729	420.38
403.107	433.04
403.486	420.38
403.864	433.04
404.242	425.58
404.62	422.19
404.999	444.11
405.377	455.19
405.755	433.49
406.133	448.63
406.511	455.86
406.889	474.39
407.267	458.8
407.645	476.43
408.023	460.38
408.401	461.29
408.779	469.65
409.156	480.04
409.534	494.28
409.912	506.48
410.29	496.77
410.667	490.44
411.045	490.21
411.422	537.22
411.8	539.03
412.178	544.45
412.555	534.28
412.933	566.6
413.31	560.49
413.687	558.69
414.065	560.72
414.442	565.69
414.819	585.8
415.197	572.24
415.574	577.22
415.951	594.84
416.328	595.07
416.705	618.8
417.082	584.22
417.46	621.51
417.837	610.89
418.214	587.16
418.591	624.9
418.967	626.03
419.344	637.55
419.721	676.65
420.098	654.95
420.475	685.01
420.852	682.98
421.228	704.44
421.605	674.39
421.982	688.17
422.358	705.8
422.735	692.47
423.111	760.94
423.488	711.9
423.864	735.86
424.241	746.93
424.617	759.36
424.994	798.91
425.37	781.96
425.746	798.23
426.123	782.86
426.499	802.3
426.875	793.71
427.251	834.84
427.627	832.58
428.003	816.31
428.379	865.34
428.756	887.04
429.132	873.48
429.507	899.92
429.883	879.58
430.259	897.66
430.635	898.79
431.011	887.04
431.387	955.74
431.763	950.09
432.138	933.59
432.514	978.79
432.89	968.39
433.265	999.8
433.641	991.67
434.016	1018.11
434.392	1032.35
434.767	1069.18
435.143	1091.33
435.518	1065.11
435.894	1095.85
436.269	1136.07
436.644	1142.63
437.02	1150.76
437.395	1160.7
437.77	1146.24
438.145	1189.18
438.52	1205
438.895	1226.24
439.271	1227.14
439.646	1256.07
440.021	1273.7
440.395	1282.96
440.77	1270.76
441.145	1290.87
441.52	1338.33
441.895	1314.82
442.27	1346.24
442.645	1314.15
443.019	1373.58
443.394	1361.15
443.769	1392.11
444.143	1380.13
444.518	1416.29
444.892	1411.09
445.267	1411.09
445.641	1430.98
446.016	1450.19
446.39	1438.89
446.764	1447.48
447.139	1490.41
447.513	1473.24
447.887	1474.59
448.262	1461.94
448.636	1524.54
449.01	1545.33
449.384	1547.36
449.758	1531.77
450.132	1566.12
450.506	1551.65
450.88	1566.57
451.254	1572.22
451.628	1579.45
452.002	1600.47
452.376	1621.71
452.75	1641.82
453.123	1648.15
453.497	1670.52
453.871	1715.72
454.244	1719.79
454.618	1723.85
454.992	1754.59
455.365	1745.32
455.739	1811.31
456.112	1825.77
456.486	1804.08
456.859	1827.81
457.232	1890.18
457.606	1875.04
457.979	1844.75
458.352	1939.21
458.725	1905.54
459.099	1937.86
459.472	1959.33
459.845	2008.14
460.218	1993
460.591	2017.18
460.964	2013.79
461.337	2086.78
461.71	2098.31
462.083	2151.41
462.456	2132.43
462.829	2147.57
463.201	2191.86
463.574	2174.46
463.947	2214.69
464.32	2281.13
464.692	2301.69
465.065	2269.38
465.438	2320.45
465.81	2345.98
466.183	2354.34
466.555	2418.07
466.928	2399.54
467.3	2389.82
467.672	2479.54
468.045	2544.85
468.417	2527.22
468.789	2533.1
469.161	2611.06
469.534	2611.06
469.906	2637.73
470.278	2664.85
470.65	2725.63
471.022	2745.07
471.394	2796.37
471.766	2778.51
472.138	2809.02
472.51	2879.98
472.882	2915.69
473.253	2926.76
473.625	2977.83
473.997	3032.52
474.369	3053.31
474.74	3074.55
475.112	3122.69
475.484	3199.97
475.855	3249.91
476.227	3253.3
476.598	3337.14
476.97	3348.22
477.341	3396.13
477.713	3486.97
478.084	3459.4
478.455	3533.3
478.827	3564.71
479.198	3663.69
479.569	3639.96
479.94	3736.68
480.311	3778.94
480.682	3841.99
481.053	3987.3
481.424	3952.95
481.795	4011.25
482.166	4052.83
482.537	4086.05
482.908	4154.75
483.279	4191.58
483.65	4248.98
484.021	4340.51
484.391	4371.24
484.762	4410.79
485.133	4483.55
485.503	4505.47
485.874	4585.25
486.244	4583.66
486.615	4681.52
486.985	4743.21
487.356	4824.11
487.726	4860.72
488.097	4941.4
488.467	4884.67
488.837	4994.05
489.207	5030.88
489.578	5168.06
489.948	5209.86
490.318	5258.45
490.688	5236.98
491.058	5354.94
491.428	5378.22
491.798	5421.83
492.168	5479.46
492.538	5507.71
492.908	5577.99
493.278	5641.94
493.648	5619.57
494.017	5701.83
494.387	5732.79
494.757	5752.22
495.126	5865.21
495.496	5801.71
495.866	5871.09
496.235	6004.42
496.605	5961.71
496.974	5975.72
497.344	6027.69
497.713	6061.14
498.082	6121.93
498.452	6188.37
498.821	6203.74
499.19	6163.74
499.559	6200.35
499.928	6226.11
500.298	6277.86
500.667	6330.29
501.036	6323.96
501.405	6355.6
501.774	6387.69
502.143	6420
502.512	6447.57
502.88	6516.04
503.249	6481.69
503.618	6513.78
503.987	6527.57
504.356	6559.21
504.724	6583.16
505.093	6567.57
505.462	6613.67
505.83	6678.52
506.199	6707.68
506.567	6787.22
506.936	6718.07
507.304	6822.48
507.672	6806.21
508.041	6845.98
508.409	6894.34
508.777	6864.96
509.145	6904.73
509.514	6929.82
509.882	6956.48
510.25	7017.73
510.618	6994.22
510.986	7001.23
511.354	7027.22
511.722	7108.12
512.09	7160.55
512.458	7093.66
512.826	7121.68
513.193	7205.74
513.561	7051.62
513.929	7179.75
514.297	7273.76
514.664	7243.48
515.032	7249.58
515.4	7350.6
515.767	7315.34
516.135	7303.14
516.502	7229.47
516.869	7326.64
517.237	7381.78
517.604	7313.76
517.972	7434.44
518.339	7497.49
518.706	7487.32
519.073	7468.11
519.44	7439.63
519.808	7504.72
520.175	7526.19
520.542	7552.17
520.909	7593.76
521.276	7531.84
521.643	7601.44
522.009	7616.13
522.376	7641.44
522.743	7657.26
523.11	7699.29
523.477	7806.18
523.843	7760.08
524.21	7810.92
524.577	7819.29
524.943	7861.32
525.31	7894.31
525.676	7886.4
526.043	7903.58
526.409	7937.25
526.776	7965.27
527.142	7921.66
527.508	8005.5
527.874	8017.92
528.241	8034.65
528.607	7989.22
528.973	8043.91
529.339	8012.05
529.705	8080.52
530.071	8126.4
530.437	8066.74
530.803	8134.98
531.169	8220.18
531.535	8077.13
531.901	8160.75
532.267	8174.98
532.632	8164.59
532.998	8175.89
533.364	8187.86
533.73	8162.55
534.095	8258.82
534.461	8217.47
534.826	8213.17
535.192	8193.51
535.557	8262.66
535.923	8217.24
536.288	8229.67
536.653	8248.65
537.019	8250.24
537.384	8161.88
537.749	8195.77
538.114	8206.39
538.479	8170.46
538.845	8186.96
539.21	8213.17
539.575	8160.52
539.94	8199.84
540.305	8184.47
540.67	8174.3
541.034	8208.2
541.399	8215.43
541.764	8202.78
542.129	8155.77
542.494	8210.01
542.858	8205.26
543.223	8154.87
543.587	8218.82
543.952	8180.86
544.316	8156
544.681	8129.79
545.045	8183.12
545.41	8182.21
545.774	8214.3
546.138	8230.12
546.503	8160.97
546.867	8118.26
547.231	8214.76
547.595	8110.8
547.959	8183.8
548.324	8143.12
548.688	8153.51
549.052	8131.82
549.416	8184.7
549.779	8164.59
550.143	8102.67
550.507	8124.36
550.871	8115.1
551.235	8134.76
551.599	8191.93
551.962	8150.12
552.326	8146.73
552.689	8146.06
553.053	8118.04
553.417	8117.58
553.78	8221.54
554.143	8121.65
554.507	8110.8
554.87	8119.17
555.234	8204.36
555.597	8165.49
555.96	8213.85
556.323	8177.47
556.686	8189.22
557.05	8236.45
557.413	8259.5
557.776	8188.77
558.139	8268.77
558.502	8257.01
558.865	8233.51
559.228	8236.45
559.59	8276
559.953	8267.41
560.316	8344.24
560.679	8283.68
561.041	8405.03
561.404	8379.05
561.767	8380.18
562.129	8399.16
562.492	8437.57
562.854	8464.92
563.217	8385.6
563.579	8436.67
563.941	8441.87
564.304	8487.52
564.666	8529.55
565.028	8547.4
565.39	8527.74
565.753	8555.99
566.115	8595.99
566.477	8588.31
566.839	8620.17
567.201	8657.91
567.563	8641.86
567.925	8705.14
568.287	8708.98
568.648	8734.97
569.01	8711.24
569.372	8835.76
569.734	8737.45
570.095	8872.82
570.457	8837.79
570.819	8881.63
571.18	8905.36
571.542	8927.05
571.903	8968.18
572.265	8953.95
572.626	8939.48
572.987	8965.24
573.349	9004.34
573.71	9002.31
574.071	9015.41
574.432	9090.21
574.794	9099.7
575.155	9134.05
575.516	9122.08
575.877	9096.99
576.238	9167.95
576.599	9132.7
576.96	9169.53
577.32	9189.87
577.681	9315.97
578.042	9230.55
578.403	9268.51
578.763	9278.23
579.124	9259.7
579.485	9311.45
579.845	9364.33
580.206	9374.27
580.566	9358
580.927	9467.83
581.287	9382.41
581.648	9416.08
582.008	9473.48
582.368	9458.56
582.728	9460.15
583.089	9479.13
583.449	9457.89
583.809	9478.45
584.169	9491.56
584.529	9497.66
584.889	9519.81
585.249	9549.64
585.609	9499.47
585.969	9568.39
586.329	9555.74
586.688	9602.97
587.048	9607.94
587.408	9657.88
587.768	9630.09
588.127	9576.3
588.487	9626.7
588.846	9633.48
589.206	9666.92
589.565	9657.66
589.925	9703.3
590.284	9711.44
590.643	9667.15
591.003	9738.56
591.362	9727.26
591.721	9759.8
592.08	9723.19
592.44	9767.26
592.799	9791.44
593.158	9665.34
593.517	9762.74
593.876	9802.74
594.235	9777.43
594.593	9787.14
594.952	9794.15
595.311	9772.68
595.67	9777.2
596.029	9825.11
596.387	9811.1
596.746	9907.14
597.104	9894.03
597.463	9898.55
597.822	9866.01
598.18	9792.34
598.538	9840.48
598.897	9924.54
599.255	9794.38
599.613	9941.26
599.972	9884.77
600.33	9888.16
600.688	9826.92
601.046	9987.36
601.404	9966.57
601.762	9869.4
602.12	9990.53
602.478	9969.29
602.836	10013.58
603.194	9946.01
603.552	9921.83
603.91	9984.43
604.268	9958.89
604.625	9954.15
604.983	9954.6
605.341	9964.54
605.698	9986.46
606.056	9984.65
606.413	10034.14
606.771	9996.18
607.128	10016.06
607.485	10038.44
607.843	10005.44
608.2	9981.26
608.557	10039.79
608.914	10118.89
609.272	10130.86
609.629	10125.67
609.986	10106.23
610.343	10158.66
610.7	10153.69
611.057	10093.35
611.414	10167.25
611.771	10114.59
612.127	10224.87
612.484	10113.69
612.841	10185.33
613.198	10165.21
613.554	10227.58
613.911	10294.02
614.267	10211.54
614.624	10264.19
614.98	10334.25
615.337	10284.08
615.693	10282.72
616.05	10262.16
616.406	10328.6
616.762	10248.6
617.118	10228.71
617.475	10260.8
617.831	10283.4
618.187	10355.49
618.543	10291.99
618.899	10340.58
619.255	10350.74
619.611	10284.98
619.967	10446.11
620.323	10375.38
620.678	10383.06
621.034	10287.02
621.39	10297.86
621.746	10330.63
622.101	10466.22
622.457	10392.33
622.812	10373.8
623.168	10427.8
623.523	10399.56
623.879	10454.47
624.234	10335.6
624.589	10421.48
624.945	10401.82
625.3	10352.1
625.655	10394.13
626.01	10497.86
626.365	10433
626.72	10360.46
627.075	10387.58
627.43	10341.03
627.785	10357.75
628.14	10340.58
628.495	10365.66
628.85	10290.18
629.205	10316.17
629.559	10391.42
629.914	10294.02
630.269	10287.92
630.623	10279.11
630.978	10212.44
631.332	10279.33
631.687	10240.69
632.041	10256.28
632.396	10233.46
632.75	10228.04
633.104	10176.96
633.459	10184.65
633.813	10181.48
634.167	10151.43
634.521	10176.06
634.875	10172.67
635.229	10096.97
635.583	10076.85
635.937	10105.78
636.291	10127.7
636.645	10166.57
636.999	10042.96
637.352	10113.91
637.706	10059.45
638.06	10088.38
638.413	10035.5
638.767	10049.06
639.121	10046.12
639.474	10020.81
639.828	9943.98
640.181	9910.3
640.534	9915.05
640.888	9935.61
641.241	9894.26
641.594	9907.37
641.947	9891.77
642.301	9833.24
642.654	9867.37
643.007	9882.73
643.36	9861.49
643.713	9855.39
644.066	9882.06
644.419	9818.56
644.771	9788.5
645.124	9704.21
645.477	9690.42
645.83	9649.52
646.182	9582.18
646.535	9564.78
646.888	9615.62
647.24	9510.31
647.593	9598.45
647.945	9574.04
648.298	9501.05
648.65	9442.07
649.002	9571.33
649.355	9527.26
649.707	9570.2
650.059	9599.58
650.411	9628.28
650.763	9704.89
651.115	9733.13
651.467	9687.49
651.819	9685.68
652.171	9736.07
652.523	9691.33
652.875	9626.92
653.227	9651.33
653.578	9730.87
653.93	9716.19
654.282	9617.66
654.633	9688.16
654.985	9662.4
655.337	9629.18
655.688	9671.44
656.039	9712.8
656.391	9611.33
656.742	9657.88
657.094	9702.17
657.445	9668.5
657.796	9685.68
658.147	9734.04
658.498	9711.67
658.849	9704.21
659.2	9635.28
659.551	9640.03
659.902	9630.99
660.253	9588.05
660.604	9670.54
660.955	9555.51
661.306	9636.41
661.656	9614.27
662.007	9591.67
662.358	9646.36
662.708	9680.93
663.059	9624.21
663.409	9569.75
663.76	9674.38
664.11	9634.61
664.461	9573.82
664.811	9594.38
665.161	9580.82
665.511	9644.1
665.862	9609.75
666.212	9617.88
666.562	9687.71
666.912	9700.14
667.262	9626.92
667.612	9556.19
667.962	9670.31
668.312	9610.65
668.662	9673.25
669.011	9714.83
669.361	9661.27
669.711	9620.37
670.06	9672.8
670.41	9633.25
670.76	9622.63
671.109	9591.22
671.459	9579.92
671.808	9646.13
672.157	9608.62
672.507	9536.3
672.856	9611.78
673.205	9558.68
673.554	9575.17
673.904	9566.58
674.253	9578.56
674.602	9472.12
674.951	9359.58
675.3	9291.34
675.649	9567.94
675.998	9472.12
676.346	9487.04
676.695	9527.04
677.044	9417.89
677.393	9449.07
677.741	9473.03
678.09	9473.03
678.438	9362.75
678.787	9434.38
679.135	9476.64
679.484	9360.04
679.832	9379.24
680.181	9256.76
680.529	9394.84
680.877	9342.64
681.225	9310.77
681.573	9347.38
681.922	9294.5
682.27	9285.46
682.618	9283.65
682.966	9205.69
683.314	9298.12
683.661	9199.59
684.009	9182.41
684.357	9100.38
684.705	9104.22
685.053	9124.11
685.4	9203.43
685.748	9099.25
686.095	9106.03
686.443	9087.73
686.79	9106.94
687.138	9026.94
687.485	9116.43
687.832	9026.26
688.18	8979.93
688.527	8965.02
688.874	8909.65
689.221	8920.73
689.568	8918.24
689.915	8875.53
690.262	8840.73
690.609	8815.64
690.956	8822.2
691.303	8765.25
691.65	8710.34
691.997	8675.53
692.344	8655.42
692.69	8689.32
693.037	8633.73
693.383	8527.52
693.73	8533.39
694.077	8519.38
694.423	8534.75
694.769	8448.87
695.116	8462.21
695.462	8367.75
695.808	8452.49
696.155	8428.08
696.501	8360.74
696.847	8312.38
697.193	8318.48
697.539	8349.22
697.885	8254.98
698.231	8239.61
698.577	8234.64
698.923	8217.47
699.269	8194.87
699.614	8109.67
699.96	8125.27
700.306	8167.53
700.651	8069
700.997	8047.98
701.342	8061.54
701.688	8038.04
702.033	7987.87
702.379	7985.61
702.724	7956.01
703.069	7971.82
703.415	7789.46
703.76	7849.79
704.105	7866.06
704.45	7820.64
704.795	7786.97
705.14	7670.36
705.485	7742.45
705.83	7658.61
706.175	7664.49
706.52	7687.31
706.865	7642.12
707.209	7656.8
707.554	7540.88
707.899	7560.54
708.243	7558.05
708.588	7565.73
708.932	7522.12
709.277	7532.97
709.621	7480.31
709.966	7438.73
710.31	7526.19
710.654	7343.14
710.998	7410.71
711.342	7378.17
711.687	7433.31
712.031	7329.36
712.375	7290.03
712.719	7295.46
713.063	7257.94
713.407	7308.56
713.75	7356.47
714.094	7253.88
714.438	7235.57
714.782	7205.06
715.125	7178.85
715.469	7228.79
715.812	7173.2
716.156	7162.58
716.499	7128.68
716.843	7152.86
717.186	7136.82
717.53	7092.75
717.873	7117.84
718.216	7109.93
718.559	7066.76
718.902	7042.13
719.246	7031.28
719.589	7041.91
719.932	6979.08
720.275	6979.53
720.617	7046.88
720.96	6986.31
721.303	6963.26
721.646	7013.43
721.989	6955.81
722.331	6946.54
722.674	6932.53
723.016	6982.25
723.359	6938.63
723.701	6941.12
724.044	6889.37
724.386	6877.39
724.729	6953.77
725.071	6912.87
725.413	6818.41
725.755	6854.57
726.097	6814.34
726.439	6778.64
726.782	6837.62
727.124	6852.08
727.465	6860.89
727.807	6904.73
728.149	6838.07
728.491	6801.46
728.833	6833.55
729.175	6838.07
729.516	6838.29
729.858	6829.03
730.199	6827.67
730.541	6790.84
730.882	6801.69
731.224	6802.82
731.565	6760.1
731.906	6763.27
732.248	6780.67
732.589	6760.78
732.93	6759.65
733.271	6746.55
733.612	6724.17
733.953	6721.91
734.294	6771.4
734.635	6728.47
734.976	6763.49
735.317	6696.83
735.658	6728.24
735.999	6733.44
736.339	6717.62
736.68	6792.42
737.021	6733.89
737.361	6700.67
737.702	6735.92
738.042	6758.07
738.383	6732.99
738.723	6743.16
739.063	6768.92
739.404	6768.92
739.744	6704.29
740.084	6713.1
740.424	6759.88
740.764	6781.8
741.104	6821.35
741.444	6753.78
741.784	6768.92
742.124	6778.18
742.464	6797.84
742.804	6778.41
743.143	6796.26
743.483	6845.53
743.823	6778.41
744.162	6790.61
744.502	6829.48
744.841	6837.39
745.181	6821.35
745.52	6874.9
745.86	6943.6
746.199	6914.9
746.538	6996.71
746.877	6987.9
747.216	7074.9
747.556	7022.24
747.895	7044.62
748.234	7078.29
748.573	7125.29
748.911	7124.39
749.25	7167.33
749.589	7194.9
749.928	7236.02
750.267	7312.18
750.605	7306.31
750.944	7335.46
751.283	7367.77
751.621	7477.37
751.96	7416.81
752.298	7572.74
752.636	7568.45
752.975	7673.98
753.313	7660.19
753.651	7830.13
753.989	7895.89
754.327	7944.93
754.666	7977.47
755.004	8087.98
755.342	8168.43
755.679	8198.26
756.017	8296.11
756.355	8354.19
756.693	8389.67
757.031	8535.65
757.368	8601.64
757.706	8717.12
758.044	8818.81
758.381	8909.88
758.719	9040.5
759.056	9107.16
759.394	9200.04
759.731	9221.51
760.068	9417.21
760.405	9399.36
760.743	9517.55
761.08	9637.54
761.417	9756.41
761.754	9866.24
762.091	9976.97
762.428	9994.14
762.765	10182.84
763.102	10284.53
763.438	10341.48
763.775	10476.39
764.112	10539.44
764.449	10670.28
764.785	10807
765.122	10827.79
765.458	10822.82
765.795	10957.73
766.131	11115.7
766.467	11139.88
766.804	11225.3
767.14	11337.61
767.476	11438.63
