Data from hue_190_FLMS001491_00062.txt Node
Date: Tue Feb 07 16:45:36 GMT 2017
User: dcchb
Spectrometer: FLMS00149
Trigger mode: 0
Integration Time (sec): 2.000000E-2
Scans to average: 10
Electric dark correction enabled: true
Nonlinearity correction enabled: false
Boxcar width: 0
XAxis mode: Wavelengths
Number of Pixels in Spectrum: 2048
>>>>>Begin Spectral Data<<<<<
341.393	-12.05
341.776	-12.05
342.16	-12.05
342.543	-54.76
342.927	-78.03
343.31	-62.44
343.693	-70.13
344.077	-71.03
344.46	-77.58
344.843	-63.57
345.226	-57.24
345.61	-29.22
345.993	-2.56
346.376	0.61
346.759	-3.23
347.142	31.12
347.525	65.01
347.908	63.2
348.291	51.45
348.674	99.36
349.057	126.25
349.44	121.51
349.823	135.52
350.206	163.31
350.588	180.49
350.971	200.38
351.354	240.15
351.737	246.02
352.119	241.28
352.502	255.97
352.884	262.75
353.267	282.18
353.65	276.76
354.032	302.75
354.414	288.74
354.797	308.17
355.179	321.5
355.562	331.45
355.944	326.93
356.326	317.66
356.709	331.22
357.091	337.55
357.473	330.54
357.855	329.86
358.238	323.99
358.62	336.19
359.002	330.09
359.384	352.24
359.766	341.62
360.148	314.5
360.53	333.25
360.912	327.15
361.294	315.4
361.676	339.13
362.057	326.25
362.439	344.55
362.821	317.89
363.203	323.31
363.584	324.67
363.966	321.5
364.348	321.5
364.729	330.09
365.111	343.2
365.493	316.08
365.874	321.95
366.256	299.13
366.637	297.77
367.019	315.18
367.4	298.9
367.781	325.12
368.163	305.01
368.544	309.3
368.925	288.28
369.306	307.72
369.688	320.82
370.069	319.02
370.45	308.17
370.831	306.59
371.212	314.5
371.593	309.3
371.974	321.28
372.355	316.76
372.736	323.08
373.117	313.59
373.498	315.85
373.879	312.69
374.26	315.4
374.641	309.75
375.021	305.68
375.402	322.18
375.783	307.04
376.163	336.42
376.544	304.33
376.925	323.08
377.305	324.67
377.686	341.62
378.066	330.99
378.447	328.06
378.827	324.89
379.208	325.57
379.588	335.74
379.968	323.31
380.349	345.01
380.729	333.03
381.109	347.26
381.489	336.19
381.87	330.32
382.25	337.1
382.63	351.11
383.01	316.98
383.39	323.31
383.77	345.68
384.15	334.84
384.53	321.73
384.91	335.51
385.29	375.29
385.67	347.04
386.049	348.17
386.429	360.82
386.809	332.35
387.189	361.05
387.568	346.59
387.948	344.33
388.328	356.3
388.707	368.73
389.087	341.62
389.466	361.5
389.846	339.13
390.225	348.39
390.605	356.3
390.984	361.05
391.363	359.92
391.743	361.73
392.122	362.86
392.501	360.82
392.881	395.17
393.26	368.06
393.639	396.53
394.018	373.25
394.397	373.25
394.776	360.15
395.155	373.03
395.534	365.8
395.913	381.16
396.292	396.98
396.671	386.59
397.05	396.3
397.429	397.21
397.808	404.66
398.186	379.81
398.565	387.26
398.944	373.93
399.323	409.64
399.701	386.59
400.08	390.43
400.458	408.51
400.837	398.56
401.215	412.12
401.594	406.02
401.972	413.03
402.351	419.58
402.729	427.71
403.107	425.91
403.486	438.56
403.864	427.26
404.242	438.56
404.62	439.24
404.999	441.5
405.377	443.08
405.755	444.44
406.133	443.76
406.511	455.74
406.889	448.28
407.267	461.39
407.645	463.65
408.023	464.78
408.401	482.4
408.779	476.08
409.156	489.63
409.534	487.6
409.912	499.13
410.29	511.55
410.667	500.93
411.045	521.5
411.422	518.11
411.8	531.44
412.178	550.42
412.555	539.12
412.933	558.78
413.31	576.86
413.687	573.47
414.065	576.41
414.442	588.84
414.819	601.5
415.197	603.98
415.574	625.9
415.951	630.65
416.328	640.59
416.705	640.59
417.082	652.34
417.46	643.08
417.837	651.89
418.214	680.59
418.591	675.39
418.967	678.56
419.344	696.63
419.721	689.4
420.098	716.52
420.475	723.53
420.852	726.92
421.228	738.67
421.605	763.53
421.982	776.86
422.358	770.08
422.735	790.19
423.111	789.06
423.488	827.48
423.864	818.89
424.241	840.81
424.617	857.76
424.994	880.58
425.37	864.99
425.746	936.63
426.123	895.27
426.499	931.2
426.875	914.03
427.251	938.66
427.627	973.69
428.003	965.78
428.379	1002.39
428.756	1001.26
429.132	1016.85
429.507	999.68
429.883	1036.06
430.259	1043.29
430.635	1060.92
431.011	1071.09
431.387	1067.02
431.763	1128.04
432.138	1113.8
432.514	1125.1
432.89	1142.95
433.265	1201.48
433.641	1211.42
434.016	1210.07
434.392	1241.7
434.767	1255.26
435.143	1259.56
435.518	1292.55
435.894	1322.83
436.269	1332.1
436.644	1346.79
437.02	1343.17
437.395	1413.23
437.77	1426.33
438.145	1441.25
438.52	1478.08
438.895	1497.52
439.271	1517.86
439.646	1592.88
440.021	1577.97
440.395	1590.62
440.77	1607.34
441.145	1626.1
441.52	1642.37
441.895	1643.28
442.27	1684.18
442.645	1695.25
443.019	1749.49
443.394	1726.66
443.769	1737.96
444.143	1751.07
444.518	1784.52
444.892	1783.39
445.267	1815.47
445.641	1834.68
446.016	1833.1
446.39	1855.25
446.764	1893.44
447.139	1889.37
447.513	1903.83
447.887	1888.69
448.262	1931.63
448.636	1987.22
449.01	1981.8
449.384	1991.52
449.758	2004.17
450.132	2030.38
450.506	2048.01
450.88	2064.51
451.254	2090.27
451.628	2085.75
452.002	2143.83
452.376	2128.91
452.75	2164.39
453.123	2169.59
453.497	2212.53
453.871	2218.63
454.244	2286.87
454.618	2322.13
454.992	2310.83
455.365	2311.96
455.739	2370.71
456.112	2387.44
456.486	2408.23
456.859	2457.94
457.232	2476.25
457.606	2524.38
457.979	2534.78
458.352	2574.1
458.725	2624.95
459.099	2646.41
459.472	2689.8
459.845	2739.97
460.218	2731.83
460.591	2767.99
460.964	2770.03
461.337	2833.3
461.71	2880.31
462.083	2920.08
462.456	2943.35
462.829	2981.32
463.201	2981.55
463.574	2982.68
463.947	3031.94
464.32	3125.04
464.692	3130.69
465.065	3190.81
465.438	3204.59
465.81	3247.75
466.183	3295.66
466.555	3378.15
466.928	3404.81
467.3	3396
467.672	3467.86
468.045	3534.53
468.417	3533.4
468.789	3580.4
469.161	3640.29
469.534	3697.69
469.906	3802.99
470.278	3801.86
470.65	3810.68
471.022	3928.64
471.394	4005.25
471.766	4011.58
472.138	4033.72
472.51	4156.88
472.882	4218.8
473.253	4262.64
473.625	4297.67
473.997	4401.62
474.369	4440.94
474.74	4478.46
475.112	4582.63
475.484	4663.31
475.855	4766.13
476.227	4756.41
476.598	4879.35
476.97	4971.55
477.341	5056.07
477.713	5125.9
478.084	5154.37
478.455	5333.35
478.827	5366.57
479.198	5546.45
479.569	5551.42
479.94	5681.36
480.311	5693.56
480.682	5841.36
481.053	6025.31
481.424	6112.09
481.795	6176.72
482.166	6249.03
482.537	6327.22
482.908	6440.89
483.279	6480.89
483.65	6590.94
484.021	6702.8
484.391	6818.96
484.762	6878.84
485.133	6984.83
485.503	7110.25
485.874	7218.04
486.244	7274.09
486.615	7364.48
486.985	7557.02
487.356	7669.56
487.726	7685.83
488.097	7922.21
488.467	7846.73
488.837	8046.05
489.207	8087.85
489.578	8233.39
489.948	8282.2
490.318	8450.33
490.688	8427.28
491.058	8583.43
491.428	8717.89
491.798	8756.54
492.168	8913.37
492.538	8948.39
492.908	8985.91
493.278	9107.49
493.648	9153.36
494.017	9257.77
494.387	9322.62
494.757	9382.96
495.126	9428.38
495.496	9440.59
495.866	9532.79
496.235	9591.99
496.605	9727.58
496.974	9744.76
497.344	9833.57
497.713	9895.94
498.082	9937.97
498.452	9965.77
498.821	10005.09
499.19	10016.16
499.559	10138.42
499.928	10136.84
500.298	10174.58
500.667	10259.55
501.036	10254.8
501.405	10329.83
501.774	10322.6
502.143	10338.87
502.512	10387.9
502.88	10462.03
503.249	10487.11
503.618	10530.27
503.987	10535.92
504.356	10567.34
504.724	10626.54
505.093	10675.35
505.462	10673.77
505.83	10735.69
506.199	10834.67
506.567	10873.99
506.936	10841.45
507.304	10925.29
507.672	10895.01
508.041	10897.5
508.409	11036.7
508.777	11055.91
509.145	11082.58
509.514	11031.73
509.882	11083.71
510.25	11098.39
510.618	11165.06
510.986	11140.2
511.354	11143.59
511.722	11228.11
512.09	11229.24
512.458	11184.95
512.826	11193.31
513.193	11248.67
513.561	11347.2
513.929	11301.55
514.297	11391.04
514.664	11356.92
515.032	11420.65
515.4	11406.86
515.767	11432.62
516.135	11470.36
516.502	11389.23
516.869	11431.95
517.237	11487.31
517.604	11424.71
517.972	11488.67
518.339	11504.71
518.706	11483.47
519.073	11458.16
519.44	11459.06
519.808	11640.53
520.175	11469.46
520.542	11543.81
520.909	11524.6
521.276	11605.05
521.643	11548.1
522.009	11645.05
522.376	11550.36
522.743	11575.44
523.11	11717.81
523.477	11663.35
523.843	11685.27
524.21	11714.88
524.577	11676.01
524.943	11666.74
525.31	11673.07
525.676	11695.22
526.043	11744.48
526.409	11699.28
526.776	11710.36
527.142	11786.96
527.508	11724.37
527.874	11680.3
528.241	11716.23
528.607	11709.68
528.973	11697.02
529.339	11592.39
529.705	11713.75
530.071	11710.13
530.437	11656.57
530.803	11615.67
531.169	11600.98
531.535	11551.26
531.901	11531.38
532.267	11469.68
532.632	11464.03
532.998	11436.92
533.364	11430.82
533.73	11417.26
534.095	11434.21
534.461	11389.01
534.826	11376.58
535.192	11326.19
535.557	11326.86
535.923	11176.81
536.288	11192.63
536.653	11184.49
537.019	11036.93
537.384	11027.89
537.749	11059.53
538.114	11011.62
538.479	10867.89
538.845	10862.02
539.21	10720.78
539.575	10805.52
539.94	10748.8
540.305	10724.85
540.67	10568.24
541.034	10650.95
541.399	10611.18
541.764	10465.42
542.129	10480.11
542.494	10363.27
542.858	10389.71
543.223	10349.94
543.587	10375.48
543.952	10266.33
544.316	10185.2
544.681	10076.5
545.045	10104.75
545.41	10050.06
545.774	10074.47
546.138	9926.45
546.503	9934.13
546.867	9802.16
547.231	9871.99
547.595	9835.15
547.959	9774.36
548.324	9695.49
548.688	9691.88
549.052	9651.43
549.416	9575.04
549.779	9533.46
550.143	9506.12
550.507	9536.18
550.871	9457.08
551.235	9342.06
551.599	9328.95
551.962	9298.67
552.326	9188.61
552.689	9269.52
553.053	9194.49
553.417	9093.02
553.78	9154.26
554.143	9029.97
554.507	9088.28
554.87	8988.85
555.234	9019.58
555.597	8957.43
555.96	8898
556.323	8907.04
556.686	8818.23
557.05	8789.75
557.413	8767.38
557.776	8718.57
558.139	8695.07
558.502	8665.92
558.865	8617.1
559.228	8680.38
559.59	8612.36
559.953	8537.78
560.316	8619.14
560.679	8538.24
561.041	8636.76
561.404	8501.17
561.767	8536.65
562.129	8567.84
562.492	8607.84
562.854	8467.05
563.217	8446.26
563.579	8472.7
563.941	8510.44
564.304	8463.44
564.666	8476.09
565.028	8490.78
565.39	8419.6
565.753	8471.8
566.115	8404.91
566.477	8414.85
566.839	8463.21
567.201	8397.67
567.563	8419.82
567.925	8422.53
568.287	8415.3
568.648	8374.4
569.01	8439.93
569.372	8466.6
569.734	8368.3
570.095	8392.7
570.457	8394.28
570.819	8321.52
571.18	8354.51
571.542	8444
571.903	8396.09
572.265	8404.23
572.626	8391.35
572.987	8344.79
573.349	8368.52
573.71	8377.34
574.071	8424.57
574.432	8302.76
574.794	8410.56
575.155	8363.1
575.516	8274.97
575.877	8386.15
576.238	8381.63
576.599	8319.03
576.96	8401.29
577.32	8404.91
577.681	8298.24
578.042	8304.12
578.403	8335.98
578.763	8327.62
579.124	8319.94
579.485	8359.94
579.845	8416.43
580.206	8315.19
580.566	8328.52
580.927	8309.09
581.287	8311.12
581.648	8268.19
582.008	8361.52
582.368	8308.19
582.728	8280.16
583.089	8272.25
583.449	8262.99
583.809	8280.39
584.169	8285.81
584.529	8208.3
584.889	8280.16
585.249	8243.1
585.609	8159.71
585.969	8211.24
586.329	8215.08
586.688	8211.69
587.048	8161.52
587.408	8124.01
587.768	8126.5
588.127	8154.52
588.487	8120.17
588.846	8190.22
589.206	8110.45
589.565	8101.19
589.925	8120.39
590.284	8034.75
590.643	8074.52
591.003	8070.9
591.362	8081.52
591.721	8055.54
592.08	8085.14
592.44	8045.82
592.799	8053.73
593.158	8046.95
593.517	8052.82
593.876	8015.76
594.235	8084.69
594.593	7972.15
594.952	7994.75
595.311	7996.78
595.67	7974.18
596.029	8016.22
596.387	8042.43
596.746	7999.72
597.104	7955.65
597.463	7942.77
597.822	7981.41
598.18	7933.05
598.538	7896.67
598.897	7926.73
599.255	7920.4
599.613	7955.88
599.972	7888.76
600.33	7954.97
600.688	7934.64
601.046	7897.8
601.404	7935.77
601.762	7920.17
602.12	7938.03
602.478	7951.13
602.836	7848.99
603.194	7845.37
603.552	7900.96
603.91	7910.46
604.268	7901.19
604.625	7885.15
604.983	7910.23
605.341	7772.61
605.698	7838.59
606.056	7907.97
606.413	7859.61
606.771	7903.45
607.128	7892.15
607.485	7878.14
607.843	7877.24
608.2	7843.56
608.557	7888.08
608.914	7877.24
609.272	7886.05
609.629	7933.28
609.986	7942.77
610.343	7855.54
610.7	7996.78
611.057	7812.61
611.414	7881.76
611.771	7927.4
612.127	7903.22
612.484	7973.96
612.841	7941.64
613.198	7929.89
613.554	7905.26
613.911	7986.16
614.267	7923.11
614.624	7947.97
614.98	7961.75
615.337	8000.62
615.693	7955.43
616.05	7994.52
616.406	8011.47
616.762	7971.25
617.118	7875.88
617.475	7983
617.831	7991.13
618.187	7968.31
618.543	7992.71
618.899	8010.11
619.255	7966.73
619.611	8015.31
619.967	8071.36
620.323	8076.1
620.678	8027.06
621.034	7954.52
621.39	8029.55
621.746	7953.84
622.101	8047.18
622.457	7968.76
622.812	7964.01
623.168	7992.71
623.523	8009.44
623.879	7963.34
624.234	7991.58
624.589	8015.09
624.945	7985.03
625.3	8031.36
625.655	8032.26
626.01	7976.44
626.365	7957.46
626.72	7975.31
627.075	7980.96
627.43	7996.1
627.785	7969.66
628.14	7969.89
628.495	7958.59
628.85	8004.92
629.205	7957.23
629.559	7922.43
629.914	7988.87
630.269	7925.37
630.623	7933.05
630.978	7917.24
631.332	7940.51
631.687	7937.57
632.041	7835.88
632.396	7875.2
632.75	7890.34
633.104	7844.24
633.459	7851.47
633.813	7845.15
634.167	7848.08
634.521	7816.22
634.875	7766.5
635.229	7813.74
635.583	7826.84
635.937	7829.1
636.291	7776.45
636.645	7759.27
636.999	7752.49
637.352	7715.43
637.706	7702.1
638.06	7801.53
638.413	7734.19
638.767	7697.13
639.121	7687.18
639.474	7691.03
639.828	7659.84
640.181	7702.1
640.534	7696.22
640.888	7667.75
641.241	7534.87
641.594	7654.42
641.947	7662.78
642.301	7617.36
642.654	7700.97
643.007	7668.43
643.36	7618.03
643.713	7665.94
644.066	7610.8
644.419	7531.71
644.771	7510.92
645.124	7405.84
645.477	7458.94
645.83	7414.65
646.182	7396.12
646.535	7321.77
646.888	7347.53
647.24	7362.22
647.593	7355.44
647.945	7336.69
648.298	7349.11
648.65	7308.89
649.002	7356.12
649.355	7334.65
649.707	7352.5
650.059	7357.7
650.411	7428.43
650.763	7453.52
651.115	7535.32
651.467	7457.13
651.819	7541.2
652.171	7456
652.523	7456
652.875	7464.37
653.227	7492.16
653.578	7533.29
653.93	7541.2
654.282	7475.67
654.633	7431.37
654.985	7555.44
655.337	7475.67
655.688	7520.18
656.039	7495.78
656.391	7508.88
656.742	7553.18
657.094	7519.73
657.445	7553.4
657.796	7457.13
658.147	7557.92
658.498	7571.93
658.849	7571.26
659.2	7531.26
659.551	7521.99
659.902	7512.73
660.253	7576.91
660.604	7523.8
660.955	7553.18
661.306	7579.39
661.656	7575.78
662.007	7571.03
662.358	7574.65
662.708	7572.84
663.059	7601.54
663.409	7550.69
663.76	7541.43
664.11	7614.87
664.461	7592.5
664.811	7620.97
665.161	7642.44
665.511	7620.29
665.862	7634.76
666.212	7670.24
666.562	7662.78
666.912	7618.26
667.262	7615.77
667.612	7568.32
667.962	7578.04
668.312	7616.45
668.662	7636.11
669.011	7644.7
669.361	7592.95
669.711	7595.89
670.06	7543.91
670.41	7575.55
670.76	7543.91
671.109	7587.53
671.459	7604.93
671.808	7630.24
672.157	7606.74
672.507	7512.5
672.856	7633.63
673.205	7550.69
673.554	7600.86
673.904	7548.43
674.253	7615.55
674.602	7513.63
674.951	7491.03
675.3	7403.12
675.649	7553.63
675.998	7500.98
676.346	7562.67
676.695	7481.99
677.044	7424.37
677.393	7512.05
677.741	7542.78
678.09	7435.89
678.438	7476.34
678.787	7478.38
679.135	7428.43
679.484	7362
679.832	7453.07
680.181	7375.33
680.529	7410.13
680.877	7356.12
681.225	7383.46
681.573	7419.17
681.922	7317.48
682.27	7286.97
682.618	7291.04
682.966	7313.64
683.314	7316.57
683.661	7253.98
684.009	7211.04
684.357	7203.13
684.705	7245.16
685.053	7184.37
685.4	7227.99
685.748	7205.84
686.095	7155.45
686.443	7091.49
686.79	7130.36
687.138	7071.83
687.485	7056.92
687.832	7048.11
688.18	7078.39
688.527	7041.33
688.874	6990.03
689.221	6973.31
689.568	6905.28
689.915	6907.54
690.262	6957.26
690.609	6930.14
690.956	6969.92
691.303	6910.93
691.65	6872.52
691.997	6842.24
692.344	6760.66
692.69	6781.22
693.037	6756.81
693.383	6731.96
693.73	6723.37
694.077	6646.08
694.423	6660.55
694.769	6610.83
695.116	6636.82
695.462	6575.58
695.808	6598.85
696.155	6614.67
696.501	6503.94
696.847	6558.18
697.193	6500.55
697.539	6484.5
697.885	6456.93
698.231	6477.05
698.577	6400.21
698.923	6458.74
699.269	6302.36
699.614	6318.63
699.96	6269.37
700.306	6223.04
700.651	6244.28
700.997	6223.27
701.342	6209.94
701.688	6206.77
702.033	6181.01
702.379	6162.48
702.724	6145.98
703.069	6195.47
703.415	6008.13
703.76	6119.99
704.105	6093.1
704.45	6019.66
704.795	5953.45
705.14	5971.75
705.485	5968.59
705.83	5925.65
706.175	5937.17
706.52	5892.66
706.865	5878.42
707.209	5853.56
707.554	5883.62
707.899	5843.62
708.243	5847.69
708.588	5819.89
708.932	5792.32
709.277	5758.87
709.621	5761.36
709.966	5734.92
710.31	5703.51
710.654	5720.91
710.998	5692.21
711.342	5633
711.687	5667.8
712.031	5678.2
712.375	5632.55
712.719	5662.83
713.063	5642.27
713.407	5609.05
713.75	5605.88
714.094	5597.97
714.438	5558.88
714.782	5555.94
715.125	5518.88
715.469	5526.11
715.812	5548.26
716.156	5505.77
716.499	5527.24
716.843	5536.28
717.186	5495.15
717.53	5463.29
717.873	5517.75
718.216	5468.03
718.559	5455.83
718.902	5462.84
719.246	5454.02
719.589	5430.3
719.932	5393.69
720.275	5366.57
720.617	5426.45
720.96	5414.02
721.303	5383.29
721.646	5365.21
721.989	5376.06
722.331	5432.33
722.674	5360.24
723.016	5402.05
723.359	5428.04
723.701	5346.23
724.044	5358.66
724.386	5314.37
724.729	5369.05
725.071	5315.72
725.413	5343.97
725.755	5323.18
726.097	5317.08
726.439	5286.34
726.782	5393.69
727.124	5322.05
727.465	5304.2
727.807	5339.22
728.149	5303.07
728.491	5317.3
728.833	5301.48
729.175	5293.12
729.516	5277.08
729.858	5292.67
730.199	5292.45
730.541	5332.44
730.882	5320.24
731.224	5294.25
731.565	5351.2
731.906	5313.91
732.248	5309.85
732.589	5323.63
732.93	5317.98
733.271	5283.18
733.612	5331.77
733.953	5361.82
734.294	5376.51
734.635	5382.39
734.976	5342.84
735.317	5317.53
735.658	5326.79
735.999	5363.86
736.339	5369.96
736.68	5364.76
737.021	5364.31
737.361	5367.7
737.702	5385.78
738.042	5354.14
738.383	5400.92
738.723	5423.06
739.063	5397.98
739.404	5432.1
739.744	5407.92
740.084	5402.73
740.424	5446.11
740.764	5442.05
741.104	5410.41
741.444	5489.5
741.784	5463.97
742.124	5480.92
742.464	5477.3
742.804	5576.51
743.143	5576.28
743.483	5611.76
743.823	5616.96
744.162	5619.22
744.502	5687.46
744.841	5682.94
745.181	5707.12
745.52	5698.54
745.86	5767.69
746.199	5834.58
746.538	5830.28
746.877	5892.2
747.216	5965.2
747.556	6006.33
747.895	6032.31
748.234	6052.88
748.573	6083.84
748.911	6138.98
749.25	6217.84
749.589	6211.74
749.928	6374.45
750.267	6389.82
750.605	6443.6
750.944	6475.47
751.283	6561.79
751.621	6712.07
751.96	6702.8
752.298	6795.68
752.636	6959.07
752.975	7037.71
753.313	7130.82
753.651	7290.59
753.989	7323.8
754.327	7400.64
754.666	7507.98
755.004	7673.63
755.342	7807.18
755.679	7939.16
756.017	8036.55
756.355	8198.58
756.693	8319.71
757.031	8421.85
757.368	8568.29
757.706	8721.73
758.044	8879.24
758.381	9047.6
758.719	9185.9
759.056	9421.15
759.394	9554.93
759.731	9669.51
760.068	9866.11
760.405	10020.46
760.743	10150.85
761.08	10366.89
761.417	10487.34
761.754	10678.97
762.091	10863.82
762.428	11017.49
762.765	11184.95
763.102	11395.79
763.438	11619.06
763.775	11646.63
764.112	11964.81
764.449	12129.55
764.785	12242.77
765.122	12381.3
765.458	12516.66
765.795	12759.14
766.131	12897.67
766.467	13058.12
