Data from hue_220_FLMS001491_00063.txt Node
Date: Tue Feb 07 16:39:47 GMT 2017
User: dcchb
Spectrometer: FLMS00149
Trigger mode: 0
Integration Time (sec): 2.000000E-2
Scans to average: 10
Electric dark correction enabled: true
Nonlinearity correction enabled: false
Boxcar width: 0
XAxis mode: Wavelengths
Number of Pixels in Spectrum: 2048
>>>>>Begin Spectral Data<<<<<
341.393	-2.98
341.776	-2.98
342.16	-2.98
342.543	-71.9
342.927	-82.3
343.31	-52.02
343.693	-69.87
344.077	-64.22
344.46	-45.92
344.843	-53.83
345.226	-31.91
345.61	-36.43
345.993	-24.22
346.376	-9.08
346.759	32.05
347.142	17.13
347.525	47.87
347.908	32.05
348.291	63.91
348.674	78.83
349.057	115.66
349.44	126.73
349.823	141.42
350.206	176
350.588	192.27
350.971	200.63
351.354	208.31
351.737	234.3
352.119	248.09
352.502	231.14
352.884	257.13
353.267	281.53
353.65	283.34
354.032	296.22
354.414	314.98
354.797	310.91
355.179	303.68
355.562	300.06
355.944	329.21
356.326	326.5
356.709	327.63
357.091	326.28
357.473	333.28
357.855	344.13
358.238	327.63
358.62	343.9
359.002	329.21
359.384	319.72
359.766	333.96
360.148	342.77
360.53	343.68
360.912	344.36
361.294	322.66
361.676	328.76
362.057	315.88
362.439	330.34
362.821	307.07
363.203	327.86
363.584	319.05
363.966	322.89
364.348	293.74
364.729	342.1
365.111	305.71
365.493	303.68
365.874	332.83
366.256	301.42
366.637	300.74
367.019	316.33
367.4	316.56
367.781	297.35
368.163	303.9
368.544	273.62
368.925	302.55
369.306	316.56
369.688	277.46
370.069	301.64
370.45	304.81
370.831	281.31
371.212	300.74
371.593	291.93
371.974	299.84
372.355	294.87
372.736	323.11
373.117	325.6
373.498	317.92
373.879	314.3
374.26	316.79
374.641	334.41
375.021	296
375.402	325.37
375.783	314.98
376.163	308.2
376.544	332.15
376.925	317.01
377.305	331.7
377.686	342.32
378.066	314.07
378.447	340.06
378.827	335.54
379.208	341.64
379.588	312.04
379.968	312.27
380.349	331.02
380.729	317.01
381.109	331.93
381.489	311.59
381.87	319.27
382.25	340.29
382.63	314.07
383.01	319.95
383.39	332.15
383.77	332.38
384.15	318.37
384.53	324.69
384.91	346.84
385.29	324.47
385.67	345.49
386.049	361.98
386.429	328.54
386.809	357.01
387.189	355.88
387.568	338.25
387.948	353.62
388.328	333.06
388.707	325.37
389.087	334.19
389.466	349.33
389.846	326.5
390.225	364.47
390.605	352.49
390.984	349.78
391.363	354.3
391.743	359.5
392.122	362.89
392.501	355.65
392.881	366.05
393.26	362.21
393.639	380.51
394.018	375.31
394.397	368.76
394.776	373.06
395.155	354.3
395.534	361.08
395.913	392.72
396.292	379.61
396.671	362.89
397.05	362.89
397.429	374.41
397.808	375.31
398.186	375.54
398.565	389.78
398.944	392.04
399.323	382.32
399.701	394.07
400.08	406.73
400.458	406.95
400.837	399.27
401.215	403.11
401.594	428.42
401.972	412.38
402.351	404.01
402.729	390.46
403.107	410.34
403.486	430.23
403.864	429.1
404.242	421.19
404.62	420.96
404.999	420.51
405.377	421.42
405.755	437.46
406.133	424.35
406.511	420.96
406.889	463.9
407.267	467.97
407.645	451.25
408.023	443.79
408.401	476.33
408.779	474.52
409.156	488.98
409.534	459.83
409.912	495.31
410.29	497.35
410.667	504.13
411.045	524.46
411.422	498.02
411.8	534.41
412.178	530.57
412.555	535.76
412.933	556.33
413.31	561.52
413.687	564.91
414.065	566.27
414.442	561.75
414.819	578.7
415.197	576.67
415.574	605.59
415.951	614.4
416.328	614.18
416.705	638.58
417.082	622.77
417.46	638.81
417.837	651.24
418.214	679.94
418.591	662.99
418.967	676.78
419.344	661.64
419.721	659.38
420.098	687.17
420.475	730.33
420.852	711.8
421.228	725.81
421.605	748.41
421.982	757
422.358	737.34
422.735	770.11
423.111	783.67
423.488	783.44
423.864	798.81
424.241	815.08
424.617	820.95
424.994	855.3
425.37	859.6
425.746	842.87
426.123	880.16
426.499	861.86
426.875	879.48
427.251	924.68
427.627	926.03
428.003	933.49
428.379	956.09
428.756	960.61
429.132	972.81
429.507	982.98
429.883	964.23
430.259	1022.98
430.635	978.91
431.011	1029.76
431.387	1035.64
431.763	1057.33
432.138	1042.64
432.514	1081.06
432.89	1121.06
433.265	1112.02
433.641	1139.81
434.016	1160.15
434.392	1193.82
434.767	1240.83
435.143	1259.81
435.518	1253.26
435.894	1270.66
436.269	1285.35
436.644	1286.25
437.02	1313.82
437.395	1331.22
437.77	1374.38
438.145	1394.05
438.52	1376.42
438.895	1391.33
439.271	1412.58
439.646	1456.87
440.021	1468.39
440.395	1498.68
440.77	1518.56
441.145	1513.82
441.52	1591.78
441.895	1554.04
442.27	1623.42
442.645	1600.14
443.019	1604.44
443.394	1596.3
443.769	1643.3
444.143	1624.55
444.518	1688.05
444.892	1665.68
445.267	1680.37
445.641	1719.69
446.016	1719.46
446.39	1700.25
446.764	1751.1
447.139	1751.78
447.513	1748.39
447.887	1775.5
448.262	1795.16
448.636	1813.7
449.01	1835.39
449.384	1858.89
449.758	1864.54
450.132	1879.23
450.506	1856.18
450.88	1927.59
451.254	1924.43
451.628	1926.01
452.002	1945.67
452.376	1954.26
452.75	2000.13
453.123	2028.38
453.497	2022.05
453.871	2067.93
454.244	2067.02
454.618	2092.33
454.992	2109.73
455.365	2089.85
455.739	2179.79
456.112	2176.85
456.486	2190.86
456.859	2217.75
457.232	2270.63
457.606	2258.66
457.979	2278.77
458.352	2331.87
458.725	2317.86
459.099	2329.39
459.472	2405.54
459.845	2381.36
460.218	2420.01
460.591	2446.67
460.964	2443.96
461.337	2528.93
461.71	2545.2
462.083	2598.08
462.456	2551.3
462.829	2630.85
463.201	2660.68
463.574	2632.66
463.947	2694.58
464.32	2713.56
464.692	2734.35
465.065	2783.39
465.438	2806.66
465.81	2860.67
466.183	2901.8
466.555	2905.19
466.928	2915.81
467.3	2930.73
467.672	3010.73
468.045	3023.15
468.417	3034.45
468.789	3083.49
469.161	3095.92
469.534	3139.54
469.906	3187.44
470.278	3208.23
470.65	3297.05
471.022	3302.47
471.394	3375.69
471.766	3399.87
472.138	3429.7
472.51	3495.23
472.882	3544.05
473.253	3574.1
473.625	3586.08
473.997	3658.17
474.369	3656.58
474.74	3699.52
475.112	3757.82
475.484	3824.26
475.855	3865.17
476.227	3907.65
476.598	3997.59
476.97	4031.26
477.341	4101.77
477.713	4178.38
478.084	4175.89
478.455	4352.39
478.827	4332.5
479.198	4395.32
479.569	4443.23
479.94	4502.89
480.311	4558.48
480.682	4609.1
481.053	4694.75
481.424	4744.69
481.795	4805.48
482.166	4868.08
482.537	4899.72
482.908	4986.72
483.279	5039.83
483.65	5134.06
484.021	5213.83
484.391	5261.74
484.762	5311.91
485.133	5301.06
485.503	5395.52
485.874	5489.76
486.244	5497.89
486.615	5557.33
486.985	5693.59
487.356	5739.92
487.726	5786.7
488.097	5871.22
488.467	5917.77
488.837	5945.34
489.207	6050.87
489.578	6165.9
489.948	6167.03
490.318	6241.6
490.688	6226.91
491.058	6343.97
491.428	6376.51
491.798	6463.06
492.168	6513.23
492.538	6578.99
492.908	6614.92
493.278	6736.28
493.648	6751.64
494.017	6779.44
494.387	6833.22
494.757	6841.59
495.126	6929.27
495.496	6945.31
495.866	6922.71
496.235	7046.78
496.605	7058.3
496.974	7090.17
497.344	7143.72
497.713	7161.13
498.082	7239.99
498.452	7224.85
498.821	7295.36
499.19	7303.27
499.559	7291.07
499.928	7399.54
500.298	7401.34
500.667	7386.2
501.036	7395.24
501.405	7502.13
501.774	7429.14
502.143	7510.49
502.512	7509.36
502.88	7549.82
503.249	7577.61
503.618	7669.13
503.987	7559.98
504.356	7629.81
504.724	7637.5
505.093	7698.29
505.462	7776.93
505.83	7795.91
506.199	7822.12
506.567	7795.46
506.936	7776.25
507.304	7894.21
507.672	7901.22
508.041	7920.65
508.409	7886.98
508.777	7914.78
509.145	8046.3
509.514	7993.19
509.882	8038.84
510.25	8005.85
510.618	8020.76
510.986	8013.98
511.354	8108.67
511.722	8140.31
512.09	8095.11
512.458	8116.35
512.826	8152.74
513.193	8171.72
513.561	8164.26
513.929	8175.56
514.297	8225.96
514.664	8204.71
515.032	8290.36
515.4	8280.42
515.767	8295.56
516.135	8294.43
516.502	8202.45
516.869	8343.02
517.237	8304.6
517.604	8217.82
517.972	8304.37
518.339	8319.74
518.706	8300.08
519.073	8263.02
519.44	8293.07
519.808	8375.33
520.175	8315.22
520.542	8338.04
520.909	8386.18
521.276	8318.83
521.643	8375.1
522.009	8440.41
522.376	8393.18
522.743	8448.55
523.11	8486.29
523.477	8459.4
523.843	8477.25
524.21	8507.53
524.577	8571.03
524.943	8533.74
525.31	8495.55
525.676	8535.1
526.043	8551.6
526.409	8537.59
526.776	8593.4
527.142	8549.34
527.508	8622.78
527.874	8611.26
528.241	8594.53
528.607	8563.8
528.973	8563.12
529.339	8567.64
529.705	8599.73
530.071	8571.26
530.437	8537.59
530.803	8566.96
531.169	8535.33
531.535	8467.98
531.901	8473.41
532.267	8563.57
532.632	8512.05
532.998	8551.82
533.364	8528.09
533.73	8539.85
534.095	8540.3
534.461	8528.32
534.826	8530.13
535.192	8460.98
535.557	8395.22
535.923	8434.54
536.288	8449.68
536.653	8419.17
537.019	8356.8
537.384	8350.47
537.749	8311.6
538.114	8317.71
538.479	8262.79
538.845	8289.01
539.21	8210.82
539.575	8244.49
539.94	8258.05
540.305	8234.32
540.67	8191.38
541.034	8169.23
541.399	8143.92
541.764	8107.77
542.129	8086.98
542.494	8108.67
542.858	8046.75
543.223	8033.64
543.587	8033.19
543.952	7993.87
544.316	8004.94
544.681	7962.91
545.045	7961.56
545.41	7903.93
545.774	7876.13
546.138	7884.95
546.503	7835.91
546.867	7863.93
547.231	7850.6
547.595	7794.1
547.959	7774.22
548.324	7706.65
548.688	7743.03
549.052	7745.74
549.416	7691.73
549.779	7640.66
550.143	7642.47
550.507	7646.54
550.871	7642.47
551.235	7605.86
551.599	7605.41
551.962	7533.54
552.326	7553.21
552.689	7590.72
553.053	7509.82
553.417	7498.97
553.78	7505.97
554.143	7456.03
554.507	7442.47
554.87	7436.37
555.234	7441.34
555.597	7380.1
555.96	7391.4
556.323	7362.93
556.686	7347.79
557.05	7408.8
557.413	7347.79
557.776	7297.39
558.139	7361.57
558.502	7299.88
558.865	7406.99
559.228	7276.83
559.59	7338.75
559.953	7285.42
560.316	7298.3
560.679	7323.15
561.041	7365.19
561.404	7280.9
561.767	7394.57
562.129	7259.65
562.492	7389.37
562.854	7353.21
563.217	7334.45
563.579	7288.58
563.941	7305.98
564.304	7318.64
564.666	7373.78
565.028	7389.14
565.39	7394.11
565.753	7338.97
566.115	7384.17
566.477	7388.01
566.839	7402.25
567.201	7405.86
567.563	7367.67
567.925	7447.67
568.287	7428.01
568.648	7401.34
569.01	7462.81
569.372	7432.98
569.734	7390.27
570.095	7433.43
570.457	7517.27
570.819	7493.55
571.18	7452.42
571.542	7504.62
571.903	7437.95
572.265	7523.15
572.626	7518.86
572.987	7543.04
573.349	7531.74
573.71	7472.53
574.071	7580.55
574.432	7611.96
574.794	7548.91
575.155	7630.27
575.516	7564.73
575.877	7597.5
576.238	7571.96
576.599	7716.82
576.96	7640.89
577.32	7651.06
577.681	7685.63
578.042	7707.55
578.403	7705.52
578.763	7693.31
579.124	7726.99
579.485	7755.01
579.845	7811.96
580.206	7799.53
580.566	7803.14
580.927	7790.49
581.287	7857.6
581.648	7802.69
582.008	7891.5
582.368	7857.83
582.728	7843.59
583.089	7830.49
583.449	7863.25
583.809	7858.73
584.169	7893.31
584.529	7891.28
584.889	7998.62
585.249	7916.81
585.609	7902.8
585.969	8036.81
586.329	7949.13
586.688	7969.69
587.048	7959.75
587.408	7969.01
587.768	8101.89
588.127	8002.91
588.487	8024.15
588.846	8082.91
589.206	8088.33
589.565	8018.05
589.925	8082.01
590.284	8105.06
590.643	8103.7
591.003	8075
591.362	8224.6
591.721	8115.45
592.08	8153.64
592.44	8187.99
592.799	8156.13
593.158	8221.89
593.517	8166.52
593.876	8201.78
594.235	8184.15
594.593	8210.59
594.952	8223.02
595.311	8222.79
595.67	8242.9
596.029	8280.42
596.387	8253.98
596.746	8277.03
597.104	8213.75
597.463	8266.41
597.822	8267.99
598.18	8275.22
598.538	8267.31
598.897	8299.85
599.255	8218.95
599.613	8370.13
599.972	8340.3
600.33	8290.59
600.688	8287.42
601.046	8320.87
601.404	8415.56
601.762	8345.73
602.12	8387.99
602.478	8408.32
602.836	8406.29
603.194	8329.68
603.552	8367.2
603.91	8360.19
604.268	8413.97
604.625	8378.04
604.983	8399.28
605.341	8280.87
605.698	8404.93
606.056	8432.05
606.413	8403.58
606.771	8423.24
607.128	8442.22
607.485	8404.71
607.843	8416.46
608.2	8471.15
608.557	8514.31
608.914	8487.19
609.272	8475.22
609.629	8587.98
609.986	8562.9
610.343	8527.42
610.7	8523.35
611.057	8535.55
611.414	8574.42
611.771	8600.64
612.127	8567.42
612.484	8619.17
612.841	8594.99
613.198	8554.31
613.554	8520.41
613.911	8594.99
614.267	8597.25
614.624	8641.54
614.98	8633.85
615.337	8680.41
615.693	8635.89
616.05	8603.35
616.406	8693.97
616.762	8630.69
617.118	8657.13
617.475	8680.63
617.831	8689.9
618.187	8689.45
618.543	8710.92
618.899	8695.77
619.255	8694.64
619.611	8691.03
619.967	8754.98
620.323	8753.85
620.678	8705.27
621.034	8699.16
621.39	8687.64
621.746	8700.97
622.101	8821.65
622.457	8719.05
622.812	8803.57
623.168	8757.47
623.523	8738.26
623.879	8716.56
624.234	8714.08
624.589	8733.74
624.945	8714.98
625.3	8794.3
625.655	8804.47
626.01	8730.12
626.365	8710.92
626.72	8696
627.075	8742.78
627.43	8689.22
627.785	8708.2
628.14	8747.98
628.495	8815.09
628.85	8707.98
629.205	8687.64
629.559	8667.75
629.914	8662.1
630.269	8673.63
630.623	8683.35
630.978	8663.91
631.332	8637.02
631.687	8652.84
632.041	8638.6
632.396	8645.38
632.75	8670.01
633.104	8619.39
633.459	8640.18
633.813	8634.31
634.167	8553.41
634.521	8540.07
634.875	8547.3
635.229	8570.81
635.583	8540.07
635.937	8501.88
636.291	8546.17
636.645	8431.37
636.999	8462.11
637.352	8477.7
637.706	8535.33
638.06	8474.99
638.413	8456.68
638.767	8495.33
639.121	8482.67
639.474	8396.57
639.828	8468.66
640.181	8524.48
640.534	8405.39
640.888	8382.11
641.241	8374.88
641.594	8420.75
641.947	8409.45
642.301	8378.04
642.654	8378.49
643.007	8442.67
643.36	8378.27
643.713	8346.86
644.066	8392.05
644.419	8334.2
644.771	8288.78
645.124	8255.11
645.477	8220.08
645.83	8194.54
646.182	8145.28
646.535	8143.47
646.888	8135.56
647.24	8109.35
647.593	8150.48
647.945	8158.84
648.298	8087.88
648.65	8103.7
649.002	8093.08
649.355	8112.51
649.707	8060.31
650.059	8117.03
650.411	8239.74
650.763	8237.48
651.115	8336.01
651.467	8245.39
651.819	8260.76
652.171	8308.44
652.523	8221.21
652.875	8213.3
653.227	8258.27
653.578	8279.97
653.93	8291.49
654.282	8269.12
654.633	8210.36
654.985	8216.24
655.337	8265.05
655.688	8254.66
656.039	8315.22
656.391	8223.47
656.742	8251.94
657.094	8255.56
657.445	8295.11
657.796	8191.61
658.147	8293.98
658.498	8255.79
658.849	8311.6
659.2	8325.61
659.551	8305.73
659.902	8318.16
660.253	8310.7
660.604	8338.95
660.955	8277.48
661.306	8364.26
661.656	8285.62
662.007	8268.44
662.358	8281.55
662.708	8297.59
663.059	8288.78
663.409	8281.55
663.76	8297.37
664.11	8322.22
664.461	8293.3
664.811	8355.67
665.161	8330.13
665.511	8361.32
665.862	8355.67
666.212	8418.95
666.562	8437.7
666.912	8330.81
667.262	8322.9
667.612	8341.43
667.962	8354.77
668.312	8297.59
668.662	8409.45
669.011	8384.82
669.361	8369.68
669.711	8372.84
670.06	8339.85
670.41	8360.42
670.76	8314.54
671.109	8389.57
671.459	8331.49
671.808	8331.26
672.157	8342.56
672.507	8286.52
672.856	8298.04
673.205	8275.45
673.554	8297.37
673.904	8282.68
674.253	8293.3
674.602	8271.6
674.951	8193.64
675.3	8107.54
675.649	8220.53
675.998	8225.05
676.346	8153.87
676.695	8264.15
677.044	8207.2
677.393	8218.27
677.741	8239.29
678.09	8178.73
678.438	8155.9
678.787	8210.14
679.135	8212.4
679.484	8112.96
679.832	8155.45
680.181	8101.44
680.529	8145.28
680.877	8147.99
681.225	8049.24
681.573	8099.41
681.922	8108.67
682.27	8029.8
682.618	8015.34
682.966	7996.36
683.314	7998.17
683.661	7912.07
684.009	7973.99
684.357	7964.04
684.705	7896.25
685.053	7934.66
685.4	7890.6
685.748	7884.27
686.095	7844.95
686.443	7819.41
686.79	7786.87
687.138	7800.2
687.485	7786.65
687.832	7770.15
688.18	7806.76
688.527	7766.08
688.874	7710.49
689.221	7713.65
689.568	7634.79
689.915	7667.78
690.262	7650.15
690.609	7623.71
690.956	7547.1
691.303	7600.66
691.65	7470.95
691.997	7490.38
692.344	7509.59
692.69	7442.7
693.037	7446.09
693.383	7418.52
693.73	7385.07
694.077	7384.62
694.423	7344.4
694.769	7331.97
695.116	7316.38
695.462	7234.34
695.808	7291.07
696.155	7253.1
696.501	7217.17
696.847	7205.42
697.193	7130.62
697.539	7157.28
697.885	7118.41
698.231	7047
698.577	7023.28
698.923	7061.92
699.269	7030.51
699.614	6980.11
699.96	6983.28
700.306	6953.45
700.651	6921.13
700.997	6904.18
701.342	6812.89
701.688	6870.06
702.033	6847.91
702.379	6795.71
702.724	6753.45
703.069	6777.63
703.415	6756.39
703.76	6706
704.105	6702.38
704.45	6689.95
704.795	6620.57
705.14	6575.15
705.485	6607.69
705.83	6522.05
706.175	6544.42
706.52	6576.73
706.865	6463.52
707.209	6493.35
707.554	6481.37
707.899	6520.46
708.243	6492.44
708.588	6456.96
708.932	6348.04
709.277	6388.26
709.621	6362.28
709.966	6303.29
710.31	6325.89
710.654	6252.45
710.998	6264.43
711.342	6229.62
711.687	6226.69
712.031	6153.24
712.375	6224.2
712.719	6230.3
713.063	6237.31
713.407	6223.75
713.75	6179.91
714.094	6173.35
714.438	6101.94
714.782	6155.95
715.125	6095.39
715.469	6145.56
715.812	6133.81
716.156	6169.06
716.499	6074.37
716.843	6087.48
717.186	6096.97
717.53	6047.93
717.873	6135.16
718.216	6042.96
718.559	6012.68
718.902	5970.65
719.246	6003.19
719.589	6038.89
719.932	6001.83
720.275	6033.92
720.617	5992.79
720.96	5954.83
721.303	5979.46
721.646	5936.07
721.989	5906.69
722.331	5963.42
722.674	5907.15
723.016	5999.35
723.359	5964.32
723.701	5980.14
724.044	5948.28
724.386	5903.53
724.729	5950.99
725.071	5897.2
725.413	5936.07
725.755	5895.85
726.097	5906.02
726.439	5868.5
726.782	5875.28
727.124	5870.76
727.465	5851.78
727.807	5887.03
728.149	5864.89
728.491	5853.59
728.833	5854.72
729.175	5842.52
729.516	5891.33
729.858	5830.31
730.199	5863.53
730.541	5867.6
730.882	5903.76
731.224	5900.82
731.565	5842.74
731.906	5826.25
732.248	5823.08
732.589	5828.73
732.93	5802.52
733.271	5864.44
733.612	5847.94
733.953	5833.48
734.294	5850.65
734.635	5863.53
734.976	5872.57
735.317	5864.89
735.658	5844.1
735.999	5868.96
736.339	5875.51
736.68	5904.89
737.021	5865.11
737.361	5875.74
737.702	5844.32
738.042	5903.98
738.383	5922.97
738.723	5891.33
739.063	5906.47
739.404	5915.28
739.744	5931.33
740.084	5914.6
740.424	5988.05
740.764	5924.32
741.104	5964.55
741.444	5950.08
741.784	5959.57
742.124	5989.86
742.464	6016.52
742.804	6017.88
743.143	6021.72
743.483	6079.12
743.823	6058.1
744.162	6065.33
744.502	6102.4
744.841	6129.51
745.181	6221.04
745.52	6216.52
745.86	6224.43
746.199	6285.22
746.538	6308.49
746.877	6358.89
747.216	6362.73
747.556	6423.52
747.895	6489.5
748.234	6471.2
748.573	6564.76
748.911	6579.9
749.25	6621.03
749.589	6716.39
749.928	6757.52
750.267	6833.9
750.605	6859.44
750.944	6984.18
751.283	7028.7
751.621	7118.41
751.96	7120.22
752.298	7223.95
752.636	7322.25
752.975	7427.56
753.313	7465.75
753.651	7648.8
753.989	7701.9
754.327	7872.74
754.666	7933.31
755.004	8085.62
755.342	8214.2
755.679	8301.43
756.017	8363.58
756.355	8510.69
756.693	8628.43
757.031	8811.48
757.368	8909.33
757.706	9083.79
758.044	9169.43
758.381	9401.74
758.719	9499.59
759.056	9616.2
759.394	9767.16
759.731	9953.37
760.068	10101.61
760.405	10247.15
760.743	10384.09
761.08	10596.74
761.417	10714.93
761.754	10876.06
762.091	11104.75
762.428	11179.55
762.765	11397.17
763.102	11564.85
763.438	11721.01
763.775	11785.18
764.112	11988.79
764.449	12219.98
764.785	12355.11
765.122	12489.12
765.458	12673.3
765.795	12831.71
766.131	13013.63
766.467	13135.88
766.804	13238.48
767.14	13342.21
767.476	13602.09
767.812	13659.03
768.148	13855.64
768.485	13986.03
768.821	14056.31
