Data from hue_30_FLMS001491_92.txt Node
Date: Mon Feb 06 15:06:24 GMT 2017
User: dcchb
Spectrometer: FLMS00149
Trigger mode: 0
Integration Time (sec): 2.000000E-2
Scans to average: 10
Electric dark correction enabled: true
Nonlinearity correction enabled: false
Boxcar width: 0
XAxis mode: Wavelengths
Number of Pixels in Spectrum: 2048
>>>>>Begin Spectral Data<<<<<
341.393	-17.67
341.776	-17.67
342.16	-17.67
342.543	-74.84
342.927	-58.12
343.31	-63.32
343.693	-45.92
344.077	-68.06
344.46	-56.54
344.843	-43.43
345.226	-51.79
345.61	-35.52
345.993	-8.18
346.376	2.22
346.759	0.18
347.142	7.19
347.525	24.59
347.908	56.91
348.291	70.24
348.674	95.32
349.057	116.11
349.44	124.02
349.823	118.6
350.206	176
350.588	196.56
350.971	204.25
351.354	235.21
351.737	218.93
352.119	239.73
352.502	253.74
352.884	286.28
353.267	280.63
353.65	301.64
354.032	302.77
354.414	304.81
354.797	298.71
355.179	312.04
355.562	303.9
355.944	309.55
356.326	337.58
356.709	318.14
357.091	319.95
357.473	343.68
357.855	323.79
358.238	333.06
358.62	335.32
359.002	348.42
359.384	325.37
359.766	324.24
360.148	322.66
360.53	342.55
360.912	340.06
361.294	338.71
361.676	338.93
362.057	325.15
362.439	321.76
362.821	316.33
363.203	307.75
363.584	298.71
363.966	316.11
364.348	310.23
364.729	325.82
365.111	307.29
365.493	311.59
365.874	331.7
366.256	303.68
366.637	325.6
367.019	302.32
367.4	314.53
367.781	311.14
368.163	319.95
368.544	308.88
368.925	309.78
369.306	305.26
369.688	306.39
370.069	310.68
370.45	325.15
370.831	310.46
371.212	297.58
371.593	314.53
371.974	306.62
372.355	296
372.736	308.2
373.117	319.72
373.498	304.13
373.879	308.42
374.26	292.15
374.641	297.12
375.021	298.03
375.402	325.6
375.783	331.47
376.163	313.4
376.544	317.01
376.925	318.14
377.305	311.14
377.686	333.51
378.066	295.54
378.447	313.4
378.827	326.95
379.208	304.81
379.588	332.38
379.968	327.63
380.349	317.24
380.729	320.85
381.109	324.24
381.489	341.87
381.87	311.14
382.25	319.5
382.63	321.53
383.01	324.02
383.39	347.29
383.77	338.25
384.15	341.42
384.53	321.08
384.91	353.62
385.29	338.48
385.67	340.97
386.049	361.53
386.429	321.08
386.809	327.86
387.189	319.05
387.568	347.97
387.948	338.25
388.328	361.53
388.707	346.62
389.087	369.67
389.466	354.3
389.846	339.38
390.225	361.08
390.605	365.15
390.984	350.91
391.363	350.23
391.743	348.88
392.122	354.07
392.501	355.65
392.881	372.6
393.26	339.61
393.639	350.23
394.018	369.44
394.397	357.46
394.776	375.54
395.155	351.36
395.534	387.52
395.913	382.77
396.292	368.54
396.671	364.02
397.05	380.74
397.429	362.89
397.808	395.2
398.186	366.73
398.565	365.82
398.944	374.86
399.323	378.7
399.701	379.38
400.08	373.51
400.458	377.12
400.837	384.81
401.215	378.7
401.594	413.28
401.972	378.03
402.351	414.18
402.729	378.25
403.107	398.37
403.486	386.61
403.864	397.69
404.242	391.59
404.62	423.68
404.999	397.01
405.377	404.47
405.755	415.77
406.133	421.42
406.511	389.78
406.889	393.17
407.267	421.42
407.645	423.45
408.023	415.09
408.401	406.95
408.779	427.52
409.156	434.07
409.534	414.86
409.912	397.46
410.29	430
410.667	444.69
411.045	443.34
411.422	449.89
411.8	425.94
412.178	430
412.555	443.56
412.933	445.37
413.31	425.71
413.687	460.96
414.065	451.02
414.442	440.4
414.819	443.79
415.197	467.06
415.574	466.16
415.951	467.74
416.328	448.76
416.705	465.71
417.082	482.43
417.46	478.82
417.837	480.85
418.214	469.1
418.591	473.84
418.967	482.43
419.344	473.17
419.721	489.66
420.098	474.52
420.475	486.72
420.852	483.79
421.228	488.76
421.605	503.9
421.982	489.44
422.358	492.6
422.735	508.42
423.111	472.94
423.488	503
423.864	495.99
424.241	504.58
424.617	514.75
424.994	514.52
425.37	516.55
425.746	535.54
426.123	531.47
426.499	545.93
426.875	543.9
427.251	538.7
427.627	538.93
428.003	541.64
428.379	533.73
428.756	553.39
429.132	559.26
429.507	553.16
429.883	567.4
430.259	569.43
430.635	577.12
431.011	572.82
431.387	585.25
431.763	593.61
432.138	571.69
432.514	582.32
432.89	607.63
433.265	615.76
433.641	606.04
434.016	617.57
434.392	597.91
434.767	628.87
435.143	634.97
435.518	620.73
435.894	626.83
436.269	638.81
436.644	659.6
437.02	641.07
437.395	662.77
437.77	643.33
438.145	670.9
438.52	660.73
438.895	692.59
439.271	660.96
439.646	688.08
440.021	664.35
440.395	677.45
440.77	691.01
441.145	683.1
441.52	672.93
441.895	715.42
442.27	703.89
442.645	710.9
443.019	728.07
443.394	689.66
443.769	738.47
444.143	725.36
444.518	709.54
444.892	716.1
445.267	714.52
445.641	757.68
446.016	721.52
446.39	748.64
446.764	757.45
447.139	714.29
447.513	733.27
447.887	752.48
448.262	756.1
448.636	781.86
449.01	747.06
449.384	762.42
449.758	762.2
450.132	782.08
450.506	755.87
450.88	791.58
451.254	791.58
451.628	775.98
452.002	814.63
452.376	802.87
452.75	829.99
453.123	817.11
453.497	827.73
453.871	846.49
454.244	852.14
454.618	846.49
454.992	854.17
455.365	876.54
455.739	870.67
456.112	858.92
456.486	865.02
456.859	884
457.232	912.7
457.606	890.56
457.979	917.9
458.352	912.02
458.725	916.54
459.099	933.04
459.472	957.45
459.845	952.7
460.218	962.87
460.591	983.21
460.964	946.83
461.337	1004.68
461.71	988.18
462.083	999.71
462.456	1033.15
462.829	1023.66
463.201	1029.76
463.574	1067.27
463.947	1062.53
464.32	1072.92
464.692	1090.55
465.065	1084.22
465.438	1115.63
465.81	1116.76
466.183	1116.99
466.555	1166.03
466.928	1143.43
467.3	1153.83
467.672	1180.49
468.045	1196.08
468.417	1203.32
468.789	1200.15
469.161	1259.36
469.534	1249.19
469.906	1311.34
470.278	1283.31
470.65	1272.92
471.022	1340.94
471.394	1353.59
471.766	1368.96
472.138	1372.35
472.51	1406.93
472.882	1401.05
473.253	1441.5
473.625	1468.39
473.997	1503.42
474.369	1508.62
474.74	1552.91
475.112	1542.74
475.484	1597.66
475.855	1633.14
476.227	1622.97
476.598	1674.94
476.97	1716.07
477.341	1730.76
477.713	1820.47
478.084	1780.02
478.455	1844.2
478.827	1871.55
479.198	1964.65
479.569	1970.53
479.94	2020.24
480.311	2011.66
480.682	2103.18
481.053	2130.75
481.424	2142.5
481.795	2196.28
482.166	2271.08
482.537	2310.41
482.908	2341.36
483.279	2390.63
483.65	2430.85
484.021	2508.82
484.391	2518.76
484.762	2585.43
485.133	2623.62
485.503	2671.07
485.874	2751.75
486.244	2769.15
486.615	2871.52
486.985	2921.24
487.356	2926.43
487.726	2966.21
488.097	2995.36
488.467	3107.9
488.837	3169.59
489.207	3246.43
489.578	3305.18
489.948	3344.28
490.318	3425.86
490.688	3414.11
491.058	3537.27
491.428	3519.87
491.798	3651.39
492.168	3688
492.538	3739.52
492.908	3798.95
493.278	3856.81
493.648	3831.5
494.017	3934.54
494.387	4011.83
494.757	4037.37
495.126	4088.66
495.496	4127.98
495.866	4151.26
496.235	4216.12
496.605	4320.3
496.974	4325.04
497.344	4376.79
497.713	4413.4
498.082	4425.6
498.452	4484.59
498.821	4556
499.19	4562.78
499.559	4649.55
499.928	4673.06
500.298	4685.03
500.667	4724.58
501.036	4784.46
501.405	4770.91
501.774	4846.84
502.143	4852.03
502.512	4921.64
502.88	4966.61
503.249	5003.89
503.618	5046.83
503.987	5061.29
504.356	5120.5
504.724	5113.5
505.093	5161.4
505.462	5174.06
505.83	5287.73
506.199	5254.06
506.567	5364.34
506.936	5369.31
507.304	5421.28
507.672	5425.58
508.041	5433.26
508.409	5490.43
508.777	5564.33
509.145	5645.01
509.514	5550.77
509.882	5588.51
510.25	5633.26
510.618	5626.02
510.986	5731.56
511.354	5749.18
511.722	5817.43
512.09	5792.8
512.458	5817.43
512.826	5872.8
513.193	5946.92
513.561	5943.3
513.929	5950.99
514.297	5973.36
514.664	6043.41
515.032	6039.57
515.4	6077.76
515.767	6084.32
516.135	6139.91
516.502	6097.65
516.869	6212
517.237	6154.37
517.604	6186.01
517.972	6280.92
518.339	6323.18
518.706	6285.44
519.073	6342.39
519.44	6404.31
519.808	6421.03
520.175	6398.43
520.542	6459.67
520.909	6548.03
521.276	6513.46
521.643	6550.75
522.009	6594.36
522.376	6609.95
522.743	6723.85
523.11	6733.57
523.477	6696.05
523.843	6823.73
524.21	6837.52
524.577	6891.3
524.943	6920.91
525.31	6951.87
525.676	6969.27
526.043	7003.62
526.409	7085.87
526.776	7116.83
527.142	7164.74
527.508	7203.38
527.874	7198.19
528.241	7240.22
528.607	7290.16
528.973	7323.38
529.339	7354.34
529.705	7394.11
530.071	7448.8
530.437	7470.5
530.803	7516.82
531.169	7558.85
531.535	7458.29
531.901	7588.68
532.267	7619.87
532.632	7727.44
532.998	7658.74
533.364	7764.5
533.73	7793.2
534.095	7844.95
534.461	7856.47
534.826	7900.31
535.192	7948.22
535.557	7996.81
535.923	7931.73
536.288	8020.76
536.653	8018.5
537.019	8055.57
537.384	8089.69
537.749	8157.71
538.114	8169.23
538.479	8146.41
538.845	8212.62
539.21	8232.96
539.575	8233.19
539.94	8244.94
540.305	8324.03
540.67	8335.56
541.034	8391.38
541.399	8407.19
541.764	8402
542.129	8513.86
542.494	8514.99
542.858	8599.28
543.223	8570.58
543.587	8664.14
543.952	8647.41
544.316	8706.62
544.681	8719.5
545.045	8753.4
545.41	8819.16
545.774	8785.94
546.138	8838.6
546.503	8870.23
546.867	8937.58
547.231	8926.5
547.595	8953.17
547.959	9027.06
548.324	9037.46
548.688	9078.14
549.052	9051.7
549.416	9095.09
549.779	9141.19
550.143	9184.57
550.507	9277
550.871	9289.2
551.235	9298.7
551.599	9350.9
551.962	9408.52
552.326	9340.5
552.689	9459.14
553.053	9436.09
553.417	9415.53
553.78	9544.34
554.143	9539.14
554.507	9599.03
554.87	9591.57
555.234	9652.59
555.597	9623.21
555.96	9688.52
556.323	9810.77
556.686	9778.68
557.05	9809.87
557.413	9851
557.776	9902.07
558.139	9936.19
558.502	9861.85
558.865	9999.69
559.228	10028.62
559.59	10005.12
559.953	10048.73
560.316	10095.06
560.679	10134.83
561.041	10229.07
561.404	10219.12
561.767	10298.44
562.129	10241.27
562.492	10305.9
562.854	10351.78
563.217	10392.23
563.579	10382.06
563.941	10348.61
564.304	10390.87
564.666	10540.92
565.028	10519
565.39	10601.94
565.753	10560.36
566.115	10681.71
566.477	10749.73
566.839	10733.91
567.201	10858.88
567.563	10814.36
567.925	10872.89
568.287	10951.76
568.648	10909.28
569.01	11001.48
569.372	11059.55
569.734	10975.71
570.095	11131.19
570.457	11170.06
570.819	11235.59
571.18	11268.14
571.542	11326.21
571.903	11307.46
572.265	11332.77
572.626	11446.89
572.987	11506.77
573.349	11518.07
573.71	11600.78
574.071	11643.27
574.432	11752.19
574.794	11843.04
575.155	11911.28
575.516	11834.45
575.877	12044.84
576.238	12059.75
576.599	12261.1
576.96	12220.65
577.32	12318.73
577.681	12427.88
578.042	12501.1
578.403	12598.5
578.763	12686.4
579.124	12829.22
579.485	12937.02
579.845	13085.04
580.206	13123
580.566	13325.93
580.927	13438.47
581.287	13561.41
581.648	13607.74
582.008	13823.55
582.368	14062.64
582.728	14191.9
583.089	14268.28
583.449	14393.93
583.809	14601.61
584.169	14814.94
584.529	15004.08
584.889	15263.06
585.249	15322.72
585.609	15412.21
585.969	15712.54
586.329	15864.63
586.688	16101.46
587.048	16264.16
587.408	16564.27
587.768	16713.87
588.127	16883.81
588.487	17124.03
588.846	17474.98
589.206	17594.3
589.565	17834.06
589.925	18155.19
590.284	18342.75
590.643	18634.95
591.003	18903.19
591.362	19151.77
591.721	19405.1
592.08	19676.28
592.44	19912.43
592.799	20111.97
593.158	20377.73
593.517	20613.43
593.876	20862.69
594.235	21114.2
594.593	21365.5
594.952	21734.08
595.311	21934.97
595.67	22155.99
596.029	22489.99
596.387	22840.49
596.746	23046.36
597.104	23178.33
597.463	23493.35
597.822	23780.35
598.18	24045.65
598.538	24141.92
598.897	24522.93
599.255	24658.52
599.613	25196.81
599.972	25194.32
600.33	25422.34
600.688	25681.77
601.046	26100.74
601.404	26254.86
601.762	26475.42
602.12	26807.39
602.478	26927.39
602.836	27207.6
603.194	27293.03
603.552	27551.55
603.91	27575.28
604.268	28072.44
604.625	28159.9
604.983	28483.05
605.341	28506.33
605.698	28841.01
606.056	28998.29
606.413	29176.82
606.771	29415
607.128	29667.65
607.485	29610.7
607.843	29803.92
608.2	30222.67
608.557	30488.87
608.914	30528.87
609.272	30958.01
609.629	31062.87
609.986	31291.34
610.343	31366.59
610.7	31735.39
611.057	31753.25
611.414	31786.92
611.771	31977.87
612.127	32173.57
612.484	32460.8
612.841	32473.68
613.198	32709.38
613.554	32690.4
613.911	33037.96
614.267	33066.21
614.624	33242.25
614.98	33291.96
615.337	33578.06
615.693	33601.79
616.05	33767.88
616.406	34043.13
616.762	34019.63
617.118	34192.28
617.475	34199.06
617.831	34436.79
618.187	34589.56
618.543	34664.58
618.899	35004.46
619.255	34933.05
619.611	35056.21
619.967	35088.53
620.323	35356.09
620.678	35415.3
621.034	35317
621.39	35353.83
621.746	35473.38
622.101	35942.52
622.457	35517.89
622.812	35769.64
623.168	35882.4
623.523	35914.95
623.879	36106.8
624.234	35923.31
624.589	36038.33
624.945	36182.28
625.3	36333.69
625.655	36354.93
626.01	36322.84
626.365	36484.65
626.72	36517.19
627.075	36444.88
627.43	36522.84
627.785	36481.48
628.14	36652.33
628.495	36758.31
628.85	36717.64
629.205	36760.8
629.559	36847.8
629.914	36760.8
630.269	36880.57
630.623	36838.31
630.978	36758.99
631.332	36920.57
631.687	37029.27
632.041	36816.16
632.396	36948.82
632.75	36885.09
633.104	36953.79
633.459	36847.8
633.813	36805.09
634.167	36864.75
634.521	36874.69
634.875	36951.08
635.229	36803.06
635.583	36876.95
635.937	36800.57
636.291	36874.24
636.645	36883.06
636.999	36758.99
637.352	37017.06
637.706	36828.37
638.06	36774.36
638.413	36681.25
638.767	36745.88
639.121	36863.62
639.474	36704.53
639.828	36779.56
640.181	36820.68
640.534	36780.69
640.888	36686.45
641.241	36535.04
641.594	36700.69
641.947	36716.51
642.301	36626.79
642.654	36725.55
643.007	36631.76
643.36	36651.88
643.713	36497.3
644.066	36562.61
644.419	36448.26
644.771	36173.7
645.124	36009.63
645.477	35887.6
645.83	35565.35
646.182	35539.59
646.535	35337.33
646.888	35546.59
647.24	35420.5
647.593	35616.65
647.945	35398.57
648.298	35414.62
648.65	35366.03
649.002	35239.93
649.355	35453.71
649.707	35412.81
650.059	35629.53
650.411	35811.22
650.763	35893.25
651.115	36170.31
651.467	36217.99
651.819	36129.4
652.171	36113.36
652.523	36154.71
652.875	36043.76
653.227	35869.3
653.578	36099.57
653.93	36020.48
654.282	35862.97
654.633	35812.35
654.985	35821.39
655.337	35915.17
655.688	36020.25
656.039	36054.38
656.391	35777.55
656.742	35779.13
657.094	35771.67
657.445	35900.03
657.796	35812.12
658.147	35779.13
658.498	35876.3
658.849	35735.06
659.2	35754.27
659.551	35788.85
659.902	35892.57
660.253	35741.62
660.604	35855.29
660.955	35512.47
661.306	35808.06
661.656	35690.32
662.007	35629.53
662.358	35646.48
662.708	35631.56
663.059	35643.77
663.409	35557.21
663.76	35759.02
664.11	35651.45
664.461	35752.69
664.811	35760.37
665.161	35689.64
665.511	35746.59
665.862	35739.13
666.212	35768.96
666.562	35808.73
666.912	35815.29
667.262	35595.41
667.612	35738.23
667.962	35717.21
668.312	35611.9
668.662	35710.88
669.011	35578.01
669.361	35604.67
669.711	35590.21
670.06	35663.2
670.41	35449.65
670.76	35478.8
671.109	35491.91
671.459	35478.57
671.808	35417.56
672.157	35467.95
672.507	35275.64
672.856	35390.67
673.205	35379.37
673.554	35487.61
673.904	35349.08
674.253	35445.81
674.602	35410.1
674.951	34855.31
675.3	34668.2
675.649	35191.57
675.998	35343.21
676.346	35191.8
676.695	35335.75
677.044	35063.22
677.393	35199.26
677.741	35181.86
678.09	35121.97
678.438	34988.87
678.787	35047.4
679.135	35177.56
679.484	34805.37
679.832	35037.45
680.181	34817.35
680.529	34840.17
680.877	34770.79
681.225	34760.4
681.573	34996.33
681.922	34750.46
682.27	34633.62
682.618	34492.61
682.966	34442.44
683.314	34555.89
683.661	34503.46
684.009	34498.94
684.357	34353.18
684.705	34272.05
685.053	34194.31
685.4	34144.6
685.748	34099.63
686.095	34027.09
686.443	34007.2
686.79	33832.97
687.138	33949.12
687.485	33925.17
687.832	33796.81
688.18	33753.42
688.527	33620.99
688.874	33608.34
689.221	33463.94
689.568	33350.72
689.915	33425.97
690.262	33432.3
690.609	33203.6
690.956	33229.14
691.303	33220.55
691.65	32966.55
691.997	32957.28
692.344	32822.37
692.69	32841.81
693.037	32890.39
693.383	32569.95
693.73	32686.78
694.077	32516.39
694.423	32573.79
694.769	32370.18
695.116	32268.04
695.462	32204.08
695.808	32103.75
696.155	32183.29
696.501	31997.53
696.847	32082.73
697.193	31763.87
697.539	31847.26
697.885	31555.06
698.231	31569.75
698.577	31493.37
698.923	31466.7
699.269	31407.04
699.614	31215.41
699.96	31176.76
700.306	31232.81
700.651	30978.8
700.997	30995.75
701.342	30831.92
701.688	30778.81
702.033	30743.56
702.379	30677.57
702.724	30653.16
703.069	30644.35
703.415	30343.11
703.76	30379.27
704.105	30383.11
704.45	30260.4
704.795	30117.81
705.14	30054.31
705.485	30000.52
705.83	29782.68
706.175	29864.71
706.52	29794.43
706.865	29713.75
707.209	29682.57
707.554	29620.87
707.899	29623.13
708.243	29436.47
708.588	29487.09
708.932	29330.03
709.277	29294.1
709.621	29340.88
709.966	28971.4
710.31	29145.63
710.654	28968.24
710.998	28961.23
711.342	28940.44
711.687	28844.17
712.031	28746.55
712.375	28538.42
712.719	28763.04
713.063	28579.77
713.407	28704.29
713.75	28489.15
714.094	28527.8
714.438	28368.93
714.782	28346.56
715.125	28196.96
715.469	28373
715.812	28148.37
716.156	28017.53
716.499	28046.23
716.843	27978.21
717.186	27883.07
717.53	28104.08
717.873	28005.1
718.216	27888.49
718.559	27783.18
718.902	27640.13
719.246	27625.45
719.589	27596.75
719.932	27602.4
720.275	27478.56
720.617	27459.35
720.96	27362.63
721.303	27392.01
721.646	27320.14
721.989	27166.47
722.331	27237.21
722.674	27237.43
723.016	27177.77
723.359	27145.91
723.701	27231.56
724.044	26964.45
724.386	26739.14
724.729	26995.86
725.071	26848.29
725.413	26841.74
725.755	26874.05
726.097	26805.35
726.439	26651.91
726.782	26618.24
727.124	26798.35
727.465	26703.44
727.807	26520.62
728.149	26562.65
728.491	26542.99
728.833	26458.02
729.175	26502.54
729.516	26371.02
729.858	26381.18
730.199	26303.22
730.541	26131.47
730.882	26230
731.224	26234.52
731.565	26074.07
731.906	26089.44
732.248	25986.17
732.589	25923.57
732.93	25879.73
733.271	25952.27
733.612	25853.52
733.953	25960.63
734.294	25770.81
734.635	25673.41
734.976	25862.55
735.317	25650.58
735.658	25708.66
735.999	25802.44
736.339	25640.41
736.68	25712.95
737.021	25559.06
737.361	25446.29
737.702	25470.7
738.042	25437.71
738.383	25487.65
738.723	25465.28
739.063	25418.27
739.404	25458.05
739.744	25272.06
740.084	25326.52
740.424	25248.79
740.764	25112.74
741.104	25254.66
741.444	25139.86
741.784	25034.33
742.124	25063.71
742.464	25010.15
742.804	24976.25
743.143	24905.29
743.483	24896.25
743.823	24840.43
744.162	24762.24
744.502	24807.89
744.841	24609.48
745.181	24785.52
745.52	24700.78
745.86	24714.79
746.199	24695.13
746.538	24602.93
746.877	24656.94
747.216	24644.28
747.556	24601.12
747.895	24471.86
748.234	24462.59
748.573	24442.48
748.911	24394.12
749.25	24280.9
749.589	24343.27
749.928	24351.63
750.267	24372.65
750.605	24207.23
750.944	24136.5
751.283	24082.49
751.621	24310.73
751.96	24043.62
752.298	24146.44
752.636	24000.23
752.975	23873.45
753.313	23963.85
753.651	23943.06
753.989	23797.75
754.327	23814.25
754.666	23626.91
755.004	23786.22
755.342	23715.49
755.679	23605.44
756.017	23517.76
756.355	23609.51
756.693	23435.95
757.031	23440.7
757.368	23313.47
757.706	23334.71
758.044	23224.88
758.381	23280.02
758.719	23166.13
759.056	23171.1
759.394	23066.47
759.731	22984.21
760.068	22935.17
760.405	22847.27
