Data from hue_110_FLMS001491_00005.txt Node
Date: Tue Feb 07 17:00:49 GMT 2017
User: dcchb
Spectrometer: FLMS00149
Trigger mode: 0
Integration Time (sec): 2.000000E-2
Scans to average: 10
Electric dark correction enabled: true
Nonlinearity correction enabled: false
Boxcar width: 0
XAxis mode: Wavelengths
Number of Pixels in Spectrum: 2048
>>>>>Begin Spectral Data<<<<<
341.393	-10.48
341.776	-10.48
342.16	-10.48
342.543	-60.87
342.927	-69.01
343.31	-78.27
343.693	-82.12
344.077	-57.26
344.46	-58.61
344.843	-60.65
345.226	-40.31
345.61	-49.12
345.993	-27.43
346.376	-10.71
346.759	0.37
347.142	29.74
347.525	58.22
347.908	63.19
348.291	100.93
348.674	100.48
349.057	111.55
349.44	142.06
349.823	133.92
350.206	203.53
350.588	192.68
350.971	216.41
351.354	226.58
351.737	247.37
352.119	253.24
352.502	280.81
352.884	249.4
353.267	273.35
353.65	286.46
354.032	303.41
354.414	314.48
354.797	312.68
355.179	323.97
355.562	312.22
355.944	319
356.326	347.7
356.709	331.66
357.091	318.1
357.473	346.35
357.855	334.6
358.238	322.84
358.62	341.6
359.002	363.07
359.384	359.68
359.766	352.22
360.148	330.98
360.53	343.41
360.912	326.46
361.294	333.47
361.676	340.7
362.057	324.88
362.439	329.4
362.821	330.53
363.203	329.62
363.584	329.85
363.966	316.07
364.348	346.35
364.729	311.77
365.111	312
365.493	316.52
365.874	305.22
366.256	304.99
366.637	306.35
367.019	328.95
367.4	311.09
367.781	329.85
368.163	334.37
368.544	337.76
368.925	324.65
369.306	311.55
369.688	317.2
370.069	297.99
370.45	300.92
370.831	303.86
371.212	321.71
371.593	313.58
371.974	310.64
372.355	314.71
372.736	312.45
373.117	318.32
373.498	315.61
373.879	333.69
374.26	309.96
374.641	317.65
375.021	326.23
375.402	317.65
375.783	340.7
376.163	323.75
376.544	309.29
376.925	322.84
377.305	313.13
377.686	336.63
378.066	330.75
378.447	326.01
378.827	323.52
379.208	323.52
379.588	334.82
379.968	321.49
380.349	329.17
380.729	344.31
381.109	333.47
381.489	352.22
381.87	338.21
382.25	319.23
382.63	329.85
383.01	327.14
383.39	350.19
383.77	339.12
384.15	351.32
384.53	361.49
384.91	352.9
385.29	361.49
385.67	348.38
386.049	355.61
386.429	347.93
386.809	358.78
387.189	362.17
387.568	344.99
387.948	352.45
388.328	377.76
388.707	340.7
389.087	330.98
389.466	344.31
389.846	369.85
390.225	356.52
390.605	363.3
390.984	359.68
391.363	362.39
391.743	363.3
392.122	356.97
392.501	378.21
392.881	385.22
393.26	384.99
393.639	359.68
394.018	379.34
394.397	370.3
394.776	377.98
395.155	392.9
395.534	386.8
395.913	385.44
396.292	379.34
396.671	386.8
397.05	395.84
397.429	383.18
397.808	386.57
398.186	412.56
398.565	401.26
398.944	381.15
399.323	416.18
399.701	387.02
400.08	393.8
400.458	405.1
400.837	410.53
401.215	413.92
401.594	416.4
401.972	397.87
402.351	383.86
402.729	402.16
403.107	424.76
403.486	417.31
403.864	426.57
404.242	438.77
404.62	404.2
404.999	405.55
405.377	412.79
405.755	427.47
406.133	431.54
406.511	434.48
406.889	421.83
407.267	443.97
407.645	432.67
408.023	434.25
408.401	443.07
408.779	440.13
409.156	451.65
409.534	459.11
409.912	457.53
410.29	445.78
410.667	453.69
411.045	460.47
411.422	459.11
411.8	475.61
412.178	487.36
412.555	466.57
412.933	490.52
413.31	467.7
413.687	505.21
414.065	484.87
414.442	468.15
414.819	492.78
415.197	494.82
415.574	503.86
415.951	501.37
416.328	497.08
416.705	517.64
417.082	491.65
417.46	487.59
417.837	526.91
418.214	520.13
418.591	547.02
418.967	535.27
419.344	530.52
419.721	525.1
420.098	557.19
420.475	544.08
420.852	549.05
421.228	542.05
421.605	539.56
421.982	550.41
422.358	566.68
422.735	575.04
423.111	543.18
423.488	567.36
423.864	577.75
424.241	595.83
424.617	580.46
424.994	592.44
425.37	564.87
425.746	579.56
426.123	607.81
426.499	578.66
426.875	586.57
427.251	611.42
427.627	618.43
428.003	628.15
428.379	619.11
428.756	626.57
429.132	643.29
429.507	639.9
429.883	646.45
430.259	655.94
430.635	672.44
431.011	672.44
431.387	641.48
431.763	669.73
432.138	664.98
432.514	695.49
432.89	692.1
433.265	693.68
433.641	708.6
434.016	733.23
434.392	717.41
434.767	717.18
435.143	719.9
435.518	719.67
435.894	740.46
436.269	731.87
436.644	755.83
437.02	757.64
437.395	779.1
437.77	772.55
438.145	776.62
438.52	779.78
438.895	768.93
439.271	794.92
439.646	791.98
440.021	809.16
440.395	815.26
440.77	808.93
441.145	827.92
441.52	823.4
441.895	833.11
442.27	822.72
442.645	860.46
443.019	865.66
443.394	839.67
443.769	867.92
444.143	858.2
444.518	860.46
444.892	871.08
445.267	867.01
445.641	892.1
446.016	879.21
446.39	916.73
446.764	893.45
447.139	904.52
447.513	907.01
447.887	900
448.262	953.34
448.636	925.31
449.01	915.6
449.384	959.89
449.758	941.59
450.132	947.23
450.506	970.29
450.88	967.8
451.254	966.44
451.628	976.16
452.002	1002.83
452.376	1002.83
452.75	1008.93
453.123	996.73
453.497	1025.43
453.871	1043.73
454.244	1063.16
454.618	1057.74
454.992	1086.21
455.365	1060.9
455.739	1098.19
456.112	1083.73
456.486	1083.95
456.859	1120.79
457.232	1129.38
457.606	1157.4
457.979	1160.79
458.352	1186.1
458.725	1168.02
459.099	1232.65
459.472	1241.46
459.845	1252.99
460.218	1256.83
460.591	1286.21
460.964	1295.25
461.337	1279.43
461.71	1293.21
462.083	1321.69
462.456	1299.54
462.829	1333.67
463.201	1388.58
463.574	1364.17
463.947	1422.25
464.32	1422.25
464.692	1459.09
465.065	1471.29
465.438	1481.23
465.81	1507.67
466.183	1508.12
466.555	1557.39
466.928	1588.12
467.3	1554.9
467.672	1567.78
468.045	1635.8
468.417	1666.31
468.789	1660.66
469.161	1696.59
469.534	1725.29
469.906	1795.12
470.278	1834.9
470.65	1810.94
471.022	1904.05
471.394	1933.2
471.766	1935.01
472.138	1958.96
472.51	1988.11
472.882	2035.79
473.253	2089.8
473.625	2144.94
473.997	2205.06
474.369	2209.12
474.74	2253.42
475.112	2348.55
475.484	2379.51
475.855	2415.44
476.227	2456.8
476.598	2540.87
476.97	2571.6
477.341	2676.91
477.713	2733.85
478.084	2807.98
478.455	2885.94
478.827	2936.34
479.198	3024.24
479.569	3065.6
479.94	3153.73
480.311	3243.22
480.682	3325.93
481.053	3424.23
481.424	3526.6
481.795	3624.45
482.166	3717.33
482.537	3788.52
482.908	3929.53
483.279	3955.97
483.65	4073.25
484.021	4198.22
484.391	4299.46
484.762	4352.57
485.133	4470.76
485.503	4647.25
485.874	4786
486.244	4827.58
486.615	4958.43
486.985	5085.21
487.356	5286.56
487.726	5334.92
488.097	5483.39
488.467	5630.5
488.837	5756.37
489.207	5865.52
489.578	6032.98
489.948	6093.77
490.318	6289.92
490.688	6327.43
491.058	6582.57
491.428	6677.48
491.798	6781.43
492.168	6938.94
492.538	7100.97
492.908	7269.55
493.278	7406.05
493.648	7441.98
494.017	7627.51
494.387	7740.28
494.757	7881.29
495.126	8032.92
495.496	8148.4
495.866	8284.67
496.235	8372.8
496.605	8543.19
496.974	8657.31
497.344	8804.2
497.713	8889.63
498.082	9017.08
498.452	9122.16
498.821	9216.4
499.19	9283.29
499.559	9427.01
499.928	9526.44
500.298	9657.97
500.667	9777.51
501.036	9854.35
501.405	10006.88
501.774	10019.09
502.143	10175.69
502.512	10260.44
502.88	10328.01
503.249	10453.2
503.618	10500.66
503.987	10590.82
504.356	10725.28
504.724	10864.71
505.093	10803.25
505.462	10913.07
505.83	11091.6
506.199	11148.77
506.567	11232.16
506.936	11338.6
507.304	11406.85
507.672	11509.22
508.041	11556.9
508.409	11691.13
508.777	11715.77
509.145	11844.12
509.514	11849.32
509.882	11998.7
510.25	12006.15
510.618	12080.73
510.986	12148.75
511.354	12278.24
511.722	12308.29
512.09	12424.9
512.458	12352.81
512.826	12567.27
513.193	12512.35
513.561	12599.36
513.929	12691.33
514.297	12766.13
514.664	12754.61
515.032	12885
515.4	12958.9
515.767	12980.14
516.135	13025.34
516.502	12959.8
516.869	13101.72
517.237	13207.25
517.604	13185.33
517.972	13320.02
518.339	13372.22
518.706	13304.65
519.073	13439.79
519.44	13455.15
519.808	13583.29
520.175	13514.81
520.542	13580.35
520.909	13663.06
521.276	13660.12
521.643	13781.7
522.009	13721.14
522.376	13830.06
522.743	13806.11
523.11	13962.49
523.477	14041.13
523.843	14081.58
524.21	14237.73
524.577	14202.71
524.943	14118.64
525.31	14282.93
525.676	14312.08
526.043	14392.98
526.409	14364.51
526.776	14512.75
527.142	14477.95
527.508	14456.48
527.874	14626.42
528.241	14565.63
528.607	14514.11
528.973	14622.36
529.339	14506.2
529.705	14652.19
530.071	14689.7
530.437	14662.81
530.803	14710.71
531.169	14685.86
531.535	14687.21
531.901	14702.81
532.267	14719.3
532.632	14751.17
532.998	14759.53
533.364	14698.06
533.73	14853.99
534.095	14831.39
534.461	14829.36
534.826	14792.07
535.192	14751.84
535.557	14854.67
535.923	14729.47
536.288	14750.94
536.653	14818.96
537.019	14705.29
537.384	14686.99
537.749	14752.97
538.114	14711.62
538.479	14611.06
538.845	14702.81
539.21	14536.48
539.575	14580.55
539.94	14685.63
540.305	14633.43
540.67	14426.65
541.034	14459.65
541.399	14468.91
541.764	14497.16
542.129	14447.22
542.494	14428.46
542.858	14456.71
543.223	14378.07
543.587	14467.56
543.952	14349.82
544.316	14288.58
544.681	14283.61
545.045	14374.68
545.41	14309.14
545.774	14290.84
546.138	14167
546.503	14192.31
546.867	14149.37
547.231	14225.08
547.595	14136.49
547.959	14120.45
548.324	14157.74
548.688	14073.22
549.052	14074.8
549.416	14000.68
549.779	13943.73
550.143	14007.68
550.507	13934.46
550.871	13950.28
551.235	13842.04
551.599	13937.63
551.962	13858.99
552.326	13801.36
552.689	13913
553.053	13796.39
553.417	13783.96
553.78	13903.5
554.143	13753.23
554.507	13757.29
554.87	13766.11
555.234	13901.02
555.597	13750.97
555.96	13835.71
556.323	13774.69
556.686	13701.02
557.05	13783.28
557.413	13776.28
557.776	13696.73
558.139	13776.28
558.502	13686.79
558.865	13759.1
559.228	13793.9
559.59	13768.37
559.953	13715.03
560.316	13781.47
560.679	13727.92
561.041	13840.46
561.404	13774.47
561.767	13793.68
562.129	13725.2
562.492	13929.72
562.854	13747.12
563.217	13744.86
563.579	13733.57
563.941	13877.74
564.304	13847.69
564.666	13888.82
565.028	13900.34
565.39	13868.48
565.753	13949.38
566.115	13927.68
566.477	13980.34
566.839	13980.79
567.201	13966.33
567.563	13982.82
567.925	13958.42
568.287	14021.24
568.648	13985.08
569.01	14054.23
569.372	14081.35
569.734	14022.15
570.095	14124.06
570.457	14139.66
570.819	14197.28
571.18	14122.48
571.542	14201.8
571.903	14163.38
572.265	14216.49
572.626	14317.73
572.987	14264.17
573.349	14347.79
573.71	14274.12
574.071	14337.17
574.432	14260.33
574.794	14329.03
575.155	14375.13
575.516	14287
575.877	14328.13
576.238	14363.83
576.599	14310.73
576.96	14303.95
577.32	14395.69
577.681	14436.82
578.042	14386.88
578.403	14392.98
578.763	14506.65
579.124	14366.54
579.485	14435.24
579.845	14381.23
580.206	14423.72
580.566	14339.43
580.927	14409.25
581.287	14477.27
581.648	14376.49
582.008	14424.85
582.368	14404.51
582.728	14402.25
583.089	14401.12
583.449	14372.64
583.809	14373.55
584.169	14324.74
584.529	14302.36
584.889	14473.21
585.249	14269.82
585.609	14268.69
585.969	14320.89
586.329	14340.1
586.688	14321.8
587.048	14290.84
587.408	14217.39
587.768	14291.97
588.127	14306.43
588.487	14270.5
588.846	14389.82
589.206	14262.14
589.565	14291.29
589.925	14329.03
590.284	14274.57
590.643	14182.82
591.003	14230.95
591.362	14205.19
591.721	14262.59
592.08	14162.03
592.44	14190.73
592.799	14205.64
593.158	14219.65
593.517	14122.93
593.876	14190.05
594.235	14066.89
594.593	14148.24
594.952	14023.5
595.311	14112.54
595.67	14113.67
596.029	14194.8
596.387	14202.93
596.746	14141.92
597.104	14140.33
597.463	14136.72
597.822	14113.44
598.18	14169.03
598.538	14090.17
598.897	14164.74
599.255	14004.52
599.613	14267.56
599.972	14164.06
600.33	14193.67
600.688	14121.8
601.046	14193.89
601.404	14197.28
601.762	14106.66
602.12	14206.77
602.478	14187.79
602.836	14177.17
603.194	14194.12
603.552	14103.05
603.91	14110.05
604.268	14114.57
604.625	14051.98
604.983	14098.98
605.341	14148.24
605.698	14137.62
606.056	14173.1
606.413	14181.46
606.771	14196.6
607.128	14146.21
607.485	14089.04
607.843	14239.54
608.2	14250.84
608.557	14232.76
608.914	14200.9
609.272	14187.34
609.629	14294.23
609.986	14265.75
610.343	14185.08
610.7	14317.5
611.057	14302.14
611.414	14200.22
611.771	14291.97
612.127	14350.95
612.484	14288.13
612.841	14358.86
613.198	14386.88
613.554	14373.32
613.911	14390.72
614.267	14473.21
614.624	14404.96
614.98	14356.6
615.337	14498.52
615.693	14437.73
616.05	14382.81
616.406	14501.45
616.762	14467.33
617.118	14423.94
617.475	14509.14
617.831	14510.72
618.187	14564.73
618.543	14532.87
618.899	14518.86
619.255	14563.15
619.611	14504.39
619.967	14524.05
620.323	14618.74
620.678	14472.08
621.034	14522.92
621.39	14619.19
621.746	14569.93
622.101	14659.19
622.457	14472.08
622.812	14610.6
623.168	14625.75
623.523	14640.89
623.879	14609.47
624.234	14553.2
624.589	14570.38
624.945	14526.76
625.3	14574.67
625.655	14563.37
626.01	14604.73
626.365	14628.23
626.72	14628.46
627.075	14625.07
627.43	14588.23
627.785	14568.12
628.14	14606.76
628.495	14536.48
628.85	14536.93
629.205	14500.1
629.559	14477.73
629.914	14473.21
630.269	14530.61
630.623	14449.93
630.978	14447.67
631.332	14548.23
631.687	14507.1
632.041	14474.56
632.396	14514.56
632.75	14447.67
633.104	14458.29
633.459	14295.58
633.813	14335.36
634.167	14385.07
634.521	14327.45
634.875	14284.96
635.229	14335.36
635.583	14301.46
635.937	14299.65
636.291	14248.58
636.645	14262.82
636.999	14284.51
637.352	14279.54
637.706	14188.24
638.06	14229.15
638.413	14136.49
638.767	14125.19
639.121	14209.49
639.474	14100.79
639.828	14084.06
640.181	14120.67
640.534	14107.57
640.888	14066.21
641.241	14038.87
641.594	14131.97
641.947	14105.08
642.301	14071.41
642.654	14082.26
643.007	14075.7
643.36	14010.85
643.713	13986.89
644.066	14041.81
644.419	14002.71
644.771	13904.63
645.124	13811.08
645.477	13719.55
645.83	13624.42
646.182	13489.28
646.535	13498.77
646.888	13482.5
647.24	13467.36
647.593	13572.21
647.945	13568.37
648.298	13429.84
648.65	13465.78
649.002	13389.17
649.355	13560.01
649.707	13423.52
650.059	13588.48
650.411	13678.43
650.763	13676.62
651.115	13842.04
651.467	13768.82
651.819	13788.25
652.171	13765.65
652.523	13743.51
652.875	13786.22
653.227	13742.38
653.578	13837.52
653.93	13752.55
654.282	13657.41
654.633	13729.95
654.985	13759.1
655.337	13753.68
655.688	13744.41
656.039	13832.55
656.391	13756.84
656.742	13755.94
657.094	13786.9
657.445	13810.17
657.796	13855.6
658.147	13817.18
658.498	13716.84
658.849	13780.12
659.2	13773.79
659.551	13731.76
659.902	13816.28
660.253	13806.78
660.604	13782.6
660.955	13782.6
661.306	13823.05
661.656	13775.37
662.007	13873.22
662.358	13880.45
662.708	13815.6
663.059	13800
663.409	13781.02
663.76	13835.03
664.11	13856.95
664.461	13870.74
664.811	13809.95
665.161	13908.93
665.511	13784.41
665.862	13818.53
666.212	13887.46
666.562	13835.71
666.912	13823.05
667.262	13741.25
667.612	13795.48
667.962	13840.68
668.312	13863.51
668.662	13871.64
669.011	13824.86
669.361	13866.44
669.711	13810.63
670.06	13833.9
670.41	13790.06
670.76	13773.34
671.109	13822.15
671.459	13786.45
671.808	13742.15
672.157	13791.64
672.507	13689.5
672.856	13684.3
673.205	13744.86
673.554	13768.82
673.904	13721.14
674.253	13797.52
674.602	13743.51
674.951	13439.11
675.3	13432.56
675.649	13676.17
675.998	13611.76
676.346	13620.8
676.695	13634.13
677.044	13543.97
677.393	13566.79
677.741	13585.77
678.09	13613.79
678.438	13546.68
678.787	13547.36
679.135	13571.31
679.484	13447.02
679.832	13543.06
680.181	13403.4
680.529	13446.57
680.877	13400.24
681.225	13355.95
681.573	13470.75
681.922	13360.92
682.27	13253.13
682.618	13304.2
682.966	13246.12
683.314	13311.43
683.661	13259.91
684.009	13169.74
684.357	13145.11
684.705	13139.68
685.053	13211.32
685.4	13140.59
685.748	13015.62
686.095	12980.82
686.443	13073.24
686.79	13086.35
687.138	13020.59
687.485	12966.35
687.832	12932
688.18	12833.25
688.527	12846.81
688.874	12774.04
689.221	12769.75
689.568	12741.05
689.915	12731.33
690.262	12735.4
690.609	12667.38
690.956	12543.09
691.303	12594.61
691.65	12527.27
691.997	12512.81
692.344	12464.9
692.69	12393.49
693.037	12329.31
693.383	12215.19
693.73	12360.04
694.077	12219.93
694.423	12204.34
694.769	12316.2
695.116	12181.29
695.462	12173.61
695.808	12082.31
696.155	12101.74
696.501	11971.58
696.847	11900.17
697.193	11874.63
697.539	11847.29
697.885	11830.34
698.231	11773.39
698.577	11811.13
698.923	11713.96
699.269	11728.19
699.614	11631.02
699.96	11618.82
700.306	11516.67
700.651	11429.9
700.997	11382.21
701.342	11453.4
701.688	11355.32
702.033	11323.23
702.379	11339.96
702.724	11292.73
703.069	11312.84
703.415	11209.56
703.76	11209.34
704.105	11209.34
704.45	11097.25
704.795	11081.66
705.14	10986.52
705.485	11021.55
705.83	10938.16
706.175	10919.18
706.52	10943.81
706.865	10889.8
707.209	10885.96
707.554	10781.55
707.899	10877.6
708.243	10742.01
708.588	10714.66
708.932	10677.83
709.277	10639.41
709.621	10647.77
709.966	10551.73
710.31	10611.61
710.654	10551.73
710.998	10484.61
711.342	10556.02
711.687	10487.55
712.031	10396.48
712.375	10373.43
712.719	10334.33
713.063	10372.98
713.407	10412.3
713.75	10331.62
714.094	10322.13
714.438	10283.71
714.782	10236.48
715.125	10126.88
715.469	10270.61
715.812	10103.6
716.156	10145.86
716.499	10171.63
716.843	10127.78
717.186	10093.44
717.53	10065.41
717.873	10087.33
718.216	10074.68
718.559	10061.57
718.902	9993.55
719.246	10028.35
719.589	9988.58
719.932	9882.82
720.275	9962.82
720.617	9974.57
720.96	9933.89
721.303	9923.04
721.646	9902.03
721.989	9882.59
722.331	9841.01
722.674	9856.61
723.016	9869.71
723.359	9833.55
723.701	9894.57
724.044	9777.51
724.386	9722.15
724.729	9796.04
725.071	9734.57
725.413	9792.2
725.755	9812.09
726.097	9671.98
726.439	9662.94
726.782	9726.67
727.124	9733.44
727.465	9699.32
727.807	9680.79
728.149	9658.64
728.491	9705.65
728.833	9694.35
729.175	9725.31
729.516	9666.1
729.858	9680.56
730.199	9623.62
730.541	9704.07
730.882	9653.45
731.224	9707
731.565	9551.08
731.906	9614.58
732.248	9641.02
732.589	9593.11
732.93	9663.16
733.271	9605.54
733.612	9546.78
733.953	9586.78
734.294	9623.39
734.635	9546.56
734.976	9562.6
735.317	9524.18
735.658	9549.49
735.999	9562.83
736.339	9585.43
736.68	9546.33
737.021	9572.54
737.361	9509.72
737.702	9633.33
738.042	9675.37
738.383	9608.02
738.723	9618.65
739.063	9671.98
739.404	9617.52
739.744	9633.33
740.084	9566.9
740.424	9642.15
740.764	9679.21
741.104	9728.02
741.444	9651.41
741.784	9693.22
742.124	9722.6
742.464	9720.34
742.804	9727.12
743.143	9770.51
743.483	9804.4
743.823	9772.31
744.162	9852.54
744.502	9849.15
744.841	9858.64
745.181	9936.38
745.52	9904.29
745.86	9931.86
746.199	9998.3
746.538	10047.56
746.877	10130.5
747.216	10166.88
747.556	10210.27
747.895	10220.66
748.234	10273.09
748.573	10261.79
748.911	10295.69
749.25	10367.78
749.589	10455.46
749.928	10503.59
750.267	10611.39
750.605	10658.84
750.944	10749.24
751.283	10784.04
751.621	10932.51
751.96	10939.51
752.298	11070.58
752.636	11202.33
752.975	11245.95
753.313	11370.69
753.651	11504.92
753.989	11521.19
754.327	11660.17
754.666	11716.9
755.004	11902.2
755.342	12033.5
755.679	12137.22
756.017	12228.07
756.355	12360.49
756.693	12554.61
757.031	12659.02
757.368	12727.04
757.706	12915.96
758.044	12962.51
