Data from hue_90_FLMS001491_27.txt Node
Date: Mon Feb 06 15:24:54 GMT 2017
User: dcchb
Spectrometer: FLMS00149
Trigger mode: 0
Integration Time (sec): 2.000000E-2
Scans to average: 10
Electric dark correction enabled: true
Nonlinearity correction enabled: false
Boxcar width: 0
XAxis mode: Wavelengths
Number of Pixels in Spectrum: 2048
>>>>>Begin Spectral Data<<<<<
341.393	-22.89
341.776	-22.89
342.16	-22.89
342.543	-60.41
342.927	-71.71
343.31	-63.8
343.693	-43.69
344.077	-66.96
344.46	-66.96
344.843	-54.08
345.226	-39.84
345.61	-35.1
345.993	-30.35
346.376	6.93
346.759	16.65
347.142	34.5
347.525	44
347.908	53.94
348.291	69.98
348.674	71.11
349.057	103.66
349.44	112.02
349.823	134.16
350.206	157.21
350.588	195.86
350.971	208.74
351.354	213.03
351.737	254.16
352.119	248.51
352.502	269.07
352.884	269.75
353.267	277.89
353.65	283.76
354.032	304.33
354.414	326.02
354.797	287.15
355.179	287.15
355.562	301.16
355.944	332.58
356.326	341.84
356.709	330.54
357.091	338.9
357.473	346.59
357.855	320.82
358.238	344.1
358.62	326.47
359.002	349.07
359.384	352.91
359.766	348.17
360.148	339.36
360.53	332.58
360.912	305.01
361.294	353.14
361.676	317.66
362.057	331.45
362.439	337.32
362.821	338.68
363.203	331.45
363.584	322.63
363.966	319.47
364.348	318.79
364.729	326.25
365.111	312.69
365.493	328.51
365.874	320.6
366.256	339.58
366.637	310.66
367.019	311.56
367.4	321.05
367.781	317.89
368.163	320.37
368.544	311.11
368.925	301.84
369.306	300.71
369.688	330.54
370.069	326.25
370.45	315.18
370.831	305.46
371.212	300.71
371.593	329.86
371.974	314.72
372.355	309.3
372.736	301.39
373.117	294.16
373.498	308.62
373.879	320.15
374.26	319.24
374.641	302.97
375.021	322.86
375.402	334.38
375.783	331.67
376.163	319.92
376.544	325.57
376.925	306.36
377.305	315.18
377.686	312.46
378.066	310.43
378.447	350.2
378.827	323.08
379.208	338.23
379.588	339.13
379.968	334.16
380.349	345.91
380.729	344.78
381.109	348.39
381.489	341.39
381.87	316.98
382.25	344.1
382.63	352.69
383.01	329.64
383.39	343.88
383.77	348.17
384.15	339.58
384.53	344.1
384.91	344.55
385.29	342.52
385.67	354.95
386.049	364.21
386.429	367.83
386.809	344.55
387.189	364.89
387.568	346.81
387.948	345.01
388.328	372.57
388.707	363.76
389.087	360.37
389.466	358.56
389.846	380.48
390.225	392.01
390.605	348.17
390.984	354.72
391.363	372.35
391.743	381.61
392.122	370.09
392.501	384.55
392.881	379.81
393.26	361.05
393.639	382.52
394.018	372.8
394.397	378.9
394.776	371.45
395.155	399.47
395.534	404.21
395.913	382.07
396.292	383.65
396.671	385.46
397.05	390.65
397.429	406.7
397.808	390.88
398.186	403.99
398.565	392.69
398.944	396.76
399.323	391.78
399.701	418.68
400.08	392.24
400.458	402.18
400.837	387.26
401.215	411.22
401.594	403.53
401.972	420.03
402.351	411.44
402.729	431.33
403.107	417.77
403.486	424.33
403.864	415.74
404.242	425.91
404.62	435.17
404.999	451.67
405.377	448.28
405.755	444.66
406.133	424.78
406.511	428.17
406.889	464.1
407.267	470.43
407.645	450.99
408.023	448.96
408.401	476.75
408.779	473.14
409.156	454.83
409.534	422.97
409.912	458.67
410.29	472.46
410.667	481.95
411.045	468.84
411.422	493.48
411.8	465.23
412.178	485.57
412.555	479.92
412.933	505.23
413.31	490.99
413.687	484.21
414.065	513.36
414.442	500.03
414.819	535.28
415.197	509.75
415.574	535.96
415.951	517.2
416.328	529.86
416.705	507.94
417.082	512.91
417.46	526.47
417.837	537.77
418.214	548.62
418.591	544.55
418.967	545.68
419.344	547.94
419.721	540.25
420.098	554.49
420.475	563.53
420.852	545.45
421.228	559.24
421.605	559.91
421.982	561.95
422.358	584.32
422.735	577.09
423.111	575.28
423.488	599.69
423.864	567.37
424.241	582.06
424.617	574.6
424.994	600.59
425.37	603.98
425.746	588.61
426.123	601.95
426.499	601.04
426.875	606.47
427.251	629.29
427.627	608.05
428.003	639.23
428.379	646.92
428.756	649.18
429.132	664.09
429.507	651.89
429.883	636.3
430.259	689.85
430.635	675.84
431.011	667.48
431.387	685.79
431.763	683.3
432.138	709.29
432.514	690.08
432.89	702.51
433.265	727.82
433.641	707.48
434.016	742.51
434.392	729.85
434.767	725.11
435.143	745.9
435.518	748.61
435.894	777.99
436.269	749.97
436.644	787.71
437.02	815.28
437.395	797.2
437.77	810.3
438.145	796.97
438.52	826.12
438.895	784.99
439.271	822.51
439.646	826.57
440.021	834.03
440.395	848.49
440.77	821.38
441.145	839.46
441.52	833.35
441.895	868.38
442.27	859.34
442.645	862.51
443.019	873.13
443.394	871.09
443.769	882.39
444.143	879.45
444.518	888.04
444.892	913.13
445.267	886.01
445.641	913.13
446.016	904.76
446.39	890.98
446.764	926.46
447.139	930.98
447.513	915.84
447.887	943.63
448.262	940.24
448.636	947.02
449.01	969.17
449.384	966.23
449.758	970.07
450.132	993.8
450.506	982.5
450.88	1004.42
451.254	1007.13
451.628	1016.85
452.002	1029.96
452.376	1014.59
452.75	1033.8
453.123	1051.2
453.497	1058.21
453.871	1054.59
454.244	1094.82
454.618	1080.13
454.992	1076.29
455.365	1100.47
455.739	1118.54
456.112	1128.49
456.486	1137.75
456.859	1150.18
457.232	1178.88
457.606	1189.28
457.979	1198.09
458.352	1222.72
458.725	1208.03
459.099	1258.65
459.472	1250.29
459.845	1271.31
460.218	1292.32
460.591	1281.48
460.964	1309.05
461.337	1345.43
461.71	1351.08
462.083	1378.42
462.456	1366
462.829	1408.93
463.201	1410.06
463.574	1398.08
463.947	1410.97
464.32	1436.5
464.692	1475.82
465.065	1500
465.438	1481.7
465.81	1546.1
466.183	1561.47
466.555	1614.8
466.928	1591.07
467.3	1605.76
467.672	1653.67
468.045	1663.61
468.417	1700.9
468.789	1699.77
469.161	1745.65
469.534	1774.57
469.906	1817.73
470.278	1828.81
470.65	1844.17
471.022	1881.46
471.394	1925.75
471.766	1959.65
472.138	1992.87
472.51	2072.87
472.882	2065.86
473.253	2106.54
473.625	2172.53
473.997	2186.31
474.369	2238.06
474.74	2270.38
475.112	2326.42
475.484	2365.97
475.855	2451.39
476.227	2458.85
476.598	2573.65
476.97	2602.35
477.341	2678.5
477.713	2742.46
478.084	2816.58
478.455	2858.61
478.827	2906.97
479.198	3023.58
479.569	3102.9
479.94	3157.13
480.311	3212.73
480.682	3333.4
481.053	3445.26
481.424	3515.54
481.795	3600.51
482.166	3705.82
482.537	3744.01
482.908	3841.41
483.279	3919.83
483.65	4055.87
484.021	4143.78
484.391	4272.81
484.762	4343.09
485.133	4442.75
485.503	4506.48
485.874	4694.72
486.244	4769.07
486.615	4903.08
486.985	4989.18
487.356	5174.48
487.726	5249.28
488.097	5407.47
488.467	5475.72
488.837	5692.44
489.207	5793
489.578	5906.21
489.948	6002.94
490.318	6119.32
490.688	6233.66
491.058	6366.32
491.428	6526.99
491.798	6669.58
492.168	6795.68
492.538	6910.48
492.908	7025.51
493.278	7200.42
493.648	7315.44
494.017	7477.25
494.387	7538.26
494.757	7721.99
495.126	7813.28
495.496	7928.31
495.866	8016.44
496.235	8181.18
496.605	8232.26
496.974	8393.16
497.344	8524.9
497.713	8569.42
498.082	8742.3
498.452	8830.43
498.821	8928.73
499.19	8981.84
499.559	9215.96
499.928	9270.87
500.298	9336.63
500.667	9410.53
501.036	9499.11
501.405	9627.02
501.774	9684.65
502.143	9846.68
502.512	9866.56
502.88	9979.1
503.249	10049.61
503.618	10169.15
503.987	10211.41
504.356	10362.59
504.724	10457.73
505.093	10463.61
505.462	10544.96
505.83	10569.59
506.199	10693.66
506.567	10868.8
506.936	10812.75
507.304	10935.69
507.672	11029.24
508.041	11078.96
508.409	11216.36
508.777	11232.4
509.145	11294.1
509.514	11359.86
509.882	11424.04
510.25	11561.21
510.618	11524.6
510.986	11612.51
511.354	11661.09
511.722	11753.97
512.09	11824.7
512.458	11810.92
512.826	11953.29
513.193	11976.11
513.561	12002.55
513.929	12072.15
514.297	12132.49
514.664	12247.52
515.032	12292.49
515.4	12379.04
515.767	12336.33
516.135	12416.33
516.502	12386.04
516.869	12564.34
517.237	12565.02
517.604	12526.38
517.972	12636.43
518.339	12651.8
518.706	12623.55
519.073	12744
519.44	12803.21
519.808	12909.19
520.175	12858.12
520.542	12940.83
520.909	13092.47
521.276	12993.49
521.643	13120.04
522.009	13159.81
522.376	13104.67
522.743	13202.29
523.11	13348.5
523.477	13413.59
523.843	13343.08
524.21	13418.33
524.577	13489.52
524.943	13580.82
525.31	13505.11
525.676	13662.62
526.043	13635.5
526.409	13726.57
526.776	13736.97
527.142	13781.26
527.508	13815.16
527.874	13871.66
528.241	13834.37
528.607	13882.73
528.973	13909.39
529.339	13856.06
529.705	13935.16
530.071	13982.84
530.437	14016.74
530.803	14034.36
531.169	14030.07
531.535	13948.72
531.901	14002.05
532.267	14010.63
532.632	14061.93
532.998	14043.4
533.364	14098.09
533.73	14024.42
534.095	14160.46
534.461	14126.11
534.826	14072.1
535.192	14089.73
535.557	14147.35
535.923	14004.98
536.288	14068.03
536.653	14104.19
537.019	14044.98
537.384	14098.54
537.749	14016.74
538.114	14095.6
538.479	13913.91
538.845	14009.73
539.21	13941.48
539.575	13950.97
539.94	13944.2
540.305	14004.08
540.67	13902.61
541.034	13946
541.399	13919.79
541.764	13901.94
542.129	13876.17
542.494	13827.81
542.858	13834.82
543.223	13841.15
543.587	13812.9
543.952	13745.33
544.316	13848.6
544.681	13765.67
545.045	13698.33
545.41	13721.83
545.774	13692
546.138	13710.3
546.503	13593.02
546.867	13499.01
547.231	13678.21
547.595	13572.45
547.959	13624.43
548.324	13545.56
548.688	13577.43
549.052	13521.83
549.416	13492.23
549.779	13503.08
550.143	13429.86
550.507	13499.91
550.871	13508.5
551.235	13430.31
551.599	13411.55
551.962	13346.02
552.326	13478.22
552.689	13408.62
553.053	13340.6
553.417	13377.43
553.78	13458.56
554.143	13357.54
554.507	13400.71
554.87	13337.43
555.234	13409.29
555.597	13357.09
555.96	13331.78
556.323	13320.94
556.686	13289.52
557.05	13280.03
557.413	13268.28
557.776	13335.85
558.139	13325.91
558.502	13297.66
558.865	13321.61
559.228	13304.89
559.59	13302.86
559.953	13302.86
560.316	13404.77
560.679	13397.77
561.041	13483.42
561.404	13419.69
561.767	13447.49
562.129	13382.4
562.492	13533.36
562.854	13369.07
563.217	13377.43
563.579	13433.47
563.941	13530.65
564.304	13550.53
564.666	13600.25
565.028	13615.62
565.39	13593.92
565.753	13653.58
566.115	13701.49
566.477	13668.27
566.839	13569.52
567.201	13717.31
567.563	13614.71
567.925	13695.16
568.287	13661.04
568.648	13641.15
569.01	13707.37
569.372	13814.26
569.734	13733.35
570.095	13843.86
570.457	13843.41
570.819	13869.17
571.18	13812.9
571.542	13854.93
571.903	13899
572.265	13974.25
572.626	13964.31
572.987	13973.35
573.349	13962.95
573.71	14003.18
574.071	13948.94
574.432	13993.01
574.794	14119.78
575.155	14044.76
575.516	14013.8
575.877	14142.38
576.238	14041.82
576.599	14090.18
576.96	14136.96
577.32	14195.26
577.681	14112.55
578.042	14175.38
578.403	14215.37
578.763	14125.43
579.124	14192.32
579.485	14162.04
579.845	14247.24
580.206	14243.62
580.566	14121.14
580.927	14191.42
581.287	14164.53
581.648	14182.61
582.008	14197.52
582.368	14186.45
582.728	14173.12
583.089	14083.63
583.449	14177.64
583.809	14127.47
584.169	14229.84
584.529	14112.1
584.889	14328.14
585.249	14121.37
585.609	14082.04
585.969	14182.16
586.329	14165.21
586.688	14120.01
587.048	14126.79
587.408	14060.12
587.768	14082.5
588.127	14180.12
588.487	14078.43
588.846	14154.36
589.206	13995.95
589.565	14042.95
589.925	14041.82
590.284	14009.28
590.643	13977.87
591.003	14084.98
591.362	14030.97
591.721	14117.07
592.08	14010.18
592.44	14008.6
592.799	14042.5
593.158	14004.98
593.517	14001.6
593.876	13978.32
594.235	14005.89
594.593	14000.92
594.952	14015.15
595.311	13969.05
595.67	13993.69
596.029	14048.37
596.387	14063.06
596.746	14074.59
597.104	13928.38
597.463	13950.52
597.822	14038.88
598.18	13919.34
598.538	13950.3
598.897	14003.85
599.255	13934.48
599.613	14066.9
599.972	13970.41
600.33	13981.26
600.688	13946.23
601.046	14021.03
601.404	13993.91
601.762	13934.93
602.12	14085.89
602.478	14031.88
602.836	13938.77
603.194	13945.1
603.552	13986.45
603.91	13880.92
604.268	13948.94
604.625	13976.96
604.983	13971.77
605.341	13920.02
605.698	14038.43
606.056	14080.01
606.413	14004.31
606.771	14133.12
607.128	14012.89
607.485	13986.45
607.843	13999.11
608.2	14075.72
608.557	14057.86
608.914	13953.01
609.272	14122.95
609.629	14164.53
609.986	14190.06
610.343	14119.78
610.7	14209.95
611.057	14114.59
611.414	14111.87
611.771	14145.09
612.127	14200.91
612.484	14138.77
612.841	14188.03
613.198	14187.13
613.554	14239.55
613.911	14256.96
614.267	14254.7
614.624	14210.86
614.98	14269.16
615.337	14299.89
615.693	14253.79
616.05	14226.45
616.406	14303.28
616.762	14279.33
617.118	14359.1
617.475	14192.1
617.831	14284.07
618.187	14324.98
618.543	14367.69
618.899	14435.71
619.255	14354.58
619.611	14331.98
619.967	14471.41
620.323	14421.47
620.678	14414.01
621.034	14396.16
621.39	14364.75
621.746	14446.78
622.101	14531.3
622.457	14378.99
622.812	14461.47
623.168	14425.31
623.523	14400.45
623.879	14501.02
624.234	14341.93
624.589	14400.68
624.945	14334.69
625.3	14434.35
625.655	14376.73
626.01	14430.51
626.365	14406.56
626.72	14423.73
627.075	14364.52
627.43	14384.18
627.785	14417.63
628.14	14448.82
628.495	14500.57
628.85	14404.3
629.205	14350.96
629.559	14474.35
629.914	14368.37
630.269	14320.68
630.623	14396.16
630.978	14314.36
631.332	14382.6
631.687	14367.24
632.041	14313.9
632.396	14345.99
632.75	14266.22
633.104	14303.51
633.459	14208.82
633.813	14184.42
634.167	14221.7
634.521	14174.02
634.875	14192.55
635.229	14172.89
635.583	14115.04
635.937	14141.7
636.291	14067.13
636.645	14117.75
636.999	14057.19
637.352	14063.74
637.706	14061.25
638.06	14092.67
638.413	13983.29
638.767	13962.27
639.121	14009.5
639.474	13893.8
639.828	13903.74
640.181	13836.4
640.534	13895.38
640.888	13872.56
641.241	13781.49
641.594	13846.8
641.947	13901.48
642.301	13772.67
642.654	13853.12
643.007	13825.55
643.36	13851.54
643.713	13805.44
644.066	13836.4
644.419	13765.9
644.771	13645.67
645.124	13612
645.477	13533.13
645.83	13493.13
646.182	13422.4
646.535	13346.02
646.888	13434.15
647.24	13356.87
647.593	13316.42
647.945	13425.57
648.298	13333.59
648.65	13294.95
649.002	13240.94
649.355	13351.67
649.707	13190.54
650.059	13411.33
650.411	13499.69
650.763	13496.07
651.115	13609.74
651.467	13603.87
651.819	13657.88
652.171	13601.15
652.523	13557.31
652.875	13633.7
653.227	13585.56
653.578	13616.52
653.93	13584.43
654.282	13569.74
654.633	13521.16
654.985	13572.91
655.337	13528.39
655.688	13584.2
656.039	13648.61
656.391	13520.25
656.742	13538.33
657.094	13557.09
657.445	13548.5
657.796	13546.24
658.147	13579.46
658.498	13537.65
658.849	13534.94
659.2	13519.8
659.551	13530.87
659.902	13619.46
660.253	13501.95
660.604	13533.81
660.955	13516.18
661.306	13586.92
661.656	13455.39
662.007	13545.34
662.358	13621.27
662.708	13620.59
663.059	13611.1
663.409	13473.7
663.76	13545.11
664.11	13565.22
664.461	13641.38
664.811	13583.08
665.161	13643.64
665.511	13602.96
665.862	13572.68
666.212	13709.85
666.562	13696.74
666.912	13602.74
667.262	13616.29
667.612	13632.11
667.962	13586.69
668.312	13641.38
668.662	13622.4
669.011	13669.17
669.361	13537.88
669.711	13584.43
670.06	13535.84
670.41	13507.6
670.76	13528.84
671.109	13585.79
671.459	13526.81
671.808	13563.19
672.157	13554.83
672.507	13511.44
672.856	13491.78
673.205	13475.28
673.554	13417.43
673.904	13428.5
674.253	13460.14
674.602	13522.51
674.951	13268.73
675.3	13235.29
675.649	13371.56
675.998	13351.22
676.346	13395.96
676.695	13402.29
677.044	13294.04
677.393	13350.09
677.741	13332.91
678.09	13422.4
678.438	13305.79
678.787	13353.48
679.135	13306.92
679.484	13172.92
679.832	13238.68
680.181	13156.65
680.529	13190.99
680.877	13204.55
681.225	13129.08
681.573	13267.83
681.922	13089.08
682.27	13071.9
682.618	13089.98
682.966	12983.77
683.314	13105.12
683.661	12991
684.009	12937.22
684.357	12882.75
684.705	12898.8
685.053	12858.57
685.4	12924.11
685.748	12820.38
686.095	12738.13
686.443	12774.06
686.79	12716.66
687.138	12747.16
687.485	12743.1
687.832	12695.41
688.18	12640.05
688.527	12630.33
688.874	12649.99
689.221	12553.27
689.568	12590.56
689.915	12496.55
690.262	12521.41
690.609	12464.23
690.956	12411.13
691.303	12355.31
691.65	12339.49
691.997	12288.42
692.344	12178.14
692.69	12163.23
693.037	12228.53
693.383	12031.48
693.73	12050.01
694.077	12054.75
694.423	12042.32
694.769	12019.95
695.116	11913.06
695.462	11900.18
695.808	11811.14
696.155	11901.76
696.501	11777.02
696.847	11761.88
697.193	11699.96
697.539	11679.85
697.885	11621.54
698.231	11537.48
698.577	11537.25
698.923	11472.4
699.269	11405.73
699.614	11382.45
699.96	11356.92
700.306	11384.04
700.651	11293.42
700.997	11259.52
701.342	11170.94
701.688	11172.29
702.033	11188.79
702.379	11180.43
702.724	11121.67
703.069	11126.64
703.415	10994.89
703.76	10977.72
704.105	10989.24
704.45	10977.27
704.795	10860.43
705.14	10831.73
705.485	10866.76
705.83	10807.1
706.175	10819.76
706.52	10739.53
706.865	10685.52
707.209	10660.67
707.554	10704.96
707.899	10661.34
708.243	10635.58
708.588	10511.97
708.932	10532.76
709.277	10460.67
709.621	10531.86
709.966	10413.21
710.31	10434.91
710.654	10365.08
710.998	10415.7
711.342	10299.55
711.687	10246.89
712.031	10211.19
712.375	10248.02
712.719	10210.51
713.063	10203.73
713.407	10242.37
713.75	10211.86
714.094	10208.7
714.438	10087.8
714.782	10180.45
715.125	10042.38
715.469	10111.53
715.812	9979.1
716.156	9996.5
716.499	9990.85
716.843	10046.22
717.186	9946.79
717.53	9970.97
717.873	9976.62
718.216	9921.93
718.559	9909.05
718.902	9775.72
719.246	9886.45
719.589	9859.78
719.932	9836.96
720.275	9815.49
720.617	9772.55
720.96	9772.55
721.303	9747.47
721.646	9779.11
721.989	9756.06
722.331	9806.9
722.674	9693.23
723.016	9773.46
723.359	9742.27
723.701	9772.55
724.044	9622.73
724.386	9579.11
724.729	9679.67
725.071	9635.38
725.413	9652.56
725.755	9682.39
726.097	9552.22
726.439	9540.24
726.782	9541.6
727.124	9560.36
727.465	9573.69
727.807	9544.09
728.149	9567.14
728.491	9589.51
728.833	9544.76
729.175	9542.5
729.516	9526.23
729.858	9519
730.199	9530.98
730.541	9524.88
730.882	9458.66
731.224	9476.97
731.565	9429.06
731.906	9496.18
732.248	9478.78
732.589	9436.07
732.93	9448.04
733.271	9399
733.612	9404.88
733.953	9469.28
734.294	9405.11
734.635	9453.24
734.976	9502.05
735.317	9376.18
735.658	9428.38
735.999	9511.09
736.339	9424.09
736.68	9539.79
737.021	9454.14
737.361	9436.07
737.702	9421.83
738.042	9366.01
738.383	9434.03
738.723	9436.74
739.063	9443.75
739.404	9482.17
739.744	9554.03
740.084	9434.94
740.424	9485.56
740.764	9446.23
741.104	9482.17
741.444	9480.81
741.784	9456.63
742.124	9554.03
742.464	9540.7
742.804	9505.22
743.143	9541.83
743.483	9541.37
743.823	9502.96
744.162	9549.73
744.502	9606.46
744.841	9588.15
745.181	9662.05
745.52	9716.28
745.86	9768.94
746.199	9733.46
746.538	9737.98
746.877	9820.01
747.216	9861.14
747.556	9843.06
747.895	9923.51
748.234	9900.91
748.573	9945.2
748.911	10024.75
749.25	10044.86
749.589	10067.91
749.928	10177.51
750.267	10212.32
750.605	10235.14
750.944	10297.74
751.283	10345.42
751.621	10511.97
751.96	10465.64
752.298	10615.02
752.636	10718.07
752.975	10725.07
753.313	10802.36
753.651	10891.85
753.989	10982.24
754.327	11093.42
754.666	11184.04
755.004	11267.2
755.342	11369.57
755.679	11494.32
756.017	11595.56
756.355	11677.81
756.693	11800.98
757.031	11962.33
757.368	12014.98
757.706	12125.03
758.044	12217.01
758.381	12452.94
