Data from hue_280_FLMS001491_00090.txt Node
Date: Tue Feb 07 15:55:55 GMT 2017
User: dcchb
Spectrometer: FLMS00149
Trigger mode: 0
Integration Time (sec): 2.000000E-2
Scans to average: 10
Electric dark correction enabled: true
Nonlinearity correction enabled: false
Boxcar width: 0
XAxis mode: Wavelengths
Number of Pixels in Spectrum: 2048
>>>>>Begin Spectral Data<<<<<
341.393	-30.8
341.776	-30.8
342.16	-30.8
342.543	-59.28
342.927	-63.35
343.31	-71.26
343.693	-61.76
344.077	-77.81
344.46	-61.99
344.843	-34.19
345.226	-36.23
345.61	-44.59
345.993	-19.05
346.376	-14.31
346.759	2.87
347.142	30.66
347.525	46.26
347.908	69.98
348.291	85.12
348.674	76.31
349.057	109.98
349.44	114.28
349.823	141.85
350.206	161.51
350.588	182.52
350.971	186.14
351.354	216.42
351.737	225.91
352.119	237.44
352.502	261.62
352.884	262.75
353.267	269.75
353.65	293.26
354.032	277.66
354.414	290.32
354.797	299.81
355.179	314.05
355.562	319.47
355.944	299.13
356.326	321.95
356.709	310.2
357.091	332.35
357.473	311.11
357.855	322.86
358.238	338.45
358.62	340.71
359.002	325.8
359.384	319.92
359.766	330.54
360.148	336.64
360.53	341.84
360.912	323.54
361.294	335.51
361.676	323.76
362.057	323.54
362.439	342.97
362.821	321.05
363.203	329.64
363.584	304.78
363.966	319.69
364.348	324.21
364.729	307.49
365.111	323.76
365.493	317.44
365.874	319.47
366.256	316.76
366.637	297.1
367.019	304.78
367.4	290.32
367.781	277.44
368.163	320.15
368.544	312.24
368.925	321.05
369.306	312.46
369.688	288.51
370.069	305.91
370.45	276.53
370.831	292.58
371.212	310.43
371.593	300.71
371.974	307.04
372.355	310.88
372.736	317.21
373.117	306.36
373.498	311.33
373.879	309.07
374.26	300.71
374.641	288.51
375.021	292.8
375.402	314.27
375.783	316.08
376.163	317.44
376.544	320.37
376.925	312.01
377.305	326.02
377.686	296.87
378.066	316.53
378.447	295.74
378.827	320.6
379.208	345.23
379.588	319.02
379.968	306.14
380.349	312.69
380.729	345.68
381.109	306.14
381.489	322.86
381.87	332.12
382.25	315.4
382.63	326.93
383.01	337.32
383.39	303.2
383.77	333.48
384.15	333.03
384.53	338.68
384.91	346.36
385.29	341.62
385.67	333.48
386.049	328.06
386.429	356.08
386.809	341.16
387.189	340.94
387.568	349.98
387.948	354.04
388.328	337.55
388.707	347.04
389.087	338
389.466	368.73
389.846	336.87
390.225	358.34
390.605	355.85
390.984	349.3
391.363	370.77
391.743	374.16
392.122	355.85
392.501	359.92
392.881	366.25
393.26	369.41
393.639	364.67
394.018	365.8
394.397	363.54
394.776	380.94
395.155	377.32
395.534	389.75
395.913	378.9
396.292	367.6
396.671	388.39
397.05	373.48
397.429	368.96
397.808	360.15
398.186	401.95
398.565	383.2
398.944	399.24
399.323	398.34
399.701	396.08
400.08	393.37
400.458	397.89
400.837	407.15
401.215	406.92
401.594	407.15
401.972	413.7
402.351	418
402.729	411.67
403.107	406.7
403.486	423.2
403.864	428.39
404.242	446.7
404.62	422.29
404.999	436.53
405.377	446.47
405.755	433.82
406.133	453.48
406.511	422.07
406.889	450.31
407.267	458.45
407.645	472.23
408.023	485.57
408.401	453.7
408.779	470.88
409.156	490.99
409.534	467.26
409.912	491.44
410.29	497.77
410.667	502.29
411.045	501.16
411.422	517.2
411.8	517.2
412.178	507.94
412.555	509.07
412.933	522.4
413.31	549.52
413.687	569.18
414.065	540.25
414.442	560.59
414.819	563.08
415.197	575.51
415.574	586.58
415.951	587.48
416.328	609.63
416.705	594.49
417.082	619.57
417.46	624.09
417.837	648.95
418.214	631.55
418.591	633.59
418.967	629.29
419.344	623.42
419.721	655.73
420.098	648.5
420.475	633.13
420.852	657.99
421.228	669.52
421.605	681.49
421.982	694.15
422.358	716.52
422.735	693.92
423.111	711.1
423.488	741.15
423.864	736.41
424.241	737.99
424.617	758.55
424.994	741.83
425.37	775.95
425.746	791.77
426.123	783.86
426.499	798.33
426.875	809.85
427.251	788.38
427.627	827.48
428.003	824.31
428.379	839.91
428.756	882.84
429.132	854.6
429.507	855.27
429.883	875.39
430.259	893.92
430.635	897.98
431.011	911.77
431.387	912.67
431.763	931.2
432.138	948.61
432.514	937.53
432.89	954.71
433.265	1001.94
433.641	1011.43
434.016	992.22
434.392	1034.03
434.767	1024.76
435.143	1074.25
435.518	1025.89
435.894	1080.8
436.269	1100.92
436.644	1081.03
437.02	1095.27
437.395	1111.31
437.77	1171.42
438.145	1172.55
438.52	1164.19
438.895	1185.21
439.271	1182.05
439.646	1184.31
440.021	1210.07
440.395	1220.46
440.77	1220.69
441.145	1220.24
441.52	1253.68
441.895	1238.99
442.27	1247.35
442.645	1281.25
443.019	1315.38
443.394	1300.01
443.769	1315.15
444.143	1269.05
444.518	1321.48
444.892	1295.26
445.267	1307.47
445.641	1344.98
446.016	1326
446.39	1355.83
446.764	1353.57
447.139	1333
447.513	1377.07
447.887	1377.29
448.262	1362.15
448.636	1414.58
449.01	1393.57
449.384	1405.77
449.758	1446.9
450.132	1425.65
450.506	1438.54
450.88	1462.49
451.254	1446.67
451.628	1460
452.002	1503.62
452.376	1477.63
452.75	1495.71
453.123	1491.42
453.497	1505.88
453.871	1543.39
454.244	1566.89
454.618	1579.1
454.992	1579.1
455.365	1571.19
455.739	1604.41
456.112	1613.67
456.486	1618.64
456.859	1620.23
457.232	1659.09
457.606	1685.99
457.979	1695.93
458.352	1678.08
458.725	1715.36
459.099	1703.16
459.472	1736.15
459.845	1751.07
460.218	1742.71
460.591	1771.86
460.964	1774.35
461.337	1802.82
461.71	1821.58
462.083	1830.16
462.456	1853.44
462.829	1847.56
463.201	1848.02
463.574	1853.67
463.947	1898.18
464.32	1939.09
464.692	1954.68
465.065	1973.66
465.438	1963.95
465.81	1998.52
466.183	1984.74
466.555	2080.78
466.928	2032.87
467.3	2048.69
467.672	2085.07
468.045	2118.29
468.417	2113.55
468.789	2124.62
469.161	2153.32
469.534	2179.76
469.906	2217.72
470.278	2221.57
470.65	2226.76
471.022	2305.18
471.394	2308.8
471.766	2304.28
472.138	2323.03
472.51	2358.51
472.882	2384.73
473.253	2436.48
473.625	2437.38
473.997	2456.81
474.369	2477.83
474.74	2507.66
475.112	2543.14
475.484	2572.74
475.855	2596.7
476.227	2614.55
476.598	2700.2
476.97	2685.28
477.341	2719.18
477.713	2734.09
478.084	2779.52
478.455	2817.48
478.827	2836.01
479.198	2899.51
479.569	2889.8
479.94	2935.22
480.311	3004.82
480.682	3010.02
481.053	3076.46
481.424	3154.65
481.795	3180.64
482.166	3182.44
482.537	3171.15
482.908	3262.89
483.279	3225.16
483.65	3311.93
484.021	3343.57
484.391	3398.71
484.762	3419.5
485.133	3419.95
485.503	3469.44
485.874	3515.32
486.244	3553.96
486.615	3590.12
486.985	3607.74
487.356	3708.08
487.726	3657.23
488.097	3734.29
488.467	3743.56
488.837	3819.94
489.207	3854.07
489.578	3870.79
489.948	3899.71
490.318	3963.89
490.688	3951.24
491.058	3990.78
491.428	4063.33
491.798	4080.95
492.168	4090.9
492.538	4104.68
492.908	4152.59
493.278	4218.12
493.648	4216.99
494.017	4194.17
494.387	4271.23
494.757	4290.89
495.126	4350.32
495.496	4340.15
495.866	4374.73
496.235	4413.82
496.605	4438.91
496.974	4468.51
497.344	4465.35
497.713	4514.39
498.082	4501.28
498.452	4574.27
498.821	4560.26
499.19	4548.28
499.559	4550.32
499.928	4610.43
500.298	4678
500.667	4692.46
501.036	4673.03
501.405	4682.52
501.774	4673.03
502.143	4699.92
502.512	4752.57
502.88	4801.84
503.249	4763.87
503.618	4758.45
503.987	4798.22
504.356	4800.03
504.724	4859.24
505.093	4836.19
505.462	4844.55
505.83	4915.96
506.199	4913.47
506.567	4975.17
506.936	4881.38
507.304	5012.23
507.672	4949.86
508.041	5034.37
508.409	5005.9
508.777	5045.9
509.145	5052.23
509.514	5051.1
509.882	5100.36
510.25	5066.69
510.618	5139.68
510.986	5112.56
511.354	5163.41
511.722	5166.35
512.09	5128.38
512.458	5184.88
512.826	5239.57
513.193	5225.55
513.561	5216.74
513.929	5242.5
514.297	5255.38
514.664	5316.4
515.032	5319.34
515.4	5284.08
515.767	5296.97
516.135	5373.12
516.502	5302.84
516.869	5369.51
517.237	5420.13
517.604	5365.66
517.972	5431.42
518.339	5474.59
518.706	5411.31
519.073	5369.73
519.44	5441.14
519.808	5468.26
520.175	5496.28
520.542	5501.48
520.909	5507.13
521.276	5512.55
521.643	5586.9
522.009	5567.92
522.376	5603.4
522.743	5604.53
523.11	5676.62
523.477	5718.88
523.843	5633.68
524.21	5710.06
524.577	5751.42
524.943	5772.66
525.31	5733.56
525.676	5825.76
526.043	5801.36
526.409	5884.29
526.776	5865.09
527.142	5867.12
527.508	5847.01
527.874	5936.95
528.241	5956.83
528.607	5918.19
528.973	5972.65
529.339	5992.99
529.705	6100.56
530.071	6108.02
530.437	6016.49
530.803	6030.05
531.169	6137.85
531.535	6100.33
531.901	6096.27
532.267	6167
532.632	6217.17
532.998	6138.3
533.364	6204.96
533.73	6195.25
534.095	6296.49
534.461	6270.27
534.826	6293.1
535.192	6231.86
535.557	6312.31
535.923	6328.35
536.288	6320.44
536.653	6363.38
537.019	6289.93
537.384	6386.2
537.749	6390.5
538.114	6380.1
538.479	6365.41
538.845	6345.98
539.21	6383.04
539.575	6405.86
539.94	6451.06
540.305	6518.85
540.67	6433.43
541.034	6523.6
541.399	6504.62
541.764	6455.13
542.129	6544.84
542.494	6507.55
542.858	6554.11
543.223	6579.19
543.587	6603.15
543.952	6582.81
544.316	6583.26
544.681	6573.77
545.045	6635.24
545.41	6645.86
545.774	6628.91
546.138	6618.29
546.503	6663.71
546.867	6702.8
547.231	6682.92
547.595	6709.13
547.959	6738.51
548.324	6728.57
548.688	6707.1
549.052	6730.83
549.416	6771.05
549.779	6766.31
550.143	6776.7
550.507	6764.27
550.871	6819.19
551.235	6734.22
551.599	6876.36
551.962	6922.01
552.326	6837.72
552.689	6879.3
553.053	6838.17
553.417	6847.88
553.78	6926.75
554.143	6915.68
554.507	6951.84
554.87	6932.4
555.234	7046.52
555.597	6958.16
555.96	6971.95
556.323	7023.93
556.686	7049.46
557.05	6990.48
557.413	7063.7
557.776	7050.59
558.139	7053.98
558.502	7112.06
558.865	7100.76
559.228	7129.69
559.59	7139.18
559.953	7196.8
560.316	7204.71
560.679	7207.2
561.041	7259.17
561.404	7304.82
561.767	7292.39
562.129	7267.76
562.492	7363.8
562.854	7368.55
563.217	7370.36
563.579	7435.21
563.941	7453.52
564.304	7446.51
564.666	7491.71
565.028	7472.73
565.39	7506.17
565.753	7603.57
566.115	7583.68
566.477	7572.16
566.839	7640.86
567.201	7730.57
567.563	7703.23
567.925	7681.76
568.287	7776
568.648	7795.2
569.01	7818.48
569.372	7848.08
569.734	7795.66
570.095	7921.98
570.457	7897.35
570.819	7961.53
571.18	7970.79
571.542	8002.43
571.903	7932.83
572.265	8038.36
572.626	8052.15
572.987	8178.02
573.349	8085.14
573.71	8105.25
574.071	8184.35
574.432	8196.78
574.794	8309.54
575.155	8271.35
575.516	8266.38
575.877	8287.85
576.238	8401.29
576.599	8445.13
576.96	8393.16
577.32	8416.21
577.681	8488.29
578.042	8524.9
578.403	8547.5
578.763	8566.48
579.124	8643.77
579.485	8664.79
579.845	8752.92
580.206	8752.02
580.566	8795.18
580.927	8811.22
581.287	8923.31
581.648	8910.66
582.008	8924.89
582.368	8986.81
582.728	9081.72
583.089	9034.95
583.449	9182.51
583.809	9193.81
584.169	9253.25
584.529	9302.51
584.889	9394.03
585.249	9358.78
585.609	9444.43
585.969	9499.57
586.329	9571.43
586.688	9607.36
587.048	9587.47
587.408	9706.57
587.768	9830.86
588.127	9862.95
588.487	9886.45
588.846	9971.19
589.206	9996.95
589.565	10053.22
589.925	10153.56
590.284	10168.48
590.643	10266.1
591.003	10337.51
591.362	10429.49
591.721	10430.84
592.08	10499.54
592.44	10685.98
592.799	10679.42
593.158	10639.88
593.517	10777.05
593.876	10896.59
594.235	10859.98
594.593	10918.29
594.952	11043.48
595.311	11075.8
595.67	11123.93
596.029	11265.4
596.387	11279.63
596.746	11373.87
597.104	11334.09
597.463	11431.95
597.822	11547.87
598.18	11518.5
598.538	11533.64
598.897	11659.28
599.255	11608.89
599.613	11856.11
599.972	11836.23
600.33	11908.54
600.688	11952.16
601.046	11952.84
601.404	12017.47
601.762	12042.78
602.12	12164.13
602.478	12186.95
602.836	12222.88
603.194	12250.68
603.552	12285.26
603.91	12311.47
604.268	12374.29
604.625	12305.14
604.983	12471.92
605.341	12406.38
605.698	12551.92
606.056	12577.23
606.413	12632.82
606.771	12742.87
607.128	12682.53
607.485	12728.86
607.843	12692.7
608.2	12797.78
608.557	12895.18
608.914	12867.39
609.272	12861.96
609.629	12981.06
609.986	12933.6
610.343	12960.94
610.7	13129.3
611.057	13123.43
611.414	13087.27
611.771	13178.79
612.127	13264.89
612.484	13253.82
612.841	13247.49
613.198	13259.24
613.554	13359.13
613.911	13522.74
614.267	13350.99
614.624	13421.27
614.98	13406.58
615.337	13399.13
615.693	13453.59
616.05	13522.74
616.406	13594.6
616.762	13514.38
617.118	13638.44
617.475	13543.98
617.831	13576.3
618.187	13694.03
618.543	13792.56
618.899	13799.79
619.255	13723.18
619.611	13742.62
619.967	13866.68
620.323	13781.49
620.678	13836.4
621.034	13782.84
621.39	13877.98
621.746	13834.59
622.101	13910.52
622.457	13847.93
622.812	13966.57
623.168	13912.11
623.523	13837.08
623.879	13956.62
624.234	13923.41
624.589	13969.51
624.945	14021.26
625.3	14010.86
625.655	13994.59
626.01	14033.91
626.365	13951.65
626.72	13923.41
627.075	13944.2
627.43	13970.86
627.785	13993.23
628.14	14018.54
628.495	14043.18
628.85	13915.72
629.205	13980.8
629.559	14003.18
629.914	13939.22
630.269	14021.03
630.623	13972.9
630.978	13950.07
631.332	14016.28
631.687	14085.43
632.041	13907.81
632.396	13945.78
632.75	13914.14
633.104	13921.6
633.459	13917.98
633.813	13840.02
634.167	13910.07
634.521	13886.8
634.875	13906.68
635.229	13929.73
635.583	13786.01
635.937	13801.37
636.291	13741.49
636.645	13788.72
636.999	13744.88
637.352	13812.67
637.706	13718.44
638.06	13808.38
638.413	13684.09
638.767	13687.25
639.121	13701.49
639.474	13729.74
639.828	13614.71
640.181	13679.57
640.534	13649.29
640.888	13621.49
641.241	13524.32
641.594	13633.47
641.947	13715.95
642.301	13647.93
642.654	13669.85
643.007	13646.8
643.36	13600.48
643.713	13608.16
644.066	13669.4
644.419	13567.93
644.771	13416.98
645.124	13448.39
645.477	13312.8
645.83	13306.92
646.182	13124.78
646.535	13188.74
646.888	13229.19
647.24	13143.09
647.593	13198.45
647.945	13173.14
648.298	13140.37
648.65	13106.48
649.002	13013.6
649.355	13193.25
649.707	13127.27
650.059	13204.33
650.411	13380.14
650.763	13370.88
651.115	13543.08
651.467	13450.65
651.819	13497.88
652.171	13506.92
652.523	13477.54
652.875	13534.94
653.227	13407.71
653.578	13506.69
653.93	13448.16
654.282	13462.85
654.633	13467.6
654.985	13494.49
655.337	13467.37
655.688	13482.51
656.039	13506.47
656.391	13433.47
656.742	13397.09
657.094	13478.45
657.445	13496.98
657.796	13499.24
658.147	13444.32
658.498	13450.42
658.849	13525.68
659.2	13442.29
659.551	13440.93
659.902	13490.2
660.253	13463.3
660.604	13445
660.955	13479.12
661.306	13555.96
661.656	13512.34
662.007	13508.27
662.358	13560.02
662.708	13499.46
663.059	13581.04
663.409	13454.49
663.76	13555.51
664.11	13499.24
664.461	13500.14
664.811	13468.5
665.161	13586.69
665.511	13503.3
665.862	13563.19
666.212	13591.44
666.562	13531.55
666.912	13621.94
667.262	13552.57
667.612	13499.01
667.962	13644.09
668.312	13576.52
668.662	13575.39
669.011	13544.88
669.361	13581.49
669.711	13564.54
670.06	13562.96
670.41	13503.08
670.76	13469.41
671.109	13612.45
671.459	13534.04
671.808	13471.21
672.157	13637.54
672.507	13408.62
672.856	13499.01
673.205	13557.54
673.554	13478.22
673.904	13486.81
674.253	13528.39
674.602	13494.72
674.951	13303.08
675.3	13193.71
675.649	13426.92
675.998	13472.12
676.346	13384.44
676.695	13447.94
677.044	13368.17
677.393	13386.7
677.741	13453.13
678.09	13355.28
678.438	13240.94
678.787	13399.58
679.135	13302.4
679.484	13195.51
679.832	13275.29
680.181	13163.2
680.529	13187.61
680.877	13275.51
681.225	13169.75
681.573	13292.24
681.922	13229.64
682.27	13133.82
682.618	13110.32
682.966	13051.56
683.314	13119.58
683.661	13025.58
684.009	13002.07
684.357	12866.26
684.705	13003.88
685.053	12965.46
685.4	12883.43
685.748	12853.6
686.095	12854.51
686.443	12791.23
686.79	12814.06
687.138	12751.91
687.485	12838.91
687.832	12799.14
688.18	12727.96
688.527	12632.59
688.874	12648.86
689.221	12607.73
689.568	12562.99
689.915	12545.36
690.262	12507.85
690.609	12455.65
690.956	12391.69
691.303	12428.3
691.65	12308.98
691.997	12293.62
692.344	12212.94
692.69	12259.04
693.037	12220.17
693.383	12132.27
693.73	12156.22
694.077	12053.4
694.423	12040.06
694.769	11977.47
695.116	12016.11
695.462	11892.5
695.808	11852.27
696.155	11930.69
696.501	11856.11
696.847	11816.12
697.193	11660.19
697.539	11770.47
697.885	11581.09
698.231	11560.53
698.577	11644.37
698.923	11525.95
699.269	11469.68
699.614	11477.59
699.96	11400.99
700.306	11431.27
700.651	11245.06
700.997	11281.21
701.342	11333.19
701.688	11233.98
702.033	11213.19
702.379	11128.45
702.724	11103.14
703.069	11154.21
703.415	10963.71
703.76	10985.4
704.105	11001.9
704.45	10982.24
704.795	10895.24
705.14	10822.02
705.485	10823.6
705.83	10831.96
706.175	10797.39
706.52	10814.11
706.865	10719.65
707.209	10716.94
707.554	10673.77
707.899	10682.13
708.243	10577.96
708.588	10556.49
708.932	10455.7
709.277	10564.85
709.621	10423.84
709.966	10456.6
710.31	10492.08
710.654	10380
710.998	10401.24
711.342	10373.67
711.687	10391.07
712.031	10363.5
712.375	10312.65
712.719	10236.95
713.063	10257.29
713.407	10302.03
713.75	10195.14
714.094	10201.24
714.438	10175.26
714.782	10167.35
715.125	10162.15
715.469	10177.29
715.812	10100.68
716.156	10012.55
716.499	10037.63
716.843	10022.72
717.186	9942.94
717.53	10015.94
717.873	9966.67
718.216	9896.17
718.559	9945.66
718.902	9798.09
719.246	9907.24
719.589	9783.85
719.932	9878.54
720.275	9813.46
720.617	9821.59
720.96	9824.98
721.303	9835.83
721.646	9817.52
721.989	9706.57
722.331	9749.5
722.674	9783.85
723.016	9777.98
723.359	9745.44
723.701	9829.73
724.044	9675.61
724.386	9701.6
724.729	9676.51
725.071	9684.19
725.413	9739.79
725.755	9635.61
726.097	9669.05
726.439	9580.69
726.782	9647.81
727.124	9640.35
727.465	9670.18
727.807	9659.56
728.149	9547.93
728.491	9566.46
728.833	9549.73
729.175	9551.77
729.516	9584.31
729.858	9568.04
730.199	9592.22
730.541	9521.94
730.882	9538.66
731.224	9559.68
731.565	9545.67
731.906	9522.39
732.248	9540.47
732.589	9497.53
732.93	9503.18
733.271	9508.15
733.612	9490.98
733.953	9548.6
734.294	9488.95
734.635	9507.25
734.976	9512
735.317	9563.07
735.658	9533.01
735.999	9555.61
736.339	9564.42
736.68	9546.12
737.021	9540.7
737.361	9463.86
737.702	9561.03
738.042	9531.88
738.383	9535.5
738.723	9605.55
739.063	9616.17
739.404	9582.05
739.744	9661.37
740.084	9631.54
740.424	9698.43
740.764	9660.92
741.104	9645.1
741.444	9639.22
741.784	9640.13
742.124	9691.88
742.464	9623.18
742.804	9705.89
743.143	9774.14
743.483	9733.68
743.823	9721.71
744.162	9718.09
744.502	9856.39
744.841	9867.01
745.181	9882.61
745.52	9946.11
745.86	9963.74
746.199	10039.67
746.538	10014.81
746.877	10051.64
747.216	10080.79
747.556	10095.03
747.895	10156.72
748.234	10209.83
748.573	10194.01
748.911	10302.48
749.25	10416.83
749.589	10503.83
749.928	10488.47
750.267	10638.52
750.605	10688.91
750.944	10675.13
751.283	10744.51
751.621	10901.79
751.96	10975.69
752.298	10990.6
752.636	11103.82
752.975	11193.08
753.313	11317.6
753.651	11452.51
753.989	11532.28
754.327	11559.63
754.666	11667.42
755.004	11857.92
755.342	11886.4
755.679	12127.29
756.017	12128.88
756.355	12386.72
756.693	12453.39
757.031	12557.57
757.368	12597.34
757.706	12761.85
758.044	12988.74
758.381	13082.98
758.719	13220.6
759.056	13292.24
759.394	13446.36
759.731	13555.05
760.068	13684.99
760.405	13750.98
760.743	13943.74
761.08	14204.53
761.417	14290.85
761.754	14379.44
