Data from hue_70_FLMS001491_63.txt Node
Date: Mon Feb 06 15:21:16 GMT 2017
User: dcchb
Spectrometer: FLMS00149
Trigger mode: 0
Integration Time (sec): 2.000000E-2
Scans to average: 10
Electric dark correction enabled: true
Nonlinearity correction enabled: false
Boxcar width: 0
XAxis mode: Wavelengths
Number of Pixels in Spectrum: 2048
>>>>>Begin Spectral Data<<<<<
341.393	-16.89
341.776	-16.89
342.16	-16.89
342.543	-74.29
342.927	-87.4
343.31	-82.2
343.693	-65.25
344.077	-73.39
344.46	-63.9
344.843	-34.74
345.226	-45.14
345.61	-34.97
345.993	-27.06
346.376	2.54
346.759	8.42
347.142	25.14
347.525	36.89
347.908	76.66
348.291	71.69
348.674	107.62
349.057	97.68
349.44	97.46
349.823	139.71
350.206	158.7
350.588	198.24
350.971	205.25
351.354	227.4
351.737	229.65
352.119	254.51
352.502	255.87
352.884	275.08
353.267	261.07
353.65	274.17
354.032	288.86
354.414	293.38
354.797	304.46
355.179	324.57
355.562	311.23
355.944	329.54
356.326	334.96
356.709	335.87
357.091	340.16
357.473	320.73
357.855	364.34
358.238	346.71
358.62	329.54
359.002	333.16
359.384	325.47
359.766	331.8
360.148	337
360.53	351.69
360.912	325.47
361.294	339.26
361.676	317.11
362.057	327.96
362.439	322.08
362.821	313.95
363.203	309.65
363.584	336.32
363.966	322.08
364.348	321.63
364.729	324.12
365.111	322.08
365.493	314.4
365.874	307.62
366.256	323.66
366.637	323.89
367.019	313.49
367.4	329.09
367.781	319.14
368.163	293.83
368.544	308.07
368.925	308.75
369.306	306.04
369.688	315.53
370.069	297.22
370.45	308.52
370.831	307.39
371.212	313.27
371.593	305.81
371.974	301.74
372.355	302.87
372.736	311.23
373.117	324.57
373.498	296.55
373.879	331.35
374.26	283.21
374.641	312.59
375.021	320.5
375.402	311.91
375.783	301.97
376.163	303.1
376.544	322.08
376.925	320.27
377.305	306.94
377.686	341.74
378.066	316.21
378.447	335.64
378.827	319.82
379.208	316.88
379.588	326.6
379.968	343.1
380.349	336.09
380.729	315.98
381.109	330.9
381.489	336.54
381.87	325.47
382.25	338.8
382.63	340.16
383.01	341.06
383.39	344.45
383.77	351.46
384.15	317.56
384.53	336.09
384.91	348.3
385.29	342.42
385.67	337.45
386.049	333.38
386.429	328.18
386.809	355.98
387.189	322.53
387.568	345.58
387.948	349.43
388.328	350.56
388.707	360.5
389.087	360.05
389.466	342.19
389.846	344.45
390.225	379.71
390.605	337
390.984	344.91
391.363	334.28
391.743	356.88
392.122	346.71
392.501	372.93
392.881	360.95
393.26	373.38
393.639	371.12
394.018	379.71
394.397	377
394.776	356.88
395.155	386.49
395.534	374.74
395.913	343.32
396.292	373.15
396.671	378.8
397.05	360.72
397.429	359.14
397.808	351.01
398.186	379.03
398.565	372.25
398.944	378.13
399.323	381.52
399.701	384
400.08	364.79
400.458	385.58
400.837	366.37
401.215	380.16
401.594	397.33
401.972	394.17
402.351	376.77
402.729	388.75
403.107	399.37
403.486	382.87
403.864	391.46
404.242	397.33
404.62	408.41
404.999	414.06
405.377	411.57
405.755	420.84
406.133	420.16
406.511	405.24
406.889	394.17
407.267	409.54
407.645	405.7
408.023	416.32
408.401	431.01
408.779	433.04
409.156	429.88
409.534	411.8
409.912	423.1
410.29	427.39
410.667	439.59
411.045	440.27
411.422	445.47
411.8	455.41
412.178	469.2
412.555	450.89
412.933	464
413.31	449.31
413.687	463.1
414.065	467.61
414.442	445.92
414.819	476.88
415.197	471.91
415.574	449.54
415.951	484.11
416.328	483.66
416.705	463.1
417.082	492.02
417.46	508.52
417.837	473.04
418.214	479.14
418.591	488.86
418.967	491.12
419.344	486.37
419.721	493.15
420.098	526.6
420.475	501.29
420.852	495.86
421.228	494.51
421.605	507.16
421.982	512.13
422.358	505.81
422.735	503.77
423.111	495.64
423.488	531.34
423.864	516.2
424.241	524.79
424.617	527.5
424.994	533.83
425.37	547.61
425.746	503.09
426.123	547.39
426.499	548.97
426.875	554.39
427.251	553.26
427.627	548.74
428.003	582.87
428.379	565.69
428.756	568.63
429.132	558.69
429.507	581.74
429.883	572.7
430.259	584
430.635	584
431.011	594.17
431.387	606.82
431.763	599.59
432.138	604.56
432.514	618.57
432.89	619.02
433.265	632.36
433.641	642.53
434.016	641.4
434.392	635.52
434.767	651.79
435.143	631.23
435.518	648.18
435.894	675.52
436.269	670.32
436.644	655.18
437.02	669.87
437.395	685.91
437.77	697.21
438.145	684.78
438.52	708.29
438.895	710.55
439.271	689.08
439.646	704.9
440.021	714.39
440.395	721.39
440.77	738.12
441.145	709.19
441.52	733.82
441.895	731.34
442.27	715.29
442.645	756.65
443.019	734.73
443.394	736.99
443.769	728.17
444.143	748.74
444.518	770.43
444.892	769.08
445.267	757.32
445.641	770.88
446.016	762.07
446.39	773.82
446.764	787.15
447.139	771.79
447.513	802.52
447.887	808.4
448.262	795.29
448.636	781.73
449.01	785.8
449.384	823.76
449.758	818.79
450.132	841.16
450.506	834.16
450.88	827.83
451.254	811.56
451.628	852.92
452.002	847.49
452.376	866.93
452.75	854.27
453.123	835.51
453.497	869.64
453.871	870.99
454.244	883.88
454.618	919.58
454.992	948.28
455.365	898.34
455.739	937.21
456.112	944.66
456.486	930.2
456.859	963.65
457.232	973.59
457.606	970.43
457.979	981.27
458.352	989.63
458.725	986.7
459.099	1007.49
459.472	999.58
459.845	1071.44
460.218	1034.83
460.591	1066.47
460.964	1066.7
461.337	1054.72
461.71	1090.2
462.083	1114.6
462.456	1095.17
462.829	1131.1
463.201	1145.79
463.574	1167.03
463.947	1176.07
464.32	1181.04
464.692	1216.07
465.065	1210.19
465.438	1200.48
465.81	1282.73
466.183	1238.44
466.555	1272.11
466.928	1304.88
467.3	1301.27
467.672	1338.78
468.045	1370.19
468.417	1374.71
468.789	1390.75
469.161	1418.1
469.534	1472.56
469.906	1482.73
470.278	1473.92
470.65	1486.8
471.022	1525.21
471.394	1575.16
471.766	1599.56
472.138	1626.91
472.51	1649.28
472.882	1678.43
473.253	1713.23
473.625	1741.93
473.997	1795.04
474.369	1815.38
474.74	1856.05
475.112	1900.12
475.484	1906.9
475.855	1969.04
476.227	2002.94
476.598	2109.15
476.97	2143.73
477.341	2213.78
477.713	2252.88
478.084	2264.18
478.455	2386.21
478.827	2400.22
479.198	2492.19
479.569	2575.81
479.94	2657.39
480.311	2686.09
480.682	2744.84
481.053	2864.39
481.424	2957.72
481.795	3022.35
482.166	3092.86
482.537	3161.56
482.908	3279.74
483.279	3338.5
483.65	3449.23
484.021	3577.36
484.391	3630.92
484.762	3729.9
485.133	3807.64
485.503	3897.13
485.874	4037.92
486.244	4151.59
486.615	4274.07
486.985	4357
487.356	4487.4
487.726	4608.07
488.097	4738.01
488.467	4845.58
488.837	5024.56
489.207	5135.29
489.578	5238.79
489.948	5382.97
490.318	5498.89
490.688	5599.91
491.058	5741.15
491.428	5940.47
491.798	6045.32
492.168	6212.1
492.538	6316.73
492.908	6526.89
493.278	6589.94
493.648	6751.52
494.017	6854.34
494.387	7007.33
494.757	7129.81
495.126	7298.4
495.496	7445.74
495.866	7526.64
496.235	7706.52
496.605	7818.83
496.974	7962.11
497.344	8068.09
497.713	8260.63
498.082	8358.25
498.452	8550.11
498.821	8632.15
499.19	8714.18
499.559	8906.04
499.928	8960.5
500.298	9146.93
500.667	9242.53
501.036	9362.75
501.405	9569.97
501.774	9553.7
502.143	9794.83
502.512	9868.05
502.88	10005.67
503.249	10029.4
503.618	10161.6
503.987	10309.39
504.356	10422.83
504.724	10593.9
505.093	10669.83
505.462	10767.23
505.83	10927
506.199	10975.36
506.567	11162.93
506.936	11281.12
507.304	11447.67
507.672	11451.73
508.041	11572.86
508.409	11716.58
508.777	11925.39
509.145	11899.86
509.514	12009.23
509.882	12131.49
510.25	12266.4
510.618	12258.94
510.986	12394.31
511.354	12586.39
511.722	12734.86
512.09	12831.36
512.458	12836.56
512.826	12959.49
513.193	13100.5
513.561	13109.77
513.929	13261.18
514.297	13371.46
514.664	13575.07
515.032	13549.3
515.4	13731.67
515.767	13729.86
516.135	13866.58
516.502	13888.5
516.869	14049.4
517.237	14169.4
517.604	14070.42
517.972	14274.48
518.339	14367.59
518.706	14441.48
519.073	14543.18
519.44	14613.91
519.808	14804.64
520.175	14748.6
520.542	14956.27
520.909	14944.3
521.276	15016.38
521.643	15237.85
522.009	15300.67
522.376	15316.94
522.743	15348.58
523.11	15631.06
523.477	15715.8
523.843	15865.18
524.21	15897.49
524.577	16038.96
524.943	16154.21
525.31	16142.91
525.676	16323.92
526.043	16482.33
526.409	16489.34
526.776	16543.8
527.142	16572.05
527.508	16780.18
527.874	16813.85
528.241	16940.85
528.607	16873.51
528.973	17120.06
529.339	17052.49
529.705	17158.02
530.071	17277.57
530.437	17341.97
530.803	17507.39
531.169	17517.79
531.535	17436.66
531.901	17626.26
532.267	17563.66
532.632	17676.88
532.998	17721.4
533.364	17825.12
533.73	17859.7
534.095	17891.11
534.461	17936.99
534.826	18084.78
535.192	18088.39
535.557	18205
535.923	18153.48
536.288	18306.47
536.653	18197.77
537.019	18167.94
537.384	18365.68
537.749	18416.07
538.114	18400.25
538.479	18343.3
538.845	18446.58
539.21	18374.94
539.575	18417.88
539.94	18382.4
540.305	18472.11
540.67	18501.04
541.034	18485.67
541.399	18595.05
541.764	18678.21
542.129	18690.41
542.494	18705.33
542.858	18612.45
543.223	18714.82
543.587	18826.68
543.952	18730.41
544.316	18850.41
544.681	18833.01
545.045	18884.53
545.41	18979.44
545.774	18983.96
546.138	18887.24
546.503	18919.56
546.867	18952.55
547.231	19071.65
547.595	18970.41
547.959	19052.21
548.324	18993
548.688	19058.99
549.052	19107.12
549.416	18986.22
549.779	19057.18
550.143	19156.61
550.507	19245.2
550.871	19166.78
551.235	19156.16
551.599	19386.44
551.962	19340.11
552.326	19347.34
552.689	19408.36
553.053	19351.41
553.417	19373.78
553.78	19519.09
554.143	19525.87
554.507	19567.23
554.87	19550.5
555.234	19782.59
555.597	19590.73
555.96	19675.7
556.323	19662.82
556.686	19673.66
557.05	19757.05
557.413	19830.95
557.776	19814.68
558.139	20035.91
558.502	19928.57
558.865	19924.28
559.228	20020.32
559.59	20153.88
559.953	20140.77
560.316	20355.68
560.679	20295.79
561.041	20366.98
561.404	20465.28
561.767	20583.47
562.129	20454.66
562.492	20635.45
562.854	20684.48
563.217	20551.38
563.579	20635.9
563.941	20702.34
564.304	20761.54
564.666	20835.44
565.028	20898.04
565.39	21007.41
565.753	21084.25
566.115	21087.86
566.477	21151.14
566.839	21209.22
567.201	21238.59
567.563	21275.2
567.925	21472.94
568.287	21535.76
568.648	21543.9
569.01	21589.32
569.372	21714.51
569.734	21546.38
570.095	21823.66
570.457	21766.49
570.819	21835.64
571.18	21834.06
571.542	21974.62
571.903	22049.42
572.265	22025.24
572.626	22051.68
572.987	22153.15
573.349	22131.45
573.71	22284.89
574.071	22214.16
574.432	22316.76
574.794	22429.98
575.155	22427.26
575.516	22401.5
575.877	22535.28
576.238	22467.49
576.599	22688.05
576.96	22608.5
577.32	22509.07
577.681	22555.17
578.042	22686.69
578.403	22609.18
578.763	22753.81
579.124	22808.04
579.485	22825.9
579.845	22792.23
580.206	22685.11
580.566	22793.36
580.927	22748.61
581.287	22853.69
581.648	22763.3
582.008	22948.15
582.368	22921.94
582.728	23031.32
583.089	22943.86
583.449	22967.36
583.809	22940.02
584.169	22870.87
584.529	22856.86
584.889	23099.11
585.249	22844.65
585.609	22793.13
585.969	23060.69
586.329	22947.02
586.688	22941.15
587.048	22911.32
587.408	22944.31
587.768	22802.17
588.127	22918.78
588.487	22795.39
588.846	22980.47
589.206	22954.93
589.565	22919.45
589.925	23037.87
590.284	22957.19
590.643	22933.69
591.003	22969.62
591.362	23088.04
591.721	22817.99
592.08	22917.65
592.44	22985.44
592.799	22945.89
593.158	22853.69
593.517	22906.12
593.876	22940.02
594.235	22859.34
594.593	22918.55
594.952	23010.75
595.311	22849.17
595.67	22976.85
596.029	23022.95
596.387	23040.13
596.746	23085.33
597.104	22927.82
597.463	23041.48
597.822	23083.74
598.18	22931.88
598.538	23060.92
598.897	23142.95
599.255	22966.01
599.613	23250.52
599.972	23093.23
600.33	23100.47
600.688	23000.58
601.046	23161.71
601.404	23298.65
601.762	23241.03
602.12	23356.05
602.478	23296.85
602.836	23327.58
603.194	23262.95
603.552	23305.21
603.91	23211.2
604.268	23344.75
604.625	23221.59
604.983	23309.95
605.341	23228.37
605.698	23358.31
606.056	23440.34
606.413	23278.99
606.771	23438.54
607.128	23436.05
607.485	23296.39
607.843	23461.59
608.2	23529.16
608.557	23609.38
608.914	23559.89
609.272	23558.08
609.629	23611.64
609.986	23603.05
610.343	23620.68
610.7	23830.16
611.057	23802.37
611.414	23666.55
611.771	23740.22
612.127	23941.57
612.484	23839.43
612.841	23907.45
613.198	23891.18
613.554	23883.95
613.911	24099.54
614.267	24005.75
614.624	23976.6
614.98	24022.25
615.337	24102.7
615.693	24147.67
616.05	24050.05
616.406	24163.26
616.762	24085.07
617.118	24071.29
617.475	24239.87
617.831	24126.65
618.187	24191.74
618.543	24239.65
618.899	24390.83
619.255	24358.51
619.611	24376.36
619.967	24412.52
620.323	24410.49
620.678	24411.62
621.034	24347.21
621.39	24374.78
621.746	24456.81
622.101	24730.93
622.457	24433.31
622.812	24520.09
623.168	24533.87
623.523	24518.96
623.879	24649.13
624.234	24396.7
624.589	24675.34
624.945	24608.67
625.3	24542.46
625.655	24583.36
626.01	24671.27
626.365	24541.56
626.72	24539.75
627.075	24554.44
627.43	24516.25
627.785	24513.31
628.14	24587.88
628.495	24536.81
628.85	24528.9
629.205	24485.74
629.559	24603.7
629.914	24476.25
630.269	24630.14
630.623	24436.48
630.978	24483.48
631.332	24496.81
631.687	24703.36
632.041	24485.97
632.396	24515.57
632.75	24430.83
633.104	24442.58
633.459	24457.49
633.813	24283.94
634.167	24335.24
634.521	24367.55
634.875	24359.42
635.229	24387.21
635.583	24212.53
635.937	24328
636.291	24204.39
636.645	24186.31
636.999	24198.29
637.352	24260.21
637.706	24138.4
638.06	24221.57
638.413	24165.3
638.767	24165.75
639.121	24144.05
639.474	24056.15
639.828	24049.37
640.181	24027.67
640.534	23933.44
640.888	24046.88
641.241	23860.45
641.594	23960.56
641.947	23971.18
642.301	23878.3
642.654	23912.65
643.007	23868.36
643.36	23964.62
643.713	23803.05
644.066	23902.48
644.419	23701.58
644.771	23533
645.124	23422.94
645.477	23491.42
645.83	23200.12
646.182	23111.31
646.535	23130.07
646.888	23052.78
647.24	23087.13
647.593	23135.95
647.945	23079.45
648.298	22937.53
648.65	22903.64
649.002	22968.49
649.355	23053.46
649.707	23003.07
650.059	23107.92
650.411	23385.2
650.763	23403.96
651.115	23586.33
651.467	23462.72
651.819	23484.86
652.171	23528.03
652.523	23519.66
652.875	23441.7
653.227	23414.58
653.578	23617.74
653.93	23554.92
654.282	23464.52
654.633	23374.36
654.985	23295.49
655.337	23423.62
655.688	23265.89
656.039	23534.35
656.391	23336.39
656.742	23332.1
657.094	23404.41
657.445	23437.18
657.796	23315.83
658.147	23379.78
658.498	23327.8
658.849	23321.25
659.2	23284.19
659.551	23220.24
659.902	23367.58
660.253	23314.25
660.604	23317.18
660.955	23311.53
661.306	23408.71
661.656	23408.93
662.007	23417.52
662.358	23438.31
662.708	23459.78
663.059	23270.63
663.409	23218.43
663.76	23342.95
664.11	23273.12
664.461	23456.84
664.811	23368.26
665.161	23307.01
665.511	23312.89
665.862	23408.48
666.212	23426.79
666.562	23374.81
666.912	23378.2
667.262	23300.69
667.612	23378.2
667.962	23375.04
668.312	23310.86
668.662	23363.51
669.011	23328.26
669.361	23323.74
669.711	23326.67
670.06	23238.99
670.41	23174.81
670.76	23123.97
671.109	23272.89
671.459	23305.88
671.808	23133.69
672.157	23267.92
672.507	23160.13
672.856	23064.31
673.205	23191.09
673.554	23154.25
673.904	23038.09
674.253	23110.41
674.602	23113.57
674.951	22855.5
675.3	22643.3
675.649	23015.5
675.998	22961.03
676.346	23026.57
676.695	23095.27
677.044	22885.56
677.393	22945.22
677.741	22956.97
678.09	22876.07
678.438	22770.76
678.787	22877.2
679.135	22845.11
679.484	22760.36
679.832	22660.25
680.181	22716.52
680.529	22748.16
680.877	22723.53
681.225	22645.34
681.573	22754.26
681.922	22626.13
682.27	22460.48
682.618	22514.72
682.966	22391.56
683.314	22440.6
683.661	22518.56
684.009	22337.55
684.357	22284.44
684.705	22248.96
685.053	22388.17
685.4	22304.1
685.748	22207.38
686.095	22063.66
686.443	21998.8
686.79	22087.39
687.138	22079.02
687.485	21930.78
687.832	21984.79
688.18	21973.26
688.527	21839.93
688.874	21766.04
689.221	21761.52
689.568	21610.56
689.915	21549.77
690.262	21697.57
690.609	21465.71
690.956	21470.68
691.303	21492.6
691.65	21335.31
691.997	21383.22
692.344	21120.63
692.69	21233.85
693.037	21080.41
693.383	20972.61
693.73	21057.13
694.077	21003.57
694.423	20948.88
694.769	20887.64
695.116	20848.1
695.462	20777.82
695.808	20649.46
696.155	20723.58
696.501	20444.26
696.847	20537.14
697.193	20431.38
697.539	20446.75
697.885	20222.58
698.231	20164.72
698.577	20223.71
698.923	20101.9
699.269	20049.47
699.614	19920.66
699.96	19919.53
700.306	19828.01
700.651	19765.86
700.997	19739.42
701.342	19632.99
701.688	19529.49
702.033	19530.62
702.379	19508.7
702.724	19444.97
703.069	19433.44
703.415	19253.79
703.76	19296.95
704.105	19227.12
704.45	19247.69
704.795	19113.9
705.14	19047.01
705.485	19137.18
705.83	18961.82
706.175	19014.02
706.52	18868.71
706.865	18846.57
707.209	18811.99
707.554	18712.11
707.899	18787.81
708.243	18623.52
708.588	18609.06
708.932	18464.88
709.277	18471.89
709.621	18425.79
709.966	18373.81
710.31	18445.67
710.654	18290.65
710.998	18271.21
711.342	18246.13
711.687	18148.51
712.031	18167.04
712.375	18025.8
712.719	18096.98
713.063	17993.03
713.407	17960.49
713.75	17939.92
714.094	17879.81
714.438	17930.43
714.782	17826.48
715.125	17842.53
715.469	17816.99
715.812	17673.72
716.156	17558.46
716.499	17543.78
716.843	17685.69
717.186	17484.12
717.53	17584.9
717.873	17555.75
718.216	17495.64
718.559	17427.85
718.902	17353.95
719.246	17433.95
719.589	17356.66
719.932	17313.73
720.275	17298.13
720.617	17274.18
720.96	17254.97
721.303	17257.68
721.646	17185.37
721.989	17026.28
722.331	17147.18
722.674	17123.45
723.016	17139.49
723.359	17146.72
723.701	17109.89
724.044	17075.54
724.386	16938.59
724.729	16998.25
725.071	16869.67
725.413	16987.41
725.755	16979.72
726.097	16877.13
726.439	16792.61
726.782	16791.25
727.124	16896.11
727.465	16771.14
727.807	16821.08
728.149	16803
728.491	16730.46
728.833	16815.66
729.175	16726.62
729.516	16662.67
729.858	16554.88
730.199	16699.28
730.541	16724.81
730.882	16555.55
731.224	16676.23
731.565	16596.91
731.906	16564.37
732.248	16626.96
732.589	16488.89
732.93	16485.5
733.271	16456.57
733.612	16403.47
733.953	16564.59
734.294	16448.89
734.635	16466.06
734.976	16516.01
735.317	16376.58
735.658	16419.06
735.999	16409.12
736.339	16432.17
736.68	16416.8
737.021	16417.25
737.361	16259.06
737.702	16432.39
738.042	16367.76
738.383	16369.57
738.723	16360.76
739.063	16379.74
739.404	16405.27
739.744	16353.52
740.084	16199.86
740.424	16360.98
740.764	16306.97
741.104	16393.3
741.444	16278.5
741.784	16256.8
742.124	16265.17
742.464	16318.5
742.804	16316.01
743.143	16248.22
743.483	16296.8
743.823	16311.49
744.162	16260.42
744.502	16369.8
744.841	16314.2
745.181	16348.78
745.52	16403.47
745.86	16440.08
746.199	16430.58
746.538	16373.64
746.877	16492.73
747.216	16575.44
747.556	16512.16
747.895	16607.98
748.234	16607.53
748.573	16590.35
748.911	16629.9
749.25	16632.39
749.589	16617.7
749.928	16691.37
750.267	16692.5
750.605	16826.05
750.944	16674.42
751.283	16856.56
751.621	16913.51
751.96	16920.52
752.298	16932.49
752.636	17094.97
752.975	16984.69
753.313	16987.86
753.651	17119.61
753.989	17175.2
754.327	17306.49
754.666	17236.89
755.004	17381.07
755.342	17498.81
755.679	17507.84
756.017	17478.92
756.355	17517.56
756.693	17624.9
757.031	17692.02
757.368	17746.48
