Data from hue_170_FLMS001491_00076.txt Node
Date: Tue Feb 07 16:49:10 GMT 2017
User: dcchb
Spectrometer: FLMS00149
Trigger mode: 0
Integration Time (sec): 2.000000E-2
Scans to average: 10
Electric dark correction enabled: true
Nonlinearity correction enabled: false
Boxcar width: 0
XAxis mode: Wavelengths
Number of Pixels in Spectrum: 2048
>>>>>Begin Spectral Data<<<<<
341.393	-8.95
341.776	-8.95
342.16	-8.95
342.543	-78.56
342.927	-57.77
343.31	-65.45
343.693	-87.37
344.077	-55.06
344.46	-46.69
344.843	-65
345.226	-50.99
345.61	-22.51
345.993	-13.25
346.376	-14.6
346.759	15.9
347.142	15.9
347.525	38.28
347.908	62.91
348.291	81.21
348.674	85.05
349.057	121.66
349.44	116.01
349.823	137.03
350.206	142.68
350.588	199.85
350.971	207.76
351.354	227.42
351.737	238.72
352.119	249.12
352.502	259.74
352.884	269
353.267	304.71
353.65	286.4
354.032	323.24
354.414	311.04
354.797	311.04
355.179	326.63
355.562	324.6
355.944	323.92
356.326	320.3
356.709	340.41
357.091	315.56
357.473	335.22
357.855	329.79
358.238	346.06
358.62	334.99
359.002	348.1
359.384	331.38
359.766	346.29
360.148	332.51
360.53	332.28
360.912	326.86
361.294	334.77
361.676	331.6
362.057	355.56
362.439	324.82
362.821	327.53
363.203	332.28
363.584	333.64
363.966	304.03
364.348	295.67
364.729	314.88
365.111	310.36
365.493	328.21
365.874	335.22
366.256	328.21
366.637	310.13
367.019	325.5
367.4	302.9
367.781	297.48
368.163	303.13
368.544	312.84
368.925	325.27
369.306	312.17
369.688	315.33
370.069	319.17
370.45	307.42
370.831	313.52
371.212	282.79
371.593	313.3
371.974	285.27
372.355	326.63
372.736	318.49
373.117	306.97
373.498	306.74
373.879	321.66
374.26	316.23
374.641	307.42
375.021	302.68
375.402	326.4
375.783	327.53
376.163	328.89
376.544	335.44
376.925	319.85
377.305	337.25
377.686	320.3
378.066	325.05
378.447	326.86
378.827	311.04
379.208	318.49
379.588	310.59
379.968	341.54
380.349	324.6
380.729	320.75
381.109	311.94
381.489	322.11
381.87	327.99
382.25	311.71
382.63	327.31
383.01	324.14
383.39	336.57
383.77	333.18
384.15	347.65
384.53	323.01
384.91	339.74
385.29	364.14
385.67	365.27
386.049	345.84
386.429	348.55
386.809	360.98
387.189	350.81
387.568	382.9
387.948	351.94
388.328	346.74
388.707	347.65
389.087	361.21
389.466	377.93
389.846	349.45
390.225	365.05
390.605	363.01
390.984	343.13
391.363	357.59
391.743	375.44
392.122	354.2
392.501	359.62
392.881	367.76
393.26	363.47
393.639	357.59
394.018	374.76
394.397	361.21
394.776	356.69
395.155	390.13
395.534	354.65
395.913	356.01
396.292	384.93
396.671	387.19
397.05	382.67
397.429	379.74
397.808	373.18
398.186	404.37
398.565	385.16
398.944	393.97
399.323	371.37
399.701	408.66
400.08	410.02
400.458	390.13
400.837	385.61
401.215	392.16
401.594	396.91
401.972	393.29
402.351	417.25
402.729	388.1
403.107	408.44
403.486	383.58
403.864	403.24
404.242	411.37
404.62	425.84
404.999	418.38
405.377	420.19
405.755	431.26
406.133	428.77
406.511	412.96
406.889	418.38
407.267	450.02
407.645	445.04
408.023	422.9
408.401	437.14
408.779	455.21
409.156	469.9
409.534	431.71
409.912	450.92
410.29	446.4
410.667	468.77
411.045	461.09
411.422	476.91
411.8	474.65
412.178	477.36
412.555	504.03
412.933	487.76
413.31	493.18
413.687	512.16
414.065	517.81
414.442	501.54
414.819	519.17
415.197	506.29
415.574	518.26
415.951	517.81
416.328	549.45
416.705	527.98
417.082	548.32
417.46	549
417.837	545.38
418.214	532.5
418.591	546.74
418.967	572.95
419.344	548.77
419.721	568.66
420.098	566.62
420.475	581.99
420.852	577.47
421.228	594.65
421.605	610.01
421.982	626.28
422.358	591.26
422.735	620.18
423.111	610.24
423.488	611.14
423.864	622.22
424.241	642.55
424.617	642.78
424.994	671.25
425.37	648.66
425.746	652.95
426.123	680.74
426.499	678.71
426.875	683.23
427.251	676.9
427.627	708.99
428.003	700.18
428.379	714.42
428.756	687.98
429.132	724.13
429.507	734.3
429.883	721.2
430.259	744.25
430.635	761.19
431.011	768.43
431.387	772.95
431.763	770.91
432.138	789.67
432.514	777.92
432.89	778.6
433.265	808.2
433.641	815.88
434.016	803.68
434.392	850.91
434.767	832.15
435.143	847.75
435.518	854.3
435.894	869.89
436.269	891.36
436.644	890.68
437.02	883.68
437.395	909.67
437.77	920.96
438.145	933.39
438.52	926.16
438.895	950.12
439.271	946.5
439.646	988.99
440.021	994.86
440.395	1013.17
440.77	974.75
441.145	1035.31
441.52	1034.41
441.895	1043.45
442.27	1032.37
442.645	1045.03
443.019	1070.11
443.394	1035.09
443.769	1083.45
444.143	1073.5
444.518	1071.69
444.892	1078.93
445.267	1111.47
445.641	1108.3
446.016	1117.12
446.39	1135.2
446.764	1105.14
447.139	1116.89
447.513	1141.07
447.887	1146.5
448.262	1154.18
448.636	1162.54
449.01	1179.71
449.384	1194.63
449.758	1192.14
450.132	1221.07
450.506	1223.56
450.88	1232.14
451.254	1219.71
451.628	1254.06
452.002	1266.27
452.376	1264.68
452.75	1306.04
453.123	1278.92
453.497	1302.42
453.871	1344.46
454.244	1371.8
454.618	1331.58
454.992	1393.27
455.365	1365.02
455.739	1410.44
456.112	1430.56
456.486	1452.7
456.859	1448.63
457.232	1491.57
457.606	1482.53
457.979	1514.62
458.352	1524.11
458.725	1528.86
459.099	1540.84
459.472	1583.09
459.845	1611.34
460.218	1625.8
460.591	1621.29
460.964	1668.52
461.337	1678.91
461.71	1702.64
462.083	1725.92
462.456	1739.7
462.829	1769.98
463.201	1779.25
463.574	1796.42
463.947	1818.79
464.32	1878.45
464.692	1887.27
465.065	1896.53
465.438	1944.21
465.81	1993.93
466.183	1992.57
466.555	1980.82
466.928	2050.2
467.3	2071.67
467.672	2092.69
468.045	2159.12
468.417	2174.26
468.789	2160.48
469.161	2195.28
469.534	2255.84
469.906	2346.46
470.278	2342.85
470.65	2399.12
471.022	2438.21
471.394	2465.78
471.766	2493.58
472.138	2528.61
472.51	2579.45
472.882	2671.88
473.253	2708.04
473.625	2733.57
473.997	2825.55
474.369	2850.63
474.74	2905.55
475.112	2969.05
475.484	3008.14
475.855	3082.49
476.227	3157.29
476.598	3225.99
476.97	3321.35
477.341	3353.44
477.713	3448.13
478.084	3515.47
478.455	3632.53
478.827	3645.41
479.198	3791.4
479.569	3818.52
479.94	3914.33
480.311	3986.19
480.682	4075.91
481.053	4226.87
481.424	4353.64
481.795	4421.89
482.166	4489.68
482.537	4634.54
482.908	4718.15
483.279	4776
483.65	4884.48
484.021	5014.64
484.391	5145.71
484.762	5220.51
485.133	5311.58
485.503	5371.47
485.874	5597.68
486.244	5665.02
486.615	5812.81
486.985	5898.23
487.356	6060.04
487.726	6132.35
488.097	6239.69
488.467	6348.17
488.837	6496.64
489.207	6625
489.578	6775.73
489.948	6874.03
490.318	7078.32
490.688	7060.24
491.058	7250.06
491.428	7345.88
491.798	7488.02
492.168	7631.75
492.538	7666.1
492.908	7857.51
493.278	7964.4
493.648	8053.66
494.017	8168.91
494.387	8327.32
494.757	8396.25
495.126	8548.33
495.496	8514.44
495.866	8688.44
496.235	8733.87
496.605	8887.53
496.974	8902.22
497.344	9104.93
497.713	9163.46
498.082	9146.74
498.452	9360.52
498.821	9339.05
499.19	9435.54
499.559	9567.97
499.928	9634.18
500.298	9658.14
500.667	9815.87
501.036	9815.87
501.405	9920.95
501.774	9917.11
502.143	10027.17
502.512	10062.42
502.88	10228.74
503.249	10167.95
503.618	10291.11
503.987	10377.66
504.356	10465.8
504.724	10532.24
505.093	10492.69
505.462	10480.49
505.83	10588.73
506.199	10649.97
506.567	10722.51
506.936	10717.09
507.304	10851.55
507.672	10885
508.041	10923.87
508.409	10959.34
508.777	11010.42
509.145	11142.62
509.514	11117.98
509.882	11212.67
510.25	11290.64
510.618	11317.08
510.986	11309.17
511.354	11385.55
511.722	11420.58
512.09	11447.47
512.458	11477.52
512.826	11510.74
513.193	11538.31
513.561	11564.07
513.929	11599.55
514.297	11734.24
514.664	11669.38
515.032	11740.12
515.4	11800.68
515.767	11804.07
516.135	11827.57
516.502	11706.9
516.869	11904.4
517.237	11917.74
517.604	11884.29
517.972	11946.89
518.339	11971.3
518.706	11928.81
519.073	11927.91
519.44	12061.46
519.808	12057.39
520.175	12094.91
520.542	12149.37
520.909	12110.5
521.276	12163.15
521.643	12272.76
522.009	12222.14
522.376	12265.52
522.743	12184.85
523.11	12240.89
523.477	12321.34
523.843	12303.72
524.21	12462.58
524.577	12488.8
524.943	12396.82
525.31	12390.27
525.676	12464.84
526.043	12444.28
526.409	12505.07
526.776	12609.92
527.142	12573.99
527.508	12514.11
527.874	12568.34
528.241	12561.56
528.607	12560.21
528.973	12576.03
529.339	12470.94
529.705	12568.12
530.071	12602.47
530.437	12583.26
530.803	12573.31
531.169	12605.4
531.535	12500.55
531.901	12509.81
532.267	12486.08
532.632	12543.03
532.998	12560.88
533.364	12529.7
533.73	12419.87
534.095	12509.81
534.461	12524.73
534.826	12486.31
535.192	12316.82
535.557	12411.28
535.923	12378.29
536.288	12299.87
536.653	12321.79
537.019	12250.84
537.384	12292.19
537.749	12267.33
538.114	12151.63
538.479	12132.65
538.845	12171.97
539.21	11994.35
539.575	12010.39
539.94	12045.42
540.305	12040.22
540.67	11918.19
541.034	11905.08
541.399	11868.7
541.764	11832.09
542.129	11887.46
542.494	11724.75
542.858	11776.27
543.223	11665.54
543.587	11638.87
543.952	11694.01
544.316	11580.35
544.681	11508.71
545.045	11501.48
545.41	11533.57
545.774	11496.28
546.138	11478.65
546.503	11394.36
546.867	11354.59
547.231	11373.12
547.595	11300.58
547.959	11324.76
548.324	11231.88
548.688	11206.34
549.052	11219.22
549.416	11131.54
549.779	11041.6
550.143	11035.5
550.507	11072.34
550.871	10951.66
551.235	10917.99
551.599	10930.19
551.962	10897.65
552.326	10850.87
552.689	10857.43
553.053	10742.18
553.417	10750.08
553.78	10812.91
554.143	10709.86
554.507	10648.62
554.87	10719.8
555.234	10717.54
555.597	10643.87
555.96	10563.2
556.323	10632.12
556.686	10530.43
557.05	10599.58
557.413	10518
557.776	10493.37
558.139	10567.49
558.502	10477.78
558.865	10495.4
559.228	10513.03
559.59	10431.45
559.953	10495.18
560.316	10539.47
560.679	10396.42
561.041	10474.16
561.404	10398.23
561.767	10477.55
562.129	10402.07
562.492	10410.66
562.854	10417.21
563.217	10348.06
563.579	10368.63
563.941	10424.67
564.304	10423.54
564.666	10492.24
565.028	10349.19
565.39	10482.97
565.753	10456.98
566.115	10491.79
566.477	10397.78
566.839	10438.68
567.201	10473.48
567.563	10465.35
567.925	10435.06
568.287	10422.41
568.648	10520.03
569.01	10445.91
569.372	10460.83
569.734	10483.42
570.095	10516.42
570.457	10526.36
570.819	10479.36
571.18	10519.13
571.542	10539.24
571.903	10513.25
572.265	10537.89
572.626	10576.53
572.987	10554.61
573.349	10550.77
573.71	10549.64
574.071	10534.05
574.432	10523.2
574.794	10530.43
575.155	10529.07
575.516	10525.01
575.877	10546.47
576.238	10572.69
576.599	10584.89
576.96	10539.24
577.32	10538.79
577.681	10533.37
578.042	10546.47
578.403	10559.58
578.763	10574.95
579.124	10548.73
579.485	10613.14
579.845	10669.41
580.206	10569.75
580.566	10629.86
580.927	10637.55
581.287	10624.44
581.648	10506.93
582.008	10574.27
582.368	10576.76
582.728	10527.27
583.089	10550.09
583.449	10507.61
583.809	10583.76
584.169	10537.21
584.529	10456.31
584.889	10560.49
585.249	10500.37
585.609	10443.43
585.969	10473.26
586.329	10429.87
586.688	10478.68
587.048	10503.09
587.408	10514.61
587.768	10369.76
588.127	10427.38
588.487	10393.26
588.846	10404.78
589.206	10340.38
589.565	10343.54
589.925	10404.1
590.284	10366.37
590.643	10395.97
591.003	10426.93
591.362	10466.02
591.721	10343.54
592.08	10311.23
592.44	10354.16
592.799	10301.28
593.158	10349.64
593.517	10300.38
593.876	10311
594.235	10327.72
594.593	10259.93
594.952	10306.48
595.311	10287.72
595.67	10263.09
596.029	10322.53
596.387	10334.73
596.746	10318.91
597.104	10239.82
597.463	10285.69
597.822	10327.95
598.18	10181.06
598.538	10279.36
598.897	10341.51
599.255	10180.61
599.613	10275.29
599.972	10259.02
600.33	10230.78
600.688	10225.8
601.046	10211.57
601.404	10264.45
601.762	10246.14
602.12	10247.95
602.478	10223.09
602.836	10273.94
603.194	10173.83
603.552	10223.77
603.91	10170.21
604.268	10219.25
604.625	10187.84
604.983	10178.57
605.341	10149.42
605.698	10235.52
606.056	10198.01
606.413	10151
606.771	10201.62
607.128	10291.57
607.485	10183.55
607.843	10227.61
608.2	10211.57
608.557	10308.51
608.914	10234.17
609.272	10266.03
609.629	10257.67
609.986	10306.25
610.343	10230.32
610.7	10307.61
611.057	10305.58
611.414	10278.68
611.771	10337.89
612.127	10291.79
612.484	10300.83
612.841	10378.12
613.198	10256.99
613.554	10312.58
613.911	10284.79
614.267	10285.46
614.624	10327.72
614.98	10341.28
615.337	10409.98
615.693	10363.2
616.05	10356.2
616.406	10400.26
616.762	10365.01
617.118	10336.99
617.475	10453.14
617.831	10460.37
618.187	10388.74
618.543	10427.38
618.899	10444.56
619.255	10423.99
619.611	10444.33
619.967	10464.89
620.323	10552.35
620.678	10451.56
621.034	10402.3
621.39	10415.4
621.746	10360.49
622.101	10540.15
622.457	10398.91
622.812	10487.27
623.168	10466.25
623.523	10456.76
623.879	10460.15
624.234	10406.14
624.589	10524.33
624.945	10459.47
625.3	10482.75
625.655	10448.4
626.01	10464.44
626.365	10474.61
626.72	10437.1
627.075	10495.4
627.43	10489.75
627.785	10343.54
628.14	10428.51
628.495	10406.36
628.85	10451.79
629.205	10352.13
629.559	10445.46
629.914	10418.12
630.269	10372.24
630.623	10378.57
630.978	10382.18
631.332	10316.88
631.687	10411.79
632.041	10337.67
632.396	10373.15
632.75	10345.58
633.104	10323.88
633.459	10247.27
633.813	10277.1
634.167	10220.61
634.521	10295.18
634.875	10299.47
635.229	10287.27
635.583	10221.96
635.937	10172.7
636.291	10276.42
636.645	10253.37
636.999	10193.49
637.352	10219.93
637.706	10191.91
638.06	10184.22
638.413	10164.11
638.767	10162.53
639.121	10144.45
639.474	10014.28
639.828	10059.48
640.181	10074.4
640.534	10101.06
640.888	10012.93
641.241	10020.61
641.594	10065.36
641.947	10054.06
642.301	10036.21
642.654	9980.84
643.007	10073.04
643.36	10045.7
643.713	10035.98
644.066	9980.16
644.419	9984.91
644.771	9916.89
645.124	9843.67
645.477	9813.84
645.83	9730.9
646.182	9739.49
646.535	9732.03
646.888	9743.78
647.24	9661.75
647.593	9717.12
647.945	9764.12
648.298	9680.96
648.65	9641.64
649.002	9674.63
649.355	9698.59
649.707	9696.78
650.059	9740.39
650.411	9784.01
650.763	9834.63
651.115	9988.3
651.467	9829.2
651.819	9919.82
652.171	9906.72
652.523	9977.22
652.875	9892.48
653.227	9860.16
653.578	9886.83
653.93	9890.45
654.282	9896.1
654.633	9819.49
654.985	9928.64
655.337	9866.72
655.688	9868.98
656.039	9985.81
656.391	9920.05
656.742	9887.51
657.094	9933.61
657.445	9906.94
657.796	9914.85
658.147	9942.2
658.498	9838.24
658.849	9912.14
659.2	9944.46
659.551	9950.11
659.902	9948.3
660.253	9925.25
660.604	9968.18
660.955	9911.91
661.306	9929.09
661.656	9982.65
662.007	9977.22
662.358	9979.26
662.708	10022.42
663.059	9989.2
663.409	9889.99
663.76	9967.73
664.11	9950.33
664.461	10033.49
664.811	10032.36
665.161	10057
665.511	9939.71
665.862	10000.95
666.212	10027.62
666.562	10006.38
666.912	10039.37
667.262	9975.42
667.612	9938.13
667.962	10018.8
668.312	10033.04
668.662	10068.07
669.011	10056.32
669.361	9995.08
669.711	9949.65
670.06	9948.52
670.41	9931.8
670.76	9893.61
671.109	9984.45
671.459	9991.01
671.808	9998.69
672.157	9957.34
672.507	9939.94
672.856	9910.11
673.205	9880.05
673.554	9928.41
673.904	9845.48
674.253	9983.1
674.602	9897.45
674.951	9742.65
675.3	9755.99
675.649	9912.59
675.998	9865.14
676.346	9860.16
676.695	9892.48
677.044	9785.36
677.393	9798.02
677.741	9760.73
678.09	9753.27
678.438	9752.82
678.787	9706.04
679.135	9791.24
679.484	9696.55
679.832	9783.1
680.181	9648.87
680.529	9699.49
680.877	9731.58
681.225	9706.95
681.573	9686.38
681.922	9633.5
682.27	9602.09
682.618	9611.58
682.966	9578.14
683.314	9611.58
683.661	9548.53
684.009	9490.46
684.357	9507.18
684.705	9526.61
685.053	9433.06
685.4	9451.59
685.748	9433.28
686.095	9386.73
686.443	9386.73
686.79	9401.19
687.138	9399.16
687.485	9328.65
687.832	9289.56
688.18	9343.12
688.527	9285.04
688.874	9240.52
689.221	9260.18
689.568	9257.47
689.915	9250.69
690.262	9126.62
690.609	9176.34
690.956	9126.85
691.303	9093.18
691.65	9059.06
691.997	8997.14
692.344	9035.78
692.69	8988.55
693.037	8954.65
693.383	8889.34
693.73	8919.62
694.077	8835.11
694.423	8871.94
694.769	8795.33
695.116	8773.64
695.462	8711.04
695.808	8718.73
696.155	8703.13
696.501	8685.51
696.847	8613.19
697.193	8633.76
697.539	8574.77
697.885	8494.32
698.231	8485.29
698.577	8454.78
698.923	8398.73
699.269	8461.33
699.614	8378.85
699.96	8361.67
700.306	8360.32
700.651	8280.32
700.997	8243.26
701.342	8301.79
701.688	8209.13
702.033	8191.06
702.379	8137.95
702.724	8102.24
703.069	8160.55
703.415	8059.53
703.76	8057.05
704.105	8032.87
704.45	7947.45
704.795	7932.53
705.14	7868.13
705.485	7880.78
705.83	7893.21
706.175	7864.28
706.52	7834.46
706.865	7828.81
707.209	7801.24
707.554	7777.73
707.899	7784.29
708.243	7654.8
708.588	7752.42
708.932	7604.4
709.277	7673.56
709.621	7642.37
709.966	7578.64
710.31	7579.55
710.654	7490.96
710.998	7564.18
711.342	7548.59
711.687	7477.85
712.031	7500.23
712.375	7383.85
712.719	7466.56
713.063	7432.21
713.407	7465.43
713.75	7354.47
714.094	7416.84
714.438	7340
714.782	7362.15
715.125	7304.75
715.469	7393.34
715.812	7266.11
716.156	7287.8
716.499	7300.01
716.843	7321.02
717.186	7233.34
717.53	7265.66
717.873	7281.02
718.216	7177.98
718.559	7198.77
718.902	7179.56
719.246	7143.17
719.589	7128.48
719.932	7122.16
720.275	7132.78
720.617	7151.08
720.96	7110.41
721.303	7109.28
721.646	7173
721.989	7165.55
722.331	7157.64
722.674	7131.42
723.016	7105.66
723.359	7071.09
723.701	7094.59
724.044	7062.5
724.386	7031.76
724.729	7087.81
725.071	7048.71
725.413	7058.88
725.755	7070.18
726.097	6976.4
726.439	7013.69
726.782	6980.47
727.124	6996.51
727.465	6994.03
727.807	7003.97
728.149	7012.1
728.491	6966.91
728.833	6976.85
729.175	6952.67
729.516	6911.32
729.858	7015.27
730.199	7005.78
730.541	7006.45
730.882	7016.85
731.224	7015.04
731.565	6962.16
731.906	7005.32
732.248	6954.25
732.589	6884.42
732.93	6916.29
733.271	6904.99
733.612	6954.7
733.953	7006.23
734.294	7016.85
734.635	6973.91
734.976	7010.07
735.317	6994.93
735.658	6950.41
735.999	6937.98
736.339	7014.36
736.68	7010.97
737.021	6981.37
737.361	7031.99
737.702	7033.57
738.042	7021.37
738.383	7006
738.723	7051.2
739.063	7041.93
739.404	7024.53
739.744	7021.82
740.084	7079.9
740.424	7096.17
740.764	7085.32
741.104	7146.56
741.444	7093.46
741.784	7119.45
742.124	7143.85
742.464	7147.02
742.804	7229.73
743.143	7132.33
743.483	7217.07
743.823	7253.91
744.162	7197.41
744.502	7260.23
744.841	7221.82
745.181	7340.23
745.52	7366.22
745.86	7416.84
746.199	7417.06
746.538	7462.04
746.877	7557.63
747.216	7549.04
747.556	7610.96
747.895	7645.53
748.234	7663.61
748.573	7715.14
748.911	7787.68
749.25	7882.82
749.589	7912.87
749.928	7934.34
750.267	8039.87
750.605	8136.37
750.944	8127.55
751.283	8244.84
751.621	8359.41
751.96	8410.26
752.298	8511.27
752.636	8528
752.975	8659.74
753.313	8760.08
753.651	8888.66
753.989	8909.91
754.327	9013.18
754.666	9183.8
755.004	9370.69
755.342	9396
755.679	9568.65
756.017	9618.36
756.355	9872.82
756.693	9889.32
757.031	10117.78
757.368	10142.19
757.706	10345.58
758.044	10474.84
758.381	10618.11
758.719	10740.14
759.056	11009.51
759.394	11102.17
759.731	11222.84
760.068	11379.45
760.405	11505.09
760.743	11718.19
761.08	11829.6
761.417	11994.8
761.754	12121.57
