Data from hue_130_FLMS001491_00033.txt Node
Date: Tue Feb 07 16:57:31 GMT 2017
User: dcchb
Spectrometer: FLMS00149
Trigger mode: 0
Integration Time (sec): 2.000000E-2
Scans to average: 10
Electric dark correction enabled: true
Nonlinearity correction enabled: false
Boxcar width: 0
XAxis mode: Wavelengths
Number of Pixels in Spectrum: 2048
>>>>>Begin Spectral Data<<<<<
341.393	-40.56
341.776	-40.56
342.16	-40.56
342.543	-33.78
342.927	-89.6
343.31	-76.27
343.693	-77.63
344.077	-59.09
344.46	-60.9
344.843	-72.2
345.226	-38.3
345.61	-20.23
345.993	-23.16
346.376	21.81
346.759	3.28
347.142	17.29
347.525	51.41
347.908	47.57
348.291	64.74
348.674	113.1
349.057	108.58
349.44	123.73
349.823	136.15
350.206	148.81
350.588	188.13
350.971	209.6
351.354	242.37
351.737	231.97
352.119	255.25
352.502	245.53
352.884	267.9
353.267	280.11
353.65	281.01
354.032	300.44
354.414	304.29
354.797	332.99
355.179	314.46
355.562	309.26
355.944	325.53
356.326	326.66
356.709	328.47
357.091	343.15
357.473	334.34
357.855	335.02
358.238	342.93
358.62	351.97
359.002	340.44
359.384	329.6
359.766	354.68
360.148	348.35
360.53	340.22
360.912	338.41
361.294	336.38
361.676	316.71
362.057	320.1
362.439	334.79
362.821	327.79
363.203	334.34
363.584	326.21
363.966	305.87
364.348	329.6
364.729	333.44
365.111	317.84
365.493	316.71
365.874	318.07
366.256	286.21
366.637	325.08
367.019	327.56
367.4	309.94
367.781	304.74
368.163	312.65
368.544	309.71
368.925	305.64
369.306	306.77
369.688	299.31
370.069	301.35
370.45	327.34
370.831	303.38
371.212	309.71
371.593	323.27
371.974	309.48
372.355	310.16
372.736	324.17
373.117	337.05
373.498	307.45
373.879	314.23
374.26	309.03
374.641	299.99
375.021	318.3
375.402	324.85
375.783	322.36
376.163	330.27
376.544	336.6
376.925	323.72
377.305	320.78
377.686	326.66
378.066	329.82
378.447	325.53
378.827	330.05
379.208	348.8
379.588	328.69
379.968	333.44
380.349	333.21
380.729	321.23
381.109	337.96
381.489	324.4
381.87	344.74
382.25	353.78
382.63	338.86
383.01	343.15
383.39	342.48
383.77	347.9
384.15	347.67
384.53	337.73
384.91	341.57
385.29	351.97
385.67	347.45
386.049	342.48
386.429	339.99
386.809	349.48
387.189	339.99
387.568	347
387.948	375.47
388.328	361.69
388.707	349.93
389.087	345.87
389.466	355.13
389.846	350.39
390.225	378.18
390.605	360.56
390.984	379.54
391.363	384.74
391.743	364.62
392.122	362.82
392.501	344.74
392.881	360.33
393.26	370.05
393.639	374.79
394.018	377.5
394.397	379.54
394.776	392.42
395.155	376.6
395.534	382.48
395.913	401.46
396.292	388.35
396.671	398.07
397.05	377.96
397.429	405.53
397.808	390.61
398.186	393.1
398.565	389.26
398.944	404.4
399.323	388.35
399.701	403.27
400.08	397.16
400.458	414.79
400.837	413.66
401.215	390.61
401.594	420.21
401.972	405.53
402.351	416.15
402.729	418.41
403.107	417.96
403.486	426.54
403.864	404.17
404.242	408.46
404.62	408.46
404.999	417.73
405.377	445.07
405.755	412.53
406.133	427.67
406.511	432.19
406.889	423.83
407.267	420.89
407.645	440.78
408.023	440.55
408.401	448.69
408.779	441.23
409.156	433.32
409.534	458.41
409.912	450.5
410.29	463.15
410.667	471.06
411.045	463.15
411.422	450.72
411.8	472.19
412.178	451.17
412.555	479.42
412.933	468.12
413.31	497.05
413.687	476.26
414.065	484.39
414.442	483.94
414.819	492.3
415.197	499.76
415.574	488.46
415.951	506.54
416.328	497.95
416.705	511.74
417.082	499.31
417.46	498.4
417.837	497.73
418.214	514.45
418.591	521.46
418.967	519.65
419.344	530.49
419.721	521.23
420.098	538.86
420.475	543.83
420.852	540.66
421.228	546.31
421.605	552.87
421.982	554.45
422.358	545.41
422.735	568.01
423.111	549.25
423.488	577.95
423.864	572.98
424.241	541.12
424.617	562.58
424.994	575.01
425.37	567.56
425.746	577.05
426.123	579.76
426.499	578.63
426.875	582.47
427.251	606.2
427.627	602.58
428.003	607.55
428.379	612.98
428.756	612.98
429.132	633.54
429.507	639.19
429.883	638.51
430.259	648.23
430.635	654.79
431.011	649.14
431.387	660.43
431.763	654.33
432.138	694.56
432.514	662.02
432.89	681.45
433.265	690.26
433.641	711.51
434.016	710.83
434.392	706.54
434.767	708.34
435.143	704.5
435.518	717.38
435.894	723.48
436.269	735.46
436.644	751.51
437.02	737.49
437.395	760.77
437.77	737.95
438.145	774.33
438.52	768
438.895	779.75
439.271	771.62
439.646	757.38
440.021	770.49
440.395	805.97
440.77	782.92
441.145	793.99
441.52	804.61
441.895	826.76
442.27	829.24
442.645	831.96
443.019	812.97
443.394	844.61
443.769	832.86
444.143	846.19
444.518	854.78
444.892	862.92
445.267	855.46
445.641	873.08
446.016	859.98
446.39	865.63
446.764	897.49
447.139	894.1
447.513	897.04
447.887	890.49
448.262	885.51
448.636	892.97
449.01	931.61
449.384	932.74
449.758	933.2
450.132	927.77
450.506	953.53
450.88	942.46
451.254	957.38
451.628	958.05
452.002	992.4
452.376	991.27
452.75	1008.45
453.123	1013.87
453.497	993.53
453.871	1010.71
454.244	1044.15
454.618	1029.24
454.992	1035.79
455.365	1059.97
455.739	1082.12
456.112	1091.61
456.486	1078.28
456.859	1103.59
457.232	1137.03
457.606	1132.74
457.979	1154.66
458.352	1134.09
458.725	1170.93
459.099	1196.47
459.472	1209.12
459.845	1190.36
460.218	1243.47
460.591	1245.05
460.964	1233.07
461.337	1307.65
461.71	1302.9
462.083	1302.45
462.456	1303.36
462.829	1334.99
463.201	1348.78
463.574	1346.29
463.947	1376.57
464.32	1427.42
464.692	1408.44
465.065	1411.6
465.438	1455.89
465.81	1468.1
466.183	1484.14
466.555	1519.17
466.928	1559.85
467.3	1557.59
467.672	1578.15
468.045	1621.09
468.417	1627.87
468.789	1652.5
469.161	1648.88
469.534	1724.59
469.906	1770.24
470.278	1773.63
470.65	1798.48
471.022	1824.02
471.394	1914.19
471.766	1876
472.138	1950.57
472.51	1986.73
472.882	2010.91
473.253	2057.01
473.625	2097.01
473.997	2160.73
474.369	2177.23
474.74	2223.11
475.112	2290.9
475.484	2303.78
475.855	2385.59
476.227	2443.89
476.598	2518.01
476.97	2533.38
477.341	2634.62
477.713	2667.39
478.084	2736.31
478.455	2861.28
478.827	2917.55
479.198	2968.85
479.569	3026.7
479.94	3130.43
480.311	3217.43
480.682	3299.01
481.053	3436.41
481.424	3491.09
481.795	3522.05
482.166	3682.73
482.537	3749.84
482.908	3870.52
483.279	3995.71
483.65	4086.56
484.021	4198.42
484.391	4268.93
484.762	4375.37
485.133	4430.05
485.503	4614.91
485.874	4728.12
486.244	4804.28
486.615	4985.74
486.985	5093.76
487.356	5225.74
487.726	5349.35
488.097	5494.88
488.467	5532.4
488.837	5748.66
489.207	5881.77
489.578	6011.71
489.948	6169.44
490.318	6298.93
490.688	6379.61
491.058	6512.26
491.428	6666.6
491.798	6850.33
492.168	7029.53
492.538	7088.74
492.908	7266.59
493.278	7416.87
493.648	7534.38
494.017	7599.01
494.387	7844.65
494.757	7918.55
495.126	8081.93
495.496	8118.32
495.866	8298.2
496.235	8390.4
496.605	8568.02
496.974	8597.4
497.344	8764.4
497.713	8911.52
498.082	8976.83
498.452	9171.17
498.821	9269.25
499.19	9412.29
499.559	9501.78
499.928	9595.79
500.298	9645.06
500.667	9787.2
501.036	9856.35
501.405	9894.32
501.774	9996.46
502.143	10132.73
502.512	10196
502.88	10347.64
503.249	10439.61
503.618	10493.85
503.987	10572.26
504.356	10651.13
504.724	10692.04
505.093	10833.05
505.462	10864.91
505.83	10997.56
506.199	11086.83
506.567	11202.76
506.936	11235.07
507.304	11424.45
507.672	11447.95
508.041	11482.75
508.409	11553.48
508.777	11701.5
509.145	11716.42
509.514	11781.05
509.882	11851.78
510.25	11856.07
510.618	11938.78
510.986	12017.65
511.354	12129.74
511.722	12208.38
512.09	12293.8
512.458	12263.97
512.826	12329.28
513.193	12395.49
513.561	12435.27
513.929	12512.55
514.297	12629.39
514.664	12681.36
515.032	12636.16
515.4	12820.34
515.767	12729.72
516.135	12772.43
516.502	12730.17
516.869	12935.14
517.237	12945.99
517.604	12937.17
517.972	13032.09
518.339	13069.83
518.706	13079.32
519.073	13149.82
519.44	13146.43
519.808	13272.08
520.175	13242.02
520.542	13392.08
520.909	13408.57
521.276	13330.16
521.643	13476.59
522.009	13486.76
522.376	13494
522.743	13611.96
523.11	13645.4
523.477	13765.63
523.843	13788
524.21	13733.54
524.577	13847.88
524.943	13894.44
525.31	13924.49
525.676	13954.77
526.043	13993.87
526.409	14039.74
526.776	14180.08
527.142	14115
527.508	14120.87
527.874	14141.66
528.241	14145.5
528.607	14146.63
528.973	14263.01
529.339	14154.54
529.705	14192.51
530.071	14226.41
530.437	14289.45
530.803	14255.11
531.169	14366.51
531.535	14202.45
531.901	14316.57
532.267	14366.51
532.632	14262.11
532.998	14336.01
533.364	14286.29
533.73	14311.6
534.095	14332.17
534.461	14326.74
534.826	14376.68
535.192	14262.11
535.557	14467.08
535.923	14363.35
536.288	14306.63
536.653	14294.2
537.019	14213.98
537.384	14209.68
537.749	14232.06
538.114	14131.94
538.479	14127.65
538.845	14246.52
539.21	14098.05
539.575	14100.08
539.94	14030.7
540.305	14022.57
540.67	14019.86
541.034	13985.06
541.399	13958.16
541.764	13926.07
542.129	13933.76
542.494	13859.18
542.858	13845.4
543.223	13794.78
543.587	13860.09
543.952	13772.41
544.316	13757.49
544.681	13672.52
545.045	13722.24
545.41	13721.79
545.774	13681.11
546.138	13616.93
546.503	13651.28
546.867	13617.16
547.231	13655.12
547.595	13536.71
547.959	13583.48
548.324	13503.26
548.688	13474.11
549.052	13488.8
549.416	13475.01
549.779	13448.8
550.143	13378.74
550.507	13403.38
550.871	13316.37
551.235	13268.46
551.599	13388.91
551.962	13251.29
552.326	13188.92
552.689	13211.74
553.053	13180.56
553.417	13114.57
553.78	13294
554.143	13100.56
554.507	13175.59
554.87	13084.06
555.234	13185.75
555.597	13064.63
555.96	13143.27
556.323	13015.14
556.686	13044.74
557.05	13070.5
557.413	13034.8
557.776	13030.05
558.139	13096.72
558.502	13088.58
558.865	13100.56
559.228	13090.62
559.59	13026.44
559.953	13005.19
560.316	13138.98
560.679	13003.84
561.041	13063.27
561.404	13089.49
561.767	13135.81
562.129	13034.57
562.492	13146.66
562.854	13051.07
563.217	13057.85
563.579	13142.82
563.941	13199.99
564.304	13175.36
564.666	13101.92
565.028	13161.57
565.39	13139.65
565.753	13199.31
566.115	13224.85
566.477	13224.4
566.839	13256.94
567.201	13293.32
567.563	13284.28
567.925	13363.6
568.287	13275.02
568.648	13308.01
569.01	13354.34
569.372	13431.17
569.734	13278.18
570.095	13352.08
570.457	13455.13
570.819	13331.74
571.18	13444.73
571.542	13488.12
571.903	13479.53
572.265	13456.26
572.626	13518.4
572.987	13491.96
573.349	13468.01
573.71	13504.84
574.071	13528.57
574.432	13485.86
574.794	13626.87
575.155	13555.91
575.516	13441.12
575.877	13554.33
576.238	13640.88
576.599	13619.19
576.96	13571.73
577.32	13618.29
577.681	13645.18
578.042	13739.19
578.403	13595.91
578.763	13564.05
579.124	13664.61
579.485	13616.7
579.845	13653.77
580.206	13541.45
580.566	13630.26
580.927	13605.18
581.287	13604.95
581.648	13599.08
582.008	13666.87
582.368	13583.48
582.728	13628
583.089	13613.31
583.449	13567.89
583.809	13652.64
584.169	13651.05
584.529	13587.33
584.889	13621.45
585.249	13609.47
585.609	13501.68
585.969	13663.93
586.329	13492.19
586.688	13592.07
587.048	13520.89
587.408	13489.7
587.768	13516.14
588.127	13512.07
588.487	13452.19
588.846	13516.14
589.206	13456.48
589.565	13451.74
589.925	13471.4
590.284	13484.05
590.643	13510.49
591.003	13453.32
591.362	13464.62
591.721	13418.97
592.08	13366.09
592.44	13388.46
592.799	13480.66
593.158	13396.14
593.517	13395.47
593.876	13393.43
594.235	13372.42
594.593	13424.17
594.952	13349.82
595.311	13388.69
595.67	13379.42
596.029	13442.02
596.387	13386.2
596.746	13436.37
597.104	13355.47
597.463	13382.59
597.822	13350.04
598.18	13327.9
598.538	13355.47
598.897	13474.79
599.255	13268.24
599.613	13428.46
599.972	13360.89
600.33	13385.98
600.688	13334.9
601.046	13316.37
601.404	13425.75
601.762	13394.79
602.12	13314.57
602.478	13366.99
602.836	13361.12
603.194	13331.97
603.552	13383.94
603.91	13232.53
604.268	13323.15
604.625	13345.98
604.983	13351.63
605.341	13337.84
605.698	13307.56
606.056	13338.29
606.413	13353.21
606.771	13436.82
607.128	13447.67
607.485	13394.56
607.843	13387.56
608.2	13319.99
608.557	13463.49
608.914	13348.01
609.272	13392.08
609.629	13447.89
609.986	13487.44
610.343	13443.15
610.7	13543.26
611.057	13414
611.414	13488.57
611.771	13460.55
612.127	13518.85
612.484	13493.32
612.841	13601.11
613.198	13579.87
613.554	13633.88
613.911	13553.65
614.267	13561.11
614.624	13545.29
614.98	13559.3
615.337	13624.61
615.693	13644.73
616.05	13564.95
616.406	13747.1
616.762	13613.31
617.118	13631.39
617.475	13609.25
617.831	13687.89
618.187	13671.84
618.543	13730.15
618.899	13705.52
619.255	13732.18
619.611	13693.09
619.967	13795.68
620.323	13788.23
620.678	13769.47
621.034	13714.33
621.39	13712.07
621.746	13660.54
622.101	13861.44
622.457	13648.34
622.812	13729.02
623.168	13798.62
623.523	13784.84
623.879	13760.2
624.234	13726.53
624.589	13758.4
624.945	13750.03
625.3	13753.2
625.655	13771.73
626.01	13738.96
626.365	13766.98
626.72	13738.73
627.075	13714.55
627.43	13688.57
627.785	13716.36
628.14	13749.13
628.495	13696.25
628.85	13740.09
629.205	13707.78
629.559	13717.94
629.914	13714.55
630.269	13714.33
630.623	13644.05
630.978	13627.1
631.332	13696.25
631.687	13664.61
632.041	13682.92
632.396	13630.49
632.75	13607.89
633.104	13620.32
633.459	13584.84
633.813	13515.24
634.167	13501.23
634.521	13492.87
634.875	13559.76
635.229	13530.15
635.583	13405.41
635.937	13429.82
636.291	13484.73
636.645	13423.94
636.999	13361.12
637.352	13397.95
637.706	13320.44
638.06	13394.56
638.413	13347.11
638.767	13242.25
639.121	13293.55
639.474	13290.16
639.828	13254.45
640.181	13296.49
640.534	13282.48
640.888	13267.11
641.241	13236.15
641.594	13175.13
641.947	13243.15
642.301	13222.36
642.654	13178.52
643.007	13258.3
643.36	13211.52
643.713	13161.8
644.066	13227.79
644.419	13111.41
644.771	13121.8
645.124	12936.04
645.477	12936.04
645.83	12872.77
646.182	12825.99
646.535	12825.76
646.888	12813.34
647.24	12674.81
647.593	12780.12
647.945	12827.8
648.298	12805.88
648.65	12581.7
649.002	12644.3
649.355	12725.2
649.707	12773.34
650.059	12863.5
650.411	12969.26
650.763	12948.02
651.115	13141.24
651.467	13043.16
651.819	13004.06
652.171	12973.33
652.523	12948.93
652.875	12918.19
653.227	12851.07
653.578	13020.56
653.93	12969.72
654.282	12915.25
654.633	12868.93
654.985	12867.57
655.337	12950.96
655.688	12940.11
656.039	13049.94
656.391	12880.45
656.742	12896.72
657.094	12944.41
657.445	12953.22
657.796	12906.67
658.147	12949.15
658.498	12951.64
658.849	12982.82
659.2	12983.27
659.551	12996.16
659.902	13014.46
660.253	12981.47
660.604	13046.78
660.955	12967.91
661.306	13070.5
661.656	13070.73
662.007	13002.48
662.358	13015.82
662.708	12954.57
663.059	12945.99
663.409	12920.9
663.76	12953.44
664.11	12983.5
664.461	13052.2
664.811	13001.81
665.161	13034.12
665.511	13035.48
665.862	13126.55
666.212	13009.04
666.562	13092.65
666.912	13065.08
667.262	13005.42
667.612	13023.73
667.962	13035.48
668.312	13066.66
668.662	13119.54
669.011	13004.74
669.361	12930.17
669.711	12975.14
670.06	13021.92
670.41	12939.66
670.76	12969.04
671.109	12942.82
671.459	13031.63
671.808	12935.14
672.157	12986.89
672.507	12880
672.856	12995.7
673.205	13002.93
673.554	12939.21
673.904	12941.69
674.253	12942.15
674.602	12936.95
674.951	12770.17
675.3	12754.13
675.649	12830.06
675.998	12859.44
676.346	12879.55
676.695	12849.27
677.044	12833
677.393	12745.99
677.741	12794.58
678.09	12801.36
678.438	12712.1
678.787	12846.55
679.135	12846.33
679.484	12678.42
679.832	12607.24
680.181	12624.41
680.529	12676.62
680.877	12639.78
681.225	12637.75
681.573	12751.87
681.922	12639.33
682.27	12536.05
682.618	12538.09
682.966	12523.85
683.314	12523.63
683.661	12455.83
684.009	12438.66
684.357	12401.14
684.705	12406.11
685.053	12418.32
685.4	12320.47
685.748	12265.33
686.095	12252.67
686.443	12169.06
686.79	12195.95
687.138	12212.22
687.485	12203.18
687.832	12136.07
688.18	12118.44
688.527	12055.62
688.874	12077.54
689.221	12072.11
689.568	12028.5
689.915	11893.81
690.262	11923.64
690.609	11934.71
690.956	11918.9
691.303	11851.33
691.65	11826.69
691.997	11766.36
692.344	11742.86
692.69	11705.79
693.037	11711.44
693.383	11541.5
693.73	11628.73
694.077	11497.89
694.423	11550.54
694.769	11473.71
695.116	11371.11
695.462	11441.17
695.808	11331.34
696.155	11295.64
696.501	11278.91
696.847	11270.33
697.193	11137.22
697.539	11216.54
697.885	11094.96
698.231	11045.25
698.577	11055.19
698.923	11043.66
699.269	10967.73
699.614	10876.66
699.96	10871.92
700.306	10916.89
700.651	10784.46
700.997	10728.87
701.342	10773.16
701.688	10751.02
702.033	10626.95
702.379	10682.09
702.724	10670.57
703.069	10664.01
703.415	10495.43
703.76	10513.06
704.105	10461.08
704.45	10371.59
704.795	10396.68
705.14	10355.32
705.485	10404.13
705.83	10322.1
706.175	10295.66
706.52	10312.61
706.865	10236.23
707.209	10187.19
707.554	10220.18
707.899	10177.47
708.243	10132.5
708.588	10118.27
708.932	10063.8
709.277	10028.55
709.621	9963.24
709.966	9949.68
710.31	10001.88
710.654	9908.78
710.998	9888.89
711.342	9870.59
711.687	9826.52
712.031	9816.58
712.375	9761.66
712.719	9812.51
713.063	9754.66
713.407	9808.89
713.75	9701.33
714.094	9747.2
714.438	9677.37
714.782	9697.71
715.125	9610.71
715.469	9655.68
715.812	9568.9
716.156	9567.32
716.499	9528.45
716.843	9504.72
717.186	9540.43
717.53	9567.77
717.873	9534.55
718.216	9526.19
718.559	9481.9
718.902	9368.45
719.246	9446.42
719.589	9359.64
719.932	9366.42
720.275	9381.34
720.617	9436.48
720.96	9378.4
721.303	9302.69
721.646	9357.16
721.989	9368.68
722.331	9352.86
722.674	9314.44
723.016	9350.6
723.359	9280.55
723.701	9328.46
724.044	9231.06
724.386	9216.82
724.729	9198.97
725.071	9205.52
725.413	9266.08
725.755	9227.89
726.097	9227.22
726.439	9078.74
726.782	9199.42
727.124	9253.2
727.465	9123.04
727.807	9119.2
728.149	9112.42
728.491	9096.37
728.833	9151.28
729.175	9147.44
729.516	9156.48
729.858	9112.87
730.199	9140.66
730.541	9109.25
730.882	9091.63
731.224	9119.65
731.565	9066.54
731.906	9089.37
732.248	9135.24
732.589	9029.93
732.93	9081.23
733.271	9088.01
733.612	9093.43
733.953	9152.87
734.294	9091.63
734.635	8986.54
734.976	9085.75
735.317	9128.01
735.658	9061.57
735.999	9065.86
736.339	9080.33
736.68	9052.08
737.021	9084.85
737.361	9029.71
737.702	9115.58
738.042	9130.72
738.383	9144.51
738.723	9101.79
739.063	9057.5
739.404	9107.44
739.744	9143.83
740.084	9111.51
740.424	9147.22
740.764	9106.31
741.104	9123.94
741.444	9183.15
741.784	9125.52
742.124	9190.38
742.464	9161.91
742.804	9190.38
743.143	9170.27
743.483	9204.16
743.823	9217.05
744.162	9224.96
744.502	9277.38
744.841	9309.02
745.181	9390.6
745.52	9375.23
745.86	9406.19
746.199	9432.63
746.538	9524.61
746.877	9600.09
747.216	9599.63
747.556	9661.33
747.895	9743.36
748.234	9623.59
748.573	9730.93
748.911	9849.35
749.25	9883.69
749.589	9869.01
749.928	9976.12
750.267	10072.62
750.605	10140.41
750.944	10150.35
751.283	10240.52
751.621	10289.79
751.96	10365.72
752.298	10483.45
752.636	10576.11
752.975	10616.33
753.313	10657.69
753.651	10884.57
753.989	10914.63
754.327	11024.23
754.666	11201.17
755.004	11262.19
755.342	11410.66
755.679	11488.4
756.017	11637.1
756.355	11725.91
756.693	11860.59
757.031	11962.28
757.368	12151.21
757.706	12183.52
758.044	12293.58
758.381	12515.49
