Data from hue_70_FLMS001491_17.txt Node
Date: Mon Feb 06 15:20:11 GMT 2017
User: dcchb
Spectrometer: FLMS00149
Trigger mode: 0
Integration Time (sec): 2.000000E-2
Scans to average: 10
Electric dark correction enabled: true
Nonlinearity correction enabled: false
Boxcar width: 0
XAxis mode: Wavelengths
Number of Pixels in Spectrum: 2048
>>>>>Begin Spectral Data<<<<<
341.393	3.64
341.776	3.64
342.16	3.64
342.543	-53.53
342.927	-51.5
343.31	-65.51
343.693	-91.49
344.077	-68.22
344.46	-63.7
344.843	-38.39
345.226	-30.48
345.61	-23.7
345.993	-9.01
346.376	2.29
346.759	-2.46
347.142	13.81
347.525	34.83
347.908	51.55
348.291	84.32
348.674	92.23
349.057	113.92
349.44	140.82
349.823	160.25
350.206	161.15
350.588	201.83
350.971	190.31
351.354	221.27
351.737	239.57
352.119	256.07
352.502	258.78
352.884	271.89
353.267	265.78
353.65	310.08
354.032	303.3
354.414	299.46
354.797	310.98
355.179	314.37
355.562	328.61
355.944	336.06
356.326	321.38
356.709	328.83
357.091	331.09
357.473	362.73
357.855	336.52
358.238	338.1
358.62	344.43
359.002	345.56
359.384	326.8
359.766	349.62
360.148	325.9
360.53	337.19
360.912	340.13
361.294	309.62
361.676	330.87
362.057	306.46
362.439	354.82
362.821	349.4
363.203	331.54
363.584	343.52
363.966	330.42
364.348	324.99
364.729	326.35
365.111	322.28
365.493	327.03
365.874	320.47
366.256	310.3
366.637	306.46
367.019	321.38
367.4	324.77
367.781	337.42
368.163	303.75
368.544	355.73
368.925	327.03
369.306	326.12
369.688	317.99
370.069	302.62
370.45	308.72
370.831	313.92
371.212	313.01
371.593	338.55
371.974	303.07
372.355	309.4
372.736	302.85
373.117	321.15
373.498	315.27
373.879	316.4
374.26	307.14
374.641	334.93
375.021	314.14
375.402	321.15
375.783	325.67
376.163	314.14
376.544	325.67
376.925	316.4
377.305	338.32
377.686	333.13
378.066	343.07
378.447	324.77
378.827	333.58
379.208	349.62
379.588	327.93
379.968	339.23
380.349	312.56
380.729	336.97
381.109	345.1
381.489	349.17
381.87	352.34
382.25	313.47
382.63	334.26
383.01	342.62
383.39	342.39
383.77	333.35
384.15	329.96
384.53	324.31
384.91	336.06
385.29	338.55
385.67	337.19
386.049	356.18
386.429	341.04
386.809	342.39
387.189	351.88
387.568	342.17
387.948	354.6
388.328	367.48
388.707	375.84
389.087	330.19
389.466	361.37
389.846	367.25
390.225	366.35
390.605	359.11
390.984	328.83
391.363	354.82
391.743	347.36
392.122	379.91
392.501	346.01
392.881	362.28
393.26	355.05
393.639	359.57
394.018	381.04
394.397	364.76
394.776	370.64
395.155	361.15
395.534	369.28
395.913	362.05
396.292	357.76
396.671	357.08
397.05	354.82
397.429	369.96
397.808	365.67
398.186	382.62
398.565	396.63
398.944	371.77
399.323	385.33
399.701	386.01
400.08	378.55
400.458	367.25
400.837	402.28
401.215	394.37
401.594	393.92
401.972	422.39
402.351	376.52
402.729	394.14
403.107	400.92
403.486	388.94
403.864	386.23
404.242	381.71
404.62	377.42
404.999	384.42
405.377	397.98
405.755	419.23
406.133	412.45
406.511	402.73
406.889	407.48
407.267	400.47
407.645	410.64
408.023	432.56
408.401	415.16
408.779	410.64
409.156	419.23
409.534	420.13
409.912	416.51
410.29	436.63
410.667	430.3
411.045	423.52
411.422	425.33
411.8	412.67
412.178	433.92
412.555	425.78
412.933	438.89
413.31	441.82
413.687	445.44
414.065	452.45
414.442	453.12
414.819	445.21
415.197	449.06
415.574	439.79
415.951	444.76
416.328	460.13
416.705	458.77
417.082	463.07
417.46	456.97
417.837	480.69
418.214	469.39
418.591	467.36
418.967	461.03
419.344	483.63
419.721	471.65
420.098	492.44
420.475	480.24
420.852	494.25
421.228	487.47
421.605	502.61
421.982	487.25
422.358	470.75
422.735	491.54
423.111	482.73
423.488	513.46
423.864	510.75
424.241	529.05
424.617	519.79
424.994	514.14
425.37	515.27
425.746	530.41
426.123	541.48
426.499	551.65
426.875	534.48
427.251	532.9
427.627	541.48
428.003	546.45
428.379	553.23
428.756	534.25
429.132	538.55
429.507	570.63
429.883	551.88
430.259	550.07
430.635	573.8
431.011	574.02
431.387	548.94
431.763	561.82
432.138	574.02
432.514	574.48
432.89	595.94
433.265	601.14
433.641	602.95
434.016	629.62
434.392	611.54
434.767	623.74
435.143	635.72
435.518	627.13
435.894	611.54
436.269	625.1
436.644	622.61
437.02	636.17
437.395	640.92
437.77	633.68
438.145	641.59
438.52	655.83
438.895	658.77
439.271	644.76
439.646	666.68
440.021	695.6
440.395	675.49
440.77	684.3
441.145	674.36
441.52	682.27
441.895	697.64
442.27	680.69
442.645	697.64
443.019	700.35
443.394	680.69
443.769	689.28
444.143	686.34
444.518	691.08
444.892	704.87
445.267	722.72
445.641	723.85
446.016	700.12
446.39	733.34
446.764	733.79
447.139	732.66
447.513	726.56
447.887	741.48
448.262	732.66
448.636	763.17
449.01	768.6
449.384	752.32
449.758	764.53
450.132	783.28
450.506	760.46
450.88	782.61
451.254	779.44
451.628	797.97
452.002	802.27
452.376	769.05
452.75	788.93
453.123	802.27
453.497	802.27
453.871	814.92
454.244	823.06
454.618	837.07
454.992	849.05
455.365	846.33
455.739	867.58
456.112	835.94
456.486	883.39
456.859	880.68
457.232	884.3
457.606	861.93
457.979	864.86
458.352	914.81
458.725	935.37
459.099	937.18
459.472	945.99
459.845	958.42
460.218	959.1
460.591	982.83
460.964	970.17
461.337	970.17
461.71	1025.09
462.083	1015.14
462.456	1006.78
462.829	1022.15
463.201	1036.39
463.574	1041.81
463.947	1044.97
464.32	1087.23
464.692	1087.68
465.065	1085.42
465.438	1106.21
465.81	1136.72
466.183	1176.72
466.555	1154.35
466.928	1168.81
467.3	1208.81
467.672	1201.58
468.045	1249.03
468.417	1255.14
468.789	1263.72
469.161	1274.8
469.534	1313.44
469.906	1321.58
470.278	1376.26
470.65	1355.25
471.022	1376.26
471.394	1413.55
471.766	1426.43
472.138	1458.52
472.51	1486.09
472.882	1539.87
473.253	1557.5
473.625	1607.9
473.997	1640.66
474.369	1675.24
474.74	1700.77
475.112	1719.98
475.484	1769.7
475.855	1812.86
476.227	1868
476.598	1904.16
476.97	1960.2
477.341	1972.63
477.713	2034.1
478.084	2098.28
478.455	2155.45
478.827	2194.32
479.198	2276.8
479.569	2337.59
479.94	2428.44
480.311	2453.52
480.682	2534.2
481.053	2610.81
481.424	2699.84
481.795	2735.32
482.166	2830.46
482.537	2872.27
482.908	3001.98
483.279	3095.54
483.65	3180.74
484.021	3233.16
484.391	3384.35
484.762	3457.56
485.133	3487.17
485.503	3628.41
485.874	3731.91
486.244	3769.87
486.615	3963.31
486.985	4045.12
487.356	4187.71
487.726	4305.23
488.097	4427.26
488.467	4477.88
488.837	4643.75
489.207	4748.83
489.578	4914.02
489.948	5050.97
490.318	5149.95
490.688	5230.17
491.058	5365.54
491.428	5500
491.798	5591.75
492.168	5815.92
492.538	5919.65
492.908	6075.35
493.278	6231.05
493.648	6260.43
494.017	6471.04
494.387	6604.15
494.757	6697.48
495.126	6880.53
495.496	6980.64
495.866	7141.99
496.235	7263.57
496.605	7382.21
496.974	7490.23
497.344	7612.03
497.713	7739.71
498.082	7906.04
498.452	8087.5
498.821	8162.07
499.19	8232.81
499.559	8480.26
499.928	8548.28
500.298	8654.72
500.667	8779.01
501.036	8895.39
501.405	9046.57
501.774	9106
502.143	9202.5
502.512	9360.23
502.88	9514.58
503.249	9574.24
503.618	9661.47
503.987	9746.21
504.356	9978.97
504.724	10023.72
505.093	10100.1
505.462	10239.53
505.83	10395.46
506.199	10485.4
506.567	10606.08
506.936	10761.78
507.304	10875.9
507.672	10926.07
508.041	10968.78
508.409	11125.61
508.777	11284.03
509.145	11410.12
509.514	11382.1
509.882	11535.09
510.25	11620.06
510.618	11710.23
510.986	11781.64
511.354	12059.37
511.722	12120.39
512.09	12196.32
512.458	12184.57
512.826	12373.49
513.193	12492.58
513.561	12492.36
513.929	12681.73
514.297	12783.42
514.664	12788.62
515.032	12928.95
515.4	13060.7
515.767	13021.38
516.135	13161.04
516.502	13189.29
516.869	13383.86
517.237	13423.86
517.604	13424.31
517.972	13624.08
518.339	13678.76
518.706	13758.99
519.073	13774.13
519.44	13825.88
519.808	13995.14
520.175	14086.89
520.542	14224.96
520.909	14305.41
521.276	14382.02
521.643	14466.31
522.009	14521
522.376	14631.06
522.743	14712.86
523.11	14855.46
523.477	15011.16
523.843	15079.63
524.21	15199.18
524.577	15282.79
524.943	15254.54
525.31	15342
525.676	15577.7
526.043	15539.05
526.409	15631.03
526.776	15816.56
527.142	15847.07
527.508	15865.83
527.874	16053.39
528.241	16049.55
528.607	16139.49
528.973	16253.61
529.339	16219.04
529.705	16367.73
530.071	16327.96
530.437	16495.19
530.803	16541.51
531.169	16593.26
531.535	16561.63
531.901	16619.7
532.267	16755.75
532.632	16836.87
532.998	16880.71
533.364	16892.47
533.73	16905.35
534.095	17134.04
534.461	17102.4
534.826	17148.5
535.192	17117.77
535.557	17284.55
535.923	17237.32
536.288	17300.59
536.653	17335.62
537.019	17302.85
537.384	17299.69
537.749	17430.3
538.114	17450.87
538.479	17397.31
538.845	17492.45
539.21	17428.04
539.575	17582.16
539.94	17530.64
540.305	17572.45
540.67	17513.01
541.034	17599.57
541.399	17642.5
541.764	17622.16
542.129	17608.15
542.494	17635.27
542.858	17698.32
543.223	17687.47
543.587	17712.78
543.952	17694.93
544.316	17806.57
544.681	17791.42
545.045	17837.53
545.41	17946
545.774	17936.28
546.138	17856.28
546.503	17817.19
546.867	17901.93
547.231	18066.45
547.595	18025.99
547.959	17991.87
548.324	18021.25
548.688	18040.91
549.052	18003.17
549.416	18062.6
549.779	18157.74
550.143	18010.18
550.507	18167.91
550.871	18213.79
551.235	18204.3
551.599	18249.49
551.962	18272.54
552.326	18227.8
552.689	18322.94
553.053	18261.69
553.417	18215.59
553.78	18544.17
554.143	18428.47
554.507	18506.43
554.87	18488.36
555.234	18647.45
555.597	18441.35
555.96	18554.34
556.323	18656.94
556.686	18653.32
557.05	18661.01
557.413	18683.38
557.776	18782.81
558.139	18808.57
558.502	18841.79
558.865	18845.86
559.228	19016.03
559.59	18917.95
559.953	19017.16
560.316	19125.63
560.679	19117.27
561.041	19250.82
561.404	19357.49
561.767	19326.53
562.129	19265.74
562.492	19436.35
562.854	19444.04
563.217	19366.3
563.579	19486.3
563.941	19556.8
564.304	19690.58
564.666	19757.93
565.028	19668.44
565.39	19680.41
565.753	19844.03
566.115	19894.19
566.477	19894.19
566.839	19938.04
567.201	20119.05
567.563	20047.41
567.925	20091.48
568.287	20230.46
568.648	20179.61
569.01	20271.81
569.372	20265.48
569.734	20395.65
570.095	20529.88
570.457	20403.11
570.819	20587.74
571.18	20562.2
571.542	20552.26
571.903	20717.22
572.265	20734.85
572.626	20696.66
572.987	20859.37
573.349	20861.85
573.71	20911.57
574.071	21043.09
574.432	20942.08
574.794	21173.93
575.155	21091.45
575.516	21107.95
575.877	21122.64
576.238	21097.33
576.599	21252.35
576.96	21190.66
577.32	21262.29
577.681	21272.92
578.042	21329.86
578.403	21364.89
578.763	21389.07
579.124	21360.82
579.485	21500.25
579.845	21457.54
580.206	21433.36
580.566	21465.68
580.927	21493.25
581.287	21630.42
581.648	21488.28
582.008	21563.3
582.368	21521.72
582.728	21586.35
583.089	21601.49
583.449	21493.93
583.809	21607.6
584.169	21577.09
584.529	21573.7
584.889	21682.17
585.249	21657.99
585.609	21493.7
585.969	21541.83
586.329	21627.71
586.688	21633.58
587.048	21583.19
587.408	21564.66
587.768	21542.06
588.127	21553.81
588.487	21624.32
588.846	21692.79
589.206	21545
589.565	21519.24
589.925	21638.1
590.284	21551.1
590.643	21628.16
591.003	21654.15
591.362	21667.26
591.721	21614.6
592.08	21730.3
592.44	21626.13
592.799	21690.08
593.158	21646.24
593.517	21719.46
593.876	21650.53
594.235	21643.53
594.593	21641.04
594.952	21667.71
595.311	21588.61
595.67	21675.84
596.029	21760.59
596.387	21798.1
596.746	21820.02
597.104	21665
597.463	21613.02
597.822	21764.2
598.18	21632.45
598.538	21583.42
598.897	21804.2
599.255	21598.33
599.613	21949.96
599.972	21850.75
600.33	21764.2
600.688	21704.09
601.046	21767.82
601.404	21992.22
601.762	21867.02
602.12	21882.62
602.478	21947.02
602.836	21940.47
603.194	21836.74
603.552	21915.16
603.91	21899.57
604.268	21987.25
604.625	21874.03
604.983	22022.5
605.341	21929.85
605.698	22073.12
606.056	22024.08
606.413	21970.98
606.771	21990.86
607.128	22073.12
607.485	21930.98
607.843	22076.51
608.2	22086.45
608.557	22258.65
608.914	22213.23
609.272	22233.57
609.629	22285.54
609.986	22302.49
610.343	22201.25
610.7	22382.72
611.057	22409.38
611.414	22477.18
611.771	22464.97
612.127	22434.47
612.484	22507.69
612.841	22542.03
613.198	22475.14
613.554	22469.49
613.911	22587.46
614.267	22681.69
614.624	22585.42
614.98	22734.8
615.337	22802.14
615.693	22737.51
616.05	22776.38
616.406	22847.11
616.762	22838.75
617.118	22832.42
617.475	22870.84
617.831	22829.71
618.187	22936.37
618.543	22787.45
618.899	23150.15
619.255	23026.32
619.611	22892.31
619.967	23156.03
620.323	23078.29
620.678	23049.37
621.034	22979.54
621.39	22963.49
621.746	22942.25
622.101	23285.07
622.457	23183.15
622.812	23220.89
623.168	23112.64
623.523	23302.01
623.879	23224.05
624.234	23111.28
624.589	23229.02
624.945	23126.88
625.3	23236.48
625.655	23184.28
626.01	23270.15
626.365	23415.46
626.72	23245.74
627.075	23314.44
627.43	23235.35
627.785	23174.79
628.14	23232.19
628.495	23242.35
628.85	23206.65
629.205	23244.39
629.559	23257.5
629.914	23171.17
630.269	23286.42
630.623	23122.13
630.978	23061.57
631.332	23283.71
631.687	23316.7
632.041	23042.81
632.396	23201.68
632.75	23092.53
633.104	23134.56
633.459	23033.77
633.813	22974.11
634.167	23154
634.521	23038.74
634.875	23050.04
635.229	22920.56
635.583	22914
635.937	22951.97
636.291	22915.58
636.645	22994.23
636.999	22848.47
637.352	22869.48
637.706	22779.99
638.06	22867.45
638.413	22823.38
638.767	22709.49
639.121	22867.45
639.474	22780.9
639.828	22714.01
640.181	22698.19
640.534	22840.33
640.888	22773.44
641.241	22562.15
641.594	22550.17
641.947	22583.16
642.301	22596.72
642.654	22688.92
643.007	22567.57
643.36	22615.7
643.713	22540.68
644.066	22701.13
644.419	22423.39
644.771	22325.99
645.124	22217.52
645.477	22141.59
645.83	22004.65
646.182	21938.21
646.535	21875.84
646.888	21885.78
647.24	21869.96
647.593	21864.09
647.945	21924.88
648.298	21856.18
648.65	21698.44
649.002	21711.77
649.355	21803.07
649.707	21675.62
650.059	21887.81
650.411	22207.58
650.763	22093.91
651.115	22448.93
651.467	22325.99
651.819	22211.42
652.171	22222.27
652.523	22202.61
652.875	22368.48
653.227	22134.59
653.578	22275.83
653.93	22350.85
654.282	22174.13
654.633	21971.65
654.985	22176.39
655.337	22251.87
655.688	22204.64
656.039	22187.92
656.391	22121.93
656.742	22067.24
657.094	22157.64
657.445	22253.91
657.796	22208.26
658.147	22119.9
658.498	22113.35
658.849	22225.88
659.2	22159.67
659.551	22080.13
659.902	22267.01
660.253	22162.38
660.604	22207.35
660.955	22094.59
661.306	22118.54
661.656	22107.24
662.007	22232.21
662.358	22179.56
662.708	22175.04
663.059	22155.15
663.409	22043.29
663.76	22115.6
664.11	22233.57
664.461	22174.13
664.811	22244.19
665.161	22145.66
665.511	22112.22
665.862	22167.58
666.212	22173.68
666.562	22282.15
666.912	22199.9
667.262	22190.18
667.612	22228.37
667.962	22068.37
668.312	22110.18
668.662	22312.66
669.011	22172.78
669.361	22115.6
669.711	22056.4
670.06	22071.54
670.41	22024.08
670.76	22013.01
671.109	22118.32
671.459	22099.79
671.808	22025.21
672.157	22088.49
672.507	21980.92
672.856	21964.65
673.205	21969.85
673.554	22052.33
673.904	21853.24
674.253	22098.2
674.602	21950.64
674.951	21647.82
675.3	21617.76
675.649	21857.76
675.998	21883.07
676.346	21879.23
676.695	21927.81
677.044	21799
677.393	21929.17
677.741	21871.77
678.09	21776.18
678.438	21695.95
678.787	21817.31
679.135	21740.93
679.484	21666.58
679.832	21726.24
680.181	21513.81
680.529	21666.13
680.877	21582.74
681.225	21568.5
681.573	21679.91
681.922	21551.78
682.27	21356.98
682.618	21497.32
682.966	21384.55
683.314	21463.87
683.661	21330.09
684.009	21217.1
684.357	21251.22
684.705	21158.12
685.053	21097.33
685.4	21101.17
685.748	20992.47
686.095	21051.9
686.443	20894.39
686.79	20860.27
687.138	20934.39
687.485	20975.3
687.832	20827.96
688.18	20818.69
688.527	20728.52
688.874	20699.82
689.221	20611.01
689.568	20555.42
689.915	20542.54
690.262	20632.48
690.609	20455.31
690.956	20451.92
691.303	20443.56
691.65	20251.25
691.997	20321.3
692.344	20119.27
692.69	20180.97
693.037	20138.93
693.383	19920.86
693.73	20023
694.077	19943.01
694.423	19841.77
694.769	19783.24
695.116	19827.08
695.462	19750.47
695.808	19670.25
696.155	19736.68
696.501	19557.03
696.847	19570.59
697.193	19330.82
697.539	19516.13
697.885	19328.33
698.231	19226.19
698.577	19260.09
698.923	19145.06
699.269	19098.28
699.614	19017.61
699.96	18851.06
700.306	18987.1
700.651	18942.36
700.997	18773.09
701.342	18804.05
701.688	18719.99
702.033	18594.12
702.379	18625.98
702.724	18613.32
703.069	18609.93
703.415	18324.29
703.76	18334.69
704.105	18431.86
704.45	18282.49
704.795	18230.28
705.14	18159.1
705.485	18121.36
705.83	17976.5
706.175	18012.66
706.52	17941.7
706.865	17880.01
707.209	17859.9
707.554	17770.86
707.899	17765.66
708.243	17729.73
708.588	17607.25
708.932	17574.93
709.277	17532.9
709.621	17596.18
709.966	17484.54
710.31	17498.55
710.654	17298.33
710.998	17404.32
711.342	17361.38
711.687	17292
712.031	17261.04
712.375	17154.15
712.719	17170.65
713.063	17162.06
713.407	17238.45
713.75	17094.95
714.094	17062.63
714.438	17045.46
714.782	17071.9
715.125	16911
715.469	16916.87
715.812	16911.9
716.156	16760.94
716.499	16766.37
716.843	16773.82
717.186	16726.37
717.53	16771.34
717.873	16773.6
718.216	16670.55
718.559	16575.86
718.902	16553.72
719.246	16522.31
719.589	16475.3
719.932	16462.87
720.275	16489.99
720.617	16402.99
720.96	16391.91
721.303	16414.51
721.646	16345.14
721.989	16334.74
722.331	16378.13
722.674	16280.73
723.016	16252.71
723.359	16303.1
723.701	16253.84
724.044	16170.68
724.386	16075.54
724.729	16235.53
725.071	16111.47
725.413	16164.12
725.755	16128.42
726.097	16041.64
726.439	16005.03
726.782	16000.74
727.124	16078.25
727.465	15945.15
727.807	16023.11
728.149	15942.89
728.491	16022.43
728.833	16026.95
729.175	15934.75
729.516	15905.6
729.858	15871.7
730.199	15882.55
730.541	15821.53
730.882	15838.03
731.224	15821.99
731.565	15844.13
731.906	15742.89
732.248	15769.11
732.589	15697.47
732.93	15694.3
733.271	15790.57
733.612	15622.67
733.953	15819.95
734.294	15687.75
734.635	15631.03
734.976	15699.5
735.317	15656.57
735.658	15606.85
735.999	15646.85
736.339	15652.5
736.68	15618.83
737.021	15654.76
737.361	15588.77
737.702	15727.52
738.042	15639.17
738.383	15598.26
738.723	15629.22
739.063	15596.68
739.404	15669.22
739.744	15577.7
740.084	15538.6
740.424	15545.83
740.764	15579.28
741.104	15616.79
741.444	15568.66
741.784	15552.16
742.124	15560.3
742.464	15615.89
742.804	15561.88
743.143	15509.22
743.483	15608.21
743.823	15547.42
744.162	15538.6
744.502	15655.66
744.841	15560.98
745.181	15666.51
745.52	15680.97
745.86	15683.46
746.199	15763.23
746.538	15752.16
746.877	15697.92
747.216	15838.93
747.556	15790.35
747.895	15852.04
748.234	15835.09
748.573	15949.21
748.911	15899.27
749.25	15978.14
749.589	16008.42
749.928	15981.53
750.267	16077.35
750.605	16100.17
750.944	16123.67
751.283	16084.35
751.621	16260.62
751.96	16182.88
752.298	16377.68
752.636	16392.14
752.975	16393.04
753.313	16351.46
753.651	16501.52
753.989	16541.06
754.327	16568.86
754.666	16537.9
755.004	16662.19
755.342	16807.95
755.679	16849.75
756.017	16828.96
756.355	17003.42
756.693	17028.28
757.031	17127.49
757.368	17096.3
