Data from hue_200_FLMS001491_00086.txt Node
Date: Tue Feb 07 16:44:03 GMT 2017
User: dcchb
Spectrometer: FLMS00149
Trigger mode: 0
Integration Time (sec): 2.000000E-2
Scans to average: 10
Electric dark correction enabled: true
Nonlinearity correction enabled: false
Boxcar width: 0
XAxis mode: Wavelengths
Number of Pixels in Spectrum: 2048
>>>>>Begin Spectral Data<<<<<
341.393	-11.72
341.776	-11.72
342.16	-11.72
342.543	-55.34
342.927	-69.57
343.31	-62.34
343.693	-63.25
344.077	-52.17
344.46	-43.13
344.843	-50.59
345.226	-57.37
345.61	-29.8
345.993	-20.31
346.376	-14.21
346.759	7.26
347.142	40.03
347.525	43.64
347.908	59.24
348.291	58.33
348.674	80.7
349.057	103.98
349.44	108.05
349.823	138.33
350.206	174.71
350.588	198.67
350.971	199.12
351.354	231.21
351.737	224.43
352.119	248.84
352.502	280.02
352.884	266.46
353.267	274.82
353.65	291.32
354.032	274.15
354.414	284.31
354.797	303.98
355.179	320.92
355.562	348.27
355.944	300.13
356.326	343.97
356.709	324.31
357.091	318.21
357.473	338.55
357.855	347.14
358.238	338.78
358.62	330.19
359.002	350.08
359.384	339.23
359.766	330.87
360.148	324.09
360.53	343.97
360.912	329.06
361.294	342.17
361.676	314.37
362.057	333.58
362.439	323.18
362.821	324.99
363.203	314.14
363.584	329.29
363.966	317.99
364.348	315.73
364.729	308.27
365.111	336.29
365.493	353.01
365.874	328.16
366.256	317.08
366.637	305.33
367.019	301.26
367.4	302.17
367.781	312.79
368.163	297.2
368.544	326.57
368.925	319.34
369.306	314.6
369.688	311.88
370.069	332
370.45	325.44
370.831	297.42
371.212	313.01
371.593	309.17
371.974	332.9
372.355	294.48
372.736	322.96
373.117	323.86
373.498	280.92
373.879	314.37
374.26	310.08
374.641	315.73
375.021	325.67
375.402	321.6
375.783	319.57
376.163	325.67
376.544	315.05
376.925	326.8
377.305	327.03
377.686	334.26
378.066	321.15
378.447	305.56
378.827	350.3
379.208	324.99
379.588	343.52
379.968	341.71
380.349	332.9
380.729	336.74
381.109	332.45
381.489	323.64
381.87	355.27
382.25	321.83
382.63	334.26
383.01	333.58
383.39	345.78
383.77	362.73
384.15	334.71
384.53	350.3
384.91	356.86
385.29	362.96
385.67	355.27
386.049	347.82
386.429	345.1
386.809	337.87
387.189	326.57
387.568	372.22
387.948	354.82
388.328	376.97
388.707	364.99
389.087	367.48
389.466	363.63
389.846	379.91
390.225	340.36
390.605	383.97
390.984	369.06
391.363	392.33
391.743	362.05
392.122	376.06
392.501	359.57
392.881	372.9
393.26	372
393.639	369.06
394.018	399.57
394.397	376.52
394.776	388.94
395.155	388.04
395.534	388.27
395.913	394.59
396.292	392.56
396.671	407.48
397.05	399.57
397.429	396.4
397.808	403.41
398.186	419.45
398.565	423.07
398.944	431.2
399.323	396.85
399.701	413.58
400.08	438.66
400.458	424.65
400.837	408.38
401.215	431.2
401.594	431.66
401.972	430.75
402.351	459.68
402.729	413.12
403.107	438.89
403.486	438.66
403.864	445.67
404.242	465.33
404.62	422.62
404.999	448.15
405.377	461.94
405.755	463.97
406.133	456.51
406.511	460.58
406.889	471.88
407.267	491.54
407.645	468.26
408.023	504.87
408.401	492.9
408.779	513.24
409.156	512.33
409.534	541.26
409.912	535.83
410.29	535.83
410.667	557.3
411.045	554.59
411.422	549.17
411.8	560.69
412.178	593.01
412.555	578.32
412.933	602.72
413.31	610.86
413.687	616.28
414.065	627.58
414.442	632.1
414.819	646.79
415.197	633.91
415.574	672.33
415.951	672.1
416.328	686.11
416.705	683.4
417.082	702.61
417.46	717.07
417.837	711.42
418.214	715.94
418.591	745.77
418.967	735.6
419.344	763.62
419.721	758.65
420.098	786.22
420.475	771.53
420.852	814.24
421.228	799.1
421.605	806.11
421.982	864.64
422.358	882.72
422.735	866.9
423.111	887.01
423.488	920.23
423.864	922.04
424.241	931.08
424.617	979.66
424.994	967.01
425.37	980.12
425.746	972.43
426.123	1025.54
426.499	1028.02
426.875	1024.41
427.251	1033.9
427.627	1096.72
428.003	1077.29
428.379	1099.21
428.756	1110.28
429.132	1106.89
429.507	1136.95
429.883	1149.6
430.259	1138.76
430.635	1186.89
431.011	1161.35
431.387	1212.43
431.763	1242.48
432.138	1250.16
432.514	1259.43
432.89	1291.07
433.265	1344.4
433.641	1362.48
434.016	1380.78
434.392	1354.79
434.767	1422.36
435.143	1444.96
435.518	1473.21
435.894	1483.38
436.269	1503.72
436.644	1543.26
437.02	1578.29
437.395	1577.16
437.77	1603.38
438.145	1656.48
438.52	1702.81
438.895	1721.79
439.271	1689.02
439.646	1765.41
440.021	1793.43
440.395	1823.03
440.77	1805.63
441.145	1863.26
441.52	1914.78
441.895	1870.71
442.27	1942.8
442.645	1953.88
443.019	1977.15
443.394	1966.98
443.769	2018.51
444.143	1980.09
444.518	2041.1
444.892	2066.41
445.267	2049.69
445.641	2090.14
446.016	2132.85
446.39	2172.63
446.764	2168.56
447.139	2129.24
447.513	2173.98
447.887	2176.92
448.262	2212.63
448.636	2255.56
449.01	2294.66
449.384	2289.01
449.758	2265.28
450.132	2318.61
450.506	2344.83
450.88	2348.67
451.254	2365.39
451.628	2430.02
452.002	2468.66
452.376	2469.34
452.75	2499.4
453.123	2480.87
453.497	2552.28
453.871	2529
454.244	2616.91
454.618	2601.09
454.992	2703.91
455.365	2663.46
455.739	2755.66
456.112	2751.82
456.486	2804.25
456.859	2796.56
457.232	2869.78
457.606	2864.13
457.979	2875.21
458.352	2924.7
458.725	2981.87
459.099	3033.39
459.472	3054.19
459.845	3105.71
460.218	3122.43
460.591	3123.11
460.964	3167.18
461.337	3195.42
461.71	3340.73
462.083	3300.05
462.456	3311.13
462.829	3327.4
463.201	3415.53
463.574	3392.93
463.947	3466.6
464.32	3521.29
464.692	3553.61
465.065	3598.35
465.438	3615.3
465.81	3716.77
466.183	3710.67
466.555	3768.29
466.928	3812.58
467.3	3812.81
467.672	3883.09
468.045	3971
468.417	3953.37
468.789	3995.18
469.161	4039.24
469.534	4140.71
469.906	4231.1
470.278	4226.36
470.65	4261.16
471.022	4287.15
471.394	4449.4
471.766	4470.42
472.138	4493.47
472.51	4619.57
472.882	4696.63
473.253	4695.72
473.625	4830.64
473.997	4903.85
474.369	4904.08
474.74	4972.33
475.112	5035.38
475.484	5139.78
475.855	5156.5
476.227	5226.33
476.598	5343.62
476.97	5386.1
477.341	5475.59
477.713	5533.67
478.084	5635.13
478.455	5795.13
478.827	5778.63
479.198	5952.87
479.569	5916.48
479.94	6090.26
480.311	6129.36
480.682	6272.63
481.053	6451.61
481.424	6543.36
481.795	6511.5
482.166	6552.85
482.537	6698.61
482.908	6782
483.279	6847.76
483.65	6993.97
484.021	7054.53
484.391	7153.51
484.762	7246.39
485.133	7380.63
485.503	7355.09
485.874	7546.27
486.244	7581.3
486.615	7747.62
486.985	7803.21
487.356	7979.48
487.726	7981.51
488.097	8108.97
488.467	8149.64
488.837	8322.52
489.207	8378.34
489.578	8430.54
489.948	8542.4
490.318	8623.53
490.688	8673.47
491.058	8809.06
491.428	8853.35
491.798	8928.83
492.168	9083.18
492.538	9063.97
492.908	9218.99
493.278	9261.48
493.648	9343.51
494.017	9371.76
494.387	9473.23
494.757	9528.14
495.126	9621.7
495.496	9615.59
495.866	9611.75
496.235	9769.94
496.605	9742.37
496.974	9843.16
497.344	9932.42
497.713	9955.25
498.082	9913.67
498.452	10141.46
498.821	10180.78
499.19	10068.46
499.559	10208.8
499.928	10221.23
500.298	10286.54
500.667	10406.99
501.036	10352.75
501.405	10463.71
501.774	10398.62
502.143	10498.28
502.512	10468.23
502.88	10573.99
503.249	10556.13
503.618	10625.74
503.987	10582.35
504.356	10634.78
504.724	10641.78
505.093	10689.01
505.462	10689.24
505.83	10806.98
506.199	10792.51
506.567	10914.32
506.936	10870.7
507.304	11041.32
507.672	10989.12
508.041	11017.82
508.409	10992.06
508.777	11105.5
509.145	11187.53
509.514	11056.46
509.882	11122.67
510.25	11145.95
510.618	11189.34
510.986	11230.47
511.354	11231.82
511.722	11293.97
512.09	11281.77
512.458	11344.81
512.826	11276.34
513.193	11398.6
513.561	11307.98
513.929	11420.52
514.297	11413.51
514.664	11480.4
515.032	11404.47
515.4	11486.51
515.767	11435.43
516.135	11528.09
516.502	11484.47
516.869	11589.1
517.237	11605.82
517.604	11461.2
517.972	11595.2
518.339	11559.95
518.706	11585.71
519.073	11558.37
519.44	11571.7
519.808	11675.88
520.175	11588.65
520.542	11731.7
520.909	11717.69
521.276	11643.34
521.643	11653.73
522.009	11712.26
522.376	11709.1
522.743	11734.18
523.11	11834.52
523.477	11804.69
523.843	11848.53
524.21	11906.83
524.577	11950.22
524.943	11856.89
525.31	11884.01
525.676	11922.2
526.043	11939.38
526.409	11986.38
526.776	12049.2
527.142	11935.76
527.508	11977.57
527.874	12001.75
528.241	11931.47
528.607	11932.37
528.973	11976.44
529.339	11903.9
529.705	12015.76
530.071	11978.02
530.437	11985.48
530.803	11954.06
531.169	12010.79
531.535	11905.03
531.901	11784.13
532.267	11837.46
532.632	11860.51
532.998	11802.88
533.364	11868.42
533.73	11774.18
534.095	11792.49
534.461	11719.27
534.826	11726.27
535.192	11758.82
535.557	11783.9
535.923	11631.36
536.288	11656.9
536.653	11632.26
537.019	11502.1
537.384	11480.86
537.749	11502.32
538.114	11542.55
538.479	11424.13
538.845	11437.69
539.21	11365.38
539.575	11293.29
539.94	11235.89
540.305	11246.51
540.67	11183.69
541.034	11139.85
541.399	11105.5
541.764	11081.77
542.129	11074.09
542.494	10960.64
542.858	10981.43
543.223	10903.47
543.587	10943.02
543.952	10863.02
544.316	10839.29
544.681	10682.46
545.045	10701.22
545.41	10696.92
545.774	10659.41
546.138	10637.26
546.503	10546.87
546.867	10533.54
547.231	10548.9
547.595	10472.3
547.959	10474.1
548.324	10379.42
548.688	10291.51
549.052	10284.73
549.416	10184.17
549.779	10249.02
550.143	10233.21
550.507	10134.68
550.871	10162.02
551.235	10103.04
551.599	10152.98
551.962	9944.63
552.326	10042.25
552.689	10030.72
553.053	9894.91
553.417	9933.78
553.78	9894.91
554.143	9811.52
554.507	9895.81
554.87	9727.91
555.234	9844.06
555.597	9718.19
555.96	9834.12
556.323	9781.01
556.686	9755.7
557.05	9630.51
557.413	9643.62
557.776	9568.14
558.139	9643.62
558.502	9580.12
558.865	9590.96
559.228	9593
559.59	9552.09
559.953	9544.64
560.316	9614.92
560.679	9526.33
561.041	9509.83
561.404	9570.4
561.767	9568.36
562.129	9475.26
562.492	9520.23
562.854	9457.63
563.217	9512.09
563.579	9450.63
563.941	9507.57
564.304	9536.73
564.666	9560
565.028	9529.04
565.39	9495.82
565.753	9544.18
566.115	9531.08
566.477	9458.08
566.839	9503.73
567.201	9559.1
567.563	9479.55
567.925	9573.34
568.287	9505.09
568.648	9545.54
569.01	9563.17
569.372	9545.77
569.734	9522.04
570.095	9559.32
570.457	9594.8
570.819	9601.13
571.18	9567.91
571.542	9595.71
571.903	9536.27
572.265	9577.86
572.626	9598.87
572.987	9594.58
573.349	9618.98
573.71	9597.52
574.071	9623.96
574.432	9601.36
574.794	9699.89
575.155	9630.06
575.516	9567.01
575.877	9586.22
576.238	9619.89
576.599	9639.1
576.96	9585.54
577.32	9594.8
577.681	9617.4
578.042	9648.81
578.403	9656.95
578.763	9600.68
579.124	9644.52
579.485	9634.13
579.845	9673.67
580.206	9575.37
580.566	9672.09
580.927	9672.09
581.287	9665.76
581.648	9612.88
582.008	9731.75
582.368	9703.28
582.728	9635.71
583.089	9661.92
583.449	9677.97
583.809	9665.54
584.169	9669.15
584.529	9640.23
584.889	9681.81
585.249	9547.12
585.609	9560.91
585.969	9597.06
586.329	9601.36
586.688	9632.77
587.048	9575.14
587.408	9610.4
587.768	9491.53
588.127	9570.4
588.487	9522.04
588.846	9645.2
589.206	9493.11
589.565	9511.64
589.925	9571.3
590.284	9554.58
590.643	9467.12
591.003	9615.82
591.362	9543.73
591.721	9510.29
592.08	9520.23
592.44	9568.82
592.799	9470.51
593.158	9459.21
593.517	9511.42
593.876	9535.82
594.235	9534.24
594.593	9520.23
594.952	9531.3
595.311	9519.78
595.67	9500.57
596.029	9532.21
596.387	9518.65
596.746	9473.68
597.104	9439.78
597.463	9420.35
597.822	9443.62
598.18	9455.15
598.538	9459.44
598.897	9457.63
599.255	9404.53
599.613	9533.56
599.972	9503.73
600.33	9537.63
600.688	9489.04
601.046	9461.93
601.404	9534.24
601.762	9490.63
602.12	9527.01
602.478	9533.56
602.836	9490.85
603.194	9449.72
603.552	9425.54
603.91	9411.31
604.268	9463.06
604.625	9423.74
604.983	9480.23
605.341	9417.41
605.698	9374.47
606.056	9418.09
606.413	9457.18
606.771	9469.61
607.128	9446.56
607.485	9444.75
607.843	9531.98
608.2	9480.23
608.557	9477.97
608.914	9475.26
609.272	9534.92
609.629	9620.79
609.986	9595.26
610.343	9505.09
610.7	9522.72
611.057	9607.91
611.414	9505.77
611.771	9533.34
612.127	9533.11
612.484	9530.63
612.841	9561.13
613.198	9586.22
613.554	9560.91
613.911	9599.1
614.267	9589.83
614.624	9611.75
614.98	9538.31
615.337	9654.24
615.693	9656.27
616.05	9525.88
616.406	9696.27
616.762	9577.4
617.118	9609.72
617.475	9601.58
617.831	9674.12
618.187	9671.19
618.543	9649.49
618.899	9715.93
619.255	9712.09
619.611	9666.44
619.967	9674.12
620.323	9710.96
620.678	9638.42
621.034	9694.46
621.39	9653.56
621.746	9652.2
622.101	9705.08
622.457	9681.81
622.812	9674.12
623.168	9712.09
623.523	9674.12
623.879	9747.79
624.234	9625.09
624.589	9713.9
624.945	9699.43
625.3	9694.91
625.655	9682.49
626.01	9660.79
626.365	9691.07
626.72	9641.58
627.075	9741.92
627.43	9608.59
627.785	9592.32
628.14	9652.88
628.495	9675.71
628.85	9673.9
629.205	9609.72
629.559	9695.82
629.914	9564.75
630.269	9647.46
630.623	9567.91
630.978	9551.64
631.332	9626.89
631.687	9572.21
632.041	9618.98
632.396	9560.45
632.75	9552.32
633.104	9514.13
633.459	9548.48
633.813	9494.69
634.167	9545.77
634.521	9524.52
634.875	9556.61
635.229	9533.11
635.583	9439.33
635.937	9432.1
636.291	9365.43
636.645	9474.81
636.999	9435.94
637.352	9408.37
637.706	9399.78
638.06	9409.72
638.413	9360.69
638.767	9259.9
639.121	9359.56
639.474	9278.65
639.828	9301.93
640.181	9255.83
640.534	9342.16
640.888	9310.52
641.241	9288.15
641.594	9303.51
641.947	9259.45
642.301	9235.04
642.654	9323.62
643.007	9218.77
643.36	9286.79
643.713	9232.1
644.066	9296.06
644.419	9163.4
644.771	9124.99
645.124	9094.03
645.477	9055.61
645.83	8994.59
646.182	8953.24
646.535	8882.28
646.888	8935.39
647.24	8922.05
647.593	8909.17
647.945	8918.44
648.298	8863.75
648.65	8917.76
649.002	8883.64
649.355	8901.72
649.707	8927.25
650.059	8921.15
650.411	8991.66
650.763	9087.7
651.115	9187.36
651.467	9109.62
651.819	9088.6
652.171	9027.59
652.523	9072.78
652.875	9056.97
653.227	9030.53
653.578	9017.42
653.93	9150.3
654.282	9007.02
654.633	9076.4
654.985	9081.82
655.337	9087.92
655.688	9085.67
656.039	9109.85
656.391	9100.81
656.742	9128.83
657.094	9069.17
657.445	9135.16
657.796	9116.17
658.147	9106.68
658.498	9118.88
658.849	9147.81
659.2	9050.64
659.551	9060.58
659.902	9134.48
660.253	9156.62
660.604	9146
660.955	9146.23
661.306	9081.15
661.656	9139.45
662.007	9159.11
662.358	9113.23
662.708	9151.2
663.059	9129.73
663.409	9079.79
663.76	9150.52
664.11	9137.64
664.461	9247.47
664.811	9174.93
665.161	9169.96
665.511	9131.54
665.862	9201.59
666.212	9186.23
666.562	9130.18
666.912	9137.87
667.262	9170.86
667.612	9134.93
667.962	9214.93
668.312	9112.11
668.662	9268.94
669.011	9162.73
669.361	9089.73
669.711	9181.48
670.06	9165.89
670.41	9116.62
670.76	9103.97
671.109	9189.84
671.459	9140.35
671.808	9082.05
672.157	9102.61
672.507	9007.7
672.856	9048.6
673.205	9077.08
673.554	9118.43
673.904	9102.61
674.253	9052.45
674.602	9080.02
674.951	8869.85
675.3	8848.38
675.649	9018.32
675.998	8982.84
676.346	9021.49
676.695	9041.82
677.044	8949.62
677.393	9027.81
677.741	8935.39
678.09	8941.94
678.438	8926.57
678.787	8964.31
679.135	8949.17
679.484	8899
679.832	8965.67
680.181	8869.17
680.529	8898.78
680.877	8846.12
681.225	8835.05
681.573	8869.63
681.922	8805.45
682.27	8754.6
682.618	8787.14
682.966	8706.92
683.314	8755.28
683.661	8743.3
684.009	8722.96
684.357	8712.12
684.705	8661.72
685.053	8715.73
685.4	8714.6
685.748	8598.22
686.095	8600.03
686.443	8536.3
686.79	8518.67
687.138	8596.86
687.485	8542.63
687.832	8548.96
688.18	8527.94
688.527	8436.19
688.874	8444.78
689.221	8377.89
689.568	8345.12
689.915	8402.07
690.262	8365.68
690.609	8395.29
690.956	8291.11
691.303	8284.56
691.65	8278.91
691.997	8268.96
692.344	8149.19
692.69	8136.31
693.037	8169.98
693.383	8142.86
693.73	8131.79
694.077	8047.05
694.423	8095.18
694.769	7993.94
695.116	7987.61
695.462	8033.26
695.808	7971.57
696.155	7952.14
696.501	7865.36
696.847	7910.78
697.193	7884.79
697.539	7858.58
697.885	7737.68
698.231	7744.46
698.577	7782.65
698.923	7768.19
699.269	7708.98
699.614	7646.38
699.96	7617.68
700.306	7598.25
700.651	7564.12
700.997	7505.37
701.342	7498.14
701.688	7427.63
702.033	7500.17
702.379	7421.75
702.724	7380.85
703.069	7398.7
703.415	7298.14
703.76	7350.57
704.105	7346.05
704.45	7244.36
704.795	7228.76
705.14	7181.31
705.485	7195.77
705.83	7154.42
706.175	7178.14
706.52	7134.08
706.865	7130.91
707.209	7093.4
707.554	7141.08
707.899	7067.87
708.243	7094.98
708.588	6962.33
708.932	7016.57
709.277	6941.77
709.621	6937.02
709.966	6921.88
710.31	6934.76
710.654	6832.62
710.998	6864.71
711.342	6873.07
711.687	6878.27
712.031	6762.34
712.375	6797.82
712.719	6808.21
713.063	6766.63
713.407	6766.63
713.75	6720.76
714.094	6738.16
714.438	6774.09
714.782	6735.9
715.125	6683.92
715.469	6713.75
715.812	6702
716.156	6694.32
716.499	6576.35
716.843	6649.8
717.186	6669.23
717.53	6665.84
717.873	6615.22
718.216	6591.95
718.559	6599.4
718.902	6518.5
719.246	6580.65
719.589	6574.09
719.932	6518.95
720.275	6524.15
720.617	6509.46
720.96	6502.46
721.303	6456.58
721.646	6540.87
721.989	6475.56
722.331	6499.97
722.674	6473.98
723.016	6491.83
723.359	6455.9
723.701	6501.55
724.044	6400.76
724.386	6416.81
724.729	6447.09
725.071	6402.57
725.413	6452.51
725.755	6470.82
726.097	6448.67
726.439	6430.14
726.782	6397.15
727.124	6462.23
727.465	6386.75
727.807	6313.99
728.149	6354.66
728.491	6364.38
728.833	6386.08
729.175	6376.58
729.516	6326.42
729.858	6325.74
730.199	6376.36
730.541	6346.53
730.882	6393.76
731.224	6325.74
731.565	6345.4
731.906	6330.48
732.248	6384.27
732.589	6319.41
732.93	6317.6
733.271	6352.63
733.612	6336.13
733.953	6325.96
734.294	6357.38
734.635	6340.65
734.976	6382.23
735.317	6321.67
735.658	6336.58
735.999	6390.59
736.339	6300.2
736.68	6367.09
737.021	6380.88
737.361	6325.96
737.702	6421.78
738.042	6400.09
738.383	6400.09
738.723	6365.96
739.063	6392.4
739.404	6417.94
739.744	6382.01
740.084	6408.22
740.424	6410.93
740.764	6476.69
741.104	6478.05
741.444	6481.44
741.784	6472.4
742.124	6492.96
742.464	6565.51
742.804	6583.36
743.143	6560.31
743.483	6584.94
743.823	6558.73
744.162	6560.53
744.502	6636.92
744.841	6630.36
745.181	6654.32
745.52	6654.99
745.86	6794.88
746.199	6730.02
746.538	6761.88
746.877	6849.34
747.216	6842.11
747.556	6910.58
747.895	6970.92
748.234	6987.19
748.573	7078.03
748.911	7057.92
749.25	7150.35
749.589	7190.8
749.928	7270.8
750.267	7272.83
750.605	7410
750.944	7461.98
751.283	7523.67
751.621	7661.07
751.96	7688.41
752.298	7871.69
752.636	7833.72
752.975	7953.27
753.313	8006.15
753.651	8170.43
753.989	8199.36
754.327	8378.79
754.666	8440.03
755.004	8612.23
755.342	8682.74
755.679	8799.8
756.017	8995.72
756.355	9140.35
756.693	9242.72
757.031	9397.97
757.368	9527.46
757.706	9674.35
758.044	9771.52
758.381	9965.87
758.719	10110.5
759.056	10349.81
759.394	10419.19
759.731	10594.1
760.068	10762.68
760.405	10884.71
760.743	11088.32
761.08	11300.07
761.417	11418.71
761.754	11594.07
762.091	11800.62
762.428	11960.62
762.765	12131.91
763.102	12321.06
763.438	12477.67
763.775	12645.8
764.112	12886.02
764.449	13022.06
764.785	13219.79
765.122	13301.37
765.458	13476.51
765.795	13696.39
766.131	13904.75
