Data from hue_280_FLMS001491_00032.txt Node
Date: Tue Feb 07 15:55:10 GMT 2017
User: dcchb
Spectrometer: FLMS00149
Trigger mode: 0
Integration Time (sec): 2.000000E-2
Scans to average: 10
Electric dark correction enabled: true
Nonlinearity correction enabled: false
Boxcar width: 0
XAxis mode: Wavelengths
Number of Pixels in Spectrum: 2048
>>>>>Begin Spectral Data<<<<<
341.393	16.55
341.776	16.55
342.16	16.55
342.543	-64.57
342.927	-67.74
343.31	-53.73
343.693	-58.47
344.077	-66.61
344.46	-88.98
344.843	-41.07
345.226	-51.69
345.61	-26.84
345.993	-13.05
346.376	-11.47
346.759	17.68
347.142	22.2
347.525	54.07
347.908	65.82
348.291	79.6
348.674	72.37
349.057	100.17
349.44	141.75
349.823	142.43
350.206	158.7
350.588	184.23
350.971	220.39
351.354	221.52
351.737	226.49
352.119	257
352.502	273.27
352.884	280.28
353.267	258.35
353.65	306.49
354.032	295.42
354.414	288.86
354.797	292.03
355.179	327.51
355.562	308.3
355.944	330.44
356.326	310.33
356.709	337.22
357.091	344.23
357.473	330.44
357.855	331.57
358.238	328.18
358.62	339.26
359.002	317.34
359.384	346.04
359.766	323.21
360.148	348.3
360.53	340.84
360.912	321.18
361.294	348.52
361.676	328.64
362.057	333.83
362.439	354.17
362.821	343.78
363.203	342.19
363.584	330.44
363.966	332.7
364.348	329.09
364.729	329.54
365.111	314.62
365.493	322.53
365.874	330.67
366.256	293.16
366.637	321.63
367.019	324.34
367.4	312.59
367.781	298.13
368.163	288.18
368.544	299.94
368.925	296.77
369.306	315.75
369.688	316.21
370.069	306.49
370.45	306.04
370.831	317.56
371.212	299.94
371.593	306.72
371.974	323.44
372.355	307.17
372.736	305.59
373.117	312.82
373.498	313.27
373.879	285.92
374.26	305.81
374.641	325.25
375.021	335.87
375.402	317.79
375.783	330.44
376.163	337.22
376.544	313.27
376.925	328.18
377.305	340.39
377.686	332.25
378.066	323.66
378.447	348.3
378.827	328.41
379.208	324.57
379.588	333.83
379.968	315.75
380.349	314.62
380.729	318.69
381.109	342.87
381.489	335.64
381.87	346.94
382.25	318.01
382.63	318.92
383.01	341.97
383.39	337.9
383.77	334.74
384.15	334.74
384.53	360.27
384.91	362.08
385.29	344.91
385.67	372.48
386.049	354.4
386.429	343.55
386.809	361.85
387.189	348.3
387.568	348.97
387.948	347.17
388.328	353.49
388.707	362.98
389.087	356.88
389.466	371.12
389.846	367.28
390.225	352.36
390.605	370.67
390.984	348.07
391.363	371.12
391.743	386.04
392.122	369.31
392.501	370.22
392.881	369.09
393.26	397.56
393.639	378.58
394.018	378.35
394.397	387.84
394.776	395.53
395.155	397.56
395.534	365.47
395.913	358.01
396.292	383.55
396.671	402.08
397.05	406.83
397.429	414.73
397.808	372.02
398.186	389.42
398.565	409.09
398.944	415.86
399.323	404.34
399.701	397.11
400.08	409.54
400.458	399.14
400.837	424
401.215	412.02
401.594	425.13
401.972	421.06
402.351	433.27
402.729	425.13
403.107	426.03
403.486	454.51
403.864	436.43
404.242	451.57
404.62	436.2
404.999	450.67
405.377	449.31
405.755	456.54
406.133	465.35
406.511	471.68
406.889	481.63
407.267	494.96
407.645	504
408.023	482.08
408.401	493.6
408.779	473.94
409.156	495.18
409.534	503.32
409.912	512.36
410.29	539.93
410.667	521.17
411.045	511.23
411.422	510.33
411.8	533.83
412.178	566.82
412.555	564.34
412.933	548.97
413.31	564.34
413.687	575.86
414.065	576.76
414.442	605.92
414.819	593.26
415.197	597.78
415.574	594.62
415.951	614.05
416.328	631.45
416.705	637.33
417.082	621.28
417.46	636.88
417.837	640.72
418.214	645.46
418.591	649.08
418.967	677.78
419.344	679.13
419.721	682.3
420.098	640.04
420.475	680.26
420.852	712.58
421.228	710.77
421.605	716.65
421.982	728.85
422.358	722.52
422.735	720.04
423.111	751.45
423.488	770.88
423.864	768.4
424.241	793.71
424.617	766.82
424.994	802.52
425.37	800.94
425.746	835.29
426.123	821.05
426.499	825.12
426.875	820.83
427.251	854.27
427.627	866.25
428.003	884.33
428.379	886.13
428.756	891.56
429.132	911.67
429.507	901.95
429.883	924.55
430.259	922.07
430.635	941.95
431.011	945.34
431.387	958.22
431.763	977.66
432.138	1005.23
432.514	1014.95
432.89	1006.58
433.265	1052.01
433.641	1027.83
434.016	1061.95
434.392	1063.98
434.767	1085
435.143	1121.83
435.518	1107.15
435.894	1130.87
436.269	1124.77
436.644	1170.87
437.02	1168.39
437.395	1163.64
437.77	1163.87
438.145	1191.89
438.52	1189.63
438.895	1223.3
439.271	1221.72
439.646	1259.68
440.021	1265.56
440.395	1261.72
440.77	1268.05
441.145	1281.38
441.52	1308.27
441.895	1327.71
442.27	1328.16
442.645	1334.94
443.019	1353.02
443.394	1351.66
443.769	1343.98
444.143	1363.86
444.518	1355.28
444.892	1398.89
445.267	1395.27
445.641	1407.48
446.016	1427.14
446.39	1391.66
446.764	1439.34
447.139	1436.63
447.513	1431.43
447.887	1455.39
448.262	1468.27
448.636	1457.42
449.01	1481.37
449.384	1503.29
449.758	1496.51
450.132	1496.97
450.506	1476.4
450.88	1524.99
451.254	1524.08
451.628	1519.11
452.002	1525.89
452.376	1555.27
452.75	1547.13
453.123	1582.61
453.497	1602.95
453.871	1597.53
454.244	1613.35
454.618	1612.67
454.992	1637.3
455.365	1647.47
455.739	1708.94
456.112	1668.04
456.486	1677.75
456.859	1719.11
457.232	1721.82
457.606	1752.1
457.979	1751.65
458.352	1791.87
458.725	1817.18
459.099	1828.26
459.472	1835.04
459.845	1811.76
460.218	1834.13
460.591	1854.92
460.964	1873.45
461.337	1922.04
461.71	1965.43
462.083	1976.73
462.456	1976.95
462.829	1943.28
463.201	2014.47
463.574	1960.46
463.947	2011.76
464.32	2058.31
464.692	2032.09
465.065	2080.23
465.438	2110.28
465.81	2112.77
466.183	2127.91
466.555	2166.33
466.928	2169.49
467.3	2198.64
467.672	2212.65
468.045	2257.62
468.417	2256.27
468.789	2264.86
469.161	2290.39
469.534	2299.88
469.906	2337.85
470.278	2357.73
470.65	2387.11
471.022	2399.09
471.394	2468.92
471.766	2475.25
472.138	2472.99
472.51	2510.72
472.882	2528.13
473.253	2565.64
473.625	2594.79
473.997	2661.91
474.369	2616.26
474.74	2668.46
475.112	2679.99
475.484	2716.6
475.855	2743.71
476.227	2762.47
476.598	2825.52
476.97	2843.6
477.341	2906.42
477.713	2949.36
478.084	2967.44
478.455	3006.53
478.827	2983.03
479.198	3110.71
479.569	3102.8
479.94	3165.62
480.311	3191.61
480.682	3232.29
481.053	3285.39
481.424	3338.27
481.795	3347.31
482.166	3373.98
482.537	3363.58
482.908	3486.52
483.279	3503.24
483.65	3514.09
484.021	3630.92
484.391	3631.83
484.762	3655.55
485.133	3639.28
485.503	3716.34
485.874	3755.89
486.244	3798.37
486.615	3894.87
486.985	3892.16
487.356	3933.96
487.726	3937.58
488.097	4004.02
488.467	3982.32
488.837	4060.29
489.207	4144.58
489.578	4167.86
489.948	4208.08
490.318	4237.69
490.688	4254.86
491.058	4325.82
491.428	4343.9
491.798	4413.95
492.168	4445.82
492.538	4453.05
492.908	4514.74
493.278	4552.93
493.648	4517.9
494.017	4560.39
494.387	4649.43
494.757	4609.65
495.126	4618.92
495.496	4684.68
495.866	4695.75
496.235	4722.42
496.605	4774.62
496.974	4811.46
497.344	4807.16
497.713	4852.58
498.082	4869.98
498.452	4950.43
498.821	4899.59
499.19	4955.18
499.559	5001.51
499.928	5008.29
500.298	5059.58
500.667	5031.56
501.036	5041.28
501.405	5051.22
501.774	5085.35
502.143	5151.56
502.512	5134.61
502.88	5143.88
503.249	5183.42
503.618	5175.06
503.987	5224.55
504.356	5223.42
504.724	5269.07
505.093	5277.66
505.462	5229.98
505.83	5265.68
506.199	5312.69
506.567	5386.58
506.936	5364.89
507.304	5411.67
507.672	5397.43
508.041	5418.9
508.409	5479.69
508.777	5510.19
509.145	5500.48
509.514	5449.63
509.882	5500.48
510.25	5551.55
510.618	5589.29
510.986	5535.96
511.354	5643.98
511.722	5652.56
512.09	5662.96
512.458	5587.03
512.826	5724.65
513.193	5679.68
513.561	5703.18
513.929	5731.66
514.297	5733.01
514.664	5776.4
515.032	5803.52
515.4	5844.87
515.767	5866.12
516.135	5847.36
516.502	5809.4
516.869	5913.8
517.237	5874.03
517.604	5818.89
517.972	5930.07
518.339	5949.73
518.706	5914.03
519.073	5954.48
519.44	5937.75
519.808	6032.44
520.175	5984.98
520.542	6028.37
520.909	6042.61
521.276	6035.15
521.643	6122.38
522.009	6120.35
522.376	6114.25
522.743	6121.03
523.11	6220.91
523.477	6218.42
523.843	6189.5
524.21	6268.37
524.577	6283.51
524.943	6352.21
525.31	6341.13
525.676	6374.58
526.043	6429.72
526.409	6379.32
526.776	6462.03
527.142	6493.9
527.508	6472.88
527.874	6595.14
528.241	6519.89
528.607	6522.6
528.973	6620.67
529.339	6558.98
529.705	6659.77
530.071	6669.71
530.437	6745.64
530.803	6712.2
531.169	6759.43
531.535	6751.29
531.901	6752.65
532.267	6800.33
532.632	6800.78
532.998	6802.14
533.364	6885.75
533.73	6869.71
534.095	6942.02
534.461	6888.24
534.826	6914.45
535.192	6966.65
535.557	7007.78
535.923	6940.66
536.288	7030.15
536.653	7014.11
537.019	7000.32
537.384	6967.78
537.749	7048.23
538.114	7084.39
538.479	7095.92
538.845	7080.55
539.21	7041
539.575	7098.4
539.94	7117.38
540.305	7121.45
540.67	7144.05
541.034	7170.72
541.399	7159.19
541.764	7182.47
542.129	7217.72
542.494	7210.04
542.858	7217.95
543.223	7262.01
543.587	7293.65
543.952	7306.98
544.316	7297.72
544.681	7241.9
545.045	7368.9
545.41	7386.08
545.774	7415.23
546.138	7363.48
546.503	7358.73
546.867	7392.63
547.231	7440.76
547.595	7407.09
547.959	7535.45
548.324	7481.89
548.688	7492.74
549.052	7548.33
549.416	7473.08
549.779	7506.75
550.143	7519.41
550.507	7575.22
550.871	7544.49
551.235	7509.92
551.599	7630.14
551.962	7657.26
552.326	7652.28
552.689	7600.53
553.053	7536.13
553.417	7580.65
553.78	7698.61
554.143	7643.25
554.507	7690.48
554.87	7714.66
555.234	7770.7
555.597	7708.33
555.96	7762.11
556.323	7798.72
556.686	7771.38
557.05	7824.71
557.413	7841.43
557.776	7812.28
558.139	7884.14
558.502	7851.15
558.865	7890.24
559.228	7923.46
559.59	7972.05
559.953	7982.45
560.316	8031.03
560.679	8042.56
561.041	8062.22
561.404	8029
561.767	8160.29
562.129	8145.83
562.492	8169.79
562.854	8163.68
563.217	8196
563.579	8175.43
563.941	8231.7
564.304	8300.86
564.666	8312.38
565.028	8358.48
565.39	8398.71
565.753	8405.94
566.115	8421.76
566.477	8452.04
566.839	8425.82
567.201	8486.61
567.563	8521.64
567.925	8594.18
568.287	8547.18
568.648	8594.63
569.01	8609.77
569.372	8679.83
569.734	8715.99
570.095	8705.82
570.457	8733.16
570.819	8838.92
571.18	8813.38
571.542	8859.71
571.903	8813.16
572.265	8880.27
572.626	8860.39
572.987	8947.39
573.349	8960.05
573.71	8988.29
574.071	9017.22
574.432	9075.98
574.794	9130.21
575.155	9156.65
575.516	9130.66
575.877	9186.03
576.238	9204.33
576.599	9260.6
576.96	9306.7
577.32	9370.43
577.681	9377.66
578.042	9476.64
578.403	9433.48
578.763	9494.04
579.124	9562.29
579.485	9575.85
579.845	9615.17
580.206	9680.71
580.566	9659.24
580.927	9687.03
581.287	9823.75
581.648	9776.52
582.008	9969.74
582.368	9851.77
582.728	10000.7
583.089	10083.63
583.449	10034.14
583.809	10107.14
584.169	10122.05
584.529	10192.56
584.889	10280.01
585.249	10329.05
585.609	10333.8
585.969	10425.09
586.329	10485.43
586.688	10551.87
587.048	10569.04
587.408	10665.09
587.768	10677.29
588.127	10756.38
588.487	10725.88
588.846	10958.41
589.206	10864.18
589.565	10993.89
589.925	11123.15
590.284	11114.79
590.643	11167.67
591.003	11278.86
591.362	11414.67
591.721	11386.2
592.08	11470.04
592.44	11460.77
592.799	11598.62
593.158	11625.06
593.517	11736.02
593.876	11797.71
594.235	11845.62
594.593	11897.37
594.952	11955.67
595.311	11962.91
595.67	12032.06
596.029	12261.2
596.387	12230.92
596.746	12330.13
597.104	12346.62
597.463	12404.25
597.822	12476.79
598.18	12408.54
598.538	12565.38
598.897	12637.24
599.255	12559.05
599.613	12753.39
599.972	12779.38
600.33	12873.39
600.688	12742.32
601.046	13010.34
601.404	13102.08
601.762	13015.99
602.12	13093.5
602.478	13147.28
602.836	13288.52
603.194	13244.23
603.552	13244.45
603.91	13217.34
604.268	13378.24
604.625	13352.25
604.983	13485.8
605.341	13361.74
605.698	13560.15
606.056	13584.78
606.413	13648.29
606.771	13713.59
607.128	13619.59
607.485	13655.29
607.843	13689.41
608.2	13839.47
608.557	13838.56
608.914	13838.79
609.272	13929.18
609.629	13995.39
609.986	14043.08
610.343	13951.33
610.7	14119.91
611.057	14056.41
611.414	14143.87
611.771	14190.64
612.127	14221.38
612.484	14264.31
612.841	14284.88
613.198	14184.32
613.554	14328.72
613.911	14429.96
614.267	14355.84
614.624	14360.13
614.98	14377.53
615.337	14485.33
615.693	14499.34
616.05	14471.31
616.406	14553.57
616.762	14538.66
617.118	14529.62
617.475	14601.71
617.831	14580.92
618.187	14640.58
618.543	14690.52
618.899	14762.38
619.255	14741.36
619.611	14762.38
619.967	14781.59
620.323	14804.86
620.678	14832.43
621.034	14772.55
621.39	14852.32
621.746	14800.57
622.101	14921.92
622.457	14822.94
622.812	14864.75
623.168	14891.19
623.523	14855.71
623.879	14946.78
624.234	14830.4
624.589	14941.58
624.945	14963.28
625.3	14903.85
625.655	14950.85
626.01	14929.16
626.365	14985.2
626.72	14881.25
627.075	14980.45
627.43	14897.29
627.785	14931.87
628.14	14926.9
628.495	15049.6
628.85	15044.18
629.205	14875.6
629.559	15028.59
629.914	14975.71
630.269	14938.87
630.623	14861.13
630.978	14918.99
631.332	14890.74
631.687	14932.77
632.041	14808.03
632.396	14894.58
632.75	14856.84
633.104	14850.97
633.459	14761.48
633.813	14824.75
634.167	14761.25
634.521	14861.59
634.875	14845.99
635.229	14710.4
635.583	14723.29
635.937	14740.69
636.291	14710.63
636.645	14686
636.999	14689.61
637.352	14714.47
637.706	14670.18
638.06	14731.42
638.413	14705.43
638.767	14619.56
639.121	14764.19
639.474	14621.37
639.828	14576.62
640.181	14612.78
640.534	14584.08
640.888	14472.9
641.241	14482.61
641.594	14562.39
641.947	14569.39
642.301	14535.95
642.654	14605.77
643.007	14602.38
643.36	14598.54
643.713	14561.93
644.066	14528.71
644.419	14478.55
644.771	14369.85
645.124	14266.57
645.477	14208.95
645.83	14145.45
646.182	14144.77
646.535	14096.86
646.888	14148.16
647.24	14040.37
647.593	14177.31
647.945	14078.78
648.298	13999.46
648.65	14041.95
649.002	13901.61
649.355	14113.58
649.707	14088.5
650.059	14067.03
650.411	14278.55
650.763	14357.65
651.115	14485.78
651.467	14422.73
651.819	14511.31
652.171	14406.23
652.523	14336.4
652.875	14353.13
653.227	14245.78
653.578	14420.24
653.93	14423.41
654.282	14370.75
654.633	14273.13
654.985	14313.35
655.337	14379.79
655.688	14392.22
656.039	14379.57
656.391	14286.46
656.742	14397.87
657.094	14427.47
657.445	14435.84
657.796	14381.15
658.147	14345.44
658.498	14401.26
658.849	14354.26
659.2	14377.08
659.551	14312
659.902	14450.75
660.253	14342.73
660.604	14385.21
660.955	14360.36
661.306	14343.41
661.656	14327.14
662.007	14356.06
662.358	14420.69
662.708	14439.22
663.059	14452.11
663.409	14406.23
663.76	14479
664.11	14436.06
664.461	14461.82
664.811	14444.42
665.161	14460.92
665.511	14457.53
665.862	14418.43
666.212	14538.21
666.562	14495.27
666.912	14526.68
667.262	14452.78
667.612	14512.9
667.962	14509.96
668.312	14415.5
668.662	14500.47
669.011	14610.07
669.361	14407.59
669.711	14571.65
670.06	14498.66
670.41	14392.45
670.76	14375.95
671.109	14369.85
671.459	14501.82
671.808	14384.54
672.157	14373.46
672.507	14334.82
672.856	14283.97
673.205	14362.84
673.554	14338.89
673.904	14349.96
674.253	14293.24
674.602	14348.83
674.951	14099.12
675.3	14017.77
675.649	14269.96
675.998	14263.86
676.346	14291.43
676.695	14284.65
677.044	14150.87
677.393	14203.75
677.741	14298.66
678.09	14141.83
678.438	14148.84
678.787	14196.29
679.135	14160.59
679.484	14036.75
679.832	14123.98
680.181	14008.95
680.529	14141.38
680.877	14014.38
681.225	14089.18
681.573	14028.61
681.922	13955.4
682.27	13928.73
682.618	13886.7
682.966	13950.2
683.314	13940.71
683.661	13838.56
684.009	13767.15
684.357	13761.73
684.705	13782.29
685.053	13787.72
685.4	13727.61
685.748	13719.47
686.095	13655.52
686.443	13627.49
686.79	13593.15
687.138	13611.9
687.485	13680.15
687.832	13545.69
688.18	13471.57
688.527	13575.07
688.874	13402.87
689.221	13355.86
689.568	13390.21
689.915	13364.68
690.262	13301.4
690.609	13230.22
690.956	13214.85
691.303	13165.59
691.65	13074.97
691.997	13046.04
692.344	13052.14
692.69	12973.05
693.037	13070.22
693.383	12912.71
693.73	12946.38
694.077	12843.33
694.423	12881.3
694.769	12768.31
695.116	12724.47
695.462	12760.85
695.808	12666.16
696.155	12712.26
696.501	12604.47
696.847	12600.86
697.193	12466.17
697.539	12507.52
697.885	12396.34
698.231	12397.02
698.577	12373.29
698.923	12261.65
699.269	12333.07
699.614	12188.89
699.96	12214.88
700.306	12154.54
700.651	12007.2
700.997	12016.69
701.342	12021.44
701.688	11966.75
702.033	11904.15
702.379	11799.07
702.724	11854.21
703.069	11852.17
703.415	11680.65
703.76	11747.09
704.105	11720.43
704.45	11631.16
704.795	11604.95
705.14	11579.64
705.485	11488.34
705.83	11525.18
706.175	11446.99
706.52	11450.15
706.865	11417.38
707.209	11369.25
707.554	11348.23
707.899	11326.31
708.243	11239.08
708.588	11278.63
708.932	11185.98
709.277	11128.58
709.621	11186.2
709.966	11103.04
710.31	11119.76
710.654	10969.71
710.998	11023.95
711.342	10995.93
711.687	10969.03
712.031	10903.05
712.375	10847.91
712.719	10915.25
713.063	10838.19
713.407	10859.21
713.75	10809.04
714.094	10842.48
714.438	10809.49
714.782	10859.88
715.125	10733.11
715.469	10673
715.812	10628.93
716.156	10732.88
716.499	10662.6
716.843	10652.66
717.186	10564.52
717.53	10560.91
717.873	10653.11
718.216	10554.36
718.559	10495.15
718.902	10504.64
719.246	10516.16
719.589	10468.26
719.932	10340.35
720.275	10425.55
720.617	10484.53
720.96	10413.79
721.303	10454.47
721.646	10419.44
721.989	10309.84
722.331	10331.76
722.674	10366.79
723.016	10404.3
723.359	10431.42
723.701	10407.69
724.044	10304.42
724.386	10309.16
724.729	10295.6
725.071	10255.61
725.413	10272.78
725.755	10301.93
726.097	10230.52
726.439	10188.94
726.782	10204.76
727.124	10188.04
727.465	10144.2
727.807	10211.09
728.149	10185.1
728.491	10203.86
728.833	10160.24
729.175	10180.58
729.516	10165.21
729.858	10177.19
730.199	10188.04
730.541	10079.34
730.882	10180.35
731.224	10082.28
731.565	10104.2
731.906	10198.88
732.248	10121.37
732.589	10066.68
732.93	10049.28
733.271	10112.78
733.612	10082.73
733.953	10129.28
734.294	10093.35
734.635	10115.5
734.976	10129.96
735.317	10124.99
735.658	10087.25
735.999	10123.63
736.339	10136.51
736.68	10121.82
737.021	10152.78
737.361	10095.38
737.702	10128.38
738.042	10098.32
738.383	10101.03
738.723	10137.64
739.063	10125.44
739.404	10246.57
739.744	10201.6
740.084	10176.96
740.424	10174.7
740.764	10170.18
741.104	10201.6
741.444	10173.35
741.784	10176.51
742.124	10206.57
742.464	10223.29
742.804	10224.87
743.143	10270.75
743.483	10301.71
743.823	10228.71
744.162	10308.71
744.502	10339.9
744.841	10365.89
745.181	10470.97
745.52	10462.38
745.86	10548.71
746.199	10517.52
746.538	10568.82
746.877	10669.15
747.216	10674.8
747.556	10698.08
747.895	10739.66
748.234	10771.07
748.573	10819.43
748.911	10885.19
749.25	10999.99
749.589	11030.73
749.928	11063.49
750.267	11167.22
750.605	11195.24
750.944	11276.37
751.283	11322.02
751.621	11411.73
751.96	11512.75
752.298	11677.72
752.636	11741.22
752.975	11796.81
753.313	11803.36
753.651	11959.97
753.989	12034.77
754.327	12121.55
754.666	12230.7
755.004	12394.31
755.342	12459.84
755.679	12621.19
756.017	12678.37
756.355	12811.47
756.693	12902.09
757.031	13022.76
757.368	13153.83
757.706	13222.31
758.044	13399.03
758.381	13594.28
758.719	13708.4
759.056	13846.92
