Data from hue_40_FLMS001491_60.txt Node
Date: Mon Feb 06 15:08:07 GMT 2017
User: dcchb
Spectrometer: FLMS00149
Trigger mode: 0
Integration Time (sec): 2.000000E-2
Scans to average: 10
Electric dark correction enabled: true
Nonlinearity correction enabled: false
Boxcar width: 0
XAxis mode: Wavelengths
Number of Pixels in Spectrum: 2048
>>>>>Begin Spectral Data<<<<<
341.393	-20.51
341.776	-20.51
342.16	-20.51
342.543	-63.22
342.927	-65.7
343.31	-77.46
343.693	-58.02
344.077	-81.07
344.46	-54.41
344.843	-54.86
345.226	-44.24
345.61	-40.17
345.993	-23.67
346.376	-3.11
346.759	11.36
347.142	21.52
347.525	45.93
347.908	56.1
348.291	76.66
348.674	101.97
349.057	123.44
349.44	124.35
349.823	160.05
350.206	194.63
350.588	196.89
350.971	201.41
351.354	235.76
351.737	248.41
352.119	256.55
352.502	294.74
352.884	270.33
353.267	289.77
353.65	289.09
354.032	288.64
354.414	325.92
354.797	304.23
355.179	330.9
355.562	351.23
355.944	341.52
356.326	344.45
356.709	352.59
357.091	328.64
357.473	339.03
357.855	355.08
358.238	343.78
358.62	351.91
359.002	360.95
359.384	346.04
359.766	342.65
360.148	339.93
360.53	360.72
360.912	335.19
361.294	341.97
361.676	355.08
362.057	338.35
362.439	359.14
362.821	341.29
363.203	340.61
363.584	332.03
363.966	312.36
364.348	322.99
364.729	325.92
365.111	316.43
365.493	323.89
365.874	341.74
366.256	317.56
366.637	339.26
367.019	344.23
367.4	330.44
367.781	313.72
368.163	331.57
368.544	348.3
368.925	314.85
369.306	342.42
369.688	339.26
370.069	310.78
370.45	319.6
370.831	304.68
371.212	316.66
371.593	300.61
371.974	330.9
372.355	327.28
372.736	313.27
373.117	329.31
373.498	306.94
373.879	335.41
374.26	335.41
374.641	322.53
375.021	318.24
375.402	329.31
375.783	338.35
376.163	339.71
376.544	350.33
376.925	316.66
377.305	340.61
377.686	339.48
378.066	332.25
378.447	332.25
378.827	346.49
379.208	354.17
379.588	343.55
379.968	352.14
380.349	349.88
380.729	321.63
381.109	341.74
381.489	359.6
381.87	366.15
382.25	363.44
382.63	368.18
383.01	369.99
383.39	374.28
383.77	353.27
384.15	367.96
384.53	354.62
384.91	340.61
385.29	344.91
385.67	365.7
386.049	349.88
386.429	365.02
386.809	368.63
387.189	365.47
387.568	365.02
387.948	372.48
388.328	380.39
388.707	373.61
389.087	368.63
389.466	369.76
389.846	378.58
390.225	364.11
390.605	366.6
390.984	381.52
391.363	381.74
391.743	388.75
392.122	387.39
392.501	407.05
392.881	357.34
393.26	382.87
393.639	386.49
394.018	383.1
394.397	355.08
394.776	386.26
395.155	382.65
395.534	404.34
395.913	397.79
396.292	382.65
396.671	382.87
397.05	398.24
397.429	426.03
397.808	390.33
398.186	377.9
398.565	396.88
398.944	435.75
399.323	404.34
399.701	387.84
400.08	414.96
400.458	414.06
400.837	418.12
401.215	409.76
401.594	409.09
401.972	396.66
402.351	415.86
402.729	433.72
403.107	414.73
403.486	433.04
403.864	427.16
404.242	439.14
404.62	459.71
404.999	435.53
405.377	415.86
405.755	436.2
406.133	423.77
406.511	431.23
406.889	445.02
407.267	445.47
407.645	441.85
408.023	440.27
408.401	439.37
408.779	454.96
409.156	446.6
409.534	454.06
409.912	452.47
410.29	459.03
410.667	445.92
411.045	469.87
411.422	469.2
411.8	484.11
412.178	475.3
412.555	494.05
412.933	493.6
413.31	489.76
413.687	496.99
414.065	504.45
414.442	498.12
414.819	505.81
415.197	518.23
415.574	509.42
415.951	493.83
416.328	515.07
416.705	501.51
417.082	531.12
417.46	533.83
417.837	536.31
418.214	525.01
418.591	529.53
418.967	534.73
419.344	535.86
419.721	528.63
420.098	534.96
420.475	524.34
420.852	552.81
421.228	571.79
421.605	555.07
421.982	574.73
422.358	544.22
422.735	558.46
423.111	580.61
423.488	550.78
423.864	572.7
424.241	566.6
424.617	575.41
424.994	590.55
425.37	569.31
425.746	559.82
426.123	595.75
426.499	616.31
426.875	595.97
427.251	589.65
427.627	597.55
428.003	614.28
428.379	614.96
428.756	626.25
429.132	619.93
429.507	620.83
429.883	600.27
430.259	623.09
430.635	635.07
431.011	633.49
431.387	633.26
431.763	664.22
432.138	661.51
432.514	674.84
432.89	667.84
433.265	694.5
433.641	683.43
434.016	673.26
434.392	702.18
434.767	724.11
435.143	717.33
435.518	693.15
435.894	732.47
436.269	720.26
436.644	728.62
437.02	730.21
437.395	732.47
437.77	759.36
438.145	752.35
438.52	758.91
438.895	750.55
439.271	745.57
439.646	755.06
440.021	783.99
440.395	772.01
440.77	756.65
441.145	793.71
441.52	800.94
441.895	795.52
442.27	799.13
442.645	795.97
443.019	813.59
443.394	793.03
443.769	839.36
444.143	816.08
444.518	820.15
444.892	809.75
445.267	826.7
445.641	833.93
446.016	851.11
446.39	843.88
446.764	833.71
447.139	854.5
447.513	858.79
447.887	860.82
448.262	857.89
448.636	849.53
449.01	884.33
449.384	893.82
449.758	864.67
450.132	916.19
450.506	891.78
450.88	892.24
451.254	920.26
451.628	955.29
452.002	922.52
452.376	938.56
452.75	933.82
453.123	923.2
453.497	958.9
453.871	958
454.244	985.57
454.618	988.05
454.992	1021.27
455.365	989.63
455.739	1029.18
456.112	1011.56
456.486	1017.66
456.859	1032.12
457.232	1051.78
457.606	1055.17
457.979	1066.02
458.352	1092.23
458.725	1104.89
459.099	1101.5
459.472	1111.89
459.845	1152.34
460.218	1153.92
460.591	1139.69
460.964	1142.85
461.337	1203.41
461.71	1176.52
462.083	1179.46
462.456	1221.72
462.829	1209.29
463.201	1228.5
463.574	1238.44
463.947	1247.48
464.32	1302.4
464.692	1307.14
465.065	1317.76
465.438	1343.3
465.81	1343.75
466.183	1367.7
466.555	1395.5
466.928	1386.69
467.3	1406.8
467.672	1439.34
468.045	1453.58
468.417	1477.53
468.789	1509.85
469.161	1507.81
469.534	1489.06
469.906	1568.6
470.278	1589.17
470.65	1610.64
471.022	1641.37
471.394	1681.14
471.766	1715.72
472.138	1729.95
472.51	1747.13
472.882	1798.43
473.253	1876.39
473.625	1856.5
473.997	1871.65
474.369	1931.53
474.74	1975.82
475.112	1991.87
475.484	2046.78
475.855	2116.16
476.227	2109.83
476.598	2215.82
476.97	2242.26
477.341	2278.41
477.713	2339.2
478.084	2414
478.455	2453.78
478.827	2494.91
479.198	2587.56
479.569	2624.85
479.94	2682.25
480.311	2756.59
480.682	2830.26
481.053	2939.64
481.424	2991.16
481.795	3025.51
482.166	3085.63
482.537	3201.78
482.908	3314.32
483.279	3343.25
483.65	3484.71
484.021	3498.95
484.391	3609.91
484.762	3679.51
485.133	3798.83
485.503	3901.42
485.874	3959.73
486.244	4041.08
486.615	4172.15
486.985	4294.86
487.356	4423.89
487.726	4479.71
488.097	4608.97
488.467	4658.92
488.837	4870.21
489.207	4890.1
489.578	5080.6
489.948	5126.25
490.318	5274.04
490.688	5375.28
491.058	5478.78
491.428	5552.9
491.798	5706.12
492.168	5834.71
492.538	5916.29
492.908	6027.92
493.278	6144.75
493.648	6185.66
494.017	6375.93
494.387	6488.47
494.757	6567.12
495.126	6696.6
495.496	6813.44
495.866	6859.31
496.235	7026.31
496.605	7097.72
496.974	7224.73
497.344	7369.81
497.713	7462.91
498.082	7549.46
498.452	7700.42
498.821	7810.02
499.19	7827.2
499.559	7930.7
499.928	8055.44
500.298	8082.78
500.667	8217.69
501.036	8271.93
501.405	8394.86
501.774	8447.29
502.143	8595.08
502.512	8593.95
502.88	8755.08
503.249	8780.16
503.618	8866.26
503.987	8971.35
504.356	9110.1
504.724	9181.28
505.093	9247.04
505.462	9310.09
505.83	9385.12
506.199	9555.29
506.567	9644.77
506.936	9722.29
507.304	9774.04
507.672	9875.28
508.041	9973.13
508.409	10021.26
508.777	10114.59
509.145	10216.74
509.514	10295.15
509.882	10407.92
510.25	10426
510.618	10503.51
510.986	10534.02
511.354	10591.64
511.722	10776.5
512.09	10865.99
512.458	10903.27
512.826	10983.27
513.193	11019.43
513.561	11092.87
513.929	11200.67
514.297	11352.53
514.664	11375.8
515.032	11450.15
515.4	11541
515.767	11598.85
516.135	11726.75
516.502	11629.58
516.869	11852.63
517.237	11901.66
517.604	11864.15
517.972	12068.44
518.339	12150.7
518.706	12127.2
519.073	12210.36
519.44	12263.91
519.808	12455.32
520.175	12366.51
520.542	12542.33
520.909	12710.46
521.276	12620.52
521.643	12686.5
522.009	12867.51
522.376	12886.5
522.743	13024.8
523.11	13153.16
523.477	13266.6
523.843	13335.53
524.21	13471.34
524.577	13488.06
524.943	13569.19
525.31	13679.24
525.676	13823.87
526.043	13866.13
526.409	13955.85
526.776	14066.58
527.142	14062.06
527.508	14236.74
527.874	14267.7
528.241	14287.36
528.607	14478.77
528.973	14604.19
529.339	14579.11
529.705	14689.84
530.071	14795.83
530.437	14941.36
530.803	15058.87
531.169	15092.54
531.535	15084.86
531.901	15085.99
532.267	15228.58
532.632	15327.11
532.998	15439.2
533.364	15548.12
533.73	15510.61
534.095	15628.57
534.461	15675.58
534.826	15790.38
535.192	15854.78
535.557	15917.6
535.923	15958.05
536.288	16023.36
536.653	16178.39
537.019	16066.3
537.384	16032.4
537.749	16324.15
538.114	16275.79
538.479	16284.15
538.845	16482.11
539.21	16384.03
539.575	16488.89
539.94	16567.76
540.305	16743.57
540.67	16692.95
541.034	16789.9
541.399	16864.7
541.764	16936.11
542.129	17043.68
542.494	16986.73
542.858	17040.96
543.223	17164.58
543.587	17324.57
543.952	17226.27
544.316	17355.53
544.681	17327.06
545.045	17390.11
545.41	17543.55
545.774	17602.53
546.138	17666.26
546.503	17634.4
546.867	17644.11
547.231	17835.29
547.595	17901.51
547.959	17933.37
548.324	18005.23
548.688	18010.66
549.052	18198.67
549.416	18197.54
549.779	18233.25
550.143	18311.21
550.507	18394.6
550.871	18540.59
551.235	18491.1
551.599	18586.46
551.962	18615.16
552.326	18633.01
552.689	18801.14
553.053	18749.17
553.417	18795.49
553.78	19011.31
554.143	18925.66
554.507	19096.5
554.87	19110.97
555.234	19259.66
555.597	19202.26
555.96	19222.15
556.323	19328.81
556.686	19433.44
557.05	19505.53
557.413	19453.33
557.776	19528.36
558.139	19770.38
558.502	19821
558.865	19872.53
559.228	19902.81
559.59	19937.84
559.953	19994.11
560.316	20199.3
560.679	20306.42
561.041	20449.46
561.404	20444.04
561.767	20559.52
562.129	20517.71
562.492	20722.22
562.854	20686.74
563.217	20768.32
563.579	20833.41
563.941	21040.86
564.304	20963.12
564.666	21222.78
565.028	21126.28
565.39	21257.12
565.753	21440.85
566.115	21477.01
566.477	21518.36
566.839	21499.38
567.201	21764.46
567.563	21719.03
567.925	21954.28
568.287	21900.95
568.648	21907.05
569.01	22108.18
569.372	22191.34
569.734	22118.34
570.095	22369.19
570.457	22414.61
570.819	22493.25
571.18	22578.22
571.542	22644.88
571.903	22658.67
572.265	22857.76
572.626	22942.5
572.987	23052.11
573.349	23045.1
573.71	23199.67
574.071	23142.05
574.432	23429.04
574.794	23554.92
575.155	23592.2
575.516	23579.55
575.877	23724.4
576.238	23728.7
576.599	23993.1
576.96	23943.61
577.32	23982.48
577.681	24452.97
578.042	24379.75
578.403	24512.41
578.763	24631.5
579.124	24790.14
579.485	24979.51
579.845	25198.94
580.206	25264.7
580.566	25304.48
580.927	25419.73
581.287	25703.11
581.648	25768.42
582.008	25994.4
582.368	26083.66
582.728	26190.1
583.089	26336.99
583.449	26601.39
583.809	26596.87
584.169	26871.21
584.529	26948.05
584.889	27328.6
585.249	27262.84
585.609	27358.21
585.969	27776.5
586.329	27750.06
586.688	28086.55
587.048	28132.2
587.408	28277.96
587.768	28476.82
588.127	28781.67
588.487	28838.17
588.846	29172.4
589.206	29246.29
589.565	29527.64
589.925	29768.54
590.284	29872.27
590.643	30175.99
591.003	30279.03
591.362	30652.58
591.721	30698.01
592.08	30876.98
592.44	31085.34
592.799	31265.22
593.158	31478.78
593.517	31679
593.876	31807.58
594.235	31880.35
594.593	32093
594.952	32485.08
595.311	32465.64
595.67	32789.48
596.029	32960.09
596.387	33258.62
596.746	33443.24
597.104	33540.87
597.463	33622.45
597.822	33808.89
598.18	33930.92
598.538	34151.7
598.897	34384.01
599.255	34372.26
599.613	35045.01
599.972	34862.87
600.33	35171.79
600.688	35134.05
601.046	35360.71
601.404	35687.93
601.762	35628.05
602.12	35974.48
602.478	36137.86
602.836	36279.33
603.194	36136.06
603.552	36410.85
603.91	36434.8
604.268	36858.97
604.625	36668.7
604.983	36873.66
605.341	36876.38
605.698	37133.09
606.056	37222.13
606.413	37440.88
606.771	37664.83
607.128	37668.44
607.485	37522.91
607.843	37828.89
608.2	38164.02
608.557	38326.73
608.914	38220.29
609.272	38543.22
609.629	38653.5
609.986	38819.37
610.343	38764.46
610.7	39192.25
611.057	39104.34
611.414	39187.27
611.771	39345.01
612.127	39597.43
612.484	39609.64
612.841	39817.77
613.198	39682.85
613.554	39942.28
613.911	40023.41
614.267	40262.95
614.624	40245.1
614.98	40199.45
615.337	40496.39
615.693	40649.84
616.05	40612.1
616.406	40942.48
616.762	40755.6
617.118	40855.93
617.475	40928.25
617.831	41092.08
618.187	41208.69
618.543	41291.63
618.899	41439.19
619.255	41516.03
619.611	41451.17
619.967	41678.51
620.323	41746.53
620.678	41534.78
621.034	41480.55
621.39	41700.2
621.746	41584.5
622.101	42052.06
622.457	41833.53
622.812	41938.61
623.168	42155.11
623.523	42144.26
623.879	42200.53
624.234	41990.82
624.589	42229
624.945	42376.12
625.3	42382.44
625.655	42233.3
626.01	42380.64
626.365	42536.34
626.72	42475.32
627.075	42495.66
627.43	42457.7
627.785	42385.61
628.14	42539.5
628.495	42620.4
628.85	42499.73
629.205	42613.85
629.559	42922.32
629.914	42530.24
630.269	42670.57
630.623	42509.9
630.978	42513.29
631.332	42686.62
631.687	42792.83
632.041	42535.21
632.396	42714.64
632.75	42474.19
633.104	42711.48
633.459	42546.96
633.813	42444.59
634.167	42593.51
634.521	42515.32
634.875	42628.31
635.229	42574.3
635.583	42370.24
635.937	42317.59
636.291	42421.54
636.645	42485.49
636.999	42350.36
637.352	42536.79
637.706	42155.11
638.06	42384.25
638.413	42295.22
638.767	42168.67
639.121	42316.01
639.474	42065.84
639.828	42204.37
640.181	42179.74
640.534	42287.76
640.888	42200.53
641.241	41970.03
641.594	42079.63
641.947	42273.75
642.301	42020.65
642.654	42092.74
643.007	42074.2
643.36	42066.75
643.713	42027.2
644.066	42080.76
644.419	41840.76
644.771	41620.88
645.124	41359.42
645.477	41159.65
645.83	41052.99
646.182	40856.61
646.535	40740.23
646.888	40718.08
647.24	40556.96
647.593	40923.27
647.945	40796.95
648.298	40490.29
648.65	40585.88
649.002	40499.33
649.355	40625.2
649.707	40579.78
650.059	40712.66
650.411	41080.56
650.763	41128.24
651.115	41521.22
651.467	41430.83
651.819	41394.9
652.171	41239.65
652.523	41248.24
652.875	41286.2
653.227	41155.13
653.578	41430.15
653.93	41243.04
654.282	40912.43
654.633	41059.32
654.985	41123.95
655.337	41085.08
655.688	41092.99
656.039	41213.21
656.391	40794.69
656.742	41019.32
657.094	41097.51
657.445	41105.64
657.796	41186.32
658.147	40998.53
658.498	40956.04
658.849	40963.5
659.2	41062.03
659.551	40861.81
659.902	41080.56
660.253	40935.03
660.604	40895.48
660.955	40707.69
661.306	40953.78
661.656	40844.86
662.007	40979.32
662.358	40970.05
662.708	40909.94
663.059	40831.07
663.409	40685.31
663.76	40856.61
664.11	40951.07
664.461	40929.15
664.811	40812.09
665.161	40875.82
665.511	40675.37
665.862	40774.58
666.212	40843.28
666.562	40911.07
666.912	40694.35
667.262	40698.87
667.612	40765.09
667.962	40679.66
668.312	40768.48
668.662	40821.13
669.011	40718.31
669.361	40789.04
669.711	40555.37
670.06	40553.57
670.41	40477.18
670.76	40597.41
671.109	40704.52
671.459	40643.06
671.808	40558.31
672.157	40613
672.507	40388.83
672.856	40482.38
673.205	40542.04
673.554	40510.63
673.904	40377.75
674.253	40477.86
674.602	40432.67
674.951	39882.62
675.3	39724.21
675.649	40308.83
675.998	40354.25
676.346	40280.13
676.695	40464.3
677.044	40177.31
677.393	40267.02
677.741	40325.1
678.09	40188.83
678.438	40160.81
678.787	40275.61
679.135	40240.81
679.484	39908.84
679.832	39999.23
680.181	39836.98
680.529	40105.22
680.877	39937.09
681.225	39868.61
681.573	40124.43
681.922	39820.48
682.27	39708.16
682.618	39691.44
682.966	39480.83
683.314	39702.06
683.661	39528.28
684.009	39320.15
684.357	39260.49
684.705	39297.78
685.053	39238.8
685.4	39271.34
685.748	39036.54
686.095	39028.63
686.443	38881.52
686.79	38917.9
687.138	38922.2
687.485	38914.06
687.832	38702.09
688.18	38752.71
688.527	38641.53
688.874	38514.75
689.221	38536.67
689.568	38512.94
689.915	38471.81
690.262	38307.3
690.609	38194.53
690.956	37985.27
691.303	37904.14
691.65	37823.02
691.997	37888.33
692.344	37694.43
692.69	37535.79
693.037	37632.97
693.383	37312.52
693.73	37430.48
694.077	37217.83
694.423	37159.53
694.769	37149.14
695.116	36987.11
695.462	37023.49
695.808	36829.37
696.155	36904.4
696.501	36725.64
696.847	36820.78
697.193	36400.23
697.539	36644.52
697.885	36304.86
698.231	36125.89
698.577	36197.3
698.923	36162.27
699.269	35976.96
699.614	35900.36
699.96	35759.12
700.306	35824.43
700.651	35564.32
700.997	35484.77
701.342	35593.24
701.688	35530.2
702.033	35212.92
702.379	35309.64
702.724	35159.13
703.069	35235.29
703.415	34788.07
703.76	34996.65
704.105	34977.22
704.45	34792.36
704.795	34580.62
705.14	34539.49
705.485	34519.6
705.83	34401.86
706.175	34299.95
706.52	34300.4
706.865	34027.41
707.209	34092.27
707.554	34032.16
707.899	34042.33
708.243	33872.84
708.588	33798.94
708.932	33666.29
709.277	33545.16
709.621	33568.21
709.966	33471.49
710.31	33453.19
710.654	33186.3
710.998	33243.48
711.342	33212.52
711.687	33220.43
712.031	33036.25
712.375	32924.61
712.719	32831.51
713.063	32967.1
713.407	32982.01
713.75	32637.39
714.094	32770.72
714.438	32706.77
714.782	32648.92
715.125	32437.85
715.469	32566.43
715.812	32339.32
716.156	32173.67
716.499	32325.53
716.843	32246.44
717.186	32054.58
717.53	32192.66
717.873	32127.35
718.216	32151.53
718.559	31947.01
718.902	31698.88
719.246	31895.49
719.589	31688.04
719.932	31581.6
720.275	31627.47
720.617	31543.18
720.96	31534.14
721.303	31479.68
721.646	31491.88
721.989	31318.56
722.331	31376.63
722.674	31280.36
723.016	31332.79
723.359	31129.18
723.701	31207.15
724.044	31082.63
724.386	30865.46
724.729	30864.1
725.071	30794.28
725.413	30883.54
725.755	30794.5
726.097	30699.14
726.439	30551.12
726.782	30711.34
727.124	30681.74
727.465	30483.1
727.807	30601.29
728.149	30405.36
728.491	30314.74
728.833	30382.08
729.175	30271.58
729.516	30034.97
729.858	30205.82
730.199	30149.77
730.541	30104.8
730.882	30233.61
731.224	30110
731.565	29952.94
731.906	29981.87
732.248	29900.74
732.589	29774.19
732.93	29741.65
733.271	29812.61
733.612	29693.06
733.953	29597.7
734.294	29593.4
734.635	29542.1
734.976	29621.2
735.317	29510.92
735.658	29514.08
735.999	29548.88
736.339	29382.79
736.68	29502.11
737.021	29301.88
737.361	29273.41
737.702	29233.86
738.042	29259.17
738.383	29246.07
738.723	29196.12
739.063	29105.73
739.404	29079.97
739.744	28998.16
740.084	28893.08
740.424	29058.5
740.764	28871.61
741.104	28960.88
741.444	28691.96
741.784	28689.92
742.124	28752.75
742.464	28761.79
742.804	28657.61
743.143	28518.63
743.483	28524.96
743.823	28357.05
744.162	28349.37
744.502	28478.63
744.841	28371.74
745.181	28442.02
745.52	28289.26
745.86	28259.43
746.199	28197.06
746.538	28132.88
746.877	28257.62
747.216	28211.74
747.556	28083.16
747.895	28072.76
748.234	27881.36
748.573	27818.08
748.911	27856.5
749.25	27911.64
749.589	27666.9
749.928	27828.7
750.267	27849.95
750.605	27665.77
750.944	27680.68
751.283	27470.07
751.621	27552.55
751.96	27512.78
752.298	27400.69
752.636	27491.31
752.975	27231.43
753.313	27245.67
753.651	27299.68
753.989	27204.76
754.327	27161.83
754.666	27021.49
755.004	27045.67
755.342	26955.73
755.679	27061.04
756.017	26856.07
756.355	26951.89
756.693	26683.65
757.031	26818.11
