Data from hue_320_FLMS001491_65.txt Node
Date: Mon Feb 06 15:47:32 GMT 2017
User: dcchb
Spectrometer: FLMS00149
Trigger mode: 0
Integration Time (sec): 2.000000E-2
Scans to average: 10
Electric dark correction enabled: true
Nonlinearity correction enabled: false
Boxcar width: 0
XAxis mode: Wavelengths
Number of Pixels in Spectrum: 2048
>>>>>Begin Spectral Data<<<<<
341.393	-19.01
341.776	-19.01
342.16	-19.01
342.543	-56.75
342.927	-64.89
343.31	-63.98
343.693	-68.73
344.077	-69.63
344.46	-60.37
344.843	-52.68
345.226	-33.25
345.61	-29.63
345.993	-20.59
346.376	-21.72
346.759	7.43
347.142	39.07
347.525	44.04
347.908	47.43
348.291	79.07
348.674	89.23
349.057	114.32
349.44	119.29
349.823	156.13
350.206	164.26
350.588	187.76
350.971	200.87
351.354	234.32
351.737	230.93
352.119	228.89
352.502	266.86
352.884	282
353.267	281.32
353.65	288.1
354.032	295.56
354.414	288.33
354.797	298.95
355.179	311.38
355.562	315.44
355.944	329.68
356.326	317.48
356.709	329.68
357.091	322.22
357.473	345.73
357.855	328.55
358.238	340.75
358.62	327.87
359.002	326.52
359.384	332.62
359.766	336.23
360.148	347.31
360.53	332.17
360.912	321.32
361.294	324.48
361.676	338.04
362.057	336.69
362.439	317.25
362.821	309.34
363.203	332.62
363.584	306.4
363.966	314.99
364.348	329
364.729	303.01
365.111	303.47
365.493	306.63
365.874	335.56
366.256	312.51
366.637	324.93
367.019	307.53
367.4	302.56
367.781	292.39
368.163	306.63
368.544	321.32
368.925	312.73
369.306	307.31
369.688	300.3
370.069	304.6
370.45	299.17
370.831	296.91
371.212	318.83
371.593	293.75
371.974	319.96
372.355	291.72
372.736	319.06
373.117	316.57
373.498	308.89
373.879	287.2
374.26	299.17
374.641	314.99
375.021	318.83
375.402	316.8
375.783	304.14
376.163	312.28
376.544	299.62
376.925	326.97
377.305	334.43
377.686	311.15
378.066	319.74
378.447	305.95
378.827	314.54
379.208	325.16
379.588	340.53
379.968	337.59
380.349	331.26
380.729	343.01
381.109	333.07
381.489	318.38
381.87	317.7
382.25	343.24
382.63	342.79
383.01	330.58
383.39	323.13
383.77	319.51
384.15	338.04
384.53	355.44
384.91	347.53
385.29	345.5
385.67	333.52
386.049	324.71
386.429	350.25
386.809	343.92
387.189	354.99
387.568	351.15
387.948	330.58
388.328	338.49
388.707	364.03
389.087	318.38
389.466	325.84
389.846	345.5
390.225	362
390.605	349.57
390.984	357.02
391.363	345.95
391.743	344.14
392.122	343.24
392.501	362.22
392.881	355.89
393.26	360.64
393.639	338.27
394.018	347.31
394.397	370.81
394.776	372.17
395.155	357.93
395.534	359.28
395.913	338.95
396.292	385.27
396.671	380.3
397.05	356.8
397.429	362
397.808	390.02
398.186	379.62
398.565	397.02
398.944	367.19
399.323	382.56
399.701	383.01
400.08	373.75
400.458	369
400.837	373.3
401.215	383.24
401.594	385.27
401.972	377.81
402.351	397.25
402.729	379.85
403.107	367.87
403.486	389.34
403.864	399.74
404.242	406.51
404.62	418.27
404.999	419.62
405.377	426.85
405.755	402.9
406.133	438.6
406.511	410.58
406.889	438.15
407.267	415.1
407.645	418.27
408.023	417.59
408.401	439.51
408.779	460.98
409.156	443.58
409.534	450.58
409.912	444.25
410.29	441.09
410.667	457.81
411.045	479.51
411.422	460.07
411.8	469.79
412.178	489
412.555	480.19
412.933	487.19
413.31	490.81
413.687	495.78
414.065	499.85
414.442	507.53
414.819	499.85
415.197	519.73
415.574	531.03
415.951	542.33
416.328	540.3
416.705	545.95
417.082	551.6
417.46	565.61
417.837	560.18
418.214	550.01
418.591	589.11
418.967	598.83
419.344	582.1
419.721	603.35
420.098	589.56
420.475	608.77
420.852	614.87
421.228	603.12
421.605	616.45
421.982	616.23
422.358	620.52
422.735	620.52
423.111	624.59
423.488	646.73
423.864	661.2
424.241	665.72
424.617	685.83
424.994	650.8
425.37	666.39
425.746	695.09
426.123	702.55
426.499	692.16
426.875	700.07
427.251	703
427.627	721.31
428.003	717.02
428.379	740.52
428.756	753.4
429.132	747.75
429.507	766.96
429.883	747.07
430.259	772.38
430.635	793.4
431.011	783.23
431.387	797.46
431.763	796.79
432.138	801.31
432.514	815.77
432.89	805.15
433.265	838.37
433.641	836.33
434.016	862.55
434.392	881.08
434.767	878.14
435.143	878.59
435.518	870.91
435.894	904.58
436.269	903.22
436.644	909.78
437.02	919.27
437.395	922.89
437.77	929.89
438.145	949.1
438.52	945.26
438.895	952.49
439.271	938.25
439.646	985.03
440.021	997.69
440.395	1006.95
440.77	986.84
441.145	969.21
441.52	1002.88
441.895	988.19
442.27	1022.77
442.645	1036.55
443.019	1019.83
443.394	1003.56
443.769	1065.03
444.143	1037.91
444.518	1044.24
444.892	1009.66
445.267	1034.29
445.641	1026.61
446.016	1056.44
446.39	1058.02
446.764	1050.11
447.139	1052.6
447.513	1073.39
447.887	1062.09
448.262	1102.32
448.636	1066.61
449.01	1092.82
449.384	1080.17
449.758	1099.15
450.132	1118.13
450.506	1099.83
450.88	1104.35
451.254	1119.94
451.628	1124.69
452.002	1139.38
452.376	1141.18
452.75	1131.24
453.123	1142.77
453.497	1171.47
453.871	1149.32
454.244	1172.14
454.618	1172.14
454.992	1162.88
455.365	1184.35
455.739	1211.69
456.112	1216.44
456.486	1208.53
456.859	1213.05
457.232	1237.45
457.606	1256.44
457.979	1242.88
458.352	1246.49
458.725	1284.68
459.099	1256.66
459.472	1289.88
459.845	1321.97
460.218	1317.68
460.591	1322.42
460.964	1330.33
461.337	1352.48
461.71	1365.36
462.083	1350.9
462.456	1379.37
462.829	1370.56
463.201	1382.08
463.574	1361.74
463.947	1383.21
464.32	1402.19
464.692	1412.59
465.065	1445.81
465.438	1435.64
465.81	1464.34
466.183	1455.75
466.555	1481.51
466.928	1485.36
467.3	1508.86
467.672	1501.85
468.045	1517.45
468.417	1522.64
468.789	1547.95
469.161	1542.76
469.534	1569.2
469.906	1598.12
470.278	1595.64
470.65	1578.01
471.022	1623.21
471.394	1670.89
471.766	1663.66
472.138	1674.05
472.51	1712.24
472.882	1691.45
473.253	1731.68
473.625	1757.67
473.997	1760.15
474.369	1787.5
474.74	1810.77
475.112	1831.11
475.484	1827.49
475.855	1870.21
476.227	1881.96
476.598	1933.71
476.97	1923.99
477.341	1958.34
477.713	1975.06
478.084	1960.15
478.455	2014.83
478.827	2033.59
479.198	2055.74
479.569	2036.3
479.94	2109.97
480.311	2085.11
480.682	2114.49
481.053	2188.61
481.424	2213.47
481.795	2234.72
482.166	2244.88
482.537	2283.53
482.908	2303.41
483.279	2317.65
483.65	2335.5
484.021	2393.81
484.391	2413.69
484.762	2413.47
485.133	2423.86
485.503	2433.35
485.874	2514.93
486.244	2511.54
486.615	2564.88
486.985	2594.48
487.356	2600.81
487.726	2589.51
488.097	2644.42
488.467	2664.76
488.837	2723.06
489.207	2702.27
489.578	2756.06
489.948	2754.25
490.318	2843.96
490.688	2821.14
491.058	2866.79
491.428	2878.99
491.798	2869.95
492.168	2965.77
492.538	2917.64
492.908	2966
493.278	2992.21
493.648	3019.33
494.017	3046.9
494.387	3036.28
494.757	3072.43
495.126	3133.9
495.496	3108.36
495.866	3144.07
496.235	3147.69
496.605	3154.47
496.974	3198.31
497.344	3220.68
497.713	3217.97
498.082	3202.15
498.452	3264.29
498.821	3277.63
499.19	3281.24
499.559	3311.3
499.928	3338.19
500.298	3351.3
500.667	3298.64
501.036	3334.35
501.405	3361.01
501.774	3366.66
502.143	3370.28
502.512	3404.4
502.88	3422.48
503.249	3410.73
503.618	3479.43
503.987	3429.71
504.356	3465.87
504.724	3472.87
505.093	3460.22
505.462	3485.3
505.83	3516.94
506.199	3558.52
506.567	3567.56
506.936	3530.27
507.304	3543.38
507.672	3612.98
508.041	3590.84
508.409	3637.39
508.777	3652.31
509.145	3623.15
509.514	3649.82
509.882	3638.07
510.25	3657.95
510.618	3651.4
510.986	3712.64
511.354	3734.79
511.722	3719.65
512.09	3721
512.458	3765.75
512.826	3761.91
513.193	3762.36
513.561	3754
513.929	3788.12
514.297	3786.31
514.664	3818.63
515.032	3809.82
515.4	3808.91
515.767	3836.48
516.135	3858.85
516.502	3786.54
516.869	3918.51
517.237	3887.55
517.604	3875.35
517.972	3937.72
518.339	3929.81
518.706	3906.54
519.073	3892.75
519.44	3963.26
519.808	3965.97
520.175	3940.43
520.542	3974.33
520.909	3984.73
521.276	3942.69
521.643	3969.58
522.009	4036.93
522.376	4033.31
522.743	4053.65
523.11	4086.19
523.477	4104.72
523.843	4104.5
524.21	4142.46
524.577	4129.81
524.943	4170.03
525.31	4146.53
525.676	4155.57
526.043	4210.71
526.409	4208.45
526.776	4249.35
527.142	4278.05
527.508	4318.05
527.874	4335
528.241	4306.98
528.607	4286.19
528.973	4331.84
529.339	4381.78
529.705	4410.48
530.071	4419.06
530.437	4417.71
530.803	4477.59
531.169	4459.97
531.535	4492.51
531.901	4481.89
532.267	4569.57
532.632	4472.4
532.998	4561.21
533.364	4569.8
533.73	4577.48
534.095	4613.64
534.461	4647.08
534.826	4634.65
535.192	4661.09
535.557	4730.47
535.923	4677.59
536.288	4739.28
536.653	4778.83
537.019	4733.41
537.384	4766.63
537.749	4757.36
538.114	4779.06
538.479	4781.99
538.845	4821.77
539.21	4857.92
539.575	4903.57
539.94	4885.94
540.305	4965.04
540.67	4909.45
541.034	4934.76
541.399	4958.71
541.764	5008.88
542.129	5060.63
542.494	5054.75
542.858	5047.3
543.223	5080.52
543.587	5094.3
543.952	5104.92
544.316	5140.18
544.681	5116.67
545.045	5186.5
545.41	5169.33
545.774	5239.38
546.138	5188.99
546.503	5278.03
546.867	5255.2
547.231	5304.92
547.595	5306.05
547.959	5302.88
548.324	5357.57
548.688	5349.89
549.052	5373.39
549.416	5444.35
549.779	5394.18
550.143	5402.09
550.507	5465.36
550.871	5428.98
551.235	5436.21
551.599	5533.16
551.962	5501.07
552.326	5524.8
552.689	5552.14
553.053	5562.54
553.417	5574.74
553.78	5576.1
554.143	5613.61
554.507	5632.14
554.87	5626.94
555.234	5710.78
555.597	5660.39
555.96	5693.16
556.323	5694.06
556.686	5673.04
557.05	5776.99
557.413	5767.96
557.776	5731.35
558.139	5824.68
558.502	5802.53
558.865	5818.12
559.228	5862.19
559.59	5841.17
559.953	5869.87
560.316	5951.45
560.679	5904.9
561.041	5939.25
561.404	5931.34
561.767	5944.22
562.129	5957.33
562.492	6026.93
562.854	6052.92
563.217	6015.63
563.579	6033.49
563.941	6090.43
564.304	6145.35
564.666	6125.46
565.028	6097.21
565.39	6148.74
565.753	6169.75
566.115	6202.97
566.477	6198
566.839	6242.07
567.201	6261.95
567.563	6268.96
567.925	6335.85
568.287	6316.87
568.648	6333.82
569.01	6405
569.372	6406.81
569.734	6384.44
570.095	6431.44
570.457	6447.94
570.819	6488.16
571.18	6473.02
571.542	6525.22
571.903	6577.43
572.265	6602.74
572.626	6622.4
572.987	6655.16
573.349	6746.24
573.71	6764.99
574.071	6805.22
574.432	6824.2
574.794	6910.07
575.155	6948.26
575.516	6953.01
575.877	7041.37
576.238	7127.69
576.599	7123.17
576.96	7246.33
577.32	7243.17
577.681	7395.48
578.042	7444.52
578.403	7512.54
578.763	7564.74
579.124	7663.95
579.485	7677.51
579.845	7880.22
580.206	7928.35
580.566	8046.77
580.927	8196.37
581.287	8301.45
581.648	8442.01
582.008	8556.58
582.368	8608.78
582.728	8752.74
583.089	8891.26
583.449	9017.59
583.809	9157.92
584.169	9337.13
584.529	9539.83
584.889	9822.31
585.249	9877.9
585.609	10019.82
585.969	10261.17
586.329	10461.17
586.688	10712.68
587.048	10914.26
587.408	11013.47
587.768	11306.34
588.127	11533.23
588.487	11658.87
588.846	11980.9
589.206	12119.2
589.565	12454.56
589.925	12645.97
590.284	12921.67
590.643	13144.26
591.003	13487.3
591.362	13715.54
591.721	14010.22
592.08	14206.38
592.44	14434.62
592.799	14817.21
593.158	15042.51
593.517	15300.36
593.876	15637.07
594.235	15929.72
594.593	16106.67
594.952	16373.33
595.311	16685.63
595.67	16956.14
596.029	17333.98
596.387	17677.7
596.746	17868.65
597.104	18127.18
597.463	18417.34
597.822	18768.07
598.18	18986.37
598.538	19260.93
598.897	19608.72
599.255	19770.53
599.613	20422.03
599.972	20468.59
600.33	20828.8
600.688	20965.52
601.046	21427.66
601.404	21751.94
601.762	21968.66
602.12	22205.49
602.478	22476.67
602.836	22801.63
603.194	22834.85
603.552	23111
603.91	23374.05
604.268	23737.65
604.625	23931.55
604.983	24236.62
605.341	24347.58
605.698	24649.27
606.056	24949.37
606.413	25206.77
606.771	25357.05
607.128	25664.83
607.485	25829.35
607.843	26154.99
608.2	26418.03
608.557	26735.31
608.914	26820.06
609.272	27198.58
609.629	27375.75
609.986	27686.48
610.343	27726.93
610.7	28069.74
611.057	28130.53
611.414	28261.6
611.771	28507.92
612.127	28750.18
612.484	29027.23
612.841	29242.37
613.198	29194.46
613.554	29497.95
613.911	29802.58
614.267	29880.32
614.624	29972.07
614.98	30241.44
615.337	30366.4
615.693	30506.06
616.05	30603.23
616.406	30989.21
616.762	31033.51
617.118	31126.84
617.475	31196.89
617.831	31426.49
618.187	31626.71
618.543	31779.7
618.899	32036.87
619.255	32067.38
619.611	32188.28
619.967	32386.01
620.323	32527.93
620.678	32646.8
621.034	32598.89
621.39	32677.76
621.746	32913.68
622.101	33157.29
622.457	32980.35
622.812	33171.53
623.168	33347.12
623.523	33380.11
623.879	33718.18
624.234	33464.85
624.589	33633.44
624.945	33817.16
625.3	33777.39
625.655	34009.25
626.01	34119.3
626.365	34088.79
626.72	34018.74
627.075	34183.93
627.43	34278.39
627.785	34252.86
628.14	34417.15
628.495	34415.11
628.85	34385.06
629.205	34483.36
629.559	34623.02
629.914	34647.87
630.269	34689
630.623	34589.57
630.978	34522.91
631.332	34725.61
631.687	34900.52
632.041	34780.75
632.396	34859.39
632.75	34835.21
633.104	34858.49
633.459	34924.03
633.813	34745.05
634.167	34832.95
634.521	34841.99
634.875	34928.32
635.229	35006.28
635.583	34852.39
635.937	34847.42
636.291	34875.21
636.645	34889.68
636.999	34881.09
637.352	34913.4
637.706	34799.73
638.06	35002.89
638.413	34904.82
638.767	34850.35
639.121	35020.97
639.474	34682.9
639.828	34836.34
640.181	34845.61
640.534	34932.16
640.888	34810.81
641.241	34696.01
641.594	34830.47
641.947	34992.27
642.301	34853.07
642.654	34815.1
643.007	34903.23
643.36	34741.66
643.713	34807.19
644.066	34956.79
644.419	34748.66
644.771	34550.7
645.124	34286.75
645.477	34301.44
645.83	33967.21
646.182	33808.8
646.535	33832.3
646.888	33999.98
647.24	33720.22
647.593	33967.89
647.945	33883.83
648.298	33636.38
648.65	33605.19
649.002	33726.99
649.355	33821
649.707	33674.79
650.059	33830.72
650.411	34231.39
650.763	34456.92
651.115	34623.47
651.467	34534.88
651.819	34542.11
652.171	34383.47
652.523	34488.33
652.875	34397.94
653.227	34245.17
653.578	34635.9
653.93	34317.49
654.282	34390.03
654.633	34240.65
654.985	34339.86
655.337	34285.17
655.688	34478.16
656.039	34528.1
656.391	34105.06
656.742	34110.71
657.094	34215.8
657.445	34465.51
657.796	34265.06
658.147	34347.54
658.498	34304.38
658.849	34344.38
659.2	34303.02
659.551	34284.49
659.902	34237.26
660.253	34172.63
660.604	34296.02
660.955	34094.44
661.306	34361.33
661.656	34228.22
662.007	34210.82
662.358	34157.49
662.708	34066.65
663.059	34073.65
663.409	33922.47
663.76	34213.99
664.11	34090.6
664.461	34294.66
664.811	34023.94
665.161	34194.55
665.511	34059.87
665.862	33980.32
666.212	34312.52
666.562	34133.54
666.912	34113.65
667.262	34040.66
667.612	34018.51
667.962	34079.75
668.312	34042.24
668.662	34070.94
669.011	34149.36
669.361	33994.11
669.711	34011.05
670.06	34022.13
670.41	33850.16
670.76	33884.96
671.109	33822.36
671.459	34004.5
671.808	33859.65
672.157	34044.5
672.507	33752.53
672.856	33802.47
673.205	33796.37
673.554	33950.04
673.904	33712.98
674.253	33954.33
674.602	33878.4
674.951	33367.91
675.3	33095.37
675.649	33753.66
675.998	33644.06
676.346	33663.27
676.695	33834.56
677.044	33484.52
677.393	33541.46
677.741	33701.46
678.09	33592.53
678.438	33587.79
678.787	33696.71
679.135	33542.82
679.484	33400.68
679.832	33392.31
680.181	33418.98
680.529	33340.34
680.877	33301.69
681.225	33220.34
681.573	33468.47
681.922	33169.04
682.27	33097.18
682.618	33094.02
682.966	33069.61
683.314	33185.09
683.661	32990.29
684.009	32965.66
684.357	32842.95
684.705	32945.09
685.053	32877.07
685.4	32784.87
685.748	32629.62
686.095	32604.99
686.443	32591.43
686.79	32513.92
687.138	32495.39
687.485	32458.55
687.832	32342.17
688.18	32266.47
688.527	32326.58
688.874	32177.43
689.221	32183.76
689.568	32040.49
689.915	31994.84
690.262	31962.75
690.609	31939.92
690.956	31726.82
691.303	31855.63
691.65	31628.97
691.997	31629.87
692.344	31450.9
692.69	31449.54
693.037	31395.98
693.383	31198.25
693.73	31392.14
694.077	31169.77
694.423	31180.17
694.769	31022.21
695.116	30908.54
695.462	30939.27
695.808	30810.69
696.155	30871.48
696.501	30611.37
696.847	30584.03
697.193	30520.3
697.539	30541.54
697.885	30259.97
698.231	30256.13
698.577	30259.52
698.923	30304.26
699.269	30056.13
699.614	29833.99
699.96	29879.19
700.306	29855.46
700.651	29781.11
700.997	29677.38
701.342	29596.48
701.688	29525.75
702.033	29605.97
702.379	29481.91
702.724	29412.98
703.069	29426.54
703.415	29052.32
703.76	29168.47
704.105	29099.55
704.45	29020.9
704.795	28824.52
705.14	28800.8
705.485	28883.73
705.83	28667.47
706.175	28815.49
706.52	28577.75
706.865	28454.14
707.209	28496.17
707.554	28437.42
707.899	28509.5
708.243	28295.72
708.588	28333.01
708.932	28029.07
709.277	28003.3
709.621	28077.88
709.966	27887.83
710.31	28017.99
710.654	27781.39
710.998	27906.81
711.342	27712.24
711.687	27636.99
712.031	27664.56
712.375	27569.42
712.719	27482.19
713.063	27511.34
713.407	27585.01
713.75	27395.18
714.094	27409.42
714.438	27224.11
714.782	27318.35
715.125	27199.48
715.469	27137.56
715.812	27060.73
716.156	26955.65
716.499	26983.22
716.843	27000.39
717.186	26743.45
717.53	26859.6
717.873	26865.03
718.216	26837.68
718.559	26811.47
718.902	26565.83
719.246	26606.05
719.589	26416
719.932	26359.96
720.275	26328.55
720.617	26444.02
720.96	26339.39
721.303	26396.79
721.646	26356.57
721.989	26192.05
722.331	26260.07
722.674	26155.44
723.016	26108.89
723.359	26016.46
723.701	26122.45
724.044	25987.31
724.386	25805.62
724.729	25946.63
725.071	25886.07
725.413	25783.47
725.755	25782.57
726.097	25786.64
726.439	25525.18
726.782	25520.43
727.124	25695.12
727.465	25560.66
727.807	25514.78
728.149	25420.77
728.491	25485.18
728.833	25415.8
729.175	25424.16
729.516	25327.22
729.858	25207.67
730.199	25225.07
730.541	25129.25
730.882	25258.52
731.224	25294.67
731.565	25072.76
731.906	25060.33
732.248	25037.51
732.589	24883.39
732.93	24882.93
733.271	24832.77
733.612	24810.17
733.953	24992.99
734.294	24721.58
734.635	24737.63
734.976	24736.72
735.317	24575.82
735.658	24610.4
735.999	24612.66
736.339	24650.17
736.68	24567.24
737.021	24582.15
737.361	24384.19
737.702	24533.79
738.042	24358.65
738.383	24401.82
738.723	24395.26
739.063	24377.64
739.404	24366.11
739.744	24307.13
740.084	24097.42
740.424	24176.29
740.764	24192.33
741.104	24251.99
741.444	24019.45
741.784	24081.6
742.124	24099.45
742.464	23942.85
742.804	23932.22
743.143	23940.81
743.483	23986.01
743.823	23803.87
744.162	23643.87
744.502	23742.4
744.841	23644.32
745.181	23732.23
745.52	23609.97
745.86	23704.21
746.199	23643.42
746.538	23505.34
746.877	23663.53
747.216	23577.66
747.556	23530.65
747.895	23438.45
748.234	23405.01
748.573	23419.92
748.911	23348.06
749.25	23246.82
749.589	23166.59
749.928	23238.91
750.267	23297.21
750.605	23177.67
750.944	23051.34
751.283	23090.89
751.621	23131.11
751.96	22940.39
752.298	22919.6
752.636	22992.14
752.975	22743.33
753.313	22740.84
753.651	22874.62
753.989	22723.67
754.327	22675.99
754.666	22570.45
755.004	22525.03
755.342	22564.8
755.679	22566.61
756.017	22412.94
756.355	22477.57
756.693	22273.74
757.031	22287.52
757.368	22157.36
757.706	22300.63
758.044	22076.91
758.381	22196.9
758.719	22080.97
759.056	22025.16
759.394	21970.24
759.731	21810.92
760.068	21763.69
