Data from hue_26_FLMS001491_00056.txt Node
Date: Tue Feb 07 17:14:12 GMT 2017
User: dcchb
Spectrometer: FLMS00149
Trigger mode: 0
Integration Time (sec): 2.000000E-2
Scans to average: 10
Electric dark correction enabled: true
Nonlinearity correction enabled: false
Boxcar width: 0
XAxis mode: Wavelengths
Number of Pixels in Spectrum: 2048
>>>>>Begin Spectral Data<<<<<
341.393	-13.77
341.776	-13.77
342.16	-13.77
342.543	-73.88
342.927	-63.49
343.31	-89.7
343.693	-68.91
344.077	-46.99
344.46	-51.06
344.843	-56.26
345.226	-56.03
345.61	-46.76
345.993	-28.23
346.376	7.7
346.759	28.04
347.142	15.15
347.525	41.59
347.908	54.48
348.291	91.09
348.674	94.47
349.057	111.42
349.44	98.32
349.823	154.36
350.206	180.12
350.588	205.88
350.971	199.78
351.354	236.84
351.737	247.92
352.119	263.51
352.502	261.02
352.884	282.27
353.267	262.15
353.65	284.3
354.032	287.24
354.414	311.42
354.797	319.55
355.179	328.37
355.562	334.92
355.944	310.97
356.326	324.75
356.709	362.04
357.091	318.65
357.473	333.11
357.855	331.76
358.238	324.75
358.62	336.73
359.002	328.59
359.384	336.95
359.766	337.41
360.148	336.73
360.53	335.82
360.912	330.63
361.294	348.48
361.676	321.81
362.057	328.37
362.439	323.62
362.821	333.11
363.203	310.51
363.584	313.68
363.966	315.03
364.348	314.58
364.729	320.01
365.111	319.1
365.493	348.03
365.874	339.21
366.256	331.3
366.637	311.19
367.019	308.25
367.4	329.5
367.781	326.33
368.163	339.67
368.544	314.13
368.925	299.44
369.306	329.05
369.688	322.72
370.069	329.5
370.45	310.97
370.831	330.4
371.212	326.79
371.593	319.78
371.974	295.15
372.355	317.75
372.736	317.29
373.117	300.57
373.498	312.77
373.879	303.73
374.26	328.82
374.641	319.55
375.021	315.26
375.402	305.77
375.783	320.01
376.163	341.93
376.544	336.5
376.925	319.1
377.305	336.95
377.686	333.79
378.066	327.69
378.447	313.45
378.827	339.44
379.208	339.44
379.588	348.03
379.968	332.89
380.349	340.34
380.729	347.58
381.109	325.2
381.489	338.08
381.87	347.12
382.25	348.03
382.63	366.33
383.01	341.25
383.39	352.32
383.77	352.1
384.15	342.6
384.53	339.44
384.91	344.41
385.29	362.49
385.67	348.03
386.049	344.86
386.429	341.7
386.809	343.51
387.189	340.12
387.568	357.07
387.948	350.51
388.328	357.74
388.707	352.1
389.087	364.75
389.466	349.84
389.846	355.71
390.225	377.41
390.605	371.3
390.984	376.28
391.363	373.79
391.743	371.76
392.122	353.23
392.501	385.99
392.881	384.86
393.26	354.36
393.639	380.57
394.018	381.92
394.397	366.56
394.776	397.74
395.155	388.7
395.534	385.31
395.913	377.86
396.292	406.56
396.671	383.73
397.05	381.02
397.429	397.97
397.808	378.08
398.186	398.65
398.565	400.46
398.944	398.42
399.323	384.86
399.701	391.87
400.08	394.58
400.458	387.8
400.837	419.44
401.215	406.33
401.594	397.97
401.972	420.79
402.351	403.39
402.729	406.78
403.107	404.98
403.486	409.95
403.864	414.24
404.242	428.93
404.62	432.77
404.999	421.92
405.377	428.48
405.755	437.06
406.133	435.93
406.511	440.68
406.889	438.65
407.267	433.45
407.645	437.74
408.023	432.09
408.401	442.26
408.779	418.76
409.156	434.8
409.534	437.06
409.912	457.18
410.29	444.3
410.667	454.92
411.045	444.07
411.422	445.2
411.8	461.7
412.178	472.54
412.555	490.85
412.933	460.34
413.31	483.62
413.687	481.81
414.065	494.24
414.442	470.06
414.819	483.17
415.197	495.59
415.574	501.47
415.951	510.51
416.328	489.72
416.705	506.44
417.082	507.12
417.46	491.3
417.837	536.72
418.214	506.22
418.591	537.4
418.967	515.03
419.344	511.19
419.721	527.46
420.098	556.38
420.475	538.31
420.852	540.11
421.228	545.54
421.605	539.43
421.982	535.59
422.358	540.56
422.735	570.85
423.111	553.22
423.488	549.15
423.864	546.67
424.241	551.64
424.617	561.36
424.994	587.57
425.37	571.52
425.746	570.17
426.123	571.75
426.499	574.91
426.875	578.08
427.251	610.17
427.627	592.54
428.003	607.91
428.379	609.49
428.756	605.2
429.132	611.52
429.507	604.29
429.883	631.64
430.259	638.19
430.635	637.74
431.011	631.18
431.387	638.64
431.763	636.38
432.138	637.51
432.514	651.07
432.89	672.99
433.265	661.92
433.641	670.73
434.016	680.45
434.392	702.82
434.767	693.1
435.143	689.94
435.518	689.26
435.894	696.94
436.269	712.31
436.644	712.09
437.02	713.67
437.395	736.72
437.77	750.5
438.145	730.16
438.52	747.11
438.895	733.55
439.271	743.05
439.646	769.71
440.021	771.97
440.395	752.54
440.77	766.32
441.145	776.49
441.52	766.55
441.895	778.98
442.27	801.12
442.645	799.32
443.019	793.44
443.394	782.37
443.769	803.61
444.143	805.19
444.518	802.93
444.892	805.64
445.267	823.04
445.641	830.27
446.016	828.47
446.39	817.39
446.764	843.38
447.139	846.77
447.513	849.03
447.887	855.13
448.262	852.42
448.636	844.29
449.01	879.31
449.384	849.26
449.758	864.17
450.132	886.32
450.506	877.51
450.88	887.9
451.254	902.14
451.628	905.53
452.002	882.48
452.376	919.31
452.75	936.26
453.123	933.1
453.497	962.02
453.871	933.55
454.244	966.99
454.618	951.63
454.992	971.29
455.365	1010.84
455.739	984.85
456.112	976.71
456.486	1019.42
456.859	1029.82
457.232	1038.4
457.606	1041.34
457.979	1029.59
458.352	1069.59
458.725	1070.49
459.099	1089.93
459.472	1086.99
459.845	1142.13
460.218	1119.98
460.591	1128.57
460.964	1116.82
461.337	1145.75
461.71	1169.93
462.083	1169.25
462.456	1154.79
462.829	1180.1
463.201	1189.81
463.574	1206.31
463.947	1229.13
464.32	1213.09
464.692	1270.49
465.065	1252.18
465.438	1282.92
465.81	1311.84
466.183	1304.16
466.555	1325.18
466.928	1341.22
467.3	1329.47
467.672	1380.54
468.045	1419.86
468.417	1380.54
468.789	1397.94
469.161	1413.31
469.534	1453.99
469.906	1483.14
470.278	1473.87
470.65	1492.4
471.022	1532.86
471.394	1547.32
471.766	1604.04
472.138	1593.87
472.51	1624.6
472.882	1642.91
473.253	1680.87
473.625	1686.07
473.997	1710.03
474.369	1726.07
474.74	1776.01
475.112	1800.19
475.484	1793.87
475.855	1864.6
476.227	1856.69
476.598	1932.62
476.97	1944.14
477.341	1988.89
477.713	2019.17
478.084	2039.51
478.455	2077.7
478.827	2103.46
479.198	2144.59
479.569	2197.24
479.94	2255.32
480.311	2253.06
480.682	2320.86
481.053	2378.71
481.424	2426.39
481.795	2436.11
482.166	2519.95
482.537	2553.62
482.908	2583.9
483.279	2626.16
483.65	2700.96
484.021	2751.58
484.391	2804.46
484.762	2838.81
485.133	2885.36
485.503	2909.09
485.874	2995.87
486.244	3013.72
486.615	3049.2
486.985	3094.4
487.356	3174.39
487.726	3200.16
488.097	3287.16
488.467	3281.74
488.837	3394.5
489.207	3415.52
489.578	3518.34
489.948	3522.63
490.318	3572.58
490.688	3611.44
491.058	3666.81
491.428	3716.98
491.798	3767.6
492.168	3822.74
492.538	3891.21
492.908	3901.38
493.278	4013.47
493.648	4025.9
494.017	4113.13
494.387	4060.92
494.757	4116.97
495.126	4198.32
495.496	4232.45
495.866	4282.84
496.235	4340.92
496.605	4358.54
496.974	4388.6
497.344	4441.48
497.713	4443.51
498.082	4531.65
498.452	4578.65
498.821	4602.38
499.19	4587.46
499.559	4647.35
499.928	4697.97
500.298	4759.66
500.667	4787.91
501.036	4763.73
501.405	4878.98
501.774	4834.69
502.143	4871.98
502.512	4888.02
502.88	4956.49
503.249	4973.22
503.618	5008.92
503.987	5052.54
504.356	5036.49
504.724	5133.44
505.093	5091.41
505.462	5157.17
505.83	5200.33
506.199	5250.72
506.567	5264.28
506.936	5308.58
507.304	5360.55
507.672	5334.11
508.041	5343.38
508.409	5414.56
508.777	5415.92
509.145	5464.5
509.514	5441.23
509.882	5478.51
510.25	5585.63
510.618	5619.3
510.986	5567.55
511.354	5604.84
511.722	5673.31
512.09	5718.06
512.458	5618.85
512.826	5730.71
513.193	5726.87
513.561	5772.52
513.929	5837.6
514.297	5841.44
514.664	5930.25
515.032	5913.3
515.4	5946.98
515.767	5974.32
516.135	6000.76
516.502	5968.44
516.869	6057.71
517.237	6114.66
517.604	6062.68
517.972	6132.51
518.339	6149.46
518.706	6166.63
519.073	6151.72
519.44	6134.32
519.808	6224.26
520.175	6237.59
520.542	6386.74
520.909	6328.44
521.276	6322.79
521.643	6361.88
522.009	6397.81
522.376	6472.84
522.743	6521.88
523.11	6548.32
523.477	6574.98
523.843	6617.92
524.21	6630.12
524.577	6709.67
524.943	6673.96
525.31	6694.08
525.676	6891.81
526.043	6741.31
526.409	6891.13
526.776	6986.95
527.142	6929.78
527.508	6990.79
527.874	7033.28
528.241	7068.75
528.607	7013.39
528.973	7150.79
529.339	7149.88
529.705	7251.8
530.071	7242.99
530.437	7320.05
530.803	7282.99
531.169	7381.06
531.535	7323.21
531.901	7404.34
532.267	7421.74
532.632	7476.43
532.998	7440.72
533.364	7569.76
533.73	7510.33
534.095	7590.77
534.461	7621.06
534.826	7689.08
535.192	7728.17
535.557	7743.31
535.923	7763.2
536.288	7779.92
536.653	7855.17
537.019	7866.47
537.384	7829.64
537.749	7954.38
538.114	7926.13
538.479	7993.7
538.845	7998
539.21	7980.6
539.575	8000.71
539.94	8147.37
540.305	8111.89
540.67	8087.49
541.034	8213.36
541.399	8192.57
541.764	8289.51
542.129	8285.45
542.494	8325.9
542.858	8382.84
543.223	8372.22
543.587	8439.34
543.952	8426.46
544.316	8437.08
544.681	8460.13
545.045	8519.79
545.41	8554.37
545.774	8559.11
546.138	8651.09
546.503	8645.21
546.867	8677.98
547.231	8774.7
547.595	8837.52
547.959	8793.23
548.324	8814.02
548.688	8838.2
549.052	8888.37
549.416	8869.16
549.779	8888.37
550.143	8969.5
550.507	8998.2
550.871	9056.73
551.235	9024.41
551.599	9090.4
551.962	9110.51
552.326	9118.64
552.689	9224.63
553.053	9115.93
553.417	9134.01
553.78	9371.52
554.143	9283.61
554.507	9371.07
554.87	9332.65
555.234	9442.25
555.597	9377.17
555.96	9413.55
556.323	9464.62
556.686	9549.37
557.05	9538.97
557.413	9533.32
557.776	9602.47
558.139	9682.7
558.502	9727.44
558.865	9670.95
559.228	9755.46
559.59	9755.24
559.953	9762.02
560.316	9916.82
560.679	9858.74
561.041	9892.64
561.404	9944.61
561.767	9996.14
562.129	9969.92
562.492	10074.1
562.854	10043.59
563.217	10058.96
563.579	10131.5
563.941	10183.7
564.304	10277.94
564.666	10264.15
565.028	10304.15
565.39	10293.08
565.753	10336.69
566.115	10387.09
566.477	10422.56
566.839	10460.53
567.201	10530.36
567.563	10566.29
567.925	10595.67
568.287	10715.66
568.648	10705.72
569.01	10773.52
569.372	10800.41
569.734	10758.6
570.095	10865.72
570.457	10912.5
570.819	10959.27
571.18	10935.77
571.542	11051.93
571.903	11090.8
572.265	11168.76
572.626	11210.79
572.987	11147.52
573.349	11285.82
573.71	11299.83
574.071	11416.44
574.432	11462.54
574.794	11520.62
575.155	11559.03
575.516	11594.29
575.877	11605.13
576.238	11780.04
576.599	11902.3
576.96	11972.35
577.32	11969.19
577.681	12116.76
578.042	12189.07
578.403	12289.41
578.763	12391.1
579.124	12413.7
579.485	12607.37
579.845	12657.76
580.206	12783.63
580.566	12830.19
580.927	13034.93
581.287	13182.94
581.648	13237.18
582.008	13441.47
582.368	13629.03
582.728	13709.71
583.089	13878.75
583.449	14038.29
583.809	14226.53
584.169	14450.26
584.529	14522.34
584.889	14842.34
585.249	14897.48
585.609	15070.58
585.969	15364.36
586.329	15500.4
586.688	15775.87
587.048	15971.57
587.408	16111.45
587.768	16318.23
588.127	16545.34
588.487	16877.31
588.846	17264.87
589.206	17393.23
589.565	17506.22
589.925	17920.22
590.284	18098.52
590.643	18386.65
591.003	18689.01
591.362	18997.71
591.721	19286.51
592.08	19469.11
592.44	19794.3
592.799	20129.88
593.158	20345.92
593.517	20705.46
593.876	20968.5
594.235	21312.45
594.593	21536.85
594.952	21927.35
595.311	22076.27
595.67	22497.95
596.029	22862.01
596.387	23121.44
596.746	23499.74
597.104	23509.45
597.463	24032.6
597.822	24359.15
598.18	24531.57
598.538	24866.25
598.897	25301.04
599.255	25435.05
599.613	25994.81
599.972	26046.79
600.33	26538.3
600.688	26659.2
601.046	26875.24
601.404	27401.78
601.762	27628.44
602.12	27979.62
602.478	28294.19
602.836	28478.14
603.194	28605.36
603.552	28930.1
603.91	29103.43
604.268	29647.37
604.625	29699.8
604.983	30164.87
605.341	30222.95
605.698	30535.93
606.056	30927.79
606.413	31205.75
606.771	31484.38
607.128	31780.87
607.485	31668.33
607.843	32059.74
608.2	32295.66
608.557	32593.06
608.914	32791.02
609.272	33043.89
609.629	33392.36
609.986	33649.52
610.343	33711.44
610.7	34174.48
611.057	34222.62
611.414	34359.34
611.771	34651.53
612.127	34962.48
612.484	35071.18
612.841	35226.88
613.198	35327.67
613.554	35580.55
613.911	35908.22
614.267	35950.93
614.624	36241.1
614.98	36286.74
615.337	36700.29
615.693	36768.31
616.05	36890.8
616.406	37281.29
616.762	37324.23
617.118	37300.05
617.475	37592.02
617.831	37724.9
618.187	37921.28
618.543	38050.77
618.899	38396.29
619.255	38416.41
619.611	38317.88
619.967	38736.62
620.323	38850.97
620.678	38759.67
621.034	38915.6
621.39	38946.33
621.746	39060.46
622.101	39508.58
622.457	39264.74
622.812	39511.97
623.168	39735.92
623.523	39764.62
623.879	40012.3
624.234	39885.29
624.589	40137.26
624.945	40013.65
625.3	40272.18
625.655	40223.36
626.01	40369.35
626.365	40423.81
626.72	40341.78
627.075	40625.61
627.43	40443.7
627.785	40569.34
628.14	40717.81
628.495	40850.24
628.85	40919.16
629.205	40829.68
629.559	41089.78
629.914	40963.91
630.269	41036
630.623	40879.84
630.978	40850.92
631.332	41254.52
631.687	41255.88
632.041	41004.81
632.396	41271.92
632.75	41098.59
633.104	41228.76
633.459	41123.23
633.813	41152.83
634.167	41119.61
634.521	41054.75
634.875	41159.61
635.229	41187.18
635.583	41133.62
635.937	41189.89
636.291	41107.86
636.645	41371.58
636.999	41017.01
637.352	41289.78
637.706	40971.59
638.06	41233.51
638.413	41247.07
638.767	41052.95
639.121	41212.26
639.474	40896.57
639.828	41087.07
640.181	41028.77
640.534	41186.28
640.888	40999.84
641.241	40928.66
641.594	40926.85
641.947	41058.6
642.301	41104.24
642.654	41133.85
643.007	41050.91
643.36	41050.46
643.713	40947.19
644.066	41080.74
644.419	40867.41
644.771	40578.61
645.124	40298.84
645.477	40139.98
645.83	40051.39
646.182	39951.73
646.535	39810.49
646.888	39955.57
647.24	39687.33
647.593	39954.44
647.945	39780.66
648.298	39663.15
648.65	39659.99
649.002	39596.04
649.355	39788.35
649.707	39741.34
650.059	39945.4
650.411	40493.41
650.763	40386.3
651.115	40713.07
651.467	40576.57
651.819	40597.82
652.171	40659.28
652.523	40518.04
652.875	40566.63
653.227	40441.21
653.578	40491.38
653.93	40557.14
654.282	40241.67
654.633	40226.3
654.985	40234.89
655.337	40435.79
655.688	40411.15
656.039	40619.29
656.391	40216.13
656.742	40208.9
657.094	40336.58
657.445	40503.36
657.796	40336.13
658.147	40341.55
658.498	40303.59
658.849	40377.03
659.2	40391.72
659.551	40287.77
659.902	40410.7
660.253	40237.83
660.604	40396.69
660.955	40036.25
661.306	40260.2
661.656	40130.48
662.007	40225.17
662.358	40201.22
662.708	40221.78
663.059	40091.39
663.409	39933.43
663.76	40209.8
664.11	40344.72
664.461	40245.96
664.811	40276.24
665.161	40137.94
665.511	40044.84
665.862	40307.65
666.212	40320.76
666.562	40196.25
666.912	40163.03
667.262	40077.6
667.612	40066.08
667.962	40129.81
668.312	40190.6
668.662	40132.07
669.011	40071.5
669.361	40120.54
669.711	40038.28
670.06	40001
670.41	39932.07
670.76	39874.67
671.109	39991.5
671.459	39894.33
671.808	39986.99
672.157	40118.96
672.507	39744.96
672.856	39702.7
673.205	39808.23
673.554	40020.88
673.904	39821.57
674.253	40194.66
674.602	39906.76
674.951	39395.59
675.3	39117.63
675.649	39793.54
675.998	39856.14
676.346	39762.13
676.695	39882.81
677.044	39447.56
677.393	39706.31
677.741	39741.34
678.09	39593.55
678.438	39488.69
678.787	39481.01
679.135	39525.98
679.484	39276.95
679.832	39411.41
680.181	39304.97
680.529	39342.71
680.877	39238.53
681.225	39265.2
681.573	39429.94
681.922	39179.55
682.27	39100.68
682.618	38936.62
682.966	39024.52
683.314	39064.07
683.661	38937.3
684.009	38697.75
684.357	38650.07
684.705	38679.22
685.053	38701.6
685.4	38582.05
685.748	38433.35
686.095	38386.12
686.443	38335.28
686.79	38162.4
687.138	38346.8
687.485	38436.07
687.832	38234.49
688.18	38215.28
688.527	37993.37
688.874	37969.64
689.221	37991.33
689.568	37897.1
689.915	37742.75
690.262	37907.49
690.609	37654.62
690.956	37419.6
691.303	37498.46
691.65	37320.16
691.997	37352.7
692.344	37079.27
692.69	37102.54
693.037	37095.31
693.383	36788.2
693.73	37066.16
694.077	36667.52
694.423	36784.36
694.769	36656.23
695.116	36475.89
695.462	36499.62
695.808	36432.95
696.155	36505.04
696.501	36175.33
696.847	36148.89
697.193	35820.99
697.539	36044.72
697.885	35862.35
698.231	35762.01
698.577	35578.74
698.923	35755.46
699.269	35521.34
699.614	35399.76
699.96	35318.18
700.306	35154.57
700.651	35048.36
700.997	35043.16
701.342	34895.59
701.688	34817.4
702.033	34858.08
702.379	34753.9
702.724	34579.44
703.069	34753
703.415	34400.92
703.76	34431.43
704.105	34437.3
704.45	34291.32
704.795	34114.15
705.14	34027.14
705.485	34075.5
705.83	33812.23
706.175	34027.59
706.52	33776.98
706.865	33630.09
707.209	33592.8
707.554	33635.97
707.899	33539.25
708.243	33421.28
708.588	33319.14
708.932	33155.3
709.277	33118.24
709.621	33195.3
709.966	32927.74
710.31	32960.73
710.654	32624.47
710.998	32810
711.342	32838.25
711.687	32727.52
712.031	32600.96
712.375	32441.2
712.719	32542.66
713.063	32497.01
713.407	32480.97
713.75	32380.18
714.094	32316.23
714.438	32062.45
714.782	32263.57
715.125	32113.97
715.469	32081.43
715.812	31972.73
716.156	31766.41
716.499	31904.94
716.843	31892.28
717.186	31593.76
717.53	31829.01
717.873	31744.94
718.216	31621.78
718.559	31522.58
718.902	31422.92
719.246	31404.84
719.589	31363.03
719.932	31229.7
720.275	31141.79
720.617	31149.93
720.96	31168.46
721.303	31092.76
721.646	30939.77
721.989	30914.46
722.331	31011.18
722.674	30926.43
723.016	30824.97
723.359	30815.7
723.701	30735.93
724.044	30610.96
724.386	30489.16
724.729	30613.45
725.071	30611.19
725.413	30575.03
725.755	30442.6
726.097	30289.84
726.439	30241.7
726.782	30213.01
727.124	30434.92
727.465	30216.39
727.807	30259.11
728.149	30135.04
728.491	30072.22
728.833	30083.97
729.175	29930.07
729.516	29957.19
729.858	29808.72
730.199	29949.74
730.541	29825.67
730.882	29825.9
731.224	29868.83
731.565	29736.86
731.906	29606.69
732.248	29684.21
732.589	29491.44
732.93	29496.64
733.271	29330.32
733.612	29381.84
733.953	29520.82
734.294	29295.97
734.635	29201.05
734.976	29356.98
735.317	29197.89
735.658	29169.64
735.999	29192.01
736.339	28973.49
736.68	29188.63
737.021	29062.07
737.361	28909.08
737.702	29106.37
738.042	29007.61
738.383	28794.29
738.723	28952.47
739.063	28728.98
739.404	28829.99
739.744	28705.47
740.084	28745.02
740.424	28721.74
740.764	28651.92
741.104	28680.16
741.444	28615.53
741.784	28540.28
742.124	28533.5
742.464	28492.6
742.804	28412.37
743.143	28418.48
743.483	28342.32
743.823	28216
744.162	28204.92
744.502	28366.95
744.841	28140.97
745.181	28193.17
745.52	28040.63
745.86	28097.81
746.199	28051.93
746.538	27969.22
746.877	28065.26
747.216	28014.87
747.556	27966.96
747.895	27879.73
748.234	27829.11
748.573	27862.56
748.911	27815.33
749.25	27785.95
749.589	27517.71
749.928	27824.37
750.267	27821.2
750.605	27663.69
750.944	27543.47
751.283	27443.13
751.621	27486.52
751.96	27326.08
752.298	27316.81
752.636	27338.96
752.975	27242.24
753.313	27139.87
753.651	27250.15
753.989	27072.75
754.327	26994.56
754.666	27033.88
755.004	27094.44
755.342	27001.56
755.679	26884.28
756.017	26797.95
756.355	26871.85
756.693	26802.7
757.031	26866.2
757.368	26566.55
757.706	26500.56
758.044	26515.48
758.381	26592.99
758.719	26421.24
759.056	26468.92
759.394	26385.76
759.731	26123.85
