Data from hue_290_FLMS001491_00026.txt Node
Date: Tue Feb 07 15:52:31 GMT 2017
User: dcchb
Spectrometer: FLMS00149
Trigger mode: 0
Integration Time (sec): 2.000000E-2
Scans to average: 10
Electric dark correction enabled: true
Nonlinearity correction enabled: false
Boxcar width: 0
XAxis mode: Wavelengths
Number of Pixels in Spectrum: 2048
>>>>>Begin Spectral Data<<<<<
341.393	-0.4
341.776	-0.4
342.16	-0.4
342.543	-53.5
342.927	-85.14
343.31	-72.03
343.693	-78.59
344.077	-67.74
344.46	-59.15
344.843	-68.64
345.226	-29.55
345.61	-32.49
345.993	-33.39
346.376	14.97
346.759	-1.75
347.142	25.14
347.525	49.77
347.908	64.24
348.291	94.52
348.674	93.16
349.057	101.52
349.44	141.97
349.823	165.7
350.206	165.93
350.588	187.85
350.971	191.92
351.354	217.23
351.737	231.91
352.119	243.44
352.502	269.65
352.884	254.29
353.267	265.36
353.65	288.64
354.032	306.49
354.414	305.13
354.797	313.95
355.179	330.9
355.562	312.14
355.944	321.4
356.326	334.06
356.709	320.73
357.091	342.65
357.473	334.28
357.855	355.3
358.238	313.49
358.62	331.12
359.002	348.75
359.384	350.78
359.766	339.26
360.148	345.13
360.53	322.76
360.912	347.62
361.294	336.54
361.676	327.51
362.057	360.27
362.439	351.46
362.821	331.8
363.203	322.76
363.584	325.92
363.966	323.89
364.348	314.85
364.729	328.18
365.111	324.57
365.493	345.81
365.874	292.25
366.256	327.05
366.637	339.71
367.019	307.39
367.4	310.78
367.781	302.65
368.163	317.34
368.544	315.53
368.925	312.36
369.306	322.99
369.688	298.81
370.069	328.41
370.45	332.25
370.831	329.09
371.212	314.85
371.593	300.61
371.974	302.65
372.355	307.17
372.736	307.17
373.117	330.9
373.498	295.87
373.879	320.73
374.26	309.43
374.641	327.05
375.021	313.49
375.402	318.47
375.783	335.87
376.163	331.8
376.544	306.04
376.925	341.52
377.305	346.49
377.686	331.12
378.066	315.53
378.447	319.37
378.827	341.06
379.208	311.91
379.588	340.84
379.968	327.28
380.349	341.97
380.729	332.7
381.109	332.93
381.489	348.75
381.87	329.09
382.25	331.35
382.63	325.7
383.01	336.77
383.39	347.17
383.77	329.54
384.15	358.24
384.53	348.75
384.91	353.27
385.29	351.01
385.67	363.66
386.049	369.54
386.429	359.14
386.809	366.6
387.189	359.37
387.568	357.11
387.948	360.95
388.328	359.14
388.707	353.27
389.087	383.32
389.466	376.32
389.846	363.44
390.225	359.82
390.605	383.55
390.984	380.16
391.363	381.97
391.743	376.54
392.122	367.28
392.501	387.16
392.881	380.39
393.26	368.18
393.639	385.58
394.018	386.49
394.397	385.58
394.776	412.25
395.155	399.82
395.534	401.18
395.913	397.11
396.292	404.79
396.671	410.67
397.05	396.2
397.429	418.35
397.808	418.12
398.186	412.48
398.565	407.73
398.944	428.52
399.323	416.77
399.701	414.96
400.08	411.57
400.458	424.68
400.837	423.32
401.215	451.34
401.594	431.23
401.972	415.64
402.351	440.04
402.729	436.43
403.107	456.09
403.486	445.47
403.864	443.66
404.242	428.75
404.62	447.95
404.999	450.21
405.377	454.28
405.755	433.94
406.133	468.97
406.511	467.39
406.889	470.78
407.267	472.81
407.645	478.46
408.023	488.63
408.401	472.59
408.779	502.42
409.156	486.6
409.534	498.57
409.912	510.55
410.29	511.23
410.667	520.72
411.045	525.92
411.422	540.83
411.8	555.07
412.178	558.69
412.555	563.43
412.933	566.6
413.31	567.95
413.687	594.17
414.065	577.22
414.442	596.88
414.819	607.5
415.197	599.14
415.574	616.31
415.951	613.6
416.328	642.98
416.705	627.61
417.082	638.68
417.46	660.15
417.837	669.64
418.214	689.3
418.591	686.37
418.967	688.85
419.344	681.17
419.721	703.54
420.098	711.9
420.475	718
420.852	716.87
421.228	763.2
421.605	730.66
421.982	744.9
422.358	773.6
422.735	751.22
423.111	791.67
423.488	768.17
423.864	785.12
424.241	816.98
424.617	807.27
424.994	809.53
425.37	807.94
425.746	849.3
426.123	840.71
426.499	856.98
426.875	863.76
427.251	888.85
427.627	886.81
428.003	902.63
428.379	902.63
428.756	929.98
429.132	938.11
429.507	933.59
429.883	945.12
430.259	937.43
430.635	975.85
431.011	967.04
431.387	1008.62
431.763	994.83
432.138	1031.44
432.514	1005.23
432.89	1038.45
433.265	1064.44
433.641	1097.43
434.016	1082.97
434.392	1065.34
434.767	1100.82
435.143	1118.22
435.518	1137.88
435.894	1146.69
436.269	1174.26
436.644	1193.02
437.02	1192.12
437.395	1176.75
437.77	1225.11
438.145	1214.71
438.52	1224.21
438.895	1244.09
439.271	1248.61
439.646	1269.4
440.021	1293.58
440.395	1290.64
440.77	1272.57
441.145	1275.73
441.52	1305.78
441.895	1323.41
442.27	1350.76
442.645	1344.2
443.019	1331.32
443.394	1342.85
443.769	1390.98
444.143	1353.92
444.518	1373.58
444.892	1380.36
445.267	1377.87
445.641	1402.73
446.016	1392.11
446.39	1401.15
446.764	1399.79
447.139	1392.11
447.513	1458.1
447.887	1432.34
448.262	1437.53
448.636	1468.04
449.01	1452.22
449.384	1454.71
449.758	1455.16
450.132	1469.62
450.506	1481.15
450.88	1504.2
451.254	1472.79
451.628	1492.67
452.002	1505.33
452.376	1555.72
452.75	1580.58
453.123	1530.64
453.497	1539.45
453.871	1577.64
454.244	1575.61
454.618	1586.68
454.992	1611.09
455.365	1609.05
455.739	1614.03
456.112	1623.97
456.486	1638.21
456.859	1689.96
457.232	1705.77
457.606	1705.32
457.979	1698.32
458.352	1743.51
458.725	1740.8
459.099	1757.98
459.472	1764.53
459.845	1780.57
460.218	1780.12
460.591	1790.52
460.964	1802.27
461.337	1846.34
461.71	1863.51
462.083	1877.75
462.456	1870.97
462.829	1880.91
463.201	1891.08
463.574	1919.1
463.947	1929.72
464.32	1981.7
464.692	1959.1
465.065	1984.64
465.438	2006.78
465.81	2043.17
466.183	2023.73
466.555	2074.35
466.928	2095.14
467.3	2080
467.672	2076.61
468.045	2155.03
468.417	2142.83
468.789	2170.62
469.161	2186.67
469.534	2189.6
469.906	2206.33
470.278	2262.6
470.65	2268.25
471.022	2300.79
471.394	2320.22
471.766	2350.5
472.138	2363.38
472.51	2407.45
472.882	2417.39
473.253	2440.44
473.625	2474.34
473.997	2495.81
474.369	2514.11
474.74	2476.15
475.112	2583.94
475.484	2587.79
475.855	2636.82
476.227	2642.02
476.598	2675.24
476.97	2710.49
477.341	2773.77
477.713	2798.4
478.084	2809.02
478.455	2839.76
478.827	2884.05
479.198	2936.02
479.569	2906.87
479.94	2959.07
480.311	2977.83
480.682	3059.86
481.053	3107.32
481.424	3161.33
481.795	3127.66
482.166	3192.51
482.537	3218.5
482.908	3264.15
483.279	3272.74
483.65	3353.19
484.021	3408.55
484.391	3423.47
484.762	3400.42
485.133	3451.72
485.503	3475.45
485.874	3526.52
486.244	3600.41
486.615	3643.8
486.985	3622.79
487.356	3714.31
487.726	3695.1
488.097	3758.15
488.467	3766.96
488.837	3832.95
489.207	3850.35
489.578	3918.15
489.948	3924.47
490.318	3926.96
490.688	3947.75
491.058	3985.49
491.428	4046.73
491.798	4111.59
492.168	4191.36
492.538	4155.2
492.908	4146.16
493.278	4292.15
493.648	4175.31
494.017	4269.77
494.387	4324.01
494.757	4334.18
495.126	4366.95
495.496	4417.57
495.866	4390.22
496.235	4384.35
496.605	4491.01
496.974	4473.61
497.344	4531.46
497.713	4545.25
498.082	4521.29
498.452	4611.23
498.821	4620.27
499.19	4590.22
499.559	4641.74
499.928	4637.9
500.298	4697.56
500.667	4717.67
501.036	4716.54
501.405	4773.72
501.774	4725.58
502.143	4796.54
502.512	4757.67
502.88	4809.65
503.249	4787.28
503.618	4849.65
503.987	4894.84
504.356	4889.65
504.724	4862.98
505.093	4911.79
505.462	4962.41
505.83	4930.55
506.199	4981.85
506.567	5010.32
506.936	5032.69
507.304	5122.41
507.672	5085.35
508.041	5071.11
508.409	5107.49
508.777	5107.27
509.145	5163.76
509.514	5178.45
509.882	5210.09
510.25	5170.54
510.618	5220.48
510.986	5203.54
511.354	5274.72
511.722	5261.16
512.09	5247.6
512.458	5293.7
512.826	5327.6
513.193	5325.79
513.561	5344.1
513.929	5318.11
514.297	5406.47
514.664	5467.94
515.032	5421.83
515.4	5397.88
515.767	5462.96
516.135	5490.99
516.502	5462.51
516.869	5533.7
517.237	5515.39
517.604	5533.47
517.972	5589.74
518.339	5587.71
518.706	5567.82
519.073	5636.74
519.44	5601.94
519.808	5653.69
520.175	5634.03
520.542	5739.11
520.909	5684.43
521.276	5697.08
521.643	5662.96
522.009	5744.09
522.376	5860.47
522.743	5841.26
523.11	5824.31
523.477	5908.15
523.843	5879.68
524.21	5952.44
524.577	5937.53
524.943	5980.24
525.31	5980.92
525.676	6056.85
526.043	6079.9
526.409	6085.77
526.776	6102.95
527.142	6123.29
527.508	6194.92
527.874	6218.65
528.241	6194.7
528.607	6194.47
528.973	6267.91
529.339	6264.52
529.705	6314.24
530.071	6388.59
530.437	6333.68
530.803	6416.84
531.169	6386.1
531.535	6413.22
531.901	6450.96
532.267	6437.63
532.632	6452.77
532.998	6506.33
533.364	6542.26
533.73	6558.53
534.095	6618.41
534.461	6664.29
534.826	6664.74
535.192	6638.98
535.557	6721.01
535.923	6622.26
536.288	6751.97
536.653	6747.45
537.019	6722.59
537.384	6741.35
537.749	6786.77
538.114	6769.14
538.479	6834.23
538.845	6878.97
539.21	6834.45
539.575	6871.29
539.94	6899.99
540.305	6931.85
540.67	6927.11
541.034	6903.15
541.399	6976.82
541.764	6958.52
542.129	7048.46
542.494	7013.66
542.858	7041.68
543.223	7114.22
543.587	7073.09
543.952	7073.77
544.316	7073.77
544.681	7119.19
545.045	7128.46
545.41	7135.46
545.774	7206.65
546.138	7198.06
546.503	7225.4
546.867	7175.01
547.231	7247.1
547.595	7270.37
547.959	7255.23
548.324	7335.23
548.688	7340.65
549.052	7314.67
549.416	7387.21
549.779	7374.1
550.143	7411.16
550.507	7414.78
550.871	7382.46
551.235	7434.21
551.599	7485.74
551.962	7484.61
552.326	7506.07
552.689	7546.07
553.053	7549.69
553.417	7539.52
553.78	7603.7
554.143	7613.87
554.507	7585.85
554.87	7626.52
555.234	7686.86
555.597	7659.29
555.96	7683.7
556.323	7692.06
556.686	7651.61
557.05	7757.82
557.413	7822.22
557.776	7749.46
558.139	7826.07
558.502	7882.79
558.865	7822.9
559.228	7943.35
559.59	7880.98
559.953	7892.28
560.316	7963.69
560.679	7987.42
561.041	8059.96
561.404	8072.61
561.767	8090.47
562.129	8023.35
562.492	8122.55
562.854	8126.62
563.217	8146.51
563.579	8108.54
563.941	8170.46
564.304	8191.25
564.666	8231.25
565.028	8310.8
565.39	8319.39
565.753	8348.54
566.115	8327.97
566.477	8395.77
566.839	8395.99
567.201	8440.74
567.563	8512.38
567.925	8518.48
568.287	8485.71
568.648	8518.48
569.01	8555.76
569.372	8556.22
569.734	8556.22
570.095	8630.34
570.457	8683.9
570.819	8735.65
571.18	8752.14
571.542	8822.42
571.903	8812.48
572.265	8855.87
572.626	8825.81
572.987	8905.36
573.349	8903.55
573.71	8938.35
574.071	9005.92
574.432	9000.05
574.794	9113.49
575.155	9188.29
575.516	9118.91
575.877	9269.87
576.238	9278.68
576.599	9313.48
576.96	9338.34
577.32	9363.43
577.681	9392.58
578.042	9463.76
578.403	9465.34
578.763	9647.26
579.124	9722.06
579.485	9689.97
579.845	9790.08
580.206	9920.02
580.566	9885.22
580.927	9985.56
581.287	10143.29
581.648	10149.39
582.008	10292.89
582.368	10375.15
582.728	10437.52
583.089	10564.07
583.449	10594.58
583.809	10669.15
584.169	10819.66
584.529	10807.23
584.889	11026.43
585.249	11017.39
585.609	11094.45
585.969	11252.87
586.329	11379.42
586.688	11501.45
587.048	11520.43
587.408	11705.96
587.768	11785.06
588.127	11975.79
588.487	12037.25
588.846	12190.24
589.206	12323.35
589.565	12383.23
589.925	12661.87
590.284	12685.37
590.643	12816.67
591.003	12989.09
591.362	13190.9
591.721	13331.91
592.08	13324.23
592.44	13522.19
592.799	13652.8
593.158	13804.21
593.517	13933.48
593.876	14085.56
594.235	14158.33
594.593	14353.8
594.952	14581.82
595.311	14634.93
595.67	14771.42
596.029	14972.09
596.387	15049.6
596.746	15250.5
597.104	15253.89
597.463	15376.15
597.822	15593.54
598.18	15699.53
598.538	15814.33
598.897	16017.71
599.255	15950.15
599.613	16402.34
599.972	16251.61
600.33	16574.08
600.688	16557.36
601.046	16707.41
601.404	16838.48
601.762	16928.65
602.12	17095.43
602.478	17211.36
602.836	17272.37
603.194	17306.49
603.552	17496.09
603.91	17457.9
604.268	17721.85
604.625	17711.23
604.983	17833.03
605.341	17852.47
605.698	17960.71
606.056	18190.31
606.413	18217.66
606.771	18336.52
607.128	18478.89
607.485	18463.3
607.843	18630.75
608.2	18728.83
608.557	18840.69
608.914	18912.33
609.272	19031.42
609.629	19016.28
609.986	19221.02
610.343	19212.66
610.7	19401.81
611.057	19434.12
611.414	19394.35
611.771	19525.64
612.127	19610.39
612.484	19552.54
612.841	19816.94
613.198	19829.14
613.554	19809.71
613.911	19911.17
614.267	20003.15
614.624	20171.96
614.98	20190.94
615.337	20277.26
615.693	20297.38
616.05	20405.85
616.406	20535.11
616.762	20402.23
617.118	20500.99
617.475	20559.74
617.831	20658.95
618.187	20729
618.543	20771.94
618.899	20889.22
619.255	20845.61
619.611	20893.07
619.967	21033.63
620.323	21141.2
620.678	21022.1
621.034	21025.04
621.39	21060.75
621.746	21146.85
622.101	21279.5
622.457	21190.69
622.812	21266.39
623.168	21293.28
623.523	21438.36
623.879	21470.45
624.234	21335.31
624.589	21404.24
624.945	21386.84
625.3	21503.45
625.655	21617.12
626.01	21524.24
626.365	21590.68
626.72	21557.23
627.075	21605.36
627.43	21566.95
627.785	21531.92
628.14	21655.08
628.495	21543.67
628.85	21593.16
629.205	21528.53
629.559	21611.24
629.914	21590.45
630.269	21645.36
630.623	21550
630.978	21496.21
631.332	21552.03
631.687	21660.73
632.041	21608.08
632.396	21639.94
632.75	21575.08
633.104	21573.27
633.459	21507.29
633.813	21439.49
634.167	21519.94
634.521	21452.37
634.875	21675.64
635.229	21526.5
635.583	21510
635.937	21469.32
636.291	21501.64
636.645	21508.42
636.999	21550.22
637.352	21648.07
637.706	21312.49
638.06	21577.12
638.413	21375.09
638.767	21315.88
639.121	21447.4
639.474	21280.85
639.828	21289.67
640.181	21364.69
640.534	21277.01
640.888	21279.05
641.241	21227.75
641.594	21292.15
641.947	21357.24
642.301	21260.29
642.654	21339.83
643.007	21366.5
643.36	21317.24
643.713	21183.45
644.066	21256.9
644.419	21142.33
644.771	21110.91
645.124	20811.71
645.477	20804.26
645.83	20677.25
646.182	20655.78
646.535	20621.21
646.888	20623.24
647.24	20455.79
647.593	20636.35
647.945	20602.45
648.298	20530.82
648.65	20547.54
649.002	20437.03
649.355	20586.86
649.707	20586.63
650.059	20720.42
650.411	21044.7
650.763	20898.26
651.115	21236.11
651.467	21108.65
651.819	21196.56
652.171	21121.76
652.523	20918.15
652.875	20988.43
653.227	21014.65
653.578	21197.92
653.93	21043.57
654.282	21061.2
654.633	20959.73
654.985	21079.05
655.337	21132.83
655.688	21016.45
656.039	21143
656.391	21072.27
656.742	21046.28
657.094	21084.7
657.445	21041.99
657.796	21009.67
658.147	21009.22
658.498	21147.75
658.849	21031.82
659.2	21108.88
659.551	20986.62
659.902	21038.6
660.253	21060.52
660.604	21044.7
660.955	20932.84
661.306	21034.08
661.656	21074.3
662.007	21101.87
662.358	21035.89
662.708	21141.42
663.059	21163.57
663.409	21023.01
663.76	21145.04
664.11	21136.22
664.461	21190.01
664.811	21182.78
665.161	21063.01
665.511	20993.4
665.862	21105.49
666.212	21133.06
666.562	21202.66
666.912	21186.17
667.262	21146.85
667.612	21136.22
667.962	21163.79
668.312	21084.47
668.662	21145.72
669.011	21100.29
669.361	21064.59
669.711	21133.96
670.06	21020.97
670.41	21017.13
670.76	21004.02
671.109	21011.26
671.459	20989.79
671.808	21043.34
672.157	21108.88
672.507	20822.33
672.856	20956.34
673.205	20898.04
673.554	21023.23
673.904	20907.08
674.253	21020.07
674.602	20967.41
674.951	20615.33
675.3	20565.84
675.649	20833.18
675.998	20820.75
676.346	20864.14
676.695	21052.84
677.044	20767.42
677.393	20849.23
677.741	20788.44
678.09	20817.14
678.438	20726.97
678.787	20787.53
679.135	20770.81
679.484	20598.84
679.832	20747.08
680.181	20626.63
680.529	20540.76
680.877	20566.52
681.225	20423.25
681.573	20589.8
681.922	20503.92
682.27	20373.98
682.618	20534.88
682.966	20493.08
683.314	20435.23
683.661	20291.27
684.009	20307.32
684.357	20299.18
684.705	20192.97
685.053	20209.24
685.4	20143.71
685.748	20122.47
686.095	19994.78
686.443	19973.32
686.79	19939.19
687.138	19998.85
687.485	19902.58
687.832	19801.12
688.18	19812.19
688.527	19638.64
688.874	19721.12
689.221	19670.27
689.568	19579.43
689.915	19615.36
690.262	19533.78
690.609	19410.17
690.956	19459.66
691.303	19409.26
691.65	19269.15
691.997	19341.47
692.344	19169.5
692.69	19141.25
693.037	19135.82
693.383	18934.7
693.73	18958.43
694.077	18944.64
694.423	18886.11
694.769	18886.79
695.116	18662.39
695.462	18634.82
695.808	18668.04
696.155	18668.94
696.501	18513.02
696.847	18517.99
697.193	18323.19
697.539	18288.84
697.885	18364.77
698.231	18164.78
698.577	18207.71
698.923	18180.6
699.269	18041.16
699.614	17896.31
699.96	17862.86
700.306	17874.84
700.651	17816.54
700.997	17745.35
701.342	17813.15
701.688	17691.34
702.033	17635.52
702.379	17590.78
702.724	17574.96
703.069	17515.53
703.415	17409.32
703.76	17412.25
704.105	17458.35
704.45	17245.25
704.795	17262.43
705.14	17099.72
705.485	17069.89
705.83	17164.58
706.175	16987.41
706.52	16921.42
706.865	16831.48
707.209	16811.37
707.554	16768.43
707.899	16971.81
708.243	16685.95
708.588	16737.24
708.932	16564.37
709.277	16628.77
709.621	16564.59
709.966	16420.87
710.31	16488.44
710.654	16327.99
710.998	16346.07
711.342	16311.94
711.687	16214.09
712.031	16316.46
712.375	16169.8
712.719	16203.7
713.063	16215.22
713.407	16194.21
713.75	16156.69
714.094	16047.77
714.438	16047.09
714.782	16030.6
715.125	15926.64
715.469	15928.9
715.812	15852.07
716.156	15759.19
716.499	15730.94
716.843	15872.41
717.186	15705.86
717.53	15738.17
717.873	15796.03
718.216	15676.25
718.559	15745.41
718.902	15587.22
719.246	15654.33
719.589	15593.54
719.932	15580.44
720.275	15498.41
720.617	15505.64
720.96	15505.19
721.303	15501.57
721.646	15508.12
721.989	15461.12
722.331	15486.2
722.674	15446.43
723.016	15446.66
723.359	15439.2
723.701	15419.54
724.044	15329.82
724.386	15277.85
724.729	15272.42
725.071	15241.24
725.413	15315.36
725.755	15285.3
726.097	15176.15
726.439	15177.96
726.782	15155.14
727.124	15195.59
727.465	15085.76
727.807	15033.79
728.149	15026.33
728.491	15073.33
728.833	15127.34
729.175	15104.52
729.516	15095.03
729.858	15009.83
730.199	15140.22
730.541	15018.87
730.882	14990.4
731.224	15091.41
731.565	14963.05
731.906	14917.18
732.248	15001.02
732.589	14977.29
732.93	14910.85
733.271	14959.44
733.612	14936.61
733.953	15001.7
734.294	14852.1
734.635	14889.61
734.976	14918.08
735.317	14910.62
735.658	14860.91
735.999	14971.64
736.339	14862.94
736.68	15012.54
737.021	14961.92
737.361	14851.19
737.702	14887.8
738.042	14970.28
738.383	14838.99
738.723	14901.81
739.063	14874.92
739.404	14970.96
739.744	14887.35
740.084	14889.83
740.424	14894.58
740.764	14856.62
741.104	14991.75
741.444	14906.78
741.784	14857.29
742.124	15021.13
742.464	15093.9
742.804	14993.79
743.143	15016.38
743.483	15047.12
743.823	15048.93
744.162	15022.71
744.502	15099.09
744.841	14989.04
745.181	15248.47
745.52	15149.71
745.86	15158.98
746.199	15127.79
746.538	15223.16
746.877	15319.43
747.216	15345.64
747.556	15387.22
747.895	15385.41
748.234	15398.07
748.573	15465.19
748.911	15479.88
749.25	15659.98
749.589	15643.49
749.928	15750.6
750.267	15785.86
750.605	15879.19
750.944	15891.39
751.283	16033.08
751.621	16112.18
751.96	16160.99
752.298	16264.26
752.636	16319.85
752.975	16343.58
753.313	16281.21
753.651	16598.04
753.989	16565.72
754.327	16708.77
754.666	16730.01
755.004	16927.97
755.342	17004.81
755.679	17146.72
756.017	17119.83
756.355	17311.69
756.693	17354.4
757.031	17467.85
757.368	17538.13
757.706	17608.86
758.044	17678.91
758.381	17889.98
758.719	17849.53
759.056	18053.59
