Data from hue_10_FLMS001491_93.txt Node
Date: Mon Feb 06 15:32:50 GMT 2017
User: dcchb
Spectrometer: FLMS00149
Trigger mode: 0
Integration Time (sec): 2.000000E-2
Scans to average: 10
Electric dark correction enabled: true
Nonlinearity correction enabled: false
Boxcar width: 0
XAxis mode: Wavelengths
Number of Pixels in Spectrum: 2048
>>>>>Begin Spectral Data<<<<<
341.393	-3.93
341.776	-3.93
342.16	-3.93
342.543	-64.49
342.927	-54.77
343.31	-60.42
343.693	-70.37
344.077	-60.65
344.46	-69.69
344.843	-52.96
345.226	-30.59
345.61	-32.17
345.993	-15.45
346.376	-5.96
346.759	13.02
347.142	24.1
347.525	39.91
347.908	57.77
348.291	58.9
348.674	106.13
349.057	98.44
349.44	131.21
349.823	135.73
350.206	161.27
350.588	173.47
350.971	208.05
351.354	232
351.737	247.37
352.119	240.13
352.502	246.91
352.884	266.12
353.267	269.74
353.65	268.38
354.032	306.57
354.414	296.18
354.797	309.96
355.179	330.53
355.562	313.58
355.944	314.94
356.326	324.2
356.709	331.43
357.091	326.69
357.473	342.73
357.855	344.09
358.238	337.08
358.62	341.83
359.002	338.89
359.384	351.77
359.766	341.6
360.148	349.28
360.53	327.82
360.912	328.27
361.294	319.45
361.676	347.02
362.057	311.77
362.439	326.69
362.821	338.89
363.203	334.6
363.584	303.86
363.966	323.07
364.348	338.66
364.729	321.49
365.111	322.62
365.493	335.05
365.874	307.03
366.256	326.91
366.637	337.76
367.019	300.25
367.4	328.95
367.781	314.94
368.163	288.72
368.544	321.49
368.925	318.32
369.306	316.74
369.688	311.09
370.069	315.39
370.45	311.77
370.831	303.41
371.212	282.17
371.593	296.86
371.974	307.25
372.355	316.97
372.736	330.53
373.117	303.41
373.498	300.25
373.879	309.29
374.26	322.84
374.641	322.17
375.021	288.04
375.402	304.77
375.783	334.82
376.163	336.63
376.544	337.99
376.925	333.47
377.305	317.65
377.686	326.46
378.066	314.26
378.447	311.32
378.827	349.96
379.208	314.71
379.588	321.71
379.968	330.08
380.349	345.67
380.729	316.97
381.109	319
381.489	329.4
381.87	333.24
382.25	325.1
382.63	336.4
383.01	328.95
383.39	322.84
383.77	345.89
384.15	340.92
384.53	359.23
384.91	341.15
385.29	357.19
385.67	334.14
386.049	341.15
386.429	340.7
386.809	342.28
387.189	349.51
387.568	341.38
387.948	331.88
388.328	335.5
388.707	353.8
389.087	351.09
389.466	362.84
389.846	367.14
390.225	351.77
390.605	337.53
390.984	356.06
391.363	371.88
391.743	361.71
392.122	350.41
392.501	354.26
392.881	381.83
393.26	369.17
393.639	344.54
394.018	361.49
394.397	382.05
394.776	375.05
395.155	360.81
395.534	380.02
395.913	364.2
396.292	380.24
396.671	407.36
397.05	375.5
397.429	361.49
397.808	393.58
398.186	366.91
398.565	404.42
398.944	364.88
399.323	375.5
399.701	387.7
400.08	371.88
400.458	390.41
400.837	370.3
401.215	357.42
401.594	388.61
401.972	389.06
402.351	399.23
402.729	399.9
403.107	402.62
403.486	382.28
403.864	391.77
404.242	385.67
404.62	403.75
404.999	412.11
405.377	417.76
405.755	409.85
406.133	403.07
406.511	424.08
406.889	421.37
407.267	407.59
407.645	410.98
408.023	437.19
408.401	419.79
408.779	434.93
409.156	408.49
409.534	431.77
409.912	407.36
410.29	437.42
410.667	433.8
411.045	441.71
411.422	434.93
411.8	458.21
412.178	442.16
412.555	447.36
412.933	450.52
413.31	439
413.687	472.45
414.065	454.14
414.442	467.02
414.819	453.91
415.197	463.63
415.574	462.95
415.951	456.17
416.328	470.19
416.705	464.31
417.082	486
417.46	479.45
417.837	483.97
418.214	489.62
418.591	491.43
418.967	500.69
419.344	481.94
419.721	487.13
420.098	491.88
420.475	495.04
420.852	511.09
421.228	503.63
421.605	507.7
421.982	483.97
422.358	511.77
422.735	514.48
423.111	538.88
423.488	524.87
423.864	528.04
424.241	527.13
424.617	521.48
424.994	527.58
425.37	528.49
425.746	541.82
426.123	524.65
426.499	581.37
426.875	535.49
427.251	541.6
427.627	555.15
428.003	565.78
428.379	585.66
428.756	552.44
429.132	580.01
429.507	581.82
429.883	571.43
430.259	584.98
430.635	585.44
431.011	578.21
431.387	601.48
431.763	603.52
432.138	625.21
432.514	613.46
432.89	629.05
433.265	613.91
433.641	602.16
434.016	632.89
434.392	641.25
434.767	658.2
435.143	626.11
435.518	634.47
435.894	646.9
436.269	661.37
436.644	648.94
437.02	665.43
437.395	693.23
437.77	668.82
438.145	678.99
438.52	692.1
438.895	680.8
439.271	702.04
439.646	673.8
440.021	707.47
440.395	694.81
440.77	725.77
441.145	690.97
441.52	714.7
441.895	727.35
442.27	719.9
442.645	712.21
443.019	744.53
443.394	736.39
443.769	742.72
444.143	732.33
444.518	749.95
444.892	744.53
445.267	734.59
445.641	751.08
446.016	727.81
446.39	735.49
446.764	760.57
447.139	758.31
447.513	756.73
447.887	756.05
448.262	759.44
448.636	780.23
449.01	785.66
449.384	756.96
449.758	789.27
450.132	817.97
450.506	793.79
450.88	800.8
451.254	805.09
451.628	795.37
452.002	830.63
452.376	848.48
452.75	827.69
453.123	857.97
453.497	860.68
453.871	848.25
454.244	878.31
454.618	871.98
454.992	875.6
455.365	871.3
455.739	868.37
456.112	890.97
456.486	915.15
456.859	900.91
457.232	927.35
457.606	917.86
457.979	908.59
458.352	946.78
458.725	965.77
459.099	956.27
459.472	993.79
459.845	970.29
460.218	1011.19
460.591	980.91
460.964	987.91
461.337	1019.55
461.71	1012.54
462.083	1040.79
462.456	998.53
462.829	1032.88
463.201	1068.36
463.574	1056.61
463.947	1053.67
464.32	1058.64
464.692	1110.62
465.065	1104.29
465.438	1111.75
465.81	1114.24
466.183	1161.24
466.555	1171.64
466.928	1144.52
467.3	1176.38
467.672	1168.92
468.045	1226.32
468.417	1227
468.789	1205.31
469.161	1260.67
469.534	1264.97
469.906	1264.74
470.278	1300.9
470.65	1284.85
471.022	1310.39
471.394	1362.82
471.766	1380.22
472.138	1377.28
472.51	1388.81
472.882	1418.64
473.253	1428.8
473.625	1463.38
473.997	1443.27
474.369	1508.35
474.74	1518.97
475.112	1540.44
475.484	1566.43
475.855	1589.25
476.227	1570.72
476.598	1638.52
476.97	1658.18
477.341	1686.88
477.713	1732.07
478.084	1721.45
478.455	1764.16
478.827	1763.71
479.198	1842.35
479.569	1851.39
479.94	1907.44
480.311	1935.91
480.682	1958.73
481.053	2007.77
481.424	2048
481.795	2074.66
482.166	2133.64
482.537	2122.57
482.908	2175.9
483.279	2232.4
483.65	2228.11
484.021	2278.27
484.391	2312.85
484.762	2342.45
485.133	2374.99
485.503	2385.62
485.874	2477.82
486.244	2515.33
486.615	2512.17
486.985	2581.32
487.356	2610.92
487.726	2663.57
488.097	2687.98
488.467	2692.05
488.837	2804.36
489.207	2763.46
489.578	2865.6
489.948	2883.46
490.318	2944.47
490.688	2956.45
491.058	2982.21
491.428	3032.15
491.798	3035.32
492.168	3137.91
492.538	3163
492.908	3184.24
493.278	3251.13
493.648	3258.81
494.017	3286.61
494.387	3329.55
494.757	3327.51
495.126	3364.12
495.496	3449.77
495.866	3435.53
496.235	3454.97
496.605	3523.44
496.974	3565.02
497.344	3573.38
497.713	3613.61
498.082	3599.14
498.452	3641.4
498.821	3638.92
499.19	3711.46
499.559	3705.35
499.928	3753.49
500.298	3772.92
500.667	3799.14
501.036	3808.18
501.405	3843.43
501.774	3852.24
502.143	3928.85
502.512	3889.08
502.88	3969.75
503.249	3968.62
503.618	3977.89
503.987	3981.05
504.356	3981.05
504.724	4052.46
505.093	4018.79
505.462	4075.06
505.83	4119.58
506.199	4149.86
506.567	4146.25
506.936	4162.74
507.304	4203.19
507.672	4218.11
508.041	4248.84
508.409	4207.04
508.777	4273.7
509.145	4301.05
509.514	4313.7
509.882	4332
510.25	4306.92
510.618	4401.83
510.986	4419.91
511.354	4415.84
511.722	4425.11
512.09	4453.36
512.458	4459.91
512.826	4515.73
513.193	4483.87
513.561	4523.41
513.929	4516.86
514.297	4555.95
514.664	4591.43
515.032	4620.36
515.4	4659
515.767	4618.32
516.135	4674.14
516.502	4627.14
516.869	4717.31
517.237	4772.22
517.604	4712.33
517.972	4762.05
518.339	4776.06
518.706	4813.12
519.073	4810.18
519.44	4852.44
519.808	4914.59
520.175	4882.72
520.542	4917.3
520.909	4937.64
521.276	4910.97
521.643	4936.28
522.009	4951.2
522.376	5035.26
522.743	5013.57
523.11	5100.57
523.477	5130.4
523.843	5126.56
524.21	5163.85
524.577	5179.89
524.943	5214.92
525.31	5225.77
525.676	5251.3
526.043	5261.02
526.409	5311.87
526.776	5358.19
527.142	5405.87
527.508	5380.34
527.874	5461.01
528.241	5475.03
528.607	5445.65
528.973	5541.69
529.339	5507.12
529.705	5562.93
530.071	5616.72
530.437	5618.52
530.803	5655.13
531.169	5632.76
531.535	5659.43
531.901	5681.35
532.267	5738.3
532.632	5785.53
532.998	5769.71
533.364	5786.66
533.73	5839.54
534.095	5876.6
534.461	5893.09
534.826	5895.81
535.192	5990.72
535.557	5971.28
535.923	6006.54
536.288	5995.46
536.653	6036.82
537.019	6086.99
537.384	6107.1
537.749	6121.79
538.114	6087.66
538.479	6162.92
538.845	6119.75
539.21	6204.95
539.575	6222.58
539.94	6165.85
540.305	6293.54
540.67	6271.61
541.034	6242.91
541.399	6343.93
541.764	6312.52
542.129	6331.95
542.494	6375.79
542.858	6383.93
543.223	6411.95
543.587	6454.66
543.952	6449.24
544.316	6525.85
544.681	6484.04
545.045	6529.24
545.41	6618.27
545.774	6672.51
546.138	6629.35
546.503	6661.89
546.867	6658.27
547.231	6725.16
547.595	6681.55
547.959	6755.22
548.324	6800.41
548.688	6758.61
549.052	6824.14
549.416	6834.99
549.779	6863.92
550.143	6860.07
550.507	6886.06
550.871	6893.97
551.235	6988.88
551.599	6999.51
551.962	6986.4
552.326	7049.45
552.689	7059.84
553.053	7027.3
553.417	7059.62
553.78	7130.8
554.143	7158.6
554.507	7161.76
554.87	7161.31
555.234	7218.93
555.597	7218.26
555.96	7249.44
556.323	7216.45
556.686	7245.83
557.05	7324.47
557.413	7335.77
557.776	7364.47
558.139	7389.55
558.502	7420.96
558.865	7449.66
559.228	7458.48
559.59	7520.85
559.953	7551.36
560.316	7552.94
560.679	7588.42
561.041	7617.34
561.404	7645.36
561.767	7759.03
562.129	7728.53
562.492	7767.17
562.854	7791.8
563.217	7730.33
563.579	7794.29
563.941	7825.47
564.304	7852.82
564.666	7890.56
565.028	7908.63
565.39	8016.65
565.753	7969.88
566.115	8047.84
566.477	8020.5
566.839	8042.19
567.201	8131.68
567.563	8142.75
567.925	8122.41
568.287	8241.73
568.648	8227.04
569.01	8219.13
569.372	8293.93
569.734	8276.31
570.095	8320.83
570.457	8388.85
570.819	8377.55
571.18	8405.8
571.542	8472.23
571.903	8481.05
572.265	8539.58
572.626	8570.76
572.987	8638.56
573.349	8627.49
573.71	8738.22
574.071	8797.2
574.432	8781.61
574.794	8931.43
575.155	8967.82
575.516	8883.75
575.877	8975.5
576.238	9099.79
576.599	9156.74
576.96	9204.42
577.32	9215.49
577.681	9319.22
578.042	9404.64
578.403	9479.67
578.763	9589.04
579.124	9685.76
579.485	9730.73
579.845	9829.94
580.206	9814.12
580.566	9993.1
580.927	10117.16
581.287	10208.91
581.648	10330.49
582.008	10500.66
582.368	10621.33
582.728	10670.82
583.089	10836.69
583.449	10925.96
583.809	11100.64
584.169	11271.71
584.529	11361.65
584.889	11583.34
585.249	11677.57
585.609	11860.39
585.969	12082.99
586.329	12183.1
586.688	12459.93
587.048	12660.15
587.408	12775.62
587.768	13053.81
588.127	13172.22
588.487	13402.05
588.846	13706.67
589.206	13793.9
589.565	14002.26
589.925	14300.56
590.284	14535.58
590.643	14817.38
591.003	15050.37
591.362	15284.26
591.721	15516.12
592.08	15734.19
592.44	16053.5
592.799	16373.5
593.158	16524.9
593.517	16814.39
593.876	17163.76
594.235	17316.07
594.593	17605.78
594.952	17952.66
595.311	18169.16
595.67	18481.01
596.029	18813.66
596.387	19031.51
596.746	19413.64
597.104	19498.61
597.463	19891.14
597.822	20241.87
598.18	20428.98
598.538	20756.43
598.897	21051.79
599.255	21152.35
599.613	21763.18
599.972	21759.57
600.33	22152.78
600.688	22249.5
601.046	22691.3
601.404	22977.84
601.762	23210.15
602.12	23653.08
602.478	23769.46
602.836	24149.79
603.194	24176
603.552	24629.78
603.91	24741.64
604.268	25205.81
604.625	25278.8
604.983	25690.54
605.341	25744.55
605.698	26239.23
606.056	26399.22
606.413	26674.92
606.771	26861.36
607.128	27181.12
607.485	27243.94
607.843	27392.42
608.2	27826.08
608.557	28143.58
608.914	28231.04
609.272	28563.68
609.629	28902.66
609.986	29071.02
610.343	29102.88
610.7	29561.4
611.057	29579.93
611.414	29883.42
611.771	30116.19
612.127	30317.31
612.484	30491.99
612.841	30720.92
613.198	30766.34
613.554	31025.77
613.911	31390.5
614.267	31374.46
614.624	31495.58
614.98	31778.29
615.337	32114.55
615.693	32109.58
616.05	32266.41
616.406	32517.48
616.762	32546.86
617.118	32780.75
617.475	32835.66
617.831	33164.24
618.187	33205.6
618.543	33386.16
618.899	33724.9
619.255	33653.95
619.611	33698.01
619.967	34035.18
620.323	34235.85
620.678	34136.19
621.034	34170.32
621.39	34333.25
621.746	34467.26
622.101	35066.11
622.457	34689.17
622.812	34920.8
623.168	34975.27
623.523	35052.55
623.879	35295.48
624.234	35062.04
624.589	35420.45
624.945	35470.4
625.3	35639.43
625.655	35596.04
626.01	35741.12
626.365	35734.34
626.72	35875.58
627.075	35945.86
627.43	35908.35
627.785	35978.18
628.14	36113.77
628.495	36105.63
628.85	36325.51
629.205	36130.04
629.559	36354.67
629.914	36279.41
630.269	36300.43
630.623	36186.99
630.978	36250.04
631.332	36517.15
631.687	36623.36
632.041	36532.06
632.396	36594.43
632.75	36422.23
633.104	36495.23
633.459	36400.77
633.813	36524.83
634.167	36494.1
634.521	36422.01
634.875	36590.82
635.229	36539.75
635.583	36414.1
635.937	36395.79
636.291	36546.75
636.645	36636.24
636.999	36344.5
637.352	36580.42
637.706	36544.72
638.06	36604.83
638.413	36446.64
638.767	36502.23
639.121	36697.26
639.474	36426.98
639.828	36430.37
640.181	36341.33
640.534	36579.07
640.888	36375.91
641.241	36277.38
641.594	36438.96
641.947	36546.3
642.301	36421.33
642.654	36542.01
643.007	36410.03
643.36	36504.72
643.713	36420.65
644.066	36652.96
644.419	36298.17
644.771	36081.23
645.124	35732.31
645.477	35761.69
645.83	35584.29
646.182	35432.43
646.535	35403.5
646.888	35422.26
647.24	35253.68
647.593	35505.65
647.945	35335.48
648.298	35223.85
648.65	35153.79
649.002	35104.53
649.355	35188.37
649.707	35299.1
650.059	35293.45
650.411	35846.43
650.763	35789.71
651.115	36141.34
651.467	36097.5
651.819	36088.91
652.171	35894.34
652.523	35962.59
652.875	36025.41
653.227	35935.92
653.578	36008.46
653.93	35968.24
654.282	35897.28
654.633	35744.06
654.985	35845.75
655.337	35840.1
655.688	35806.21
656.039	35856.83
656.391	35628.81
656.742	35676.49
657.094	35701.58
657.445	35877.84
657.796	35739.31
658.147	35713.55
658.498	35582.26
658.849	35794.45
659.2	35642.37
659.551	35560.34
659.902	35714.23
660.253	35648.24
660.604	35756.72
660.955	35671.07
661.306	35707.45
661.656	35667.68
662.007	35653.67
662.358	35701.8
662.708	35667.9
663.059	35570.96
663.409	35494.58
663.76	35776.6
664.11	35709.26
664.461	35562.14
664.811	35597.62
665.161	35511.52
665.511	35524.18
665.862	35581.8
666.212	35625.87
666.562	35492.54
666.912	35492.32
667.262	35573.22
667.612	35577.28
667.962	35591.07
668.312	35576.38
668.662	35702.48
669.011	35660.67
669.361	35520.11
669.711	35457.97
670.06	35477.4
670.41	35363.51
670.76	35435.14
671.109	35523.95
671.459	35480.56
671.808	35393.56
672.157	35566.44
672.507	35287.8
672.856	35292.55
673.205	35328.03
673.554	35533.22
673.904	35304.98
674.253	35434.69
674.602	35291.87
674.951	34831.09
675.3	34643.07
675.649	35236.95
675.998	35258.88
676.346	35215.49
676.695	35287.35
677.044	34993.35
677.393	35054.13
677.741	35203.06
678.09	35120.8
678.438	35107.24
678.787	35122.83
679.135	35157.63
679.484	34991.31
679.832	35068.6
680.181	34818.89
680.529	34875.83
680.877	34898.43
681.225	34890.98
681.573	35013.23
681.922	34749.06
682.27	34688.04
682.618	34491.21
682.966	34466.35
683.314	34521.49
683.661	34427.94
684.009	34290.99
684.357	34290.54
684.705	34203.31
685.053	34261.84
685.4	34131.9
685.748	33987.95
686.095	34055.07
686.443	33967.38
686.79	33790.21
687.138	34000.38
687.485	33866.37
687.832	33798.35
688.18	33809.65
688.527	33642.42
688.874	33597.22
689.221	33436.1
689.568	33438.13
689.915	33385.48
690.262	33333.05
690.609	33343.22
690.956	33149.78
691.303	33127.41
691.65	33074.98
691.997	33038.37
692.344	32973.74
692.69	32936.9
693.037	32915.43
693.383	32567.65
693.73	32745.72
694.077	32613.97
694.423	32519.74
694.769	32387.09
695.116	32363.81
695.462	32247.88
695.808	32251.04
696.155	32261.21
696.501	31937.83
696.847	32066.42
697.193	31865.52
697.539	31804.73
697.885	31652.19
698.231	31487.67
698.577	31595.02
698.923	31532.87
699.269	31402.03
699.614	31189.15
699.96	31196.16
700.306	31320.67
700.651	31032.55
700.997	30961.81
701.342	30982.83
701.688	30931.31
702.033	30851.76
702.379	30755.72
702.724	30681.14
703.069	30810.4
703.415	30268.27
703.76	30342.85
704.105	30441.37
704.45	30264.43
704.795	30008.62
705.14	30102.63
705.485	29986.92
705.83	29931.56
706.175	30004.32
706.52	29824.89
706.865	29734.73
707.209	29628.74
707.554	29590.32
707.899	29635.52
708.243	29504.22
708.588	29388.07
708.932	29266.49
709.277	29311.91
709.621	29230.33
709.966	29034.18
710.31	29064.91
710.654	28927.06
710.998	28922.09
711.342	28915.77
711.687	28789.21
712.031	28809.55
712.375	28673.06
712.719	28645.94
713.063	28622.67
713.407	28654.08
713.75	28464.25
714.094	28424.93
714.438	28387.42
714.782	28289.57
715.125	28266.06
715.469	28378.83
715.812	28121.21
716.156	28028.1
716.499	27970.71
716.843	28090.93
717.186	27833.99
717.53	27928.9
717.873	28037.14
718.216	27950.59
718.559	27822.23
718.902	27697.94
719.246	27629.25
719.589	27585.86
719.932	27545.18
720.275	27398.29
720.617	27334.79
720.96	27396.48
721.303	27397.84
721.646	27295.92
721.989	27231.06
722.331	27227.67
722.674	27185.19
723.016	27080.56
723.359	27113.78
723.701	27159.43
724.044	26924.63
724.386	26799.44
724.729	26986.78
725.071	26861.58
725.413	26949.04
725.755	26929.15
726.097	26680.12
726.439	26603.51
726.782	26614.13
727.124	26715.82
727.465	26588.82
727.807	26576.17
728.149	26578.65
728.491	26501.59
728.833	26505.21
729.175	26413.91
729.516	26283.29
729.858	26377.07
730.199	26163.97
730.541	26180.7
730.882	26217.3
731.224	26285.55
731.565	26008.5
731.906	26063.86
732.248	26048.72
732.589	26028.61
732.93	25886.92
733.271	26020.02
733.612	25888.5
733.953	25843.76
734.294	25878.33
734.635	25785.68
734.976	25906.58
735.317	25674.04
735.658	25592.91
735.999	25652.8
736.339	25562.86
736.68	25728.96
737.021	25537.55
737.361	25430.21
737.702	25550.66
738.042	25453.94
738.383	25495.29
738.723	25475.63
739.063	25328.29
739.404	25352.47
739.744	25244.68
740.084	25211
740.424	25246.26
740.764	25239.48
741.104	25262.3
741.444	25068.63
741.784	25058.69
742.124	25232.25
742.464	25059.82
742.804	25060.73
743.143	24868.41
743.483	25019.82
743.823	24935.53
744.162	24782.77
744.502	24929.2
744.841	24846.72
745.181	24772.15
745.52	24637.69
745.86	24758.81
746.199	24641.75
746.538	24620.06
746.877	24625.48
747.216	24626.84
747.556	24594.97
747.895	24636.33
748.234	24484.24
748.573	24354.53
748.911	24376.45
749.25	24289.22
749.589	24331.48
749.928	24426.84
750.267	24287.64
750.605	24238.6
750.944	24200.86
751.283	24053.29
751.621	24103.69
751.96	24054.88
752.298	24012.39
752.636	24001.54
752.975	23983.24
753.313	23779.63
753.651	23885.84
753.989	23922.22
754.327	23752.74
754.666	23619.86
755.004	23808.1
755.342	23666.41
755.679	23693.76
756.017	23587.32
756.355	23628.45
756.693	23484.04
757.031	23595.9
757.368	23393.2
757.706	23324.95
758.044	23327.21
758.381	23295.35
758.719	23151.85
759.056	23286.08
759.394	23125.41
759.731	22983.27
760.068	22914.79
760.405	22899.65
760.743	22847.9
761.08	22857.85
