Data from hue_140_FLMS001491_00096.txt Node
Date: Tue Feb 07 16:56:41 GMT 2017
User: dcchb
Spectrometer: FLMS00149
Trigger mode: 0
Integration Time (sec): 2.000000E-2
Scans to average: 10
Electric dark correction enabled: true
Nonlinearity correction enabled: false
Boxcar width: 0
XAxis mode: Wavelengths
Number of Pixels in Spectrum: 2048
>>>>>Begin Spectral Data<<<<<
341.393	-12.08
341.776	-12.08
342.16	-12.08
342.543	-60.44
342.927	-66.09
343.31	-67.89
343.693	-62.7
344.077	-80.55
344.46	-40.55
344.843	-62.92
345.226	-36.48
345.61	-43.71
345.993	-25.18
346.376	-15.24
346.759	16.85
347.142	33.57
347.525	45.1
347.908	57.53
348.291	70.18
348.674	101.14
349.057	110.86
349.44	123.51
349.823	146.56
350.206	163.74
350.588	201.48
350.971	201.7
351.354	243.96
351.737	233.34
352.119	246.9
352.502	253.23
352.884	263.85
353.267	284.19
353.65	290.06
354.032	260.46
354.414	313.57
354.797	303.85
355.179	311.98
355.562	316.5
355.944	335.26
356.326	319.67
356.709	336.39
357.091	312.44
357.473	326.45
357.855	342.27
358.238	318.08
358.62	355.82
359.002	351.98
359.384	360.8
359.766	326.67
360.148	323.96
360.53	337.29
360.912	311.76
361.294	331.64
361.676	332.1
362.057	322.15
362.439	326.22
362.821	335.03
363.203	318.99
363.584	338.65
363.966	309.5
364.348	315.83
364.729	321.02
365.111	322.83
365.493	318.99
365.874	309.72
366.256	341.81
366.637	317.18
367.019	330.97
367.4	324.41
367.781	317.63
368.163	299.55
368.544	315.6
368.925	307.01
369.306	313.79
369.688	299.33
370.069	301.36
370.45	316.05
370.831	294.81
371.212	315.83
371.593	322.83
371.974	316.28
372.355	310.85
372.736	335.03
373.117	324.64
373.498	309.5
373.879	307.01
374.26	294.36
374.641	307.92
375.021	314.24
375.402	321.47
375.783	331.19
376.163	308.37
376.544	323.06
376.925	331.19
377.305	336.62
377.686	312.21
378.066	331.42
378.447	325.77
378.827	341.81
379.208	335.03
379.588	345.43
379.968	338.2
380.349	334.36
380.729	322.38
381.109	357.18
381.489	338.42
381.87	333.68
382.25	340.01
382.63	343.62
383.01	348.82
383.39	330.51
383.77	321.47
384.15	351.53
384.53	348.59
384.91	335.71
385.29	345.43
385.67	355.6
386.049	344.52
386.429	331.19
386.809	339.55
387.189	353.34
387.568	358.54
387.948	348.82
388.328	375.26
388.707	362.83
389.087	349.95
389.466	368.48
389.846	358.99
390.225	375.26
390.605	362.6
390.984	380.91
391.363	353.34
391.743	339.1
392.122	346.33
392.501	347.69
392.881	386.11
393.26	352.43
393.639	396.73
394.018	376.39
394.397	380
394.776	407.12
395.155	373.68
395.534	386.33
395.913	375.94
396.292	363.28
396.671	393.11
397.05	390.85
397.429	378.2
397.808	391.08
398.186	414.35
398.565	379.33
398.944	391.98
399.323	392.21
399.701	380.46
400.08	387.46
400.458	404.86
400.837	415.71
401.215	409.16
401.594	409.83
401.972	391.3
402.351	400.79
402.729	415.03
403.107	388.82
403.486	431.75
403.864	402.38
404.242	408.7
404.62	423.17
404.999	424.97
405.377	421.36
405.755	415.48
406.133	437.86
406.511	431.3
406.889	431.98
407.267	443.96
407.645	443.51
408.023	427.46
408.401	439.89
408.779	460.23
409.156	424.52
409.534	430.85
409.912	445.31
410.29	443.05
410.667	436.5
411.045	448.25
411.422	460.45
411.8	479.44
412.178	476.05
412.555	494.58
412.933	480.11
413.31	465.2
413.687	484.18
414.065	487.35
414.442	489.38
414.819	494.58
415.197	483.5
415.574	495.26
415.951	484.18
416.328	494.58
416.705	510.4
417.082	514.46
417.46	512.43
417.837	504.07
418.214	519.44
418.591	528.02
418.967	524.63
419.344	514.69
419.721	518.31
420.098	510.4
420.475	524.63
420.852	519.21
421.228	532.77
421.605	531.19
421.982	551.53
422.358	538.42
422.735	544.52
423.111	552.88
423.488	563.95
423.864	547.01
424.241	546.1
424.617	589.72
424.994	582.03
425.37	568.7
425.746	567.57
426.123	602.15
426.499	575.48
426.875	603.73
427.251	598.76
427.627	613.22
428.003	608.25
428.379	622.71
428.756	617.51
429.132	617.51
429.507	621.35
429.883	627.23
430.259	652.09
430.635	628.59
431.011	667.91
431.387	648.7
431.763	660.67
432.138	644.4
432.514	647.79
432.89	687.11
433.265	685.08
433.641	687.57
434.016	689.83
434.392	687.79
434.767	704.74
435.143	687.57
435.518	690.5
435.894	706.78
436.269	711.97
436.644	746.32
437.02	733.44
437.395	737.96
437.77	761.69
438.145	764.17
438.52	759.66
438.895	772.99
439.271	767.11
439.646	778.64
440.021	771.18
440.395	765.76
440.77	796.04
441.145	769.6
441.52	790.61
441.895	812.76
442.27	815.92
442.645	833.1
443.019	813.67
443.394	826.32
443.769	838.52
444.143	813.44
444.518	843.49
444.892	841.46
445.267	834.91
445.641	864.06
446.016	865.64
446.39	861.12
446.764	854.79
447.139	886.43
447.513	843.72
447.887	849.82
448.262	858.41
448.636	866.09
449.01	907.45
449.384	909.71
449.758	921.23
450.132	931.18
450.506	922.36
450.88	920.33
451.254	951.06
451.628	937.96
452.002	945.19
452.376	963.49
452.75	972.76
453.123	958.52
453.497	1002.81
453.871	982.93
454.244	995.58
454.618	999.42
454.992	1001.46
455.365	1035.58
455.739	1055.69
456.112	1071.29
456.486	1059.08
456.859	1048.46
457.232	1097.27
457.606	1078.29
457.979	1101.57
458.352	1119.87
458.725	1145.86
459.099	1139.08
459.472	1187.44
459.845	1189.93
460.218	1189.7
460.591	1200.32
460.964	1224.95
461.337	1235.57
461.71	1255.24
462.083	1268.12
462.456	1287.78
462.829	1261.79
463.201	1290.49
463.574	1279.42
463.947	1317.83
464.32	1374.78
464.692	1380.43
465.065	1402.12
465.438	1422.24
465.81	1444.83
466.183	1489.13
466.555	1491.61
466.928	1500.43
467.3	1500.65
467.672	1535.23
468.045	1567.32
468.417	1579.29
468.789	1561.44
469.161	1621.55
469.534	1670.37
469.906	1700.2
470.278	1715.11
470.65	1760.31
471.022	1757.14
471.394	1818.16
471.766	1826.75
472.138	1876.24
472.51	1897.25
472.882	1950.58
473.253	1997.59
473.625	2058.83
473.997	2077.13
474.369	2098.83
474.74	2126.85
475.112	2200.3
475.484	2245.72
475.855	2319.84
476.227	2361.19
476.598	2439.39
476.97	2476.9
477.341	2547.4
477.713	2577.46
478.084	2635.54
478.455	2760.73
478.827	2847.51
479.198	2864.68
479.569	2906.27
479.94	3048.18
480.311	3070.55
480.682	3209.99
481.053	3265.13
481.424	3380.15
481.795	3471.45
482.166	3555.29
482.537	3666.92
482.908	3719.58
483.279	3787.82
483.65	3917.76
484.021	4011.77
484.391	4154.14
484.762	4230.75
485.133	4306.68
485.503	4433.46
485.874	4591.87
486.244	4640.46
486.615	4830.28
486.985	4895.59
487.356	5022.37
487.726	5110.05
488.097	5278.18
488.467	5417.16
488.837	5529.93
489.207	5631.62
489.578	5816.47
489.948	5915.68
490.318	6075.9
490.688	6136.69
491.058	6311.37
491.428	6408.32
491.798	6548.2
492.168	6718.37
492.538	6844.01
492.908	7012.15
493.278	7069.09
493.648	7241.97
494.017	7339.14
494.387	7448.29
494.757	7627.95
495.126	7732.35
495.496	7866.59
495.866	7973.25
496.235	8093.25
496.605	8254.15
496.974	8335.28
497.344	8423.41
497.713	8606.23
498.082	8664.53
498.452	8846.45
498.821	8886.45
499.19	8974.13
499.559	9130.06
499.928	9178.42
500.298	9289.15
500.667	9457.96
501.036	9439.65
501.405	9591.74
501.774	9652.53
502.143	9803.49
502.512	9794.67
502.88	9915.35
503.249	9974.55
503.618	10108.56
503.987	10178.39
504.356	10196.7
504.724	10325.96
505.093	10381.32
505.462	10415.45
505.83	10593.75
506.199	10791.93
506.567	10845.94
506.936	10814.76
507.304	10921.42
507.672	10973.62
508.041	11075.99
508.409	11174.52
508.777	11178.82
509.145	11266.27
509.514	11257.46
509.882	11299.94
510.25	11356.66
510.618	11498.58
510.986	11596.88
511.354	11624.45
511.722	11669.2
512.09	11792.81
512.458	11770.89
512.826	11801.85
513.193	11892.7
513.561	11922.53
513.929	11979.25
514.297	12126.59
514.664	12205.68
515.032	12120.49
515.4	12232.35
515.767	12233.25
516.135	12365
516.502	12244.32
516.869	12349.18
517.237	12414.26
517.604	12361.16
517.972	12524.54
518.339	12516.41
518.706	12482.74
519.073	12561.6
519.44	12546.92
519.808	12642.28
520.175	12687.03
520.542	12714.82
520.909	12854.7
521.276	12792.11
521.643	12870.98
522.009	12908.49
522.376	12895.83
522.743	12929.73
523.11	13064.42
523.477	13120.23
523.843	13120.69
524.21	13218.31
524.577	13204.07
524.943	13203.17
525.31	13264.86
525.676	13393.45
526.043	13318.65
526.409	13388.7
526.776	13409.94
527.142	13415.82
527.508	13460.34
527.874	13495.82
528.241	13457.63
528.607	13446.78
528.973	13560.45
529.339	13403.39
529.705	13614.91
530.071	13650.39
530.437	13535.36
530.803	13591.18
531.169	13583.05
531.535	13528.13
531.901	13514.57
532.267	13560.67
532.632	13529.04
532.998	13569.26
533.364	13580.34
533.73	13575.82
534.095	13585.98
534.461	13503.5
534.826	13597.28
535.192	13499.89
535.557	13545.31
535.923	13470.06
536.288	13515.03
536.653	13473.67
537.019	13372.88
537.384	13415.82
537.749	13370.17
538.114	13378.31
538.479	13369.27
538.845	13294.47
539.21	13342.15
539.575	13280.68
539.94	13298.53
540.305	13231.64
540.67	13183.96
541.034	13277.52
541.399	13147.13
541.764	13090.63
542.129	13082.27
542.494	13096.73
542.858	12994.36
543.223	13020.58
543.587	13014.25
543.952	12948.71
544.316	12946.45
544.681	12894.03
545.045	12873.01
545.41	12825.33
545.774	12816.51
546.138	12780.36
546.503	12792.56
546.867	12659.91
547.231	12798.89
547.595	12653.81
547.959	12675.05
548.324	12677.99
548.688	12593.24
549.052	12545.11
549.416	12601.83
549.779	12463.75
550.143	12463.08
550.507	12546.92
550.871	12492.45
551.235	12422.63
551.599	12473.7
551.962	12389.41
552.326	12376.3
552.689	12314.83
553.053	12289.75
553.417	12251.1
553.78	12413.13
554.143	12299.01
554.507	12244.1
554.87	12243.65
555.234	12322.97
555.597	12211.78
555.96	12165.91
556.323	12230.09
556.686	12129.98
557.05	12118
557.413	12186.7
557.776	12169.98
558.139	12185.34
558.502	12117.55
558.865	12160.94
559.228	12210.2
559.59	12109.19
559.953	12037.32
560.316	12136.98
560.679	12117.1
561.041	12169.07
561.404	12201.39
561.767	12149.64
562.129	12083.2
562.492	12201.61
562.854	12170.2
563.217	12079.36
563.579	12090.88
563.941	12186.47
564.304	12214.27
564.666	12202.74
565.028	12221.73
565.39	12246.13
565.753	12246.36
566.115	12186.02
566.477	12278.22
566.839	12205
567.201	12233.03
567.563	12325.9
567.925	12353.47
568.287	12291.33
568.648	12357.99
569.01	12375.62
569.372	12447.94
569.734	12365.9
570.095	12390.31
570.457	12419.91
570.819	12421.27
571.18	12396.41
571.542	12489.74
571.903	12477.54
572.265	12445.22
572.626	12466.01
572.987	12476.64
573.349	12546.92
573.71	12445.22
574.071	12425.56
574.432	12568.84
574.794	12584.43
575.155	12585.11
575.516	12499.01
575.877	12623.75
576.238	12639.79
576.599	12647.03
576.96	12573.81
577.32	12510.31
577.681	12601.6
578.042	12534.71
578.403	12528.61
578.763	12612
579.124	12594.82
579.485	12550.98
579.845	12644.99
580.206	12598.21
580.566	12566.8
580.927	12552.11
581.287	12591.43
581.648	12518.67
582.008	12612.22
582.368	12642.73
582.728	12500.59
583.089	12566.12
583.449	12580.81
583.809	12552.57
584.169	12525.45
584.529	12497.65
584.889	12569.06
585.249	12487.71
585.609	12485.45
585.969	12538.33
586.329	12474.6
586.688	12482.96
587.048	12469.86
587.408	12433.02
587.768	12441.83
588.127	12483.19
588.487	12450.87
588.846	12532.45
589.206	12449.52
589.565	12408.61
589.925	12445
590.284	12415.85
590.643	12478.9
591.003	12420.59
591.362	12453.13
591.721	12375.85
592.08	12569.74
592.44	12437.77
592.799	12439.35
593.158	12347.15
593.517	12402.06
593.876	12332.91
594.235	12330.2
594.593	12428.95
594.952	12309.63
595.311	12299.01
595.67	12320.26
596.029	12428.5
596.387	12366.13
596.746	12367.94
597.104	12272.12
597.463	12266.7
597.822	12387.37
598.18	12267.15
598.538	12341.72
598.897	12405.68
599.255	12255.4
599.613	12486.58
599.972	12362.29
600.33	12305.34
600.688	12348.05
601.046	12357.09
601.404	12379.91
601.762	12298.79
602.12	12348.5
602.478	12409.07
602.836	12389.63
603.194	12230.77
603.552	12294.72
603.91	12302.63
604.268	12308.28
604.625	12306.47
604.983	12375.85
605.341	12247.04
605.698	12337.43
606.056	12334.27
606.413	12360.48
606.771	12373.81
607.128	12445.9
607.485	12303.76
607.843	12349.63
608.2	12347.6
608.557	12269.86
608.914	12325
609.272	12382.17
609.629	12380.82
609.986	12479.8
610.343	12436.18
610.7	12429.63
611.057	12435.28
611.414	12360.48
611.771	12363.87
612.127	12505.34
612.484	12519.12
612.841	12585.11
613.198	12431.66
613.554	12563.19
613.911	12515.05
614.267	12477.09
614.624	12533.81
614.98	12530.42
615.337	12604.77
615.693	12641.83
616.05	12615.61
616.406	12623.07
616.762	12539.68
617.118	12546.01
617.475	12574.03
617.831	12623.75
618.187	12664.43
618.543	12652
618.899	12668.04
619.255	12672.56
619.611	12667.14
619.967	12713.92
620.323	12686.35
620.678	12720.92
621.034	12649.74
621.39	12711.43
621.746	12633.92
622.101	12824.42
622.457	12627.59
622.812	12681.83
623.168	12728.15
623.523	12592.79
623.879	12705.1
624.234	12668.49
624.589	12712.56
624.945	12709.4
625.3	12713.69
625.655	12656.52
626.01	12723.41
626.365	12653.58
626.72	12629.85
627.075	12613.13
627.43	12677.08
627.785	12687.93
628.14	12707.36
628.495	12693.13
628.85	12578.33
629.205	12629.17
629.559	12707.36
629.914	12574.94
630.269	12630.98
630.623	12678.66
630.978	12557.99
631.332	12623.52
631.687	12664.43
632.041	12567.48
632.396	12565.67
632.75	12480.02
633.104	12526.8
633.459	12474.38
633.813	12492.91
634.167	12489.29
634.521	12451.78
634.875	12501.95
635.229	12439.12
635.583	12331.78
635.937	12405.9
636.291	12378.78
636.645	12404.55
636.999	12402.51
637.352	12421.27
637.706	12331.33
638.06	12252.91
638.413	12300.59
638.767	12257.66
639.121	12348.05
639.474	12155.97
639.828	12206.36
640.181	12206.36
640.534	12238.9
640.888	12251.1
641.241	12126.81
641.594	12133.37
641.947	12252.91
642.301	12223.99
642.654	12228.05
643.007	12199.58
643.36	12264.44
643.713	12122.97
644.066	12188.06
644.419	12101.05
644.771	12047.49
645.124	11927.05
645.477	11882.3
645.83	11840.72
646.182	11750.33
646.535	11734.51
646.888	11720.72
647.24	11636.43
647.593	11830.55
647.945	11683.21
648.298	11730.21
648.65	11702.42
649.002	11691.12
649.355	11727.5
649.707	11718.24
650.059	11677.11
650.411	11881.62
650.763	11963.65
651.115	12039.36
651.467	11904.67
651.819	11920.04
652.171	12021.73
652.523	11900.83
652.875	11907.84
653.227	11984.44
653.578	12028.51
653.93	11953.71
654.282	11923.43
654.633	11949.87
654.985	11927.5
655.337	11956.65
655.688	12001.17
656.039	11982.86
656.391	11879.81
656.742	11850.44
657.094	11969.53
657.445	12022.41
657.796	11943.32
658.147	11938.34
658.498	11972.24
658.849	11950.77
659.2	11843.43
659.551	11880.72
659.902	11985.8
660.253	11984.67
660.604	11955.07
660.955	11932.24
661.306	11984.67
661.656	11967.04
662.007	11948.74
662.358	11997.1
662.708	11986.7
663.059	12014.5
663.409	12052.01
663.76	11996.42
664.11	11942.41
664.461	12083.2
664.811	11976.99
665.161	12048.85
665.511	11967.5
665.862	11987.16
666.212	12003.43
666.562	12008.17
666.912	11989.42
667.262	12000.49
667.612	12035.74
667.962	12041.17
668.312	11968.85
668.662	12156.87
669.011	12032.81
669.361	12008.62
669.711	12045.23
670.06	11946.71
670.41	11963.88
670.76	11948.51
671.109	12041.17
671.459	12027.61
671.808	11921.4
672.157	11938.8
672.507	11853.83
672.856	11881.62
673.205	11945.58
673.554	11929.98
673.904	11878.91
674.253	11932.92
674.602	11913.94
674.951	11775.41
675.3	11659.48
675.649	11785.35
675.998	11811.79
676.346	11787.84
676.695	11857.22
677.044	11755.75
677.393	11801.4
677.741	11799.36
678.09	11796.43
678.438	11725.47
678.787	11812.7
679.135	11755.75
679.484	11685.24
679.832	11764.56
680.181	11714.85
680.529	11601.18
680.877	11611.57
681.225	11642.98
681.573	11721.85
681.922	11575.87
682.27	11530.9
682.618	11590.33
682.966	11477.34
683.314	11561.63
683.661	11447.28
684.009	11438.92
684.357	11467.4
684.705	11398.7
685.053	11381.52
685.4	11416.78
685.748	11252.71
686.095	11279.83
686.443	11214.07
686.79	11220.62
687.138	11257.68
687.485	11199.15
687.832	11185.14
688.18	11217.01
688.527	11199.61
688.874	11178.59
689.221	11074.19
689.568	11105.82
689.915	11068.76
690.262	11058.82
690.609	10991.93
690.956	10943.57
691.303	10901.76
691.65	10859.5
691.997	10777.47
692.344	10848.88
692.69	10765.95
693.037	10677.36
693.383	10657.93
693.73	10671.48
694.077	10629.23
694.423	10642.56
694.769	10561.66
695.116	10509.23
695.462	10458.38
695.808	10472.17
696.155	10433.3
696.501	10331.83
696.847	10396.69
697.193	10336.8
697.539	10365.5
697.885	10284.15
698.231	10244.83
698.577	10183.81
698.923	10168.22
699.269	10121.44
699.614	10055.68
699.96	10018.39
700.306	10043.7
700.651	9963.48
700.997	9930.94
701.342	9981.33
701.688	9917.38
702.033	9840.77
702.379	9795.58
702.724	9828.8
703.069	9824.73
703.415	9690.72
703.76	9707.89
704.105	9628.35
704.45	9664.05
704.795	9593.32
705.14	9558.52
705.485	9562.36
705.83	9580.67
706.175	9503.15
706.52	9471.74
706.865	9442.14
707.209	9399.88
707.554	9394.91
707.899	9371.18
708.243	9296.61
708.588	9387.68
708.932	9310.62
709.277	9228.36
709.621	9195.14
709.966	9158.3
710.31	9257.74
710.654	9189.26
710.998	9188.13
711.342	9148.59
711.687	9072.2
712.031	9014.13
712.375	9008.93
712.719	9027.91
713.063	8998.76
713.407	9058.42
713.75	8953.34
714.094	9027.46
714.438	8958.31
714.782	8913.57
715.125	8944.07
715.469	8944.98
715.812	8898.2
716.156	8817.97
716.499	8817.07
716.843	8838.76
717.186	8792.21
717.53	8839.67
717.873	8779.11
718.216	8743.4
718.559	8731.2
718.902	8672.22
719.246	8766.45
719.589	8751.08
719.932	8621.82
720.275	8628.15
720.617	8639
720.96	8633.8
721.303	8618.66
721.646	8630.18
721.989	8582.27
722.331	8653.01
722.674	8571.43
723.016	8584.99
723.359	8599.22
723.701	8588.38
724.044	8580.69
724.386	8540.24
724.729	8589.73
725.071	8535.04
725.413	8540.47
725.755	8490.75
726.097	8478.1
726.439	8466.12
726.782	8485.33
727.124	8502.05
727.465	8498.21
727.807	8442.39
728.149	8450.07
728.491	8398.32
728.833	8428.38
729.175	8414.6
729.516	8416.63
729.858	8387.7
730.199	8416.63
730.541	8363.3
730.882	8427.48
731.224	8447.14
731.565	8423.18
731.906	8418.21
732.248	8413.01
732.589	8382.73
732.93	8376.63
733.271	8349.29
733.612	8417.53
733.953	8415.5
734.294	8356.52
734.635	8374.14
734.976	8474.93
735.317	8318.1
735.658	8322.17
735.999	8379.57
736.339	8356.52
736.68	8463.41
737.021	8431.32
737.361	8345.22
737.702	8416.4
738.042	8393.58
738.383	8427.48
738.723	8498.66
739.063	8417.76
739.404	8383.41
739.744	8402.39
740.084	8375.27
740.424	8478.55
740.764	8475.38
741.104	8523.29
741.444	8503.86
741.784	8463.18
742.124	8551.31
742.464	8471.09
742.804	8516.97
743.143	8499.79
743.483	8617.75
743.823	8582.05
744.162	8566.46
744.502	8668.15
744.841	8668.83
745.181	8721.25
745.52	8729.16
745.86	8733.46
746.199	8742.95
746.538	8823.62
746.877	8935.26
747.216	8911.98
747.556	8966.22
747.895	9064.52
748.234	9033.34
748.573	9083.5
748.911	9128.02
749.25	9209.83
749.589	9192.2
749.928	9312.2
750.267	9383.84
750.605	9418.18
750.944	9468.58
751.283	9594
751.621	9710.38
751.96	9718.97
752.298	9810.94
752.636	9956.25
752.975	9971.84
753.313	10057.72
753.651	10205.96
753.989	10230.37
754.327	10374.32
754.666	10404.37
755.004	10597.59
755.342	10723.46
755.679	10775.66
756.017	10925.72
756.355	11130.91
756.693	11214.52
757.031	11344.24
757.368	11440.05
757.706	11593.04
758.044	11701.97
758.381	11829.87
758.719	12002.98
759.056	12215.17
759.394	12375.85
