Data from hue_60_FLMS001491_58.txt Node
Date: Mon Feb 06 15:17:36 GMT 2017
User: dcchb
Spectrometer: FLMS00149
Trigger mode: 0
Integration Time (sec): 2.000000E-2
Scans to average: 10
Electric dark correction enabled: true
Nonlinearity correction enabled: false
Boxcar width: 0
XAxis mode: Wavelengths
Number of Pixels in Spectrum: 2048
>>>>>Begin Spectral Data<<<<<
341.393	-7.8
341.776	-7.8
342.16	-7.8
342.543	-66.55
342.927	-65.2
343.31	-60.9
343.693	-69.26
344.077	-55.03
344.46	-56.16
344.843	-78.3
345.226	-33.33
345.61	-31.3
345.993	-3.5
346.376	-3.95
346.759	17.97
347.142	15.48
347.525	27.91
347.908	56.61
348.291	73.78
348.674	88.7
349.057	111.3
349.44	129.38
349.823	155.82
350.206	163.05
350.588	194.23
350.971	205.08
351.354	219.32
351.737	242.59
352.119	237.62
352.502	271.29
352.884	284.85
353.267	280.56
353.65	301.8
354.032	304.96
354.414	314.68
354.797	329.82
355.179	315.81
355.562	332.53
355.944	308.81
356.326	310.61
356.709	319.43
357.091	341.8
357.473	335.25
357.855	351.97
358.238	335.92
358.62	360.78
359.002	351.74
359.384	351.06
359.766	325.98
360.148	331.63
360.53	328.47
360.912	338.41
361.294	347.67
361.676	324.85
362.057	336.38
362.439	328.24
362.821	314.23
363.203	319.43
363.584	334.34
363.966	318.75
364.348	316.94
364.729	327.34
365.111	329.37
365.493	304.51
365.874	319.2
366.256	304.51
366.637	320.33
367.019	327.34
367.4	330.5
367.781	310.61
368.163	309.48
368.544	305.19
368.925	314.91
369.306	323.27
369.688	309.26
370.069	301.8
370.45	306.55
370.831	291.86
371.212	302.48
371.593	331.86
371.974	320.1
372.355	327.56
372.736	322.82
373.117	332.31
373.498	310.16
373.879	325.08
374.26	322.59
374.641	335.25
375.021	324.85
375.402	307.68
375.783	308.35
376.163	325.98
376.544	325.08
376.925	331.18
377.305	309.26
377.686	339.99
378.066	329.37
378.447	340.22
378.827	324.85
379.208	364.4
379.588	335.02
379.968	326.66
380.349	322.82
380.729	354.91
381.109	341.12
381.489	331.63
381.87	316.04
382.25	334.79
382.63	345.41
383.01	314.23
383.39	317.84
383.77	332.53
384.15	335.02
384.53	366.66
384.91	347.22
385.29	344.51
385.67	328.47
386.049	334.79
386.429	356.49
386.809	353.55
387.189	348.58
387.568	355.36
387.948	365.3
388.328	342.48
388.707	358.3
389.087	345.64
389.466	349.26
389.846	359.88
390.225	347.9
390.605	346.54
390.984	364.4
391.363	341.57
391.743	359.43
392.122	366.21
392.501	382.7
392.881	374.11
393.26	370.72
393.639	374.11
394.018	362.59
394.397	358.52
394.776	377.05
395.155	372.98
395.534	374.34
395.913	385.64
396.292	377.73
396.671	379.76
397.05	374.34
397.429	374.34
397.808	371.4
398.186	363.49
398.565	402.14
398.944	368.24
399.323	389.48
399.701	372.76
400.08	399.65
400.458	398.07
400.837	348.8
401.215	387.45
401.594	379.99
401.972	398.52
402.351	400.55
402.729	402.59
403.107	378.86
403.486	399.42
403.864	382.25
404.242	379.54
404.62	394.68
404.999	426.09
405.377	399.42
405.755	413.66
406.133	401.01
406.511	421.57
406.889	389.26
407.267	411.63
407.645	404.62
408.023	406.2
408.401	419.54
408.779	422.47
409.156	430.61
409.534	424.73
409.912	418.86
410.29	433.32
410.667	431.51
411.045	445.07
411.422	430.38
411.8	440.33
412.178	439.65
412.555	435.36
412.933	434.45
413.31	453.66
413.687	463.15
414.065	458.63
414.442	443.49
414.819	440.1
415.197	464.06
415.574	479.65
415.951	479.2
416.328	466.54
416.705	487.78
417.082	451.63
417.46	465.86
417.837	462.93
418.214	491.63
418.591	500.21
418.967	488.01
419.344	485.75
419.721	484.17
420.098	506.31
420.475	498.86
420.852	499.31
421.228	481.23
421.605	510.61
421.982	512.19
422.358	497.73
422.735	524.39
423.111	524.62
423.488	528.23
423.864	557.61
424.241	527.56
424.617	531.62
424.994	527.78
425.37	541.34
425.746	538.4
426.123	531.4
426.499	541.12
426.875	535.92
427.251	537.95
427.627	552.19
428.003	549.7
428.379	548.8
428.756	576.14
429.132	583.15
429.507	580.89
429.883	567.1
430.259	575.01
430.635	594.45
431.011	580.89
431.387	589.93
431.763	590.83
432.138	589.93
432.514	596.71
432.89	598.97
433.265	595.13
433.641	626.09
434.016	631.28
434.392	614.11
434.767	630.15
435.143	645.52
435.518	657.72
435.894	670.83
436.269	637.84
436.644	651.62
437.02	655.69
437.395	678.29
437.77	662.47
438.145	672.86
438.52	666.54
438.895	681
439.271	680.77
439.646	708.57
440.021	708.57
440.395	709.02
440.77	695.46
441.145	698.63
441.52	704.28
441.895	719.42
442.27	697.04
442.645	704.05
443.019	725.29
443.394	729.59
443.769	721
444.143	720.77
444.518	728.91
444.892	712.86
445.267	728.23
445.641	744.5
446.016	740.21
446.39	756.03
446.764	759.19
447.139	747.44
447.513	752.64
447.887	751.51
448.262	762.8
448.636	738.62
449.01	781.79
449.384	788.11
449.758	819.98
450.132	808.91
450.506	793.31
450.88	802.35
451.254	819.75
451.628	816.14
452.002	817.27
452.376	848.68
452.75	842.58
453.123	838.28
453.497	840.32
453.871	847.55
454.244	845.74
454.618	876.02
454.992	878.73
455.365	889.36
455.739	883.71
456.112	893.87
456.486	897.94
456.859	912.86
457.232	929.58
457.606	942.24
457.979	954.89
458.352	934.1
458.725	959.18
459.099	943.59
459.472	980.65
459.845	1008.9
460.218	1015.91
460.591	1021.33
460.964	1018.84
461.337	1022.01
461.71	1055.45
462.083	1057.03
462.456	1076.24
462.829	1076.47
463.201	1095.45
463.574	1101.55
463.947	1111.72
464.32	1154.43
464.692	1165.05
465.065	1146.3
465.438	1173.19
465.81	1180.42
466.183	1204.38
466.555	1250.93
466.928	1245.73
467.3	1244.6
467.672	1280.31
468.045	1301.1
468.417	1312.85
468.789	1363.92
469.161	1377.03
469.534	1399.85
469.906	1393.52
470.278	1422
470.65	1446.18
471.022	1456.8
471.394	1489.11
471.766	1533.86
472.138	1571.82
472.51	1586.96
472.882	1614.53
473.253	1624.03
473.625	1653.85
473.997	1739.5
474.369	1764.59
474.74	1793.29
475.112	1807.52
475.484	1864.24
475.855	1917.58
476.227	1964.36
476.598	2043.68
476.97	2069.89
477.341	2126.38
477.713	2179.04
478.084	2207.06
478.455	2287.06
478.827	2354.85
479.198	2441.4
479.569	2473.72
479.94	2569.76
480.311	2643.66
480.682	2695.18
481.053	2822.64
481.424	2908.51
481.795	2966.14
482.166	3021.95
482.537	3094.49
482.908	3212.68
483.279	3311.21
483.65	3391.21
484.021	3535.16
484.391	3597.08
484.762	3687.02
485.133	3792.33
485.503	3849.96
485.874	4008.6
486.244	4114.36
486.615	4246.78
486.985	4305.76
487.356	4481.35
487.726	4599.54
488.097	4801.79
488.467	4814.9
488.837	4988.23
489.207	5144.38
489.578	5283.82
489.948	5401.1
490.318	5552.28
490.688	5632.06
491.058	5802.9
491.428	5957.7
491.798	6084.47
492.168	6291.47
492.538	6371.47
492.908	6542.77
493.278	6715.19
493.648	6845.13
494.017	6978.01
494.387	7140.72
494.757	7298.68
495.126	7448.5
495.496	7555.85
495.866	7667.26
496.235	7872.45
496.605	8018.21
496.974	8217.07
497.344	8372.1
497.713	8458.65
498.082	8544.97
498.452	8787.23
498.821	8913.78
499.19	9030.61
499.559	9196.03
499.928	9346.53
500.298	9478.06
500.667	9664.94
501.036	9712.17
501.405	9885.05
501.774	9994.2
502.143	10197.13
502.512	10304.02
502.88	10410.69
503.249	10541.08
503.618	10727.06
503.987	10807.51
504.356	10989.43
504.724	11086.6
505.093	11179.93
505.462	11346.26
505.83	11434.84
506.199	11653.14
506.567	11894.04
506.936	11962.51
507.304	12109.17
507.672	12243.41
508.041	12372.67
508.409	12451.09
508.777	12598.65
509.145	12781.02
509.514	12827.35
509.882	13006.78
510.25	13108.24
510.618	13279.54
510.986	13308.69
511.354	13604.05
511.722	13672.75
512.09	13890.6
512.458	13980.99
512.826	14134.43
513.193	14122.45
513.561	14256.91
513.929	14546.17
514.297	14632.27
514.664	14724.47
515.032	14822.77
515.4	14968.53
515.767	15106.83
516.135	15187.96
516.502	15227.28
516.869	15487.39
517.237	15596.09
517.604	15617.33
517.972	15803.77
518.339	15943.42
518.706	16034.04
519.073	16106.58
519.44	16364.65
519.808	16478.1
520.175	16539.79
520.542	16805.32
520.909	16862.49
521.276	16982.49
521.643	17107.01
522.009	17288.02
522.376	17386.55
522.743	17536.38
523.11	17695.24
523.477	17921.22
523.843	18017.04
524.21	18323.47
524.577	18400.08
524.943	18505.16
525.31	18536.35
525.676	18826.06
526.043	18921.88
526.409	19095.66
526.776	19208.87
527.142	19279.83
527.508	19372.48
527.874	19588.3
528.241	19738.8
528.607	19746.71
528.973	20050.21
529.339	20185.8
529.705	20209.3
530.071	20392.8
530.437	20356.87
530.803	20577.43
531.169	20742.84
531.535	20758.21
531.901	20833.92
532.267	20902.39
532.632	21104.19
532.998	21271.19
533.364	21363.39
533.73	21406.56
534.095	21559.09
534.461	21611.75
534.826	21779.65
535.192	21845.19
535.557	22006.77
535.923	21986.43
536.288	22086.31
536.653	22135.8
537.019	22049.48
537.384	22364.04
537.749	22506.64
538.114	22504.61
538.479	22516.13
538.845	22729.46
539.21	22684.71
539.575	22816.91
539.94	22818.5
540.305	23064.14
540.67	22939.62
541.034	23146.17
541.399	23254.87
541.764	23159.96
542.129	23354.3
542.494	23353.17
542.858	23490.57
543.223	23577.12
543.587	23674.29
543.952	23695.31
544.316	23808.3
544.681	23805.14
545.045	23994.96
545.41	24096.65
545.774	24055.07
546.138	24148.86
546.503	24121.06
546.867	24169.2
547.231	24468.62
547.595	24418.91
547.959	24514.04
548.324	24454.61
548.688	24634.49
549.052	24838.1
549.416	24862.51
549.779	24874.49
550.143	24910.64
550.507	25087.36
550.871	25288.04
551.235	25179.79
551.599	25428.14
551.962	25432.89
552.326	25582.72
552.689	25642.83
553.053	25603.73
553.417	25702.71
553.78	26020.45
554.143	25829.94
554.507	26094.12
554.87	26201.91
555.234	26432.86
555.597	26268.57
555.96	26335.01
556.323	26558.28
556.686	26606.65
557.05	26868.79
557.413	26877.15
557.776	26809.13
558.139	27028.55
558.502	27048.44
558.865	27279.62
559.228	27441.2
559.59	27485.27
559.953	27551.93
560.316	27824.92
560.679	27950.34
561.041	28093.16
561.404	28128.64
561.767	28408.41
562.129	28310.78
562.492	28533.37
562.854	28537.67
563.217	28596.65
563.579	28701.05
563.941	28895.17
564.304	29023.53
564.666	29185.56
565.028	29292.68
565.39	29326.35
565.753	29457.64
566.115	29638.2
566.477	29678.65
566.839	29794.81
567.201	30084.52
567.563	30149.83
567.925	30203.61
568.287	30150.51
568.648	30316.38
569.01	30578.29
569.372	30759.76
569.734	30694.45
570.095	30922.24
570.457	30990.48
570.819	31123.14
571.18	31129.24
571.542	31317.03
571.903	31310.7
572.265	31462.34
572.626	31499.17
572.987	31544.59
573.349	31740.52
573.71	31885.15
574.071	31823.46
574.432	32009.67
574.794	32298.25
575.155	32171.92
575.516	32089.21
575.877	32321.07
576.238	32240.85
576.599	32601.29
576.96	32462.76
577.32	32616.88
577.681	32733.26
578.042	32710.89
578.403	32775.3
578.763	32787.05
579.124	32938.23
579.485	33026.59
579.845	33062.97
580.206	33072.46
580.566	32977.55
580.927	33090.77
581.287	33283.76
581.648	33158.34
582.008	33268.16
582.368	33161.73
582.728	33350.87
583.089	33341.84
583.449	33291.22
583.809	33457.76
584.169	33442.85
584.529	33334.15
584.889	33600.13
585.249	33285.34
585.609	33394.26
585.969	33475.17
586.329	33442.85
586.688	33576.41
587.048	33490.53
587.408	33540.7
587.768	33492.57
588.127	33487.82
588.487	33398.56
588.846	33606.01
589.206	33528.72
589.565	33582.73
589.925	33754.71
590.284	33589.96
590.643	33649.62
591.003	33882.84
591.362	33814.37
591.721	33778.21
592.08	33969.39
592.44	33880.58
592.799	33906.34
593.158	33855.04
593.517	33925.32
593.876	33905.21
594.235	33849.17
594.593	33899.11
594.952	33997.64
595.311	33927.81
595.67	34040.35
596.029	34209.61
596.387	34236.5
596.746	34318.08
597.104	34147.92
597.463	34132.55
597.822	34308.14
598.18	34215.71
598.538	34241.7
598.897	34414.12
599.255	34086.9
599.613	34641.46
599.972	34401.02
600.33	34509.49
600.688	34360.79
601.046	34603.72
601.404	34678.75
601.762	34503.61
602.12	34817.95
602.478	34814.79
602.836	34828.12
603.194	34713.55
603.552	34802.36
603.91	34601.92
604.268	34844.62
604.625	34885.52
604.983	35053.65
605.341	34834.68
605.698	35105.4
606.056	35278.96
606.413	35126.87
606.771	35296.81
607.128	35389.69
607.485	35138.62
607.843	35292.97
608.2	35335.46
608.557	35508.56
608.914	35434.21
609.272	35674.66
609.629	35674.43
609.986	35860.19
610.343	35623.81
610.7	35831.26
611.057	35864.71
611.414	35963.91
611.771	35952.16
612.127	36025.61
612.484	36028.77
612.841	36377.01
613.198	36078.94
613.554	36236.9
613.911	36411.36
614.267	36367.97
614.624	36455.65
614.98	36479.83
615.337	36666.04
615.693	36600.28
616.05	36584.24
616.406	36752.59
616.762	36694.74
617.118	36617.46
617.475	36637.12
617.831	36840.27
618.187	36851.12
618.543	36937.22
618.899	37128.85
619.255	37065.81
619.611	37119.14
619.967	37100.83
620.323	37199.59
620.678	37176.76
621.034	37075.07
621.39	37175.63
621.746	37097.22
622.101	37539.92
622.457	37235.07
622.812	37295.4
623.168	37340.15
623.523	37363.88
623.879	37533.36
624.234	37324.78
624.589	37572.23
624.945	37420.15
625.3	37595.06
625.655	37585.34
626.01	37525.68
626.365	37696.52
626.72	37590.54
627.075	37503.08
627.43	37635.73
627.785	37527.04
628.14	37641.84
628.495	37557.09
628.85	37638.67
629.205	37565.45
629.559	37700.14
629.914	37570.65
630.269	37633.47
630.623	37514.61
630.978	37484.1
631.332	37659.91
631.687	37643.87
632.041	37543.31
632.396	37682.06
632.75	37379.92
633.104	37674.83
633.459	37482.29
633.813	37373.59
634.167	37378.11
634.521	37275.07
634.875	37439.35
635.229	37462.63
635.583	37306.7
635.937	37262.18
636.291	37325.46
636.645	37254.05
636.999	37231
637.352	37346.02
637.706	37099.7
638.06	37142.64
638.413	37158.46
638.767	37052.7
639.121	37097.44
639.474	36894.28
639.828	36913.72
640.181	37050.66
640.534	37042.53
640.888	36906.04
641.241	36789.88
641.594	36918.69
641.947	36962.76
642.301	36791.46
642.654	36781.97
643.007	36766.38
643.36	36774.97
643.713	36841.86
644.066	36936.99
644.419	36625.14
644.771	36416.56
645.124	36128.43
645.477	36065.61
645.83	35751.49
646.182	35679.85
646.535	35620.19
646.888	35720.98
647.24	35448.67
647.593	35612.28
647.945	35532.74
648.298	35377.49
648.65	35486.86
649.002	35272.63
649.355	35476.92
649.707	35311.27
650.059	35396.7
650.411	35864.48
650.763	36017.25
651.115	36345.37
651.467	36195.77
651.819	36218.82
652.171	36232.83
652.523	36113.29
652.875	36171.59
653.227	35963.69
653.578	36151.93
653.93	36095.89
654.282	35806.63
654.633	35927.76
654.985	35931.82
655.337	35999.17
655.688	35917.36
656.039	36058.83
656.391	35734.77
656.742	35758.27
657.094	35807.76
657.445	36032.61
657.796	35794.43
658.147	35873.97
658.498	35832.62
658.849	35816.8
659.2	35700.19
659.551	35693.86
659.902	35807.31
660.253	35737.03
660.604	35869
660.955	35598.27
661.306	35727.54
661.656	35620.42
662.007	35643.02
662.358	35631.94
662.708	35710.13
663.059	35564.15
663.409	35471.5
663.76	35570.48
664.11	35711.49
664.461	35645.5
664.811	35538.61
665.161	35687.99
665.511	35518.95
665.862	35515.56
666.212	35775.44
666.562	35667.88
666.912	35540.42
667.262	35440.76
667.612	35544.26
667.962	35598.72
668.312	35422.46
668.662	35727.54
669.011	35533.42
669.361	35499.52
669.711	35378.84
670.06	35321.67
670.41	35304.95
670.76	35272.86
671.109	35511.72
671.459	35300.65
671.808	35297.49
672.157	35538.39
672.507	35111.51
672.856	35290.71
673.205	35319.18
673.554	35403.7
673.904	35257.94
674.253	35379.52
674.602	35129.36
674.951	34732.31
675.3	34578.64
675.649	35130.71
675.998	35159.41
676.346	35105.63
676.695	35204.61
677.044	34966.88
677.393	34993.54
677.741	35178.4
678.09	34886.43
678.438	34903.6
678.787	34917.16
679.135	35009.36
679.484	34752.19
679.832	34772.31
680.181	34603.5
680.529	34822.93
680.877	34601.46
681.225	34688.47
681.573	34907.67
681.922	34452.54
682.27	34411.64
682.618	34649.82
682.966	34449.15
683.314	34477.17
683.661	34311.3
684.009	34281.92
684.357	34221.13
684.705	34150.85
685.053	34225.88
685.4	34244.41
685.748	33993.12
686.095	33901.82
686.443	33898.2
686.79	33829.05
687.138	33855.72
687.485	33890.75
687.832	33759.9
688.18	33718.1
688.527	33543.86
688.874	33613.47
689.221	33483.53
689.568	33288.73
689.915	33300.93
690.262	33330.31
690.609	33105.23
690.956	33031.33
691.303	32964.44
691.65	32913.37
691.997	32748.18
692.344	32694.62
692.69	32591.57
693.037	32717.44
693.383	32580.73
693.73	32635.87
694.077	32328.53
694.423	32459.15
694.769	32181.19
695.116	32115.43
695.462	32142.77
695.808	31969.89
696.155	32078.82
696.501	31804.25
696.847	31904.13
697.193	31577.14
697.539	31820.29
697.885	31681.31
698.231	31502.79
698.577	31430.25
698.923	31424.82
699.269	31239.52
699.614	31025.74
699.96	31109.58
700.306	30978.06
700.651	30990.71
700.997	30906.64
701.342	30848.34
701.688	30740.55
702.033	30582.59
702.379	30678.85
702.724	30496.94
703.069	30603.83
703.415	30214.46
703.76	30202.48
704.105	30242.71
704.45	30161.13
704.795	30030.28
705.14	29857.86
705.485	29918.2
705.83	29793.23
706.175	29849.5
706.52	29695.15
706.865	29601.14
707.209	29606.34
707.554	29445.21
707.899	29464.2
708.243	29355.73
708.588	29292.68
708.932	29133.13
709.277	29160.48
709.621	29198.67
709.966	28954.15
710.31	29067.15
710.654	28829.86
710.998	28872.57
711.342	28744.67
711.687	28729.98
712.031	28563.2
712.375	28546.03
712.719	28614.05
713.063	28499.7
713.407	28628.06
713.75	28336.09
714.094	28315.75
714.438	28179.03
714.782	28331.35
715.125	28223.33
715.469	28220.61
715.812	28038.7
716.156	27867.4
716.499	27990.79
716.843	27922.32
717.186	27779.95
717.53	27920.06
717.873	27936.55
718.216	27750.57
718.559	27687.52
718.902	27452.05
719.246	27508.32
719.589	27411.82
719.932	27306.06
720.275	27375.66
720.617	27327.3
720.96	27297.02
721.303	27291.82
721.646	27202.34
721.989	27131.15
722.331	27133.86
722.674	27022.68
723.016	27097.93
723.359	27009.12
723.701	27160.53
724.044	26935.9
724.386	26763.25
724.729	26916.02
725.071	26740.65
725.413	26768.67
725.755	26775.68
726.097	26635.8
726.439	26508.12
726.782	26514.9
727.124	26581.79
727.465	26427.21
727.807	26475.35
728.149	26366.2
728.491	26295.24
728.833	26463.6
729.175	26368.69
729.516	26200.33
729.858	26147.22
730.199	26139.09
730.541	26036.49
730.882	26090.95
731.224	26119.43
731.565	25963.72
731.906	25944.06
732.248	25988.36
732.589	25785.42
732.93	25693.67
733.271	25837.63
733.612	25813.9
733.953	25810.51
734.294	25707.69
734.635	25638.76
734.976	25718.98
735.317	25650.51
735.658	25507.46
735.999	25534.58
736.339	25381.37
736.68	25540.68
737.021	25441.93
737.361	25274.25
737.702	25470.4
738.042	25338.66
738.383	25246.91
738.723	25349.05
739.063	25134.14
739.404	25153.58
739.744	25120.58
740.084	25074.26
740.424	25096.63
740.764	24978.44
741.104	25209.62
741.444	24980.25
741.784	24871.78
742.124	24850.53
742.464	24813.02
742.804	24721.27
743.143	24759.24
743.483	24629.3
743.823	24675.17
744.162	24653.02
744.502	24701.61
744.841	24547.49
745.181	24586.59
745.52	24442.41
745.86	24475.85
746.199	24554.5
746.538	24423.43
746.877	24527.83
747.216	24390.88
747.556	24356.08
747.895	24308.4
748.234	24218.69
748.573	24201.06
748.911	24273.37
749.25	24135.3
749.589	23933.95
749.928	24131.23
750.267	24106.82
750.605	23912.48
750.944	23891.46
751.283	23874.97
751.621	23998.35
751.96	23843.78
752.298	23720.17
752.636	23720.39
752.975	23594.97
753.313	23519.04
753.651	23703.67
753.989	23455.09
754.327	23465.48
754.666	23404.02
755.004	23366.96
755.342	23411.02
755.679	23312.72
756.017	23271.14
756.355	23235.66
756.693	23088.32
