Data from hue_30_FLMS001491_29.txt Node
Date: Mon Feb 06 15:04:57 GMT 2017
User: dcchb
Spectrometer: FLMS00149
Trigger mode: 0
Integration Time (sec): 2.000000E-2
Scans to average: 10
Electric dark correction enabled: true
Nonlinearity correction enabled: false
Boxcar width: 0
XAxis mode: Wavelengths
Number of Pixels in Spectrum: 2048
>>>>>Begin Spectral Data<<<<<
341.393	-22.78
341.776	-22.78
342.16	-22.78
342.543	-67.98
342.927	-60.3
343.31	-73.4
343.693	-82.44
344.077	-76.34
344.46	-51.48
344.843	-47.64
345.226	-43.35
345.61	-39.73
345.993	-7.19
346.376	0.72
346.759	14.96
347.142	26.03
347.525	45.24
347.908	62.41
348.291	64.9
348.674	88.18
349.057	119.14
349.44	128.63
349.823	147.84
350.206	154.61
350.588	189.42
350.971	210.21
351.354	222.18
351.737	223.99
352.119	260.83
352.502	275.06
352.884	258.34
353.267	274.39
353.65	282.97
354.032	299.7
354.414	310.32
354.797	328.85
355.179	332.69
355.562	317.1
355.944	294.95
356.326	320.94
356.709	344.89
357.091	339.47
357.473	338.79
357.855	323.2
358.238	350.77
358.62	343.31
359.002	340.6
359.384	347.15
359.766	330.66
360.148	317.55
360.53	321.84
360.912	325.01
361.294	324.55
361.676	333.14
362.057	316.64
362.439	358.68
362.821	349.64
363.203	315.29
363.584	314.16
363.966	329.98
364.348	315.51
364.729	316.42
365.111	344.21
365.493	335.17
365.874	335.17
366.256	335.85
366.637	312.35
367.019	327.27
367.4	341.95
367.781	303.31
368.163	334.5
368.544	292.01
368.925	316.42
369.306	318.45
369.688	332.91
370.069	310.99
370.45	316.19
370.831	308.51
371.212	318.9
371.593	307.83
371.974	317.55
372.355	311.67
372.736	316.64
373.117	327.27
373.498	308.06
373.879	308.96
374.26	318.45
374.641	297.21
375.021	314.84
375.402	341.95
375.783	318
376.163	354.38
376.544	337.66
376.925	332.01
377.305	353.48
377.686	319.81
378.066	333.37
378.447	330.43
378.827	343.54
379.208	335.85
379.588	329.75
379.968	332.91
380.349	344.89
380.729	329.53
381.109	347.38
381.489	350.54
381.87	329.98
382.25	335.4
382.63	363.2
383.01	339.47
383.39	358.45
383.77	330.88
384.15	357.1
384.53	348.28
384.91	340.6
385.29	352.12
385.67	351.67
386.049	356.42
386.429	346.7
386.809	382.41
387.189	349.64
387.568	369.98
387.948	369.52
388.328	346.47
388.707	366.13
389.087	358.23
389.466	378.79
389.846	373.59
390.225	357.55
390.605	364.55
390.984	374.27
391.363	378.79
391.743	376.53
392.122	384.89
392.501	366.59
392.881	375.4
393.26	375.4
393.639	396.42
394.018	380.37
394.397	382.86
394.776	376.53
395.155	379.24
395.534	381.05
395.913	401.16
396.292	391.67
396.671	371.56
397.05	378.56
397.429	365.23
397.808	415.17
398.186	409.75
398.565	401.16
398.944	399.35
399.323	395.74
399.701	381.5
400.08	384.89
400.458	409.3
400.837	417.66
401.215	406.13
401.594	398.22
401.972	395.51
402.351	421.73
402.729	413.82
403.107	428.51
403.486	393.93
403.864	441.61
404.242	410.2
404.62	412.46
404.999	437.09
405.377	408.17
405.755	412.01
406.133	425.57
406.511	435.74
406.889	438.67
407.267	443.42
407.645	431.67
408.023	435.06
408.401	433.93
408.779	426.25
409.156	422.63
409.534	438.45
409.912	450.43
410.29	432.57
410.667	469.86
411.045	473.93
411.422	469.18
411.8	460.37
412.178	466.7
412.555	463.53
412.933	461.95
413.31	487.26
413.687	472.12
414.065	489.52
414.442	471.22
414.819	509.86
415.197	483.19
415.574	483.42
415.951	510.76
416.328	517.09
416.705	517.99
417.082	488.62
417.46	499.69
417.837	513.93
418.214	518.22
418.591	508.96
418.967	523.19
419.344	521.16
419.721	511.22
420.098	494.49
420.475	519.35
420.852	525
421.228	553.47
421.605	519.12
421.982	550.54
422.358	535.17
422.735	548.5
423.111	544.89
423.488	543.3
423.864	546.92
424.241	564.1
424.617	537.43
424.994	574.26
425.37	575.39
425.746	581.95
426.123	573.59
426.499	560.25
426.875	589.63
427.251	590.08
427.627	607.71
428.003	615.17
428.379	606.35
428.756	591.21
429.132	609.97
429.507	640.25
429.883	600.03
430.259	631.66
430.635	627.14
431.011	638.22
431.387	630.31
431.763	630.99
432.138	638.9
432.514	652
432.89	651.78
433.265	654.26
433.641	673.02
434.016	670.99
434.392	707.59
434.767	676.86
435.143	672.12
435.518	694.94
435.894	728.16
436.269	715.73
436.644	730.42
437.02	691.32
437.395	703.53
437.77	718.22
438.145	721.61
438.52	754.37
438.895	752.56
439.271	744.66
439.646	742.17
440.021	775.39
440.395	734.26
440.77	749.85
441.145	738.55
441.52	757.54
441.895	768.61
442.27	788.95
442.645	797.76
443.019	776.29
443.394	794.82
443.769	802.28
444.143	789.4
444.518	816.07
444.892	818.33
445.267	798.44
445.641	773.81
446.016	846.12
446.39	806.8
446.764	804.77
447.139	840.25
447.513	844.77
447.887	836.18
448.262	838.66
448.636	857.42
449.01	850.64
449.384	857.65
449.758	887.93
450.132	869.4
450.506	861.71
450.88	855.16
451.254	877.76
451.628	908.04
452.002	876.86
452.376	917.08
452.75	908.95
453.123	921.37
453.497	951.88
453.871	946.23
454.244	959.79
454.618	936.29
454.992	965.67
455.365	968.6
455.739	1007.93
456.112	992.33
456.486	990.98
456.859	999.34
457.232	1024.2
457.606	1031.88
457.979	1027.59
458.352	1034.37
458.725	1040.02
459.099	1075.04
459.472	1087.7
459.845	1098.09
460.218	1102.84
460.591	1091.54
460.964	1116.85
461.337	1142.84
461.71	1147.13
462.083	1154.59
462.456	1166.57
462.829	1167.24
463.201	1184.19
463.574	1201.14
463.947	1228.71
464.32	1234.36
464.692	1236.85
465.065	1270.52
465.438	1263.51
465.81	1317.75
466.183	1288.37
466.555	1334.92
466.928	1336.96
467.3	1341.02
467.672	1391.64
468.045	1389.61
468.417	1396.84
468.789	1405.88
469.161	1412.21
469.534	1460.12
469.906	1466.67
470.278	1484.07
470.65	1519.78
471.022	1520.68
471.394	1570.85
471.766	1588.93
472.138	1599.55
472.51	1616.72
472.882	1677.74
473.253	1701.01
473.625	1705.08
473.997	1751.86
474.369	1759.77
474.74	1808.81
475.112	1815.81
475.484	1877.28
475.855	1888.58
476.227	1876.83
476.598	1991.18
476.97	2024.62
477.341	2053.32
477.713	2077.28
478.084	2106.43
478.455	2163.6
478.827	2176.71
479.198	2252.86
479.569	2283.37
479.94	2317.72
480.311	2358.17
480.682	2453.99
481.053	2535.79
481.424	2573.76
481.795	2596.36
482.166	2657.15
482.537	2700.99
482.908	2734.66
483.279	2772.62
483.65	2875.45
484.021	2930.81
484.391	2963.13
484.762	3055.33
485.133	3102.79
485.503	3127.87
485.874	3222.78
486.244	3279.96
486.615	3327.41
486.985	3394.3
487.356	3476.56
487.726	3504.13
488.097	3633.39
488.467	3670
488.837	3741.64
489.207	3776.89
489.578	3884.69
489.948	3894.63
490.318	3987.96
490.688	4010.11
491.058	4107.5
491.428	4151.12
491.798	4232.25
492.168	4318.57
492.538	4368.52
492.908	4425.69
493.278	4533.93
493.648	4541.62
494.017	4645.57
494.387	4648.96
494.757	4706.59
495.126	4746.36
495.496	4824.32
495.866	4869.52
496.235	4959.46
496.605	5035.84
496.974	5055.05
497.344	5100.7
497.713	5172.79
498.082	5214.59
498.452	5263.63
498.821	5284.65
499.19	5371.2
499.559	5453.01
499.928	5422.05
500.298	5521.25
500.667	5606.22
501.036	5578.65
501.405	5665.2
501.774	5655.94
502.143	5728.48
502.512	5690.06
502.88	5784.75
503.249	5768.03
503.618	5881.02
503.987	5916.05
504.356	5945.87
504.724	6036.95
505.093	6052.54
505.462	6136.6
505.83	6160.33
506.199	6139.09
506.567	6218.41
506.936	6264.96
507.304	6338.63
507.672	6332.98
508.041	6374.11
508.409	6370.5
508.777	6478.52
509.145	6520.77
509.514	6498.18
509.882	6548.12
510.25	6587.21
510.618	6598.74
510.986	6648
511.354	6740.88
511.722	6771.62
512.09	6848.45
512.458	6808.22
512.826	6847.32
513.193	6907.43
513.561	6939.07
513.929	6892.52
514.297	7068.56
514.664	7005.96
515.032	7028.33
515.4	7098.39
515.767	7156.69
516.135	7143.13
516.502	7151.27
516.869	7254.99
517.237	7274.65
517.604	7247.08
517.972	7295.22
518.339	7394.2
518.706	7369.11
519.073	7343.58
519.44	7457.47
519.808	7496.57
520.175	7472.61
520.542	7619.28
520.909	7628.99
521.276	7584.7
521.643	7645.72
522.009	7692.95
522.376	7754.64
522.743	7833.51
523.11	7838.71
523.477	7901.76
523.843	7910.57
524.21	7986.73
524.577	8082.99
524.943	8109.89
525.31	8109.21
525.676	8170.67
526.043	8287.73
526.409	8287.51
526.776	8309.88
527.142	8329.31
527.508	8398.92
527.874	8435.98
528.241	8488.18
528.607	8532.7
528.973	8580.16
529.339	8584.68
529.705	8696.99
530.071	8722.3
530.437	8777.21
530.803	8800.04
531.169	8839.81
531.535	8858.79
531.901	8924.78
532.267	8897.21
532.632	9000.94
532.998	8986.47
533.364	9048.84
533.73	9117.54
534.095	9205.45
534.461	9167.48
534.826	9219.69
535.192	9236.86
535.557	9332
535.923	9314.15
536.288	9385.78
536.653	9355.73
537.019	9369.74
537.384	9446.35
537.749	9455.39
538.114	9486.57
538.479	9560.92
538.845	9596.63
539.21	9597.53
539.575	9764.53
539.94	9736.74
540.305	9812.67
540.67	9728.83
541.034	9854.47
541.399	9890.18
541.764	9838.43
542.129	10003.17
542.494	9980.57
542.858	10044.52
543.223	10048.37
543.587	10132.66
543.952	10124.52
544.316	10176.27
544.681	10164.97
545.045	10340.11
545.41	10319.32
545.774	10333.56
546.138	10421.69
546.503	10405.87
546.867	10443.38
547.231	10531.06
547.595	10505.3
547.959	10585.53
548.324	10572.42
548.688	10643.83
549.052	10681.57
549.416	10667.56
549.779	10751.62
550.143	10831.85
550.507	10861.68
550.871	10867.55
551.235	10832.75
551.599	10907.55
551.962	10880.21
552.326	10925.86
552.689	11082.91
553.053	11048.79
553.417	11067.1
553.78	11274.77
554.143	11128.56
554.507	11193.65
554.87	11222.35
555.234	11348.44
555.597	11242.68
555.96	11344.15
556.323	11351.38
556.686	11387.99
557.05	11519.06
557.413	11472.51
557.776	11539.4
558.139	11597.7
558.502	11588.66
558.865	11692.62
559.228	11718.6
559.59	11705.27
559.953	11803.12
560.316	11927.41
560.679	11818.49
561.041	11985.26
561.404	11964.25
561.767	12038.37
562.129	11982.78
562.492	12124.02
562.854	12136.22
563.217	12117.92
563.579	12198.37
563.941	12271.58
564.304	12219.61
564.666	12324.01
565.028	12405.14
565.39	12468.87
565.753	12469.77
566.115	12487.85
566.477	12559.71
566.839	12559.71
567.201	12659.82
567.563	12670.44
567.925	12784.56
568.287	12846.71
568.648	12755.19
569.01	12811.91
569.372	12977.1
569.734	12919.25
570.095	13085.12
570.457	13054.39
570.819	13122.18
571.18	13248.96
571.542	13194.05
571.903	13322.4
572.265	13420.25
572.626	13399.92
572.987	13480.59
573.349	13507.71
573.71	13555.17
574.071	13714.03
574.432	13747.03
574.794	13831.09
575.155	13928.94
575.516	13995.15
575.877	14021.14
576.238	14133.23
576.599	14262.49
576.96	14370.06
577.32	14483.5
577.681	14589.94
578.042	14657.96
578.403	14827.22
578.763	14842.59
579.124	14976.15
579.485	15133.2
579.845	15343.37
580.206	15362.8
580.566	15565.06
580.927	15663.81
581.287	15934.31
581.648	16028.32
582.008	16243.46
582.368	16368.65
582.728	16610.91
583.089	16794.4
583.449	16990.78
583.809	17212.92
584.169	17355.52
584.529	17522.07
584.889	17967.03
585.249	17932.68
585.609	18204.54
585.969	18501.25
586.329	18628.48
586.688	19033.67
587.048	19162.93
587.408	19376.26
587.768	19645.63
588.127	19873.64
588.487	20020.53
588.846	20545.49
589.206	20591.37
589.565	20915.65
589.925	21326.26
590.284	21579.59
590.643	21795.18
591.003	22168.95
591.362	22476.51
591.721	22693.23
592.08	22965.99
592.44	23465.41
592.799	23619.53
593.158	23800.55
593.517	24140.42
593.876	24361.89
594.235	24647.76
594.593	24959.61
594.952	25389.21
595.311	25530.9
595.67	25880.49
596.029	26226.02
596.387	26470.53
596.746	26815.61
597.104	26984.19
597.463	27360
597.822	27694
598.18	27946.65
598.538	28042.24
598.897	28565.84
599.255	28639.06
599.613	29234.53
599.972	29373.06
600.33	29701.41
600.688	29810.56
601.046	30209.64
601.404	30564.44
601.762	30716.3
602.12	31137.98
602.478	31390.63
602.836	31627.69
603.194	31723.05
603.552	32004.4
603.91	32063.15
604.268	32500.43
604.625	32628.34
604.983	33055.22
605.341	33125.05
605.698	33384.25
606.056	33754.86
606.413	33886.38
606.771	34147.39
607.128	34304.23
607.485	34422.19
607.843	34678
608.2	35037.09
608.557	35364.76
608.914	35463.97
609.272	35858.31
609.629	35936.72
609.986	36159.09
610.343	36344.4
610.7	36696.7
611.057	36749.58
611.414	36908.9
611.771	37001.78
612.127	37298.04
612.484	37420.75
612.841	37737.36
613.198	37684.02
613.554	37709.11
613.911	38113.39
614.267	38283.56
614.624	38299.37
614.98	38548.86
615.337	38816.87
615.693	38912.47
616.05	38985.91
616.406	39220.03
616.762	39186.36
617.118	39382.06
617.475	39481.72
617.831	39655.95
618.187	39780.47
618.543	39974.36
618.899	40285.76
619.255	40387.68
619.611	40438.75
619.967	40608.01
620.323	40681.23
620.678	40637.84
621.034	40742.93
621.39	40741.12
621.746	40822.02
622.101	41365.96
622.457	41183.59
622.812	41173.88
623.168	41469.69
623.523	41473.98
623.879	41589.01
624.234	41493.19
624.589	41564.15
624.945	41612.73
625.3	41715.56
625.655	41718.27
626.01	41902.9
626.365	41968.2
626.72	41955.32
627.075	41961.65
627.43	42025.38
627.785	42039.61
628.14	42089.56
628.495	42303.34
628.85	42207.07
629.205	42176.79
629.559	42431.7
629.914	42279.83
630.269	42274.64
630.623	42193.51
630.978	42234.19
631.332	42538.36
631.687	42548.3
632.041	42417.46
632.396	42461.07
632.75	42338.59
633.104	42396.67
633.459	42266.95
633.813	42283.22
634.167	42398.48
634.521	42301.08
634.875	42421.07
635.229	42379.27
635.583	42222.89
635.937	42305.82
636.291	42239.38
636.645	42076.45
636.999	42202.77
637.352	42434.63
637.706	42156.67
638.06	42293.39
638.413	42188.31
638.767	42112.38
639.121	42376.1
639.474	42081.2
639.828	42111.7
640.181	42290
640.534	42111.48
640.888	42148.54
641.241	41869.9
641.594	42019.5
641.947	42142.21
642.301	42066.05
642.654	42050.01
643.007	42019.05
643.36	42092.49
643.713	41992.16
644.066	42013.17
644.419	41796.01
644.771	41621.09
645.124	41268.56
645.477	41217.72
645.83	40928.01
646.182	40774.56
646.535	40763.72
646.888	40707.22
647.24	40634.91
647.593	40923.94
647.945	40652.76
648.298	40658.41
648.65	40556.94
649.002	40468.81
649.355	40712.42
649.707	40648.01
650.059	40745.64
650.411	41298.62
650.763	41061.79
651.115	41614.09
651.467	41474.66
651.819	41522.11
652.171	41415
652.523	41333.64
652.875	41344.27
653.227	41266.98
653.578	41542.23
653.93	41337.26
654.282	41106.98
654.633	41196.93
654.985	41208.45
655.337	41132.75
655.688	41173.88
656.039	41442.57
656.391	41091.84
656.742	41022.69
657.094	41119.19
657.445	41188.34
657.796	41124.16
658.147	41009.13
658.498	41046.42
658.849	41209.13
659.2	41072.18
659.551	40978.17
659.902	41109.24
660.253	41063.82
660.604	41152.18
660.955	40857.95
661.306	41019.75
661.656	40971.39
662.007	41097.27
662.358	40798.97
662.708	40922.36
663.059	40899.31
663.409	40685.98
663.76	40892.07
664.11	40971.85
664.461	41082.13
664.811	40838.97
665.161	40999.87
665.511	40722.36
665.862	40858.4
666.212	40985.18
666.562	40999.64
666.912	40887.78
667.262	40822.47
667.612	40834.67
667.962	40877.84
668.312	40671.52
668.662	41073.31
669.011	40828.12
669.361	40761.91
669.711	40678.52
670.06	40739.99
670.41	40688.92
670.76	40760.55
671.109	40784.51
671.459	40801.23
671.808	40678.97
672.157	40861.57
672.507	40490.5
672.856	40535.47
673.205	40545.87
673.554	40582.48
673.904	40427.23
674.253	40719.65
674.602	40516.04
674.951	40031.53
675.3	39832.67
675.649	40386.33
675.998	40393.56
676.346	40311.75
676.695	40516.04
677.044	40163.51
677.393	40332.32
677.741	40334.35
678.09	40287.57
678.438	40187.69
678.787	40310.62
679.135	40158.31
679.484	39956.28
679.832	40038.54
680.181	39838.32
680.529	39945.43
680.877	39889.84
681.225	39940.91
681.573	40258.64
681.922	39803.52
682.27	39709.73
682.618	39662.05
682.966	39648.04
683.314	39637.42
683.661	39454.37
684.009	39422.28
684.357	39415.5
684.705	39312.91
685.053	39308.61
685.4	39224.77
685.748	39036.53
686.095	38974.38
686.443	38892.81
686.79	38927.38
687.138	39056.64
687.485	38921.5
687.832	38775.52
688.18	38783.2
688.527	38523.78
688.874	38450.1
689.221	38459.6
689.568	38455.98
689.915	38321.07
690.262	38262.09
690.609	38178.02
690.956	38106.16
691.303	38032.26
691.65	37844.7
691.997	37898.25
692.344	37567.42
692.69	37584.36
693.037	37537.13
693.383	37281.1
693.73	37411.71
694.077	37271.15
694.423	37198.84
694.769	37072.06
695.116	36972.86
695.462	37020.54
695.808	36941.44
696.155	36987.54
696.501	36571.74
696.847	36625.52
697.193	36506.2
697.539	36601.34
697.885	36343.04
698.231	36066.89
698.577	36133.1
698.923	36146.21
699.269	36003.39
699.614	35837.29
699.96	35755.71
700.306	35700.8
700.651	35770.4
700.997	35539.67
701.342	35424.65
701.688	35401.37
702.033	35235.73
702.379	35187.59
702.724	35052.23
703.069	35214.71
703.415	34727.72
703.76	34813.36
704.105	34861.05
704.45	34720.03
704.795	34480.49
705.14	34502.41
705.485	34387.39
705.83	34268.07
706.175	34282.08
706.52	34134.06
706.865	34108.75
707.209	34085.25
707.554	33881.19
707.899	33958.25
708.243	33865.82
708.588	33841.86
708.932	33596.45
709.277	33553.74
709.621	33581.31
709.966	33505.38
710.31	33521.65
710.654	33088.66
710.998	33225.16
711.342	33309.22
711.687	33031.72
712.031	32932.96
712.375	32840.53
712.719	32812.51
713.063	32763.47
713.407	32851.16
713.75	32712.63
714.094	32706.75
714.438	32558.96
714.782	32498.4
715.125	32335.24
715.469	32442.13
715.812	32243.94
716.156	32071.52
716.499	32214.56
716.843	32176.15
717.186	31996.26
717.53	32131.85
717.873	32115.81
718.216	31914.23
718.559	31920.11
718.902	31681.47
719.246	31757.85
719.589	31617.97
719.932	31496.16
720.275	31469.95
720.617	31466.33
720.96	31356.28
721.303	31397.18
721.646	31378.43
721.989	31090.52
722.331	31321.7
722.674	31170.3
723.016	31241.93
723.359	30991.77
723.701	31177.75
724.044	30895.73
724.386	30763.08
724.729	30923.3
725.071	30903.18
725.413	30708.16
725.755	30810.76
726.097	30703.64
726.439	30469.3
726.782	30458.9
727.124	30583.87
727.465	30426.36
727.807	30492.35
728.149	30367.83
728.491	30192.47
728.833	30423.2
729.175	30212.81
729.516	30202.19
729.858	30185.46
730.199	30058.24
730.541	30132.13
730.882	29980.72
731.224	30137.78
731.565	29828.86
731.906	29922.87
732.248	29891.69
732.589	29749.09
732.93	29718.81
733.271	29687.4
733.612	29649.21
733.953	29679.94
734.294	29582.77
734.635	29491.24
734.976	29553.62
735.317	29418.48
735.658	29427.97
735.999	29390.23
736.339	29380.06
736.68	29347.97
737.021	29202.21
737.361	29190.24
737.702	29288.31
738.042	29221.87
738.383	29109.79
738.723	29193.85
739.063	29032.05
739.404	29053.29
739.744	28858.72
740.084	28958.6
740.424	28901.2
740.764	28708.89
741.104	28873.41
741.444	28735.56
741.784	28584.38
742.124	28705.05
742.464	28581.66
742.804	28450.59
743.143	28580.53
743.483	28582.57
743.823	28369.92
744.162	28417.83
744.502	28452.63
744.841	28329.24
745.181	28396.13
745.52	28211.05
745.86	28294.44
746.199	28143.94
746.538	28185.97
746.877	28276.81
747.216	28133.77
747.556	28171.28
747.895	28150.94
748.234	27978.29
748.573	28113.43
748.911	27987.78
749.25	27932.19
749.589	27726.54
749.928	27797.96
750.267	27815.81
750.605	27725.64
750.944	27634.57
751.283	27494.23
751.621	27592.09
751.96	27530.84
752.298	27446.1
752.636	27463.73
752.975	27305.77
753.313	27162.72
753.651	27309.61
753.989	27164.3
754.327	27151.42
754.666	27053.12
755.004	27038.2
755.342	27114.13
755.679	27140.57
756.017	26899.22
756.355	27028.94
756.693	26764.99
757.031	26872.56
757.368	26803.41
757.706	26664.88
758.044	26729.28
758.381	26645.9
758.719	26620.13
