Data from hue_280_FLMS001491_00054.txt Node
Date: Tue Feb 07 15:55:27 GMT 2017
User: dcchb
Spectrometer: FLMS00149
Trigger mode: 0
Integration Time (sec): 2.000000E-2
Scans to average: 10
Electric dark correction enabled: true
Nonlinearity correction enabled: false
Boxcar width: 0
XAxis mode: Wavelengths
Number of Pixels in Spectrum: 2048
>>>>>Begin Spectral Data<<<<<
341.393	-7.36
341.776	-7.36
342.16	-7.36
342.543	-72.22
342.927	-53.69
343.31	-72.67
343.693	-90.29
344.077	-55.04
344.46	-53.01
344.843	-60.01
345.226	-18.66
345.61	-26.34
345.993	-38.54
346.376	6.43
346.759	19.31
347.142	24.73
347.525	41.23
347.908	54.33
348.291	60.66
348.674	87.78
349.057	120.1
349.44	128.01
349.823	148.34
350.206	159.64
350.588	176.14
350.971	201.68
351.354	226.31
351.737	245.06
352.119	256.14
352.502	270.15
352.884	268.57
353.267	278.28
353.65	287.1
354.032	300.43
354.414	304.72
354.797	302.46
355.179	327.1
355.562	319.41
355.944	325.29
356.326	319.64
356.709	331.84
357.091	321.67
357.473	333.2
357.855	321.22
358.238	334.78
358.62	345.4
359.002	342.24
359.384	335.23
359.766	320.54
360.148	329.13
360.53	328.68
360.912	322.58
361.294	321.67
361.676	346.98
362.057	334.1
362.439	311.96
362.821	321.9
363.203	340.65
363.584	326.64
363.966	330.49
364.348	322.8
364.729	338.62
365.111	330.49
365.493	327.55
365.874	307.66
366.256	316.93
366.637	306.31
367.019	318.51
367.4	331.39
367.781	313.08
368.163	296.81
368.544	309.47
368.925	316.02
369.306	329.58
369.688	292.97
370.069	311.5
370.45	322.35
370.831	330.94
371.212	309.7
371.593	317.38
371.974	306.08
372.355	333.42
372.736	331.39
373.117	330.49
373.498	318.96
373.879	314.21
374.26	305.18
374.641	296.36
375.021	315.8
375.402	332.97
375.783	323.03
376.163	309.02
376.544	346.08
376.925	309.24
377.305	330.94
377.686	319.19
378.066	337.72
378.447	326.64
378.827	331.16
379.208	346.53
379.588	357.83
379.968	337.04
380.349	327.1
380.729	365.29
381.109	339.3
381.489	334.78
381.87	322.12
382.25	334.78
382.63	324.38
383.01	335.68
383.39	349.47
383.77	344.04
384.15	359.64
384.53	362.8
384.91	339.3
385.29	347.66
385.67	337.27
386.049	353.54
386.429	371.84
386.809	349.47
387.189	362.58
387.568	370.71
387.948	368.22
388.328	356.93
388.707	378.62
389.087	372.07
389.466	370.94
389.846	346.08
390.225	381.56
390.605	374.1
390.984	392.63
391.363	394.89
391.743	378.85
392.122	387.89
392.501	375
392.881	387.89
393.26	376.13
393.639	384.27
394.018	398.73
394.397	396.92
394.776	407.32
395.155	397.6
395.534	394.44
395.913	402.8
396.292	416.81
396.671	416.36
397.05	401.9
397.429	411.84
397.808	401.67
398.186	418.39
398.565	418.39
398.944	403.93
399.323	424.72
399.701	409.58
400.08	421.78
400.458	421.33
400.837	440.09
401.215	427.88
401.594	447.32
401.972	428.56
402.351	436.47
402.729	433.76
403.107	454.1
403.486	443.48
403.864	448.45
404.242	446.41
404.62	438.96
404.999	443.48
405.377	491.61
405.755	450.93
406.133	485.51
406.511	482.35
406.889	485.51
407.267	485.74
407.645	508.79
408.023	480.09
408.401	495.45
408.779	510.82
409.156	498.16
409.534	517.6
409.912	528.9
410.29	532.51
410.667	523.7
411.045	539.97
411.422	553.3
411.8	562.34
412.178	570.03
412.555	580.65
412.933	599.18
413.31	557.6
413.687	621.78
414.065	592.17
414.442	611.38
414.819	609.8
415.197	627.88
415.574	617.48
415.951	643.25
416.328	634.43
416.705	658.16
417.082	639.63
417.46	675.56
417.837	692.28
418.214	678.27
418.591	680.98
418.967	715.11
419.344	706.07
419.721	705.84
420.098	717.82
420.475	717.82
420.852	734.54
421.228	735.9
421.605	748.1
421.982	767.31
422.358	768.89
422.735	770.02
423.111	788.33
423.488	795.78
423.864	787.42
424.241	810.25
424.617	843.92
424.994	809.34
425.37	838.27
425.746	853.18
426.123	841.21
426.499	854.77
426.875	895.67
427.251	899.06
427.627	911.26
428.003	907.42
428.379	942.22
428.756	940.87
429.132	949.23
429.507	973.86
429.883	991.94
430.259	986.29
430.635	990.58
431.011	979.96
431.387	1026.51
431.763	1033.29
432.138	1028.77
432.514	1050.47
432.89	1079.39
433.265	1092.95
433.641	1118.94
434.016	1122.78
434.392	1127.75
434.767	1153.97
435.143	1166.85
435.518	1165.94
435.894	1194.87
436.269	1216.56
436.644	1234.42
437.02	1243
437.395	1234.87
437.77	1252.72
438.145	1271.7
438.52	1296.11
438.895	1311.48
439.271	1304.47
439.646	1362.55
440.021	1350.12
440.395	1341.31
440.77	1359.39
441.145	1363
441.52	1417.24
441.895	1376.33
442.27	1400.97
442.645	1408.65
443.019	1432.38
443.394	1421.08
443.769	1459.5
444.143	1443.22
444.518	1489.1
444.892	1468.53
445.267	1477.12
445.641	1485.71
446.016	1487.07
446.39	1483.9
446.764	1526.39
447.139	1525.26
447.513	1525.03
447.887	1540.17
448.262	1546.72
448.636	1560.28
449.01	1584.46
449.384	1582.88
449.758	1629.66
450.132	1627.17
450.506	1617.46
450.88	1612.94
451.254	1604.35
451.628	1636.21
452.002	1688.19
452.376	1677.12
452.75	1666.95
453.123	1702.88
453.497	1715.53
453.871	1705.82
454.244	1740.39
454.618	1730.45
454.992	1769.32
455.365	1777.23
455.739	1838.47
456.112	1864.46
456.486	1822.88
456.859	1847.51
457.232	1866.04
457.606	1885.47
457.979	1881.63
458.352	1942.19
458.725	1920.5
459.099	1966.37
459.472	1993.72
459.845	1993.27
460.218	2034.85
460.591	1998.01
460.964	2020.61
461.337	2066.49
461.71	2081.17
462.083	2106.03
462.456	2092.47
462.829	2123.21
463.201	2159.14
463.574	2159.14
463.947	2208.18
464.32	2207.95
464.692	2209.53
465.065	2235.75
465.438	2288.4
465.81	2317.33
466.183	2346.25
466.555	2394.16
466.928	2339.02
467.3	2352.13
467.672	2356.87
468.045	2453.14
468.417	2438.9
468.789	2455.18
469.161	2499.47
469.534	2537.66
469.906	2548.51
470.278	2548.05
470.65	2591.67
471.022	2660.14
471.394	2684.77
471.766	2682.97
472.138	2734.26
472.51	2735.62
472.882	2792.79
473.253	2836.86
473.625	2832.79
473.997	2915.73
474.369	2903.53
474.74	2966.12
475.112	3005.44
475.484	2990.98
475.855	3053.58
476.227	3072.56
476.598	3158.21
476.97	3141.26
477.341	3242.95
477.713	3293.57
478.084	3256.51
478.455	3336.06
478.827	3356.39
479.198	3413.57
479.569	3438.2
479.94	3485.88
480.311	3531.98
480.682	3589.16
481.053	3629.16
481.424	3733.11
481.795	3708.25
482.166	3764.75
482.537	3801.13
482.908	3844.74
483.279	3876.16
483.65	3965.64
484.021	4010.39
484.391	4058.75
484.762	4097.39
485.133	4096.94
485.503	4171.97
485.874	4211.51
486.244	4264.17
486.615	4283.15
486.985	4346.43
487.356	4370.15
487.726	4449.02
488.097	4506.65
488.467	4472.52
488.837	4608.11
489.207	4591.39
489.578	4639.3
489.948	4722.23
490.318	4773.53
490.688	4822.12
491.058	4832.74
491.428	4920.65
491.798	4876.58
492.168	5031.83
492.538	5002.68
492.908	5039.97
493.278	5134.88
493.648	5105.05
494.017	5194.99
494.387	5231.83
494.757	5248.1
495.126	5299.39
495.496	5265.05
495.866	5296.91
496.235	5390.69
496.605	5390.24
496.974	5391.37
497.344	5477.92
497.713	5545.94
498.082	5526.28
498.452	5556.34
498.821	5554.76
499.19	5609.89
499.559	5641.53
499.928	5651.93
500.298	5682.21
500.667	5743.68
501.036	5673.17
501.405	5781.42
501.774	5799.27
502.143	5839.27
502.512	5859.83
502.88	5902.77
503.249	5893.5
503.618	5913.62
503.987	5947.29
504.356	5959.49
504.724	6000.17
505.093	5977.57
505.462	6032.26
505.83	6046.49
506.199	6103.44
506.567	6132.82
506.936	6147.28
507.304	6164.68
507.672	6201.07
508.041	6223.44
508.409	6240.16
508.777	6315.19
509.145	6356.77
509.514	6271.12
509.882	6353.6
510.25	6374.62
510.618	6430.21
510.986	6353.15
511.354	6445.81
511.722	6458.46
512.09	6480.83
512.458	6515.86
512.826	6532.36
513.193	6551.57
513.561	6597.67
513.929	6554.05
514.297	6573.49
514.664	6667.49
515.032	6693.93
515.4	6733.93
515.767	6702.07
516.135	6747.49
516.502	6705.23
516.869	6830.2
517.237	6834.95
517.604	6812.12
517.972	6854.83
518.339	6881.73
518.706	6946.58
519.073	6900.03
519.44	6941.39
519.808	6934.61
520.175	6971.22
520.542	7019.35
520.909	7040.82
521.276	7052.12
521.643	7088.95
522.009	7125.11
522.376	7120.82
522.743	7250.53
523.11	7265.9
523.477	7274.71
523.843	7318.32
524.21	7342.28
524.577	7417.76
524.943	7409.17
525.31	7446.23
525.676	7533.46
526.043	7553.35
526.409	7566.91
526.776	7631.08
527.142	7665.66
527.508	7724.42
527.874	7723.29
528.241	7731.42
528.607	7735.49
528.973	7855.49
529.339	7780.46
529.705	7900.23
530.071	7907.24
530.437	7938.2
530.803	7956.5
531.169	7965.54
531.535	8043.73
531.901	7979.32
532.267	8018.19
532.632	8058.19
532.998	8081.47
533.364	8103.16
533.73	8174.57
534.095	8184.52
534.461	8209.37
534.826	8299.77
535.192	8288.24
535.557	8328.02
535.923	8307
536.288	8283.27
536.653	8331.18
537.019	8343.38
537.384	8415.7
537.749	8409.82
538.114	8408.47
538.479	8424.51
538.845	8467.22
539.21	8507.67
539.575	8470.38
539.94	8471.74
540.305	8568.91
540.67	8508.12
541.034	8589.48
541.399	8640.1
541.764	8601.45
542.129	8648.23
542.494	8626.54
542.858	8663.6
543.223	8641.68
543.587	8756.93
543.952	8792.86
544.316	8800.55
544.681	8767.1
545.045	8847.32
545.41	8828.12
545.774	8859.3
546.138	8851.17
546.503	8891.16
546.867	8875.12
547.231	8948.11
547.595	8913.76
547.959	8984.5
548.324	8903.37
548.688	8953.08
549.052	9012.29
549.416	8992.86
549.779	8992.86
550.143	9040.99
550.507	9064.95
550.871	9106.3
551.235	9092.74
551.599	9177.71
551.962	9147.65
552.326	9122.57
552.689	9217.03
553.053	9118.05
553.417	9168.9
553.78	9276.01
554.143	9295.67
554.507	9330.93
554.87	9325.73
555.234	9387.42
555.597	9334.77
555.96	9383.58
556.323	9438.72
556.686	9431.49
557.05	9435.78
557.413	9416.57
557.776	9527.76
558.139	9549.68
558.502	9546.06
558.865	9623.57
559.228	9661.31
559.59	9711.93
559.953	9695.66
560.316	9731.59
560.679	9763.23
561.041	9827.19
561.404	9833.96
561.767	9929.78
562.129	9801.65
562.492	9973.62
562.854	9934.53
563.217	9923.23
563.579	10022.89
563.941	10023.56
564.304	10057.24
564.666	10088.65
565.028	10111.92
565.39	10165.03
565.753	10194.86
566.115	10173.62
566.477	10289.55
566.839	10321.86
567.201	10347.17
567.563	10393.27
567.925	10387.62
568.287	10401.63
568.648	10403.44
569.01	10499.03
569.372	10523.66
569.734	10502.87
570.095	10639.37
570.457	10689.31
570.819	10661.06
571.18	10686.15
571.542	10721.85
571.903	10790.1
572.265	10735.64
572.626	10808.85
572.987	10921.85
573.349	10871.68
573.71	10869.64
574.071	10949.87
574.432	11054.72
574.794	11089.3
575.155	11090.65
575.516	11118
575.877	11195.28
576.238	11174.49
576.599	11306.47
576.96	11253.59
577.32	11358.22
577.681	11410.65
578.042	11466.01
578.403	11409.52
578.763	11457.65
579.124	11488.16
579.485	11570.64
579.845	11666.68
580.206	11658.1
580.566	11710.98
580.927	11700.13
581.287	11871.2
581.648	11842.95
582.008	11935.83
582.368	11976.06
582.728	12038.88
583.089	12085.2
583.449	12140.12
583.809	12172.89
584.169	12236.61
584.529	12236.84
584.889	12309.15
585.249	12408.36
585.609	12344.63
585.969	12576.72
586.329	12542.59
586.688	12534.23
587.048	12575.36
587.408	12653.78
587.768	12777.62
588.127	12771.97
588.487	12792.98
588.846	12990.72
589.206	12982.81
589.565	13023.71
589.925	13183.48
590.284	13179.19
590.643	13285.63
591.003	13340.77
591.362	13449.01
591.721	13342.12
592.08	13471.61
592.44	13653.75
592.799	13676.12
593.158	13691.26
593.517	13739.4
593.876	13847.64
594.235	13895.55
594.593	13962.22
594.952	13965.61
595.311	14026.17
595.67	14104.13
596.029	14266.16
596.387	14287.41
596.746	14441.75
597.104	14328.31
597.463	14444.01
597.822	14527.17
598.18	14463.9
598.538	14467.06
598.897	14630.45
599.255	14621.86
599.613	14788.18
599.972	14821.4
600.33	14865.02
600.688	14857.79
601.046	14926.94
601.404	15032.47
601.762	14993.6
602.12	15072.47
602.478	15219.81
602.836	15228.4
603.194	15155.63
603.552	15274.05
603.91	15253.71
604.268	15274.5
604.625	15344.55
604.983	15425.23
605.341	15351.11
605.698	15521.27
606.056	15602.63
606.413	15542.52
606.771	15582.97
607.128	15692.79
607.485	15665.68
607.843	15634.04
608.2	15771.21
608.557	15787.48
608.914	15809.85
609.272	15869.06
609.629	16009.62
609.986	15936.18
610.343	16024.54
610.7	15989.73
611.057	15982.73
611.414	16137.75
611.771	16082.16
612.127	16239.9
612.484	16208.71
612.841	16222.95
613.198	16176.4
613.554	16267.02
613.911	16355.38
614.267	16398.76
614.624	16354.02
614.98	16425.43
615.337	16418.2
615.693	16460.01
616.05	16448.93
616.406	16527.12
616.762	16497.97
617.118	16403.28
617.475	16567.8
617.831	16551.53
618.187	16603.28
618.543	16571.19
618.899	16741.13
619.255	16700.68
619.611	16661.81
619.967	16797.62
620.323	16785.42
620.678	16711.52
621.034	16736.38
621.39	16750.62
621.746	16733.44
622.101	16910.16
622.457	16817.28
622.812	16878.98
623.168	16866.32
623.523	16910.39
623.879	16958.07
624.234	16813.44
624.589	16903.38
624.945	16958.97
625.3	16872.65
625.655	16941.12
626.01	16911.29
626.365	16898.64
626.72	16913.1
627.075	16970.05
627.43	16885.08
627.785	16923.27
628.14	16953.78
628.495	16915.13
628.85	16883.72
629.205	16933.21
629.559	16976.38
629.914	16902.71
630.269	16843.05
630.623	16870.84
630.978	16814.35
631.332	16933.66
631.687	16953.55
632.041	16857.28
632.396	16903.61
632.75	16839.66
633.104	16908.35
633.459	16784.29
633.813	16840.33
634.167	16785.19
634.521	16754.69
634.875	16870.39
635.229	16752.88
635.583	16628.81
635.937	16710.85
636.291	16660.9
636.645	16686.21
636.999	16628.36
637.352	16733.22
637.706	16551.3
638.06	16635.14
638.413	16579.55
638.767	16570.51
639.121	16564.64
639.474	16493
639.828	16482.15
640.181	16525.31
640.534	16560.34
640.888	16353.79
641.241	16380.91
641.594	16384.75
641.947	16439.89
642.301	16467.01
642.654	16349.05
643.007	16484.19
643.36	16383.85
643.713	16401.25
644.066	16456.16
644.419	16389.5
644.771	16264.98
645.124	16140.47
645.477	16158.77
645.83	16010.3
646.182	16005.78
646.535	15889.4
646.888	15836.74
647.24	15776.41
647.593	15963.07
647.945	15782.51
648.298	15786.58
648.65	15692.57
649.002	15752.91
649.355	15850.98
649.707	15830.19
650.059	15911.09
650.411	16096.62
650.763	16162.16
651.115	16281.48
651.467	16239.67
651.819	16224.53
652.171	16236.51
652.523	16175.04
652.875	16176.4
653.227	16213.46
653.578	16316.05
653.93	16274.25
654.282	16177.07
654.633	16212.33
654.985	16155.15
655.337	16140.01
655.688	16204.19
656.039	16259.11
656.391	16260.01
656.742	16230.18
657.094	16208.94
657.445	16197.64
657.796	16246.23
658.147	16221.59
658.498	16212.55
658.849	16195.83
659.2	16227.92
659.551	16089.85
659.902	16246.9
660.253	16280.57
660.604	16267.69
660.955	16191.99
661.306	16234.93
661.656	16231.54
662.007	16288.48
662.358	16256.85
662.708	16276.28
663.059	16239.9
663.409	16167.58
663.76	16209.16
664.11	16272.67
664.461	16337.75
664.811	16337.07
665.161	16259.78
665.511	16241.03
665.862	16274.25
666.212	16240.8
666.562	16211.65
666.912	16342.04
667.262	16281.25
667.612	16308.6
667.962	16328.71
668.312	16320.12
668.662	16292.1
669.011	16304.53
669.361	16234.93
669.711	16368.03
670.06	16148.83
670.41	16185.21
670.76	16160.13
671.109	16183.63
671.459	16189.5
671.808	16175.49
672.157	16164.65
672.507	16065.44
672.856	16117.19
673.205	16155.83
673.554	16257.98
673.904	16124.19
674.253	16144.08
674.602	16228.6
674.951	15919.68
675.3	15773.24
675.649	16072.44
675.998	16107.47
676.346	16001.03
676.695	16100.01
677.044	15951.77
677.393	16078.55
677.741	16024.54
678.09	16001.71
678.438	15914.03
678.787	16043.29
679.135	15959.45
679.484	15835.39
679.832	15909.51
680.181	15826.58
680.529	15803.3
680.877	15772.34
681.225	15780.25
681.573	15794.49
681.922	15767.59
682.27	15622.96
682.618	15681.04
682.966	15639.01
683.314	15701.38
683.661	15591.1
684.009	15515.85
684.357	15485.57
684.705	15422.07
685.053	15458.22
685.4	15421.84
685.748	15356.08
686.095	15342.29
686.443	15225.01
686.79	15307.27
687.138	15274.95
687.485	15300.71
687.832	15207.61
688.18	15218.46
688.527	15126.93
688.874	15081.28
689.221	15139.14
689.568	14958.35
689.915	14876.32
690.262	15004.22
690.609	14862.08
690.956	14851.23
691.303	14918.8
691.65	14726.49
691.997	14732.82
692.344	14692.37
692.69	14648.75
693.037	14735.76
693.383	14513.39
693.73	14607.17
694.077	14503.67
694.423	14438.36
694.769	14477.23
695.116	14334.64
695.462	14326.95
695.808	14258.93
696.155	14320.17
696.501	14224.81
696.847	14173.29
697.193	14037.47
697.539	14218.03
697.885	13973.52
698.231	13954.31
698.577	13841.54
698.923	13902.78
699.269	13727.42
699.614	13723.35
699.96	13733.75
700.306	13643.81
700.651	13598.39
700.997	13541.66
701.342	13509.12
701.688	13437.94
702.033	13415.57
702.379	13358.84
702.724	13312.07
703.069	13365.62
703.415	13174.22
703.76	13149.36
704.105	13158.4
704.45	13120.66
704.795	13049.25
705.14	12964.96
705.485	12954.11
705.83	12863.72
706.175	12881.79
706.52	12899.65
706.865	12729.48
707.209	12785.75
707.554	12670.73
707.899	12748.01
708.243	12652.87
708.588	12711.4
708.932	12518.41
709.277	12559.54
709.621	12553.22
709.966	12454.91
710.31	12565.19
710.654	12342.83
710.998	12414.69
711.342	12404.52
711.687	12379.89
712.031	12338.76
712.375	12265.54
712.719	12320.9
713.063	12290.4
713.407	12273.22
713.75	12187.12
714.094	12211.76
714.438	12121.14
714.782	12205.43
715.125	12101.02
715.469	12105.77
715.812	12035.26
716.156	12023.96
716.499	11976.51
716.843	12025.55
717.186	11968.82
717.53	11978.54
717.873	11963.63
718.216	11881.82
718.559	11859
718.902	11792.33
719.246	11790.75
719.589	11708.94
719.932	11716.4
720.275	11727.25
720.617	11708.04
720.96	11745.1
721.303	11765.44
721.646	11719.34
721.989	11663.52
722.331	11723.63
722.674	11598.21
723.016	11639.79
723.359	11622.84
723.701	11615.61
724.044	11577.87
724.386	11500.36
724.729	11593.24
725.071	11492.68
725.413	11486.58
725.755	11552.79
726.097	11491.32
726.439	11407.93
726.782	11451.1
727.124	11586.91
727.465	11506.91
727.807	11486.8
728.149	11427.82
728.491	11416.75
728.833	11450.65
729.175	11436.41
729.516	11444.32
729.858	11395.05
730.199	11369.97
730.541	11339.91
730.882	11407.48
731.224	11517.08
731.565	11371.78
731.906	11482.96
732.248	11414.49
732.589	11404.09
732.93	11320.03
733.271	11311.44
733.612	11326.13
733.953	11393.47
734.294	11376.3
734.635	11314.6
734.976	11365.45
735.317	11290.88
735.658	11379.46
735.999	11417.2
736.339	11305.79
736.68	11388.05
737.021	11381.72
737.361	11325.22
737.702	11391.21
738.042	11280.93
738.383	11383.3
738.723	11436.63
739.063	11405.45
739.404	11345.11
739.744	11417.88
740.084	11341.72
740.424	11381.95
740.764	11393.47
741.104	11371.1
741.444	11424.88
741.784	11409.97
742.124	11454.71
742.464	11421.04
742.804	11470.31
743.143	11419.01
743.483	11548.72
743.823	11402.51
744.162	11582.85
744.502	11598.44
744.841	11595.05
745.181	11681.83
745.52	11607.7
745.86	11731.77
746.199	11741.71
746.538	11795.49
746.877	11820.35
747.216	11880.01
747.556	11957.98
747.895	11974.93
748.234	12006.34
748.573	11988.26
748.911	12045.66
749.25	12192.32
749.589	12232.32
749.928	12289.04
750.267	12404.74
750.605	12382.82
750.944	12487.45
751.283	12461.92
751.621	12682.25
751.96	12687.9
752.298	12837.95
752.636	12840.21
752.975	12947.1
753.313	13040.66
753.651	13177.61
753.989	13293.31
754.327	13356.81
754.666	13449.91
755.004	13615.11
755.342	13759.51
755.679	13865.05
756.017	13823.24
756.355	14144.81
756.693	14102.33
757.031	14310.01
757.368	14438.14
757.706	14557.23
758.044	14637.23
758.381	14784.57
