Data from hue_310_FLMS001491_80.txt Node
Date: Mon Feb 06 15:50:10 GMT 2017
User: dcchb
Spectrometer: FLMS00149
Trigger mode: 0
Integration Time (sec): 2.000000E-2
Scans to average: 10
Electric dark correction enabled: true
Nonlinearity correction enabled: false
Boxcar width: 0
XAxis mode: Wavelengths
Number of Pixels in Spectrum: 2048
>>>>>Begin Spectral Data<<<<<
341.393	-5.58
341.776	-5.58
342.16	-5.58
342.543	-56.88
342.927	-73.83
343.31	-65.01
343.693	-55.97
344.077	-48.74
344.46	-73.15
344.843	-55.97
345.226	-41.96
345.61	-15.97
345.993	-17.78
346.376	-27.05
346.759	21.76
347.142	29.45
347.525	28.32
347.908	57.7
348.291	63.35
348.674	94.53
349.057	106.51
349.44	140.18
349.823	132.04
350.206	160.74
350.588	190.35
350.971	222.44
351.354	232.15
351.737	238.03
352.119	269.67
352.502	270.8
352.884	258.37
353.267	280.06
353.65	308.54
354.032	289.33
354.414	275.32
354.797	314.41
355.179	324.13
355.562	333.62
355.944	352.15
356.326	344.02
356.709	355.09
357.091	332.27
357.473	328.88
357.855	357.8
358.238	350.12
358.62	369.55
359.002	350.57
359.384	363.68
359.766	352.83
360.148	358.93
360.53	360.74
360.912	322.32
361.294	319.38
361.676	332.49
362.057	340.85
362.439	348.54
362.821	353.51
363.203	330.68
363.584	337.46
363.966	320.29
364.348	327.29
364.729	345.15
365.111	322.77
365.493	329.78
365.874	317.8
366.256	320.29
366.637	327.29
367.019	331.59
367.4	333.85
367.781	318.93
368.163	300.4
368.544	328.2
368.925	325.94
369.306	330.91
369.688	311.93
370.069	332.27
370.45	318.48
370.831	333.17
371.212	321.87
371.593	319.61
371.974	314.64
372.355	319.61
372.736	319.16
373.117	319.38
373.498	333.17
373.879	307.41
374.26	315.99
374.641	312.38
375.021	319.61
375.402	334.07
375.783	330.23
376.163	333.62
376.544	315.32
376.925	315.54
377.305	322.32
377.686	307.41
378.066	335.2
378.447	339.72
378.827	341.3
379.208	340.63
379.588	339.27
379.968	345.82
380.349	335.66
380.729	334.3
381.109	336.11
381.489	320.51
381.87	357.35
382.25	361.87
382.63	353.06
383.01	318.03
383.39	347.41
383.77	335.66
384.15	351.7
384.53	348.76
384.91	349.89
385.29	351.7
385.67	354.19
386.049	357.12
386.429	341.76
386.809	344.02
387.189	369.55
387.568	369.55
387.948	367.29
388.328	351.93
388.707	389.44
389.087	376.33
389.466	381.98
389.846	360.74
390.225	375.43
390.605	381.3
390.984	365.48
391.363	370
391.743	363.22
392.122	357.58
392.501	370.23
392.881	355.99
393.26	387.86
393.639	397.57
394.018	374.52
394.397	379.5
394.776	380.85
395.155	398.7
395.534	388.31
395.913	412.26
396.292	405.03
396.671	398.03
397.05	410.23
397.429	403.9
397.808	391.02
398.186	389.21
398.565	415.2
398.944	413.17
399.323	416.78
399.701	426.95
400.08	403
400.458	421.3
400.837	422.21
401.215	398.03
401.594	447.74
401.972	426.27
402.351	434.18
402.729	428.99
403.107	415.2
403.486	412.26
403.864	438.03
404.242	455.2
404.62	445.93
404.999	433.51
405.377	448.42
405.755	455.2
406.133	471.92
406.511	467.85
406.889	479.83
407.267	459.95
407.645	471.24
408.023	477.57
408.401	476.89
408.779	478.02
409.156	499.49
409.534	494.75
409.912	514.41
410.29	498.81
410.667	522.77
411.045	528.42
411.422	524.35
411.8	537.91
412.178	534.97
412.555	539.72
412.933	555.54
413.31	577
413.687	583.78
414.065	592.6
414.442	577.46
414.819	596.44
415.197	596.67
415.574	623.33
415.951	624.69
416.328	605.03
416.705	599.83
417.082	643.44
417.46	631.47
417.837	647.29
418.214	642.31
418.591	682.09
418.967	644.35
419.344	654.29
419.721	686.15
420.098	685.25
420.475	719.15
420.852	721.18
421.228	727.51
421.605	727.96
421.982	752.59
422.358	762.31
422.735	749.66
423.111	765.02
423.488	788.52
423.864	758.02
424.241	789.65
424.617	790.11
424.994	784.91
425.37	819.94
425.746	803.67
426.123	823.33
426.499	829.88
426.875	819.71
427.251	854.29
427.627	857
428.003	881.63
428.379	897.22
428.756	899.93
429.132	899.48
429.507	922.08
429.883	927.5
430.259	917.11
430.635	951.23
431.011	928.18
431.387	959.59
431.763	969.76
432.138	980.84
432.514	992.13
432.89	1003.43
433.265	1030.1
433.641	1064.68
434.016	1044.79
434.392	1041.63
434.767	1050.66
435.143	1070.78
435.518	1082.53
435.894	1083.66
436.269	1109.87
436.644	1097.67
437.02	1135.18
437.395	1142.19
437.77	1136.54
438.145	1166.37
438.52	1175.41
438.895	1194.62
439.271	1177.89
439.646	1205.24
440.021	1217.89
440.395	1214.95
440.77	1202.52
441.145	1232.13
441.52	1227.38
441.895	1268.29
442.27	1249.3
442.645	1250.66
443.019	1267.16
443.394	1259.7
443.769	1259.7
444.143	1270.77
444.518	1294.5
444.892	1271
445.267	1264.9
445.641	1294.05
446.016	1313.26
446.39	1319.13
446.764	1326.14
447.139	1316.65
447.513	1352.35
447.887	1321.84
448.262	1357.32
448.636	1353.93
449.01	1344.44
449.384	1360.49
449.758	1374.95
450.132	1369.07
450.506	1367.94
450.88	1369.98
451.254	1389.86
451.628	1376.08
452.002	1382.86
452.376	1399.58
452.75	1404.55
453.123	1394.16
453.497	1418.56
453.871	1431.22
454.244	1467.15
454.618	1477.32
454.992	1485.46
455.365	1483.87
455.739	1520.93
456.112	1517.77
456.486	1518.9
456.859	1553.02
457.232	1542.4
457.606	1541.5
457.979	1559.35
458.352	1600.03
458.725	1586.92
459.099	1602.97
459.472	1619.69
459.845	1608.39
460.218	1672.34
460.591	1642.51
460.964	1675.28
461.337	1694.72
461.71	1696.98
462.083	1721.83
462.456	1704.43
462.829	1714.15
463.201	1744.88
463.574	1745.79
463.947	1758.67
464.32	1791.21
464.692	1818.33
465.065	1778.33
465.438	1829.63
465.81	1839.8
466.183	1858.33
466.555	1912.34
466.928	1879.34
467.3	1899.68
467.672	1941.26
468.045	1940.36
468.417	1956.63
468.789	1960.25
469.161	1970.87
469.534	2007.7
469.906	2023.52
470.278	2025.55
470.65	2060.58
471.022	2110.98
471.394	2127.7
471.766	2132.44
472.138	2115.27
472.51	2175.38
472.882	2175.83
473.253	2193.46
473.625	2215.38
473.997	2269.39
474.369	2259.67
474.74	2310.74
475.112	2307.35
475.484	2309.16
475.855	2387.58
476.227	2363.62
476.598	2426.45
476.97	2442.27
477.341	2476.39
477.713	2534.02
478.084	2485.2
478.455	2545.31
478.827	2575.14
479.198	2626.44
479.569	2617.18
479.94	2677.29
480.311	2686.1
480.682	2740.34
481.053	2770.39
481.424	2833.67
481.795	2843.39
482.166	2871.18
482.537	2910.73
482.908	2924.06
483.279	2935.36
483.65	2979.43
484.021	3022.59
484.391	3059.43
484.762	3040.89
485.133	3061.46
485.503	3120.89
485.874	3180.33
486.244	3190.27
486.615	3235.69
486.985	3286.09
487.356	3319.76
487.726	3353.43
488.097	3390.49
488.467	3333.54
488.837	3417.83
489.207	3458.28
489.578	3513.2
489.948	3501.67
490.318	3539.64
490.688	3565.17
491.058	3635.23
491.428	3647.21
491.798	3664.38
492.168	3741.22
492.538	3724.27
492.908	3766.53
493.278	3778.73
493.648	3830.25
494.017	3849.46
494.387	3841.55
494.757	3827.54
495.126	3892.17
495.496	3937.14
495.866	3923.13
496.235	3965.39
496.605	4004.94
496.974	4014.88
497.344	4028.67
497.713	4021.21
498.082	4066.4
498.452	4107.76
498.821	4095.1
499.19	4117.93
499.559	4134.88
499.928	4165.84
500.298	4193.41
500.667	4234.99
501.036	4237.02
501.405	4238.83
501.774	4283.8
502.143	4299.17
502.512	4286.29
502.88	4304.36
503.249	4291.48
503.618	4374.64
503.987	4357.47
504.356	4377.13
504.724	4417.36
505.093	4447.19
505.462	4397.47
505.83	4450.8
506.199	4489.22
506.567	4537.13
506.936	4471.82
507.304	4509.56
507.672	4538.48
508.041	4543.23
508.409	4600.85
508.777	4580.74
509.145	4650.34
509.514	4606.05
509.882	4684.02
510.25	4645.37
510.618	4718.82
510.986	4710
511.354	4714.75
511.722	4730.34
512.09	4783.22
512.458	4720.85
512.826	4762.43
513.193	4828.87
513.561	4778.02
513.929	4784.8
514.297	4837.23
514.664	4888.3
515.032	4854.63
515.4	4909.55
515.767	4910.9
516.135	4965.59
516.502	4912.71
516.869	4970.34
517.237	5008.07
517.604	4964.01
517.972	4976.21
518.339	5006.27
518.706	4971.69
519.073	5012.82
519.44	5095.98
519.808	5090.56
520.175	5114.74
520.542	5129.88
520.909	5147.73
521.276	5164.91
521.643	5151.12
522.009	5188.18
522.376	5241.06
522.743	5268.41
523.11	5288.07
523.477	5294.17
523.843	5326.26
524.21	5383.43
524.577	5415.3
524.943	5368.97
525.31	5403.54
525.676	5462.53
526.043	5489.87
526.409	5511.56
526.776	5551.34
527.142	5541.39
527.508	5573.71
527.874	5621.39
528.241	5682.63
528.607	5659.36
528.973	5750.43
529.339	5692.35
529.705	5769.18
530.071	5763.53
530.437	5800.14
530.803	5846.7
531.169	5819.8
531.535	5906.81
531.901	5873.14
532.267	5897.09
532.632	5986.58
532.998	5969.63
533.364	6026.13
533.73	6049.18
534.095	6025.67
534.461	6013.7
534.826	6061.83
535.192	6132.56
535.557	6188.38
535.923	6173.69
536.288	6175.73
536.653	6192.45
537.019	6262.05
537.384	6257.53
537.749	6303.41
538.114	6297.53
538.479	6344.76
538.845	6353.35
539.21	6375.5
539.575	6397.87
539.94	6425.66
540.305	6467.02
540.67	6477.64
541.034	6468.6
541.399	6509.28
541.764	6596.96
542.129	6554.25
542.494	6556.28
542.858	6671.31
543.223	6686.9
543.587	6728.03
543.952	6752.89
544.316	6729.39
544.681	6738.2
545.045	6787.24
545.41	6784.3
545.774	6892.54
546.138	6849.16
546.503	6847.12
546.867	6868.59
547.231	6963.5
547.595	6966.22
547.959	7014.35
548.324	7022.71
548.688	7037.63
549.052	7069.94
549.416	7089.6
549.779	7088.47
550.143	7111.75
550.507	7177.06
550.871	7174.57
551.235	7171.41
551.599	7201.01
551.962	7265.42
552.326	7236.26
552.689	7336.37
553.053	7299.99
553.417	7327.34
553.78	7396.94
554.143	7381.8
554.507	7417.5
554.87	7437.84
555.234	7451.85
555.597	7481.91
555.96	7515.81
556.323	7549.02
556.686	7496.14
557.05	7580.21
557.413	7612.3
557.776	7591.74
558.139	7657.27
558.502	7678.51
558.865	7697.5
559.228	7702.24
559.59	7788.11
559.953	7783.14
560.316	7797.83
560.679	7808.23
561.041	7882.8
561.404	7839.41
561.767	7933.65
562.129	7933.2
562.492	7992.63
562.854	8012.97
563.217	7986.98
563.579	8021.1
563.941	8085.73
564.304	8078.28
564.666	8110.59
565.028	8166.64
565.39	8157.82
565.753	8196.92
566.115	8187.43
566.477	8274.2
566.839	8267.65
567.201	8326.63
567.563	8279.63
567.925	8379.51
568.287	8438.72
568.648	8364.14
569.01	8467.64
569.372	8475.55
569.734	8514.2
570.095	8513.75
570.457	8601.65
570.819	8592.84
571.18	8669
571.542	8684.81
571.903	8771.14
572.265	8778.37
572.626	8804.58
572.987	8901.76
573.349	8951.02
573.71	9015.65
574.071	8998.03
574.432	9087.29
574.794	9162.32
575.155	9199.15
575.516	9214.07
575.877	9339.94
576.238	9348.75
576.599	9465.36
576.96	9544.9
577.32	9611.12
577.681	9737.44
578.042	9751
578.403	9840.49
578.763	9925.01
579.124	10030.54
579.485	10052.01
579.845	10277.77
580.206	10298.78
580.566	10409.06
580.927	10579.91
581.287	10711.43
581.648	10823.51
582.008	10973.12
582.368	11097.18
582.728	11256.27
583.089	11355.93
583.449	11508.92
583.809	11600.44
584.169	11880.21
584.529	12046.53
584.889	12272.29
585.249	12410.59
585.609	12621.43
585.969	12906.62
586.329	13103
586.688	13240.63
587.048	13512.03
587.408	13667.28
587.768	13960.38
588.127	14117.21
588.487	14433.82
588.846	14812.34
589.206	14882.17
589.565	15119
589.925	15373.9
590.284	15733.89
590.643	15975.7
591.003	16318.96
591.362	16596.47
591.721	16725.96
592.08	17140.64
592.44	17471.25
592.799	17786.27
593.158	17974.29
593.517	18323.88
593.876	18612.01
594.235	18900.59
594.593	19119.79
594.952	19473.46
595.311	19799.32
595.67	20031.63
596.029	20382.13
596.387	20727.89
596.746	21089.01
597.104	21281.77
597.463	21589.79
597.822	21965.14
598.18	22233.61
598.538	22512.92
598.897	22886.02
599.255	22936.42
599.613	23660.69
599.972	23723.97
600.33	24041.02
600.688	24308.36
601.046	24713.55
601.404	25013.65
601.762	25282.8
602.12	25623.8
602.478	25887.98
602.836	26115.77
603.194	26341.52
603.552	26635.75
603.91	26805.24
604.268	27172.69
604.625	27247.72
604.983	27603.41
605.341	27810.19
605.698	28211.31
606.056	28574.01
606.413	28672.31
606.771	29036.6
607.128	29321.11
607.485	29320.43
607.843	29618.5
608.2	30032.95
608.557	30338.03
608.914	30441.3
609.272	30694.18
609.629	31096.43
609.986	31310.21
610.343	31295.07
610.7	31684.44
611.057	31846.69
611.414	32014.6
611.771	32180.92
612.127	32475.83
612.484	32451.42
612.841	32898.41
613.198	33008.02
613.554	33198.07
613.911	33586.98
614.267	33629.92
614.624	33665.85
614.98	33972.74
615.337	34192.39
615.693	34374.31
616.05	34446.85
616.406	34763.45
616.762	34722.77
617.118	34898.81
617.475	34956.21
617.831	35326.15
618.187	35536.31
618.543	35569.53
618.899	35958.22
619.255	36038.22
619.611	35967.49
619.967	36214.49
620.323	36442.05
620.678	36363.86
621.034	36437.08
621.39	36597.75
621.746	36703.29
622.101	37127.46
622.457	36941.7
622.812	37103.28
623.168	37276.38
623.523	37391.18
623.879	37461.46
624.234	37336.49
624.589	37492.64
624.945	37718.63
625.3	37683.6
625.655	37896.7
626.01	38042.91
626.365	38036.36
626.72	38128.79
627.075	38126.98
627.43	38126.07
627.785	38126.75
628.14	38358.38
628.495	38443.13
628.85	38510.24
629.205	38399.96
629.559	38700.75
629.914	38488.1
630.269	38601.32
630.623	38557.47
630.978	38401.77
631.332	38762.89
631.687	38896.67
632.041	38536.68
632.396	38818.94
632.75	38714.76
633.104	38794.76
633.459	38639.73
633.813	38802.67
634.167	38595.21
634.521	38812.61
634.875	38853.51
635.229	38878.14
635.583	38840.63
635.937	38821.42
636.291	38858.71
636.645	38741.2
636.999	38864.36
637.352	38864.81
637.706	38695.32
638.06	39001.53
638.413	38799.73
638.767	38668.66
639.121	38789.56
639.474	38641.31
639.828	38761.99
640.181	38736.91
640.534	38791.82
640.888	38746.85
641.241	38527.87
641.594	38601.54
641.947	38766.96
642.301	38771.03
642.654	38818.48
643.007	38813.74
643.36	38646.51
643.713	38625.27
644.066	38887.41
644.419	38621.2
644.771	38477.93
645.124	37918.17
645.477	37943.93
645.83	37853.09
646.182	37695.12
646.535	37555.47
646.888	37649.93
647.24	37375.81
647.593	37766.31
647.945	37440.89
648.298	37471.4
648.65	37287.23
649.002	37408.35
649.355	37447
649.707	37370.84
650.059	37573.09
650.411	37972.18
650.763	38123.81
651.115	38473.18
651.467	38260.31
651.819	38243.36
652.171	38027.77
652.523	38180.54
652.875	38166.3
653.227	37964.27
653.578	38248.1
653.93	38175.34
654.282	37966.53
654.633	37937.15
654.985	38118.84
655.337	38145.96
655.688	38060.09
656.039	38209.24
656.391	37923.37
656.742	37946.42
657.094	37986.64
657.445	38026.87
657.796	37888.79
658.147	38035.45
658.498	37872.75
658.849	37999.52
659.2	37961.11
659.551	37793.43
659.902	37992.29
660.253	37808.79
660.604	38079.97
660.955	37689.48
661.306	37864.84
661.656	37805.86
662.007	37876.36
662.358	37816.7
662.708	37826.19
663.059	37684.73
663.409	37577.61
663.76	37857.38
664.11	37782.13
664.461	37970.6
664.811	37820.09
665.161	37906.19
665.511	37756.37
665.862	37918.85
666.212	37886.76
666.562	37892.18
666.912	37770.83
667.262	37680.89
667.612	37660.32
667.962	37720.89
668.312	37710.49
668.662	37795.91
669.011	37724.05
669.361	37710.27
669.711	37624.84
670.06	37527.67
670.41	37619.19
670.76	37580.33
671.109	37673.43
671.459	37664.84
671.808	37612.19
672.157	37665.52
672.507	37394.79
672.856	37463.04
673.205	37492.19
673.554	37521.8
673.904	37568.12
674.253	37612.19
674.602	37434.11
674.951	37025.54
675.3	36796.17
675.649	37534
675.998	37359.09
676.346	37380.56
676.695	37535.58
677.044	37228.47
677.393	37336.04
677.741	37413.32
678.09	37225.76
678.438	37185.53
678.787	37254.23
679.135	37188.92
679.484	37079.32
679.832	37215.82
680.181	36915.26
680.529	37165.87
680.877	36980.34
681.225	36864.41
681.573	37002.94
681.922	36878.2
682.27	36839.1
682.618	36785.09
682.966	36705.09
683.314	36744.19
683.661	36602.72
684.009	36503.74
684.357	36421.71
684.705	36474.37
685.053	36395.05
685.4	36294.71
685.748	36129.97
686.095	36289.51
686.443	36096.97
686.79	36113.92
687.138	36163.87
687.485	36036.86
687.832	35976.07
688.18	35956.19
688.527	35873.7
688.874	35840.94
689.221	35670.55
689.568	35616.54
689.915	35489.08
690.262	35501.28
690.609	35337.67
690.956	35318.69
691.303	35330.67
691.65	35182.42
691.997	35178.81
692.344	35002.31
692.69	34920.73
693.037	34973.39
693.383	34799.83
693.73	34810.91
694.077	34679.38
694.423	34663.11
694.769	34519.61
695.116	34429.67
695.462	34387.19
695.808	34353.52
696.155	34300.41
696.501	34127.76
696.847	34104.26
697.193	33891.83
697.539	33929.12
697.885	33619.98
698.231	33650.94
698.577	33758.05
698.923	33576.59
699.269	33335.69
699.614	33237.61
699.96	33279.2
700.306	33226.54
700.651	33105.64
700.997	32947.68
701.342	32929.6
701.688	32940.67
702.033	32830.85
702.379	32810.06
702.724	32664.52
703.069	32665.43
703.415	32304.31
703.76	32328.94
704.105	32343.4
704.45	32248.71
704.795	32157.64
705.14	32020.92
705.485	32023.64
705.83	32014.82
706.175	31860.48
706.52	31802.4
706.865	31680.59
707.209	31675.17
707.554	31578.22
707.899	31593.36
708.243	31486.02
708.588	31379.58
708.932	31199.93
709.277	31230.21
709.621	31382.3
709.966	31019.82
710.31	31093.72
710.654	30851.46
710.998	30850.56
711.342	30905.47
711.687	30838.13
712.031	30719.49
712.375	30628.64
712.719	30591.36
713.063	30498.48
713.407	30759.26
713.75	30484.92
714.094	30458.93
714.438	30328.76
714.782	30333.06
715.125	30154.53
715.469	30278.82
715.812	30181.42
716.156	29927.42
716.499	29853.75
716.843	29932.62
717.186	29831.83
717.53	29883.13
717.873	29827.76
718.216	29742.11
718.559	29615.11
718.902	29484.95
719.246	29586.19
719.589	29551.61
719.932	29289.7
720.275	29350.03
720.617	29276.81
720.96	29020.1
721.303	29221.45
721.646	29180.32
721.989	29010.83
722.331	29244.73
722.674	29065.07
723.016	29038.4
723.359	29042.02
723.701	28995.47
724.044	28705.3
724.386	28676.83
724.729	28731.97
725.071	28715.02
725.413	28713.21
725.755	28748.24
726.097	28409.95
726.439	28428.25
726.782	28309.16
727.124	28538.08
727.465	28384.18
727.807	28278.2
728.149	28255.82
728.491	28310.74
728.833	28296.28
729.175	28223.06
729.516	28167.92
729.858	28049.05
730.199	28063.29
730.541	28027.13
730.882	27964.99
731.224	28106.68
731.565	27809.73
731.906	27914.59
732.248	27926.34
732.589	27719.57
732.93	27726.8
733.271	27576.07
733.612	27716.18
733.953	27692.45
734.294	27628.27
734.635	27616.52
734.976	27522.96
735.317	27314.61
735.658	27474.6
735.999	27337.2
736.339	27292.69
736.68	27321.84
737.021	27196.87
737.361	27139.02
737.702	27398.67
738.042	27104.89
738.383	27188.28
738.723	27115.06
739.063	27020.15
739.404	27094.5
739.744	27018.8
740.084	26923.2
740.424	26920.04
740.764	26941.51
741.104	26923.66
741.444	26734.51
741.784	26745.13
742.124	26730.22
742.464	26716.88
742.804	26599.82
743.143	26511.24
743.483	26670.78
743.823	26470.79
744.162	26426.72
744.502	26557.11
744.841	26363.9
745.181	26469.66
745.52	26276.89
745.86	26297.01
746.199	26245.71
746.538	26310.34
746.877	26238.02
747.216	26180.4
747.556	26170.68
747.895	26198.93
748.234	26011.36
748.573	25976.11
748.911	25967.75
749.25	26011.14
749.589	25795.32
749.928	25879.84
750.267	25815.44
750.605	25737.7
750.944	25621.32
751.283	25546.52
751.621	25622.22
751.96	25487.31
752.298	25396.01
752.636	25417.03
752.975	25375.45
753.313	25249.8
753.651	25362.57
753.989	25205.06
754.327	25129.35
754.666	25086.87
755.004	25082.12
755.342	24987.89
755.679	24993.99
756.017	24879.87
756.355	24818.4
756.693	24698.18
757.031	24789.7
757.368	24658.41
757.706	24601.23
758.044	24436.94
758.381	24559.2
758.719	24453.89
759.056	24405.3
759.394	24405.3
759.731	24052.55
