Data from hue_90_FLMS001491_26.txt Node
Date: Mon Feb 06 15:24:54 GMT 2017
User: dcchb
Spectrometer: FLMS00149
Trigger mode: 0
Integration Time (sec): 2.000000E-2
Scans to average: 10
Electric dark correction enabled: true
Nonlinearity correction enabled: false
Boxcar width: 0
XAxis mode: Wavelengths
Number of Pixels in Spectrum: 2048
>>>>>Begin Spectral Data<<<<<
341.393	-3.53
341.776	-3.53
342.16	-3.53
342.543	-67.71
342.927	-95.51
343.31	-72
343.693	-70.87
344.077	-74.26
344.46	-63.19
344.843	-33.81
345.226	-30.42
345.61	-28.62
345.993	-38.11
346.376	13.64
346.759	3.02
347.142	38.28
347.525	42.34
347.908	44.38
348.291	73.98
348.674	89.57
349.057	106.07
349.44	122.34
349.823	139.97
350.206	174.77
350.588	189.46
350.971	212.96
351.354	201.21
351.737	252.73
352.119	249.57
352.502	256.8
352.884	261.55
353.267	263.58
353.65	287.53
354.032	282.34
354.414	301.77
354.797	307.2
355.179	311.49
355.562	322.34
355.944	319.85
356.326	328.89
356.709	313.75
357.091	332.05
357.473	342
357.855	334.54
358.238	337.03
358.62	342.22
359.002	345.16
359.384	342
359.766	337.48
360.148	333.64
360.53	326.86
360.912	318.27
361.294	329.79
361.676	327.76
362.057	319.17
362.439	329.12
362.821	337.48
363.203	327.53
363.584	312.62
363.966	316.23
364.348	330.47
364.729	331.6
365.111	309.23
365.493	307.42
365.874	322.79
366.256	315.56
366.637	320.98
367.019	319.85
367.4	294.09
367.781	315.56
368.163	308.1
368.544	315.33
368.925	323.92
369.306	310.36
369.688	326.18
370.069	328.66
370.45	308.33
370.831	314.43
371.212	315.33
371.593	338.83
371.974	311.26
372.355	288.44
372.736	299.06
373.117	297.03
373.498	323.01
373.879	313.3
374.26	298.61
374.641	326.86
375.021	302.45
375.402	328.44
375.783	317.14
376.163	331.83
376.544	330.02
376.925	325.05
377.305	326.18
377.686	323.69
378.066	340.41
378.447	332.51
378.827	318.49
379.208	312.39
379.588	338.38
379.968	340.64
380.349	348.1
380.729	312.62
381.109	321.88
381.489	328.44
381.87	343.8
382.25	355.1
382.63	344.26
383.01	353.3
383.39	348.1
383.77	337.7
384.15	335.67
384.53	344.03
384.91	359.17
385.29	355.56
385.67	357.36
386.049	339.51
386.429	345.84
386.809	344.48
387.189	353.75
387.568	372.96
387.948	368.44
388.328	356.69
388.707	353.07
389.087	344.48
389.466	370.47
389.846	365.95
390.225	393.75
390.605	372.28
390.984	368.89
391.363	380.19
391.743	372.28
392.122	378.61
392.501	373.86
392.881	363.92
393.26	369.11
393.639	377.93
394.018	380.87
394.397	394.42
394.776	365.95
395.155	404.82
395.534	400.75
395.913	377.93
396.292	387.87
396.671	384.93
397.05	398.27
397.429	379.28
397.808	391.26
398.186	394.42
398.565	396.46
398.944	382.9
399.323	429.23
399.701	400.53
400.08	415.89
400.458	410.7
400.837	403.24
401.215	427.87
401.594	417.7
401.972	405.5
402.351	425.16
402.729	404.59
403.107	412.96
403.486	439.85
403.864	410.92
404.242	426.06
404.62	404.82
404.999	429.45
405.377	430.81
405.755	412.28
406.133	446.63
406.511	457.7
406.889	431.71
407.267	454.54
407.645	445.72
408.023	425.38
408.401	441.66
408.779	455.67
409.156	452.95
409.534	431.49
409.912	443.24
410.29	456.12
410.667	465.16
411.045	472.39
411.422	485.27
411.8	450.92
412.178	470.13
412.555	474.65
412.933	483.91
413.31	478.72
413.687	506.06
414.065	524.59
414.442	488.21
414.819	483.46
415.197	527.08
415.574	516.91
415.951	510.13
416.328	514.42
416.705	511.48
417.082	536.12
417.46	532.95
417.837	517.81
418.214	548.09
418.591	532.95
418.967	546.74
419.344	556.23
419.721	528.66
420.098	538.6
420.475	543.35
420.852	551.71
421.228	548.77
421.605	572.27
421.982	557.58
422.358	560.97
422.735	580.86
423.111	551.93
423.488	564.36
423.864	610.01
424.241	593.06
424.617	596.23
424.994	609.79
425.37	617.7
425.746	627.86
426.123	623.8
426.499	619.96
426.875	626.96
427.251	631.03
427.627	620.18
428.003	617.7
428.379	630.12
428.756	643.91
429.132	659.5
429.507	656.56
429.883	654.08
430.259	667.64
430.635	678.03
431.011	674.87
431.387	683.68
431.763	693.17
432.138	698.6
432.514	702.44
432.89	720.29
433.265	708.54
433.641	723
434.016	721.42
434.392	714.19
434.767	732.72
435.143	758.03
435.518	766.17
435.894	730.69
436.269	769.56
436.644	742.21
437.02	774.08
437.395	760.06
437.77	784.47
438.145	793.06
438.52	818.14
438.895	797.13
439.271	810.91
439.646	821.53
440.021	835.09
440.395	821.98
440.77	824.7
441.145	854.3
441.52	826.28
441.895	840.97
442.27	847.75
442.645	861.76
443.019	867.63
443.394	838.93
443.769	880.97
444.143	900.17
444.518	883.9
444.892	904.02
445.267	893.17
445.641	903.11
446.016	906.5
446.39	913.06
446.764	929.1
447.139	918.93
447.513	911.02
447.887	932.26
448.262	942.43
448.636	932.26
449.01	954.18
449.384	953.05
449.758	960.29
450.132	973.17
450.506	981.08
450.88	1008.65
451.254	993.96
451.628	981.98
452.002	1038.02
452.376	1017.91
452.75	1024.92
453.123	1040.96
453.497	1069.21
453.871	1050.68
454.244	1089.1
454.618	1080.28
454.992	1086.84
455.365	1115.31
455.739	1117.12
456.112	1140.85
456.486	1129.09
456.859	1150.79
457.232	1178.58
457.606	1184.01
457.979	1163.44
458.352	1191.47
458.725	1252.48
459.099	1210.45
459.472	1279.6
459.845	1253.84
460.218	1299.94
460.591	1275.53
460.964	1303.55
461.337	1333.16
461.71	1327.28
462.083	1357.79
462.456	1356.21
462.829	1348.98
463.201	1420.16
463.574	1402.53
463.947	1428.07
464.32	1447.96
464.692	1489.99
465.065	1487.73
465.438	1492.7
465.81	1539.25
466.183	1560.27
466.555	1593.04
466.928	1624.22
467.3	1604.56
467.672	1634.39
468.045	1643.88
468.417	1687.27
468.789	1690.44
469.161	1733.82
469.534	1752.58
469.906	1819.47
470.278	1810.21
470.65	1827.83
471.022	1899.7
471.394	1918.68
471.766	1947.38
472.138	2008.62
472.51	2042.29
472.882	2074.38
473.253	2121.61
473.625	2119.35
473.997	2214.72
474.369	2256.97
474.74	2298.78
475.112	2341.72
475.484	2400.93
475.855	2449.06
476.227	2495.16
476.598	2549.17
476.97	2597.98
477.341	2649.96
477.713	2708.49
478.084	2803.4
478.455	2864.64
478.827	2929.05
479.198	3016.73
479.569	3023.73
479.94	3169.49
480.311	3228.47
480.682	3334.01
481.053	3425.08
481.424	3524.06
481.795	3623.72
482.166	3704.62
482.537	3783.71
482.908	3874.79
483.279	3964.73
483.65	4063.48
484.021	4151.61
484.391	4282.68
484.762	4363.81
485.133	4432.74
485.503	4539.4
485.874	4685.39
486.244	4770.81
486.615	4922.44
486.985	5042.66
487.356	5195.43
487.726	5269.1
488.097	5399.72
488.467	5459.15
488.837	5630.9
489.207	5785.92
489.578	5920.83
489.948	6029.76
490.318	6153.82
490.688	6204.44
491.058	6409.18
491.428	6558.33
491.798	6651.21
492.168	6839.9
492.538	6881.03
492.908	7055.49
493.278	7168.26
493.648	7308.37
494.017	7419.32
494.387	7637.85
494.757	7665.65
495.126	7846.43
495.496	7890.72
495.866	7999.87
496.235	8180.21
496.605	8257.27
496.974	8383.37
497.344	8474.66
497.713	8594.89
498.082	8707.43
498.452	8860.42
498.821	8980.41
499.19	8981.32
499.559	9183.12
499.928	9256.11
500.298	9311.48
500.667	9501.76
501.036	9548.08
501.405	9593.73
501.774	9714.86
502.143	9857.9
502.512	9900.39
502.88	9997.79
503.249	9976.32
503.618	10179.48
503.987	10253.15
504.356	10334.95
504.724	10440.04
505.093	10423.99
505.462	10524.33
505.83	10624.44
506.199	10679.13
506.567	10786.02
506.936	10820.14
507.304	11048.83
507.672	11058.78
508.041	11116.63
508.409	11209.51
508.777	11223.29
509.145	11346.23
509.514	11326.11
509.882	11420.12
510.25	11450.86
510.618	11493.34
510.986	11597.07
511.354	11668.93
511.722	11817.4
512.09	11925.19
512.458	11871.64
512.826	11997.28
513.193	12022.82
513.561	12061.69
513.929	12096.04
514.297	12195.7
514.664	12246.09
515.032	12291.29
515.4	12361.34
515.767	12447.89
516.135	12386.65
516.502	12317.73
516.869	12669.58
517.237	12536.7
517.604	12552.52
517.972	12612.86
518.339	12701.9
518.706	12670.03
519.073	12766.98
519.44	12831.16
519.808	12898.73
520.175	12838.62
520.542	12992.51
520.909	13059.18
521.276	12966.07
521.643	13148.89
522.009	13088.33
522.376	13150.7
522.743	13230.02
523.11	13221.43
523.477	13392.95
523.843	13329.68
524.21	13518.83
524.577	13522.22
524.943	13498.71
525.31	13538.26
525.676	13629.78
526.043	13637.01
526.409	13695.77
526.776	13729.44
527.142	13751.59
527.508	13801.76
527.874	13933.28
528.241	13892.83
528.607	13814.86
528.973	13906.16
529.339	13946.38
529.705	13971.69
530.071	14048.3
530.437	14035.2
530.803	14066.38
531.169	13988.19
531.535	14052.14
531.901	14002.65
532.267	14029.09
532.632	14055.76
532.998	14053.05
533.364	14142.09
533.73	14052.6
534.095	14133.95
534.461	14089.88
534.826	14161.29
535.192	14071.35
535.557	14103.89
535.923	14032.26
536.288	14032.03
536.653	14161.52
537.019	14020.96
537.384	14008.08
537.749	14057.12
538.114	13995.87
538.479	13975.08
538.845	13945.25
539.21	13927.4
539.575	14064.12
539.94	13908.87
540.305	13942.99
540.67	13900.28
541.034	13942.09
541.399	13922.88
541.764	13939.15
542.129	13931.02
542.494	13804.69
542.858	13859.83
543.223	13856.22
543.587	13853.28
543.952	13772.6
544.316	13809.44
544.681	13732.38
545.045	13679.73
545.41	13818.48
545.774	13675.21
546.138	13675.43
546.503	13714.98
546.867	13519.5
547.231	13646.51
547.595	13630.01
547.959	13649.67
548.324	13563.34
548.688	13512.72
549.052	13511.82
549.416	13534.42
549.779	13434.76
550.143	13451.71
550.507	13509.56
550.871	13535.32
551.235	13472.05
551.599	13419.17
551.962	13486.28
552.326	13392.95
552.689	13498.71
553.053	13382.11
553.417	13326.74
553.78	13485.15
554.143	13364.93
554.507	13414.87
554.87	13366.74
555.234	13380.98
555.597	13281.09
555.96	13267.08
556.323	13323.58
556.686	13314.31
557.05	13271.15
557.413	13301.43
557.776	13284.03
558.139	13300.53
558.502	13442.44
558.865	13265.05
559.228	13368.32
559.59	13376
559.953	13288.1
560.316	13395.89
560.679	13343.91
561.041	13398.83
561.404	13383.01
561.767	13391.37
562.129	13423.01
562.492	13543.23
562.854	13482.22
563.217	13407.42
563.579	13480.86
563.941	13537.58
564.304	13550.01
564.666	13647.86
565.028	13582.55
565.39	13555.89
565.753	13644.47
566.115	13576.68
566.477	13653.51
566.839	13651.7
567.201	13684.7
567.563	13613.29
567.925	13705.04
568.287	13739.84
568.648	13681.53
569.01	13753.85
569.372	13845.82
569.734	13808.99
570.095	13819.61
570.457	13924.46
570.819	13876.33
571.18	13859.38
571.542	13910.68
571.903	13985.48
572.265	13960.17
572.626	13970.56
572.987	13971.92
573.349	14049.88
573.71	14015.76
574.071	14015.99
574.432	14022.31
574.794	14042.2
575.155	14151.13
575.516	13988.42
575.877	14077.45
576.238	14138.92
576.599	14042.65
576.96	14092.82
577.32	14073.16
577.681	14151.58
578.042	14227.73
578.403	14130.79
578.763	14139.37
579.124	14227.06
579.485	14200.16
579.845	14229.09
580.206	14132.59
580.566	14205.13
580.927	14191.35
581.287	14213.72
581.648	14180.95
582.008	14222.31
582.368	14175.98
582.728	14200.62
583.089	14185.47
583.449	14137.57
583.809	14146.61
584.169	14151.58
584.529	14063.9
584.889	14253.72
585.249	14114.29
585.609	14130.79
585.969	14140.96
586.329	14111.58
586.688	14111.8
587.048	14179.82
587.408	14084.46
587.768	14119.26
588.127	14060.28
588.487	14048.53
588.846	14084.46
589.206	14043.78
589.565	14088.98
589.925	14055.99
590.284	14055.08
590.643	14094.4
591.003	14129.66
591.362	14062.09
591.721	14034.29
592.08	13999.26
592.44	13996.1
592.799	14092.82
593.158	14037.91
593.517	14004.24
593.876	13971.02
594.235	14076.55
594.593	14033.16
594.952	13967.63
595.311	13910.68
595.67	14043.78
596.029	14117
596.387	14159.03
596.746	14105.93
597.104	14000.85
597.463	13942.09
597.822	13997.46
598.18	13885.82
598.538	13982.54
598.897	14031.35
599.255	13905.03
599.613	14076.1
599.972	13973.73
600.33	13931.02
600.688	13952.49
601.046	13909.55
601.404	14049.43
601.762	13925.37
602.12	14013.95
602.478	13930.57
602.836	13941.64
603.194	13870.45
603.552	13993.62
603.91	13943.45
604.268	13964.69
604.625	13936.67
604.983	13964.01
605.341	13894.41
605.698	13999.72
606.056	14125.14
606.413	14116.1
606.771	14084.69
607.128	14040.17
607.485	13951.81
607.843	13986.84
608.2	14020.73
608.557	14093.05
608.914	14050.79
609.272	14076.1
609.629	14064.35
609.986	14126.27
610.343	14025.93
610.7	14128.53
611.057	14180.28
611.414	14154.97
611.771	14085.14
612.127	14149.54
612.484	14131.69
612.841	14239.94
613.198	14162.2
613.554	14160.84
613.911	14277.9
614.267	14243.1
614.624	14263.66
614.98	14259.14
615.337	14291.46
615.693	14324
616.05	14198.13
616.406	14330.33
616.762	14248.52
617.118	14312.25
617.475	14220.95
617.831	14427.28
618.187	14363.55
618.543	14388.41
618.899	14443.77
619.255	14390.89
619.611	14401.97
619.967	14446.26
620.323	14473.6
620.678	14418.91
621.034	14380.27
621.39	14389.08
621.746	14355.41
622.101	14519.03
622.457	14468.63
622.812	14345.7
623.168	14421.85
623.523	14422.08
623.879	14453.94
624.234	14387.05
624.589	14448.07
624.945	14433.38
625.3	14437.67
625.655	14411.68
626.01	14455.52
626.365	14465.92
626.72	14497.1
627.075	14437.9
627.43	14430.89
627.785	14376.88
628.14	14388.86
628.495	14499.36
628.85	14428.18
629.205	14383.89
629.559	14426.6
629.914	14393.38
630.269	14423.66
630.623	14410.78
630.978	14303.44
631.332	14415.52
631.687	14373.27
632.041	14276.32
632.396	14295.08
632.75	14204.68
633.104	14228.41
633.459	14243.55
633.813	14203.1
634.167	14255.76
634.521	14280.84
634.875	14186.38
635.229	14121.52
635.583	14047.62
635.937	14057.79
636.291	14099.83
636.645	14106.15
636.999	14130.33
637.352	14086.95
637.706	14043.56
638.06	14071.13
638.413	14045.37
638.767	14008.3
639.121	13935.99
639.474	13913.84
639.828	13878.59
640.181	13904.13
640.534	13958.59
640.888	13840.17
641.241	13796.78
641.594	13833.17
641.947	13847.18
642.301	13856.67
642.654	13904.35
643.007	13813.96
643.36	13823.45
643.713	13822.32
644.066	13930.57
644.419	13836.33
644.771	13674.98
645.124	13597.69
645.477	13529.9
645.83	13498.49
646.182	13411.71
646.535	13390.47
646.888	13413.07
647.24	13279.28
647.593	13420.75
647.945	13393.86
648.298	13286.52
648.65	13230.47
649.002	13331.94
649.355	13328.32
649.707	13264.59
650.059	13323.35
650.411	13485.61
650.763	13459.39
651.115	13628.88
651.467	13577.35
651.819	13550.91
652.171	13679.95
652.523	13613.29
652.875	13706.17
653.227	13546.4
653.578	13640.18
653.93	13556.56
654.282	13588.65
654.633	13545.04
654.985	13554.98
655.337	13483.12
655.688	13552.04
656.039	13635.88
656.391	13510.69
656.742	13525.15
657.094	13558.82
657.445	13626.62
657.796	13557.24
658.147	13507.07
658.498	13499.84
658.849	13582.1
659.2	13484.02
659.551	13510.46
659.902	13522.44
660.253	13526.73
660.604	13576
660.955	13517.24
661.306	13547.53
661.656	13539.62
662.007	13547.07
662.358	13609.44
662.708	13530.35
663.059	13536.23
663.409	13548.88
663.76	13572.16
664.11	13647.18
664.461	13520.41
664.811	13579.61
665.161	13584.13
665.511	13625.49
665.862	13607.18
666.212	13654.19
666.562	13754.75
666.912	13562.67
667.262	13724.24
667.612	13586.17
667.962	13652.38
668.312	13594.3
668.662	13622.1
669.011	13598.37
669.361	13514.08
669.711	13507.53
670.06	13465.95
670.41	13457.13
670.76	13503.91
671.109	13543.23
671.459	13519.96
671.808	13453.97
672.157	13513.4
672.507	13394.31
672.856	13422.78
673.205	13483.35
673.554	13493.52
673.904	13407.64
674.253	13529.67
674.602	13371.26
674.951	13230.47
675.3	13198.38
675.649	13439.96
675.998	13415.55
676.346	13430.47
676.695	13403.8
677.044	13292.62
677.393	13332.39
677.741	13354.76
678.09	13319.96
678.438	13252.17
678.787	13289.23
679.135	13395.89
679.484	13157.48
679.832	13299.17
680.181	13266.63
680.529	13240.87
680.877	13096.92
681.225	13194.54
681.573	13231.6
681.922	13162.45
682.27	13043.13
682.618	13058.72
682.966	12958.84
683.314	13048.33
683.661	12960.42
684.009	13018.73
684.357	12924.04
684.705	12876.58
685.053	12856.24
685.4	12790.03
685.748	12804.95
686.095	12826.19
686.443	12732.86
686.79	12677.72
687.138	12732.63
687.485	12697.6
687.832	12651.96
688.18	12687.43
688.527	12583.48
688.874	12657.61
689.221	12531.05
689.568	12482.02
689.915	12433.66
690.262	12498.06
690.609	12423.94
690.956	12399.08
691.303	12413.54
691.65	12268.46
691.997	12340.55
692.344	12231.85
692.69	12171.74
693.037	12211.52
693.383	12066.89
693.73	12107.11
694.077	12047
694.423	11996.83
694.769	11997.06
695.116	11854.69
695.462	11909.38
695.808	11853.78
696.155	11859.89
696.501	11727.01
696.847	11691.08
697.193	11637.07
697.539	11728.36
697.885	11585.32
698.231	11545.32
698.577	11516.84
698.923	11495.38
699.269	11449.73
699.614	11349.62
699.96	11352.55
700.306	11380.58
700.651	11348.26
700.997	11251.77
701.342	11216.96
701.688	11217.42
702.033	11186.68
702.379	11152.56
702.724	11052.68
703.069	11126.8
703.415	10967.48
703.76	10972.23
704.105	10991.66
704.45	10975.62
704.795	10857.2
705.14	10877.99
705.485	10843.19
705.83	10777.65
706.175	10843.64
706.52	10782.17
706.865	10650.88
707.209	10674.15
707.554	10681.84
707.899	10683.19
708.243	10567.04
708.588	10576.08
708.932	10455.86
709.277	10470.54
709.621	10502.86
709.966	10452.92
710.31	10396.87
710.654	10329.08
710.998	10424.44
711.342	10382.18
711.687	10336.54
712.031	10280.04
712.375	10151.91
712.719	10222.87
713.063	10244.79
713.407	10249.76
713.75	10155.75
714.094	10149.42
714.438	10113.04
714.782	10141.74
715.125	10122.3
715.469	10134.73
715.812	10031.01
716.156	10072.59
716.499	9945.59
716.843	9981.97
717.186	9957.79
717.53	9936.77
717.873	9947.39
718.216	9911.01
718.559	9948.3
718.902	9866.27
719.246	9871.24
719.589	9829.2
719.932	9800.73
720.275	9747.4
720.617	9805.02
720.96	9803.44
721.303	9791.24
721.646	9772.03
721.989	9722.99
722.331	9755.31
722.674	9740.39
723.016	9775.19
723.359	9765.7
723.701	9726.38
724.044	9641.19
724.386	9575.65
724.729	9625.14
725.071	9583.79
725.413	9653.39
725.755	9667.4
726.097	9618.14
726.439	9553.51
726.782	9527.07
727.124	9587.4
727.465	9606.16
727.807	9563.68
728.149	9592.83
728.491	9549.66
728.833	9601.19
729.175	9551.92
729.516	9455.2
729.858	9462.66
730.199	9541.53
730.541	9536.78
730.882	9534.3
731.224	9511.25
731.565	9459.05
731.906	9423.79
732.248	9472.83
732.589	9422.66
732.93	9440.74
733.271	9472.6
733.612	9487.29
733.953	9495.88
734.294	9393.06
734.635	9426.73
734.976	9494.3
735.317	9343.12
735.658	9353.51
735.999	9417.69
736.339	9380.18
736.68	9497.91
737.021	9422.66
737.361	9458.59
737.702	9404.13
738.042	9482.1
738.383	9460.85
738.723	9531.13
739.063	9405.49
739.404	9476.67
739.744	9428.54
740.084	9417.46
740.424	9446.39
740.764	9384.92
741.104	9510.34
741.444	9447.52
741.784	9423.57
742.124	9532.94
742.464	9492.94
742.804	9539.49
743.143	9526.61
743.483	9596.44
743.823	9628.76
744.162	9590.57
744.502	9662.2
744.841	9565.71
745.181	9635.76
745.52	9663.33
745.86	9751.24
746.199	9739.94
746.538	9774.97
746.877	9866.94
747.216	9850.67
747.556	9848.64
747.895	9908.07
748.234	9895.64
748.573	9982.87
748.911	9971.12
749.25	10098.58
749.589	10064.45
749.928	10150.55
750.267	10261.74
750.605	10275.97
750.944	10231.68
751.283	10357.1
751.621	10406.36
751.96	10545.12
752.298	10635.51
752.636	10696.75
752.975	10732.23
753.313	10848.39
753.651	10995.73
753.989	10951.21
754.327	11095.39
754.666	11073.24
755.004	11312.33
755.342	11433.91
755.679	11408.37
756.017	11512.55
756.355	11728.36
756.693	11709.61
757.031	11968.81
757.368	11995.25
757.706	12122.7
758.044	12233.89
