Data from hue_24_FLMS001491_00086.txt Node
Date: Tue Feb 07 17:12:52 GMT 2017
User: dcchb
Spectrometer: FLMS00149
Trigger mode: 0
Integration Time (sec): 2.000000E-2
Scans to average: 10
Electric dark correction enabled: true
Nonlinearity correction enabled: false
Boxcar width: 0
XAxis mode: Wavelengths
Number of Pixels in Spectrum: 2048
>>>>>Begin Spectral Data<<<<<
341.393	-25.89
341.776	-25.89
342.16	-25.89
342.543	-63.18
342.927	-70.86
343.31	-52.56
343.693	-68.37
344.077	-86.23
344.46	-77.19
344.843	-35.61
345.226	-51.2
345.61	-20.24
345.993	-8.49
346.376	-15.27
346.759	19.76
347.142	25.41
347.525	46.43
347.908	49.59
348.291	66.09
348.674	77.84
349.057	130.04
349.44	116.93
349.823	135.69
350.206	175.69
350.588	193.99
350.971	217.72
351.354	189.92
351.737	245.06
352.119	265.18
352.502	258.17
352.884	266.08
353.267	293.65
353.65	310.37
354.032	291.62
354.414	299.3
354.797	323.03
355.179	332.97
355.562	329.13
355.944	353.76
356.326	334.55
356.709	349.02
357.091	345.63
357.473	341.78
357.855	359.19
358.238	339.98
358.62	340.88
359.002	349.69
359.384	340.65
359.766	340.2
360.148	335.01
360.53	333.65
360.912	347.21
361.294	346.08
361.676	331.84
362.057	323.48
362.439	344.27
362.821	331.16
363.203	349.92
363.584	308.11
363.966	353.54
364.348	337.27
364.729	322.58
365.111	307.89
365.493	329.58
365.874	321.45
366.256	318.96
366.637	332.07
367.019	323.25
367.4	324.16
367.781	328
368.163	322.12
368.544	330.26
368.925	322.12
369.306	334.33
369.688	351.05
370.069	320.09
370.45	302.24
370.831	343.14
371.212	323.03
371.593	332.07
371.974	299.75
372.355	348.79
372.736	314.21
373.117	322.8
373.498	318.73
373.879	311.96
374.26	318.96
374.641	328.45
375.021	319.86
375.402	322.35
375.783	325.74
376.163	323.25
376.544	321.67
376.925	308.57
377.305	344.04
377.686	344.04
378.066	330.03
378.447	346.53
378.827	344.95
379.208	335.23
379.588	334.78
379.968	331.84
380.349	339.07
380.729	331.39
381.109	349.24
381.489	351.28
381.87	346.98
382.25	341.78
382.63	348.79
383.01	356.02
383.39	353.76
383.77	339.3
384.15	346.3
384.53	364.16
384.91	341.56
385.29	347.66
385.67	352.63
386.049	368.22
386.429	350.15
386.809	357.83
387.189	358.96
387.568	356.47
387.948	358.06
388.328	363.93
388.707	366.87
389.087	382.24
389.466	367.77
389.846	377.49
390.225	385.4
390.605	375
390.984	383.59
391.363	392.4
391.743	372.29
392.122	403.25
392.501	386.3
392.881	397.83
393.26	385.63
393.639	389.69
394.018	385.85
394.397	386.98
394.776	396.25
395.155	391.73
395.534	385.85
395.913	394.21
396.292	410.26
396.671	379.3
397.05	368.45
397.429	408
397.808	382.24
398.186	410.71
398.565	405.96
398.944	403.7
399.323	421.56
399.701	432.4
400.08	426.3
400.458	418.84
400.837	409.81
401.215	438.73
401.594	424.49
401.972	408
402.351	422.01
402.729	395.12
403.107	434.66
403.486	433.99
403.864	409.35
404.242	425.17
404.62	425.85
404.999	425.17
405.377	439.41
405.755	448.45
406.133	422.91
406.511	433.76
406.889	449.58
407.267	455.45
407.645	458.39
408.023	446.41
408.401	460.2
408.779	466.98
409.156	462.46
409.534	453.65
409.912	444.61
410.29	448.45
410.667	489.13
411.045	469.69
411.422	481.44
411.8	470.37
412.178	496.58
412.555	480.09
412.933	466.98
413.31	477.83
413.687	487.54
414.065	501.78
414.442	489.58
414.819	518.73
415.197	508.33
415.574	513.08
415.951	510.14
416.328	502.68
416.705	506.07
417.082	513.98
417.46	512.85
417.837	499.75
418.214	514.21
418.591	520.76
418.967	520.09
419.344	534.55
419.721	515.34
420.098	544.94
420.475	550.82
420.852	532.06
421.228	534.1
421.605	534.1
421.982	544.94
422.358	545.62
422.735	550.59
423.111	535.23
423.488	572.51
423.864	572.74
424.241	560.99
424.617	592.4
424.994	576.58
425.37	573.87
425.746	605.05
426.123	598.5
426.499	603.7
426.875	598.28
427.251	577.71
427.627	589.01
428.003	612.51
428.379	623.36
428.756	608.44
429.132	624.72
429.507	621.1
429.883	654.54
430.259	637.14
430.635	639.4
431.011	641.66
431.387	646.18
431.763	660.65
432.138	667.65
432.514	665.84
432.89	676.24
433.265	688.67
433.641	704.94
434.016	696.13
434.392	712.17
434.767	717.37
435.143	697.03
435.518	682.11
435.894	732.96
436.269	738.38
436.644	716.01
437.02	751.27
437.395	739.51
437.77	762.56
438.145	761.66
438.52	753.75
438.895	759.17
439.271	787.2
439.646	784.26
440.021	788.33
440.395	786.29
440.77	776.35
441.145	782.68
441.52	795.78
441.895	799.85
442.27	817.7
442.645	821.77
443.019	833.75
443.394	815.44
443.769	822.9
444.143	836.46
444.518	835.56
444.892	806.86
445.267	818.38
445.641	841.43
446.016	840.3
446.39	858.83
446.764	869.91
447.139	857.25
447.513	866.74
447.887	884.82
448.262	890.7
448.636	888.21
449.01	885.27
449.384	885.73
449.758	909
450.132	900.87
450.506	900.64
450.88	931.37
451.254	919.4
451.628	904.93
452.002	932.28
452.376	932.5
452.75	943.58
453.123	967.08
453.497	978.6
453.871	991.71
454.244	976.8
454.618	1019.96
454.992	997.13
455.365	1001.43
455.739	1021.31
456.112	1026.51
456.486	1044.59
456.859	1018.6
457.232	1049.56
457.606	1063.57
457.979	1049.11
458.352	1082.78
458.725	1104.7
459.099	1141.99
459.472	1131.37
459.845	1134.76
460.218	1120.97
460.591	1153.97
460.964	1158.26
461.337	1181.99
461.71	1192.84
462.083	1206.62
462.456	1212.5
462.829	1226.06
463.201	1261.53
463.574	1251.82
463.947	1262.89
464.32	1277.35
464.692	1281.65
465.065	1320.29
465.438	1278.71
465.81	1342.44
466.183	1362.55
466.555	1395.54
466.928	1397.58
467.3	1378.37
467.672	1397.8
468.045	1464.69
468.417	1468.31
468.789	1466.28
469.161	1452.72
469.534	1485.26
469.906	1531.81
470.278	1513.73
470.65	1568.65
471.022	1601.64
471.394	1627.85
471.766	1628.98
472.138	1626.5
472.51	1675.08
472.882	1730.22
473.253	1746.49
473.625	1757.34
473.997	1787.85
474.369	1795.98
474.74	1824.46
475.112	1862.65
475.484	1891.57
475.855	1935.87
476.227	1934.74
476.598	1971.12
476.97	2021.51
477.341	2060.84
477.713	2090.67
478.084	2107.61
478.455	2171.79
478.827	2164.34
479.198	2260.15
479.569	2264.22
479.94	2322.52
480.311	2392.35
480.682	2402.52
481.053	2480.49
481.424	2509.19
481.795	2547.83
482.166	2599.58
482.537	2624.89
482.908	2687.71
483.279	2690.42
483.65	2765.45
484.021	2839.57
484.391	2876.18
484.762	2880.93
485.133	2936.29
485.503	2997.99
485.874	3069.17
486.244	3083.18
486.615	3175.83
486.985	3207.25
487.356	3294.25
487.726	3312.78
488.097	3358.2
488.467	3377.86
488.837	3493.34
489.207	3550.06
489.578	3581.25
489.948	3639.55
490.318	3674.8
490.688	3710.74
491.058	3742.6
491.428	3805.2
491.798	3830.51
492.168	3953.89
492.538	3967.45
492.908	4028.24
493.278	4109.82
493.648	4091.52
494.017	4191.85
494.387	4169.93
494.757	4274.56
495.126	4302.13
495.496	4282.02
495.866	4354.33
496.235	4417.61
496.605	4441.11
496.974	4499.64
497.344	4537.61
497.713	4571.28
498.082	4603.14
498.452	4664.38
498.821	4660.54
499.19	4730.37
499.559	4780.76
499.928	4850.14
500.298	4839.07
500.667	4859.63
501.036	4886.98
501.405	4887.2
501.774	4918.16
502.143	4995.67
502.512	4959.52
502.88	5039.51
503.249	5043.58
503.618	5081.1
503.987	5169.91
504.356	5163.13
504.724	5146.18
505.093	5199.74
505.462	5213.75
505.83	5216.68
506.199	5290.36
506.567	5392.73
506.936	5336.23
507.304	5370.13
507.672	5451.48
508.041	5469.11
508.409	5503.46
508.777	5511.59
509.145	5559.95
509.514	5576.68
509.882	5600.63
510.25	5610.57
510.618	5642.89
510.986	5621.42
511.354	5747.74
511.722	5772.6
512.09	5774.64
512.458	5737.12
512.826	5828.19
513.193	5864.35
513.561	5874.29
513.929	5895.99
514.297	5962.2
514.664	5970.11
515.032	6011.47
515.4	6095.08
515.767	6053.27
516.135	6126.49
516.502	6020.73
516.869	6141.41
517.237	6151.8
517.604	6131.01
517.972	6213.27
518.339	6238.13
518.706	6271.35
519.073	6277.9
519.44	6309.31
519.808	6359.25
520.175	6356.54
520.542	6380.72
520.909	6429.76
521.276	6447.61
521.643	6464.34
522.009	6564.9
522.376	6533.94
522.743	6582.07
523.11	6572.81
523.477	6691.45
523.843	6738.9
524.21	6799.69
524.577	6828.17
524.943	6850.99
525.31	6847.83
525.676	6971.67
526.043	6964.89
526.409	7027.71
526.776	6998.11
527.142	7062.06
527.508	7086.69
527.874	7149.06
528.241	7189.51
528.607	7226.58
528.973	7302.96
529.339	7323.52
529.705	7417.76
530.071	7387.02
530.437	7383.86
530.803	7476.29
531.169	7455.5
531.535	7540.47
531.901	7471.99
532.267	7597.19
532.632	7634.93
532.998	7653.68
533.364	7598.32
533.73	7655.26
534.095	7763.51
534.461	7837.63
534.826	7816.62
535.192	7852.1
535.557	7933.68
535.923	7933
536.288	7954.24
536.653	7972.54
537.019	7958.08
537.384	8020.45
537.749	8027.46
538.114	8076.27
538.479	8122.15
538.845	8165.53
539.21	8175.93
539.575	8154.23
539.94	8199.88
540.305	8204.85
540.67	8276.04
541.034	8305.42
541.399	8318.75
541.764	8370.05
542.129	8485.3
542.494	8405.98
542.858	8501.57
543.223	8469.93
543.587	8498.63
543.952	8567.78
544.316	8607.33
544.681	8637.61
545.045	8634.22
545.41	8674.9
545.774	8772.07
546.138	8697.05
546.503	8819.3
546.867	8784.73
547.231	8864.72
547.595	8943.14
547.959	8876.25
548.324	8925.97
548.688	8931.16
549.052	8956.47
549.416	8986.98
549.779	9072.4
550.143	9158.73
550.507	9148.78
550.871	9174.09
551.235	9180.42
551.599	9205.28
551.962	9254.77
552.326	9256.8
552.689	9334.32
553.053	9279.85
553.417	9337.48
553.78	9462.22
554.143	9428.1
554.507	9399.85
554.87	9515.78
555.234	9584.03
555.597	9500.41
555.96	9556.68
556.323	9651.6
556.686	9605.04
557.05	9645.72
557.413	9725.49
557.776	9713.52
558.139	9786.28
558.502	9759.84
558.865	9852.95
559.228	9953.74
559.59	9977.24
559.953	9958.93
560.316	10015.2
560.679	9998.71
561.041	10054.75
561.404	10090.46
561.767	10166.61
562.129	10098.82
562.492	10281.86
562.854	10193.96
563.217	10228.98
563.579	10308.75
563.941	10330.45
564.304	10434.85
564.666	10414.97
565.028	10476.66
565.39	10480.05
565.753	10480.73
566.115	10569.31
566.477	10628.52
566.839	10620.16
567.201	10697.9
567.563	10671
567.925	10764.34
568.287	10705.35
568.648	10802.75
569.01	10872.58
569.372	10931.56
569.734	10877.78
570.095	11074.38
570.457	11076.19
570.819	11106.93
571.18	11137.89
571.542	11213.59
571.903	11246.81
572.265	11159.81
572.626	11325.9
572.987	11336.52
573.349	11356.18
573.71	11407.48
574.071	11499.91
574.432	11596.86
574.794	11587.82
575.155	11715.72
575.516	11725.44
575.877	11845.66
576.238	11916.4
576.599	11995.04
576.96	12076.39
577.32	12032.55
577.681	12200
578.042	12307.35
578.403	12322.03
578.763	12382.6
579.124	12571.75
579.485	12641.12
579.845	12752.08
580.206	12875.92
580.566	12973.09
580.927	13060.77
581.287	13269.58
581.648	13307.09
582.008	13564.71
582.368	13590.02
582.728	13814.88
583.089	13919.05
583.449	14038.37
583.809	14218.26
584.169	14445.82
584.529	14620.05
584.889	14868.18
585.249	14978.24
585.609	15047.16
585.969	15394.04
586.329	15570.54
586.688	15694.6
587.048	15963.52
587.408	16149.73
587.768	16383.17
588.127	16649.15
588.487	16780.9
588.846	17180.21
589.206	17334.33
589.565	17614.55
589.925	17949.01
590.284	18094.09
590.643	18417.92
591.003	18729.55
591.362	19000.28
591.721	19286.15
592.08	19465.58
592.44	19899.24
592.799	20117.54
593.158	20395.95
593.517	20729.95
593.876	21042.48
594.235	21223.72
594.593	21663.03
594.952	21954.32
595.311	22189.57
595.67	22543.91
596.029	22904.36
596.387	23236.32
596.746	23621.85
597.104	23759.47
597.463	24117.2
597.822	24537.76
598.18	24635.38
598.538	24968.71
598.897	25460.22
599.255	25414.12
599.613	26212.29
599.972	26266.3
600.33	26695.89
600.688	26809.56
601.046	27121.42
601.404	27530.67
601.762	27730.67
602.12	28224.67
602.478	28523.87
602.836	28707.82
603.194	28995.95
603.552	29327.24
603.91	29460.12
604.268	29966.32
604.625	30163.37
604.983	30443.59
605.341	30546.64
605.698	31039.51
606.056	31321.76
606.413	31477.24
606.771	31909.77
607.128	32133.49
607.485	32294.16
607.843	32470.43
608.2	32920.36
608.557	33111.77
608.914	33259.79
609.272	33629.05
609.629	33864.97
609.986	34328.69
610.343	34349.7
610.7	34722.8
611.057	34903.36
611.414	34987.43
611.771	35239.62
612.127	35537.24
612.484	35825.15
612.841	36064.24
613.198	36067.85
613.554	36242.08
613.911	36605.69
614.267	36656.76
614.624	36819.24
614.98	37115.06
615.337	37404.09
615.693	37582.16
616.05	37629.39
616.406	37954.81
616.762	38031.87
617.118	38171.75
617.475	38337.85
617.831	38549.14
618.187	38669.14
618.543	38834.33
618.899	39125.17
619.255	39300.76
619.611	39232.74
619.967	39626.85
620.323	39705.5
620.678	39695.1
621.034	39693.07
621.39	39888.54
621.746	39999.5
622.101	40566.72
622.457	40192.49
622.812	40446.94
623.168	40564.23
623.523	40754.28
623.879	41077.89
624.234	40689.88
624.589	40942.75
624.945	41033.14
625.3	41103.88
625.655	41210.54
626.01	41371.44
626.365	41356.07
626.72	41399.46
627.075	41529.63
627.43	41458.67
627.785	41630.64
628.14	41624.54
628.495	41781.6
628.85	41806.23
629.205	41719.68
629.559	42047.13
629.914	41850.3
630.269	42045.77
630.623	42027.02
630.978	41883.97
631.332	42200.12
631.687	42290.96
632.041	42104.3
632.396	42216.84
632.75	42056.85
633.104	42316.73
633.459	42015.04
633.813	42228.37
634.167	42120.57
634.521	42197.86
634.875	42315.82
635.229	42313.11
635.583	42062.5
635.937	42157.18
636.291	42221.14
636.645	42044.42
636.999	42233.34
637.352	42377.97
637.706	42091.42
638.06	42240.57
638.413	42233.34
638.767	42158.31
639.121	42357.18
639.474	42060.01
639.828	42067.47
640.181	42210.06
640.534	42113.79
640.888	42057.3
641.241	42099.1
641.594	42077.41
641.947	42201.02
642.301	42136.62
642.654	42132.55
643.007	42194.7
643.36	42021.82
643.713	41999.45
644.066	42208.48
644.419	41834.48
644.771	41633.58
645.124	41438.11
645.477	41395.62
645.83	41108.17
646.182	40890.32
646.535	40863.21
646.888	41027.27
647.24	40808.29
647.593	41137.1
647.945	41122.86
648.298	40802.64
648.65	40781.17
649.002	40709.31
649.355	40877.89
649.707	40836.99
650.059	41091.45
650.411	41529.4
650.763	41544.32
651.115	42036.96
651.467	41774.59
651.819	41695.5
652.171	41617.31
652.523	41615.95
652.875	41559.01
653.227	41489.63
653.578	41788.15
653.93	41653.69
654.282	41452.57
654.633	41428.61
654.985	41555.84
655.337	41519.91
655.688	41535.96
656.039	41584.32
656.391	41304.1
656.742	41473.81
657.094	41491.21
657.445	41646.69
657.796	41465.45
658.147	41305
658.498	41281.27
658.849	41421.83
659.2	41459.57
659.551	41279.69
659.902	41437.43
660.253	41343.64
660.604	41526.24
660.955	41163.08
661.306	41387.94
661.656	41376.41
662.007	41425
662.358	41380.48
662.708	41337.99
663.059	41361.72
663.409	41145.91
663.76	41382.97
664.11	41498.89
664.461	41408.95
664.811	41260.93
665.161	41322.85
665.511	41306.36
665.862	41218
666.212	41403.53
666.562	41446.01
666.912	41252.35
667.262	41220.48
667.612	41205.57
667.962	41284.21
668.312	41149.07
668.662	41355.85
669.011	41256.87
669.361	41170.77
669.711	41168.51
670.06	41082.18
670.41	41023.2
670.76	40969.87
671.109	41188.62
671.459	40909.53
671.808	40995.41
672.157	41054.39
672.507	40941.4
672.856	40880.15
673.205	40939.59
673.554	41156.08
673.904	41004.44
674.253	41140.71
674.602	40918.35
674.951	40662.98
675.3	40281.07
675.649	40827.27
675.998	40931
676.346	40871.57
676.695	41192.91
677.044	40631.8
677.393	40762.64
677.741	40802.42
678.09	40710.67
678.438	40566.94
678.787	40699.37
679.135	40787.95
679.484	40463.44
679.832	40649.43
680.181	40359.49
680.529	40566.26
680.877	40430.67
681.225	40298.25
681.573	40571.24
681.922	40112.94
682.27	40187.52
682.618	40093.28
682.966	40050.57
683.314	40082.89
683.661	40052.83
684.009	39850.58
684.357	39811.03
684.705	39772.61
685.053	39952.95
685.4	39783.91
685.748	39668.89
686.095	39571.49
686.443	39630.24
686.79	39400.19
687.138	39572.84
687.485	39522.9
687.832	39336.01
688.18	39413.07
688.527	39091.95
688.874	39178.96
689.221	39086.53
689.568	38980.32
689.915	38870.04
690.262	38999.98
690.609	38714.11
690.956	38693.09
691.303	38621.68
691.65	38666.43
691.997	38517.73
692.344	38349.82
692.69	38239.77
693.037	38165.88
693.383	37880.01
693.73	38131.53
694.077	37830.52
694.423	37913.45
694.769	37756.39
695.116	37600.69
695.462	37619
695.808	37446.12
696.155	37437.53
696.501	37088.16
696.847	37160.03
697.193	36964.1
697.539	37041.61
697.885	36779.02
698.231	36710.09
698.577	36804.78
698.923	36680.72
699.269	36462.19
699.614	36323.21
699.96	36230.78
700.306	36289.31
700.651	36101.97
700.997	36079.38
701.342	36001.64
701.688	35914.18
702.033	35915.99
702.379	35821.08
702.724	35715.54
703.069	35881.87
703.415	35357.14
703.76	35549.45
704.105	35507.19
704.45	35445.04
704.795	35171.83
705.14	35139.06
705.485	35084.37
705.83	34924.38
706.175	35011.61
706.52	34855.45
706.865	34885.28
707.209	34696.36
707.554	34643.03
707.899	34635.8
708.243	34549.92
708.588	34464.73
708.932	34209.59
709.277	34171.18
709.621	34278.29
709.966	33957.4
710.31	34072.65
710.654	33764.41
710.998	33921.24
711.342	33714.24
711.687	33702.26
712.031	33480.12
712.375	33472.89
712.719	33460.69
713.063	33464.53
713.407	33626.56
713.75	33286.46
714.094	33255.5
714.438	33107.25
714.782	33145.67
715.125	32978.21
715.469	33096.18
715.812	32950.64
716.156	32766.02
716.499	32644.21
716.843	32812.8
717.186	32530.99
717.53	32721.95
717.873	32614.83
718.216	32569.19
718.559	32523.54
718.902	32378.46
719.246	32489.87
719.589	32259.14
719.932	32149.76
720.275	32130.1
720.617	32143.21
720.96	32066.15
721.303	32119.71
721.646	32022.53
721.989	31905.25
722.331	32060.5
722.674	31803.78
723.016	31876.55
723.359	31799.71
723.701	31845.82
724.044	31642.66
724.386	31454.64
724.729	31559.95
725.071	31484.92
725.413	31503.9
725.755	31313.4
726.097	31276.11
726.439	31160.41
726.782	31098.26
727.124	31319.95
727.465	31080.41
727.807	31048.77
728.149	30983.92
728.491	30916.8
728.833	31040.64
729.175	30811.94
729.516	30709.35
729.858	30791.61
730.199	30729.23
730.541	30695.56
730.882	30634.32
731.224	30739.63
731.565	30488.56
731.906	30574.44
732.248	30568.11
732.589	30499.18
732.93	30436.36
733.271	30301.45
733.612	30439.98
733.953	30356.36
734.294	30259.19
734.635	30050.38
734.976	30266.87
735.317	30034.79
735.658	29986.88
735.999	30050.38
736.339	29918.41
736.68	29989.14
737.021	29834.34
737.361	29807.68
737.702	29817.17
738.042	29877.05
738.383	29712.31
738.723	29680.22
739.063	29741.69
739.404	29797.06
739.744	29619.43
740.084	29662.37
740.424	29610.39
740.764	29390.51
741.104	29613.33
741.444	29336.73
741.784	29400.23
742.124	29494.46
742.464	29349.38
742.804	29286.33
743.143	29256.05
743.483	29225.55
743.823	28983.97
744.162	29058.77
744.502	29138.77
744.841	29115.72
745.181	29002.05
745.52	29003.86
745.86	28993.69
746.199	28895.16
746.538	29007.02
746.877	29021.48
747.216	28875.95
747.556	28786.46
747.895	28806.12
748.234	28777.42
748.573	28654.49
748.911	28608.84
749.25	28673.47
749.589	28458.11
749.928	28703.98
750.267	28578.33
750.605	28448.39
750.944	28258.34
751.283	28240.26
751.621	28319.13
751.96	28220.83
752.298	28258.56
752.636	28236.42
752.975	28132.47
753.313	27914.85
753.651	28040.27
753.989	27904
754.327	27820.16
754.666	27826.03
755.004	27783.78
755.342	27820.16
755.679	27739.48
756.017	27582.2
756.355	27495.65
756.693	27464.24
757.031	27633.04
757.368	27359.61
757.706	27368.19
758.044	27212.26
758.381	27356.67
758.719	27199.84
759.056	27271.7
759.394	27224.24
759.731	26909
