Data from hue_24_FLMS001491_00074.txt Node
Date: Tue Feb 07 17:12:44 GMT 2017
User: dcchb
Spectrometer: FLMS00149
Trigger mode: 0
Integration Time (sec): 2.000000E-2
Scans to average: 10
Electric dark correction enabled: true
Nonlinearity correction enabled: false
Boxcar width: 0
XAxis mode: Wavelengths
Number of Pixels in Spectrum: 2048
>>>>>Begin Spectral Data<<<<<
341.393	-16.12
341.776	-16.12
342.16	-16.12
342.543	-73.97
342.927	-47.3
343.31	-46.4
343.693	-65.83
344.077	-64.02
344.46	-54.31
344.843	-61.99
345.226	-50.46
345.61	-23.35
345.993	-29
346.376	-11.14
346.759	5.8
347.142	25.24
347.525	53.26
347.908	55.3
348.291	65.24
348.674	93.26
349.057	108.4
349.44	126.25
349.823	142.98
350.206	173.48
350.588	191.56
350.971	201.96
351.354	225.46
351.737	239.92
352.119	242.18
352.502	262.52
352.884	271.33
353.267	288.06
353.65	297.32
354.032	308.85
354.414	303.65
354.797	311.79
355.179	307.94
355.562	316.76
355.944	331.9
356.326	358.56
356.709	338.68
357.091	335.06
357.473	335.97
357.855	331.67
358.238	328.51
358.62	339.36
359.002	349.98
359.384	354.04
359.766	337.55
360.148	337.55
360.53	342.52
360.912	332.58
361.294	347.26
361.676	357.66
362.057	332.58
362.439	352.91
362.821	334.16
363.203	347.49
363.584	324.44
363.966	345.23
364.348	309.75
364.729	329.86
365.111	324.67
365.493	329.41
365.874	324.89
366.256	305.23
366.637	348.17
367.019	327.38
367.4	318.34
367.781	295.74
368.163	296.42
368.544	293.03
368.925	307.04
369.306	335.74
369.688	322.86
370.069	312.01
370.45	307.27
370.831	345.46
371.212	302.29
371.593	308.17
371.974	302.29
372.355	320.15
372.736	304.33
373.117	325.34
373.498	319.69
373.879	314.72
374.26	304.55
374.641	319.02
375.021	330.54
375.402	324.67
375.783	329.41
376.163	308.17
376.544	337.77
376.925	330.77
377.305	317.21
377.686	312.69
378.066	319.47
378.447	341.62
378.827	321.28
379.208	334.38
379.588	335.51
379.968	343.88
380.349	356.76
380.729	339.13
381.109	334.61
381.489	348.39
381.87	338.9
382.25	352.91
382.63	347.04
383.01	335.06
383.39	333.93
383.77	332.35
384.15	334.38
384.53	330.99
384.91	337.55
385.29	347.94
385.67	342.52
386.049	365.34
386.429	358.34
386.809	364.67
387.189	345.68
387.568	350.65
387.948	353.14
388.328	371.45
388.707	372.12
389.087	364.67
389.466	359.02
389.846	355.4
390.225	361.28
390.605	346.81
390.984	353.82
391.363	362.18
391.743	353.37
392.122	357.21
392.501	379.35
392.881	369.41
393.26	350.43
393.639	378.22
394.018	377.55
394.397	376.19
394.776	400.37
395.155	393.59
395.534	390.2
395.913	379.58
396.292	383.42
396.671	389.98
397.05	406.02
397.429	378.45
397.808	388.85
398.186	401.73
398.565	394.27
398.944	397.21
399.323	392.91
399.701	420.71
400.08	403.76
400.458	393.82
400.837	388.62
401.215	388.85
401.594	408.96
401.972	415.06
402.351	402.18
402.729	398.56
403.107	421.16
403.486	430.88
403.864	405.34
404.242	430.2
404.62	410.99
404.999	423.65
405.377	440.82
405.755	438.34
406.133	418.22
406.511	444.44
406.889	436.08
407.267	440.37
407.645	433.59
408.023	463.42
408.401	450.31
408.779	438.79
409.156	460.48
409.534	449.18
409.912	439.47
410.29	452.57
410.667	476.53
411.045	461.84
411.422	463.42
411.8	483.31
412.178	461.39
412.555	479.46
412.933	487.15
413.31	484.21
413.687	512.68
414.065	479.24
414.442	491.22
414.819	484.89
415.197	493.93
415.574	481.27
415.951	504.32
416.328	477.88
416.705	492.57
417.082	512.68
417.46	494.15
417.837	502.29
418.214	520.82
418.591	511.78
418.967	500.93
419.344	515.4
419.721	512.91
420.098	535.06
420.475	524.21
420.852	514.94
421.228	543.42
421.605	515.85
421.982	553.36
422.358	540.71
422.735	549.29
423.111	547.03
423.488	564.21
423.864	532.8
424.241	567.15
424.617	554.72
424.994	556.75
425.37	545.23
425.746	580.71
426.123	560.59
426.499	579.8
426.875	601.5
427.251	578.45
427.627	575.28
428.003	592.68
428.379	623.42
428.756	603.53
429.132	624.32
429.507	622.51
429.883	625.68
430.259	632.23
430.635	644.88
431.011	633.13
431.387	656.18
431.763	662.06
432.138	686.69
432.514	661.38
432.89	677.43
433.265	654.38
433.641	695.73
434.016	666.8
434.392	685.79
434.767	711.55
435.143	681.04
435.518	675.39
435.894	687.82
436.269	686.24
436.644	724.66
437.02	741.38
437.395	713.58
437.77	709.06
438.145	730.76
438.52	770.76
438.895	720.14
439.271	779.34
439.646	759.68
440.021	775.5
440.395	784.77
440.77	769.4
441.145	777.76
441.52	778.44
441.895	782.73
442.27	776.63
442.645	794.26
443.019	811.21
443.394	820.47
443.769	797.65
444.143	812.34
444.518	814.6
444.892	806.24
445.267	812.34
445.641	815.95
446.016	836.74
446.39	821.38
446.764	863.41
447.139	834.48
447.513	831.77
447.887	844.43
448.262	846.69
448.636	851.88
449.01	915.84
449.384	873.13
449.758	884.88
450.132	883.3
450.506	892.79
450.88	907.02
451.254	889.4
451.628	920.13
452.002	897.31
452.376	905.44
452.75	916.97
453.123	929.62
453.497	961.71
453.871	938.21
454.244	936.63
454.618	959.45
454.992	976.63
455.365	951.77
455.739	999.23
456.112	1022.28
456.486	1013.69
456.859	1046.46
457.232	1014.14
457.606	1040.58
457.979	1037.64
458.352	1080.58
458.725	1074.48
459.099	1071.09
459.472	1098.43
459.845	1106.11
460.218	1101.6
460.591	1135.49
460.964	1128.04
461.337	1155.38
461.71	1179.79
462.083	1191.76
462.456	1150.86
462.829	1178.66
463.201	1208.03
463.574	1226.79
463.947	1244.19
464.32	1241.93
464.692	1253.23
465.065	1271.08
465.438	1273.12
465.81	1283.74
466.183	1323.06
466.555	1328.71
466.928	1369.38
467.3	1356.73
467.672	1358.76
468.045	1365.32
468.417	1397.18
468.789	1429.04
469.161	1414.36
469.534	1468.82
469.906	1502.71
470.278	1502.26
470.65	1520.34
471.022	1534.13
471.394	1532.54
471.766	1584.52
472.138	1601.7
472.51	1634.24
472.882	1640.34
473.253	1667
473.625	1693.44
473.997	1740.22
474.369	1706.1
474.74	1749.94
475.112	1794.46
475.484	1808.47
475.855	1878.07
476.227	1891.41
476.598	1945.41
476.97	1956.26
477.341	1957.17
477.713	1993.78
478.084	2042.81
478.455	2091.4
478.827	2104.73
479.198	2181.34
479.569	2208.23
479.94	2254.33
480.311	2246.88
480.682	2306.76
481.053	2337.27
481.424	2405.06
481.795	2451.39
482.166	2497.04
482.537	2529.35
482.908	2601.44
483.279	2604.61
483.65	2641.44
484.021	2738.61
484.391	2782.91
484.762	2816.58
485.133	2822.45
485.503	2857.48
485.874	2945.84
486.244	3006.18
486.615	3010.92
486.985	3106.51
487.356	3177.02
487.726	3202.33
488.097	3256.79
488.467	3294.76
488.837	3380.63
489.207	3387.64
489.578	3443.45
489.948	3538.82
490.318	3560.74
490.688	3536.11
491.058	3602.55
491.428	3659.49
491.798	3692.94
492.168	3828.76
492.538	3796.21
492.908	3901.52
493.278	3912.37
493.648	3932.03
494.017	4014.29
494.387	4053.83
494.757	4092.25
495.126	4128.41
495.496	4129.09
495.866	4169.99
496.235	4199.37
496.605	4278.01
496.974	4287.5
497.344	4303.77
497.713	4328.4
498.082	4423.77
498.452	4445.91
498.821	4473.03
499.19	4506.93
499.559	4557.32
499.928	4562.52
500.298	4562.75
500.667	4630.99
501.036	4690.65
501.405	4684.1
501.774	4681.16
502.143	4788.73
502.512	4773.59
502.88	4806.36
503.249	4842.51
503.618	4867.82
503.987	4910.08
504.356	4955.73
504.724	4943.75
505.093	4956.64
505.462	4931.78
505.83	5018.33
506.199	5028.72
506.567	5107.82
506.936	5098.1
507.304	5162.73
507.672	5189.17
508.041	5209.74
508.409	5251.09
508.777	5272.56
509.145	5308.94
509.514	5316.63
509.882	5322.28
510.25	5390.52
510.618	5373.8
510.986	5420.8
511.354	5478.66
511.722	5462.16
512.09	5558.43
512.458	5581.03
512.826	5550.52
513.193	5598.88
513.561	5601.14
513.929	5608.82
514.297	5678.2
514.664	5703.96
515.032	5680.91
515.4	5772.21
515.767	5764.75
516.135	5799.55
516.502	5764.07
516.869	5877.06
517.237	5895.14
517.604	5869.15
517.972	5907.57
518.339	5945.76
518.706	5934.91
519.073	5949.6
519.44	6019.21
519.808	6037.06
520.175	6054.23
520.542	6116.6
520.909	6148.69
521.276	6134.68
521.643	6191.63
522.009	6218.07
522.376	6244.51
522.743	6289.26
523.11	6352.08
523.477	6385.3
523.843	6396.37
524.21	6450.61
524.577	6475.69
524.943	6517.05
525.31	6486.76
525.676	6569.93
526.043	6585.29
526.409	6597.72
526.776	6647.21
527.142	6700.32
527.508	6756.14
527.874	6826.87
528.241	6799.52
528.607	6842.01
528.973	6929.01
529.339	6940.31
529.705	6962.01
530.071	6945.96
530.437	7036.58
530.803	7055.56
531.169	7080.65
531.535	7098.73
531.901	7136.46
532.267	7189.8
532.632	7222.34
532.998	7272.51
533.364	7261.21
533.73	7304.82
534.095	7385.95
534.461	7379.4
534.826	7402.22
535.192	7473.86
535.557	7464.82
535.923	7481.09
536.288	7561.09
536.653	7624.14
537.019	7572.61
537.384	7575.1
537.749	7641.54
538.114	7646.51
538.479	7697.35
538.845	7746.62
539.21	7721.76
539.575	7818.71
539.94	7782.32
540.305	7853.96
540.67	7887.86
541.034	7894.86
541.399	7930.12
541.764	7984.58
542.129	8003.33
542.494	8009.44
542.858	8074.52
543.223	8079.94
543.587	8124.91
543.952	8152.26
544.316	8220.73
544.681	8135.08
545.045	8220.5
545.41	8285.81
545.774	8313.61
546.138	8331.69
546.503	8346.6
546.867	8344.34
547.231	8454.17
547.595	8421.18
547.959	8507.73
548.324	8498.01
548.688	8493.72
549.052	8472.02
549.416	8567.61
549.779	8552.02
550.143	8627.05
550.507	8616.88
550.871	8777.1
551.235	8692.36
551.599	8759.7
551.962	8763.99
552.326	8841.96
552.689	8877.66
553.053	8861.62
553.417	8807.83
553.78	8953.82
554.143	8914.05
554.507	9025.45
554.87	9046.02
555.234	9102.51
555.597	9089.86
555.96	9093.25
556.323	9106.58
556.686	9170.08
557.05	9216.86
557.413	9241.72
557.776	9302.74
558.139	9229.97
558.502	9299.57
558.865	9350.19
559.228	9404.65
559.59	9430.64
559.953	9368.27
560.316	9502.5
560.679	9549.06
561.041	9629.05
561.404	9682.16
561.767	9648.26
562.129	9627.7
562.492	9723.74
562.854	9756.51
563.217	9717.19
563.579	9768.94
563.941	9823.63
564.304	9949.05
564.666	9887.35
565.028	9904.08
565.39	10039.89
565.753	10017.07
566.115	10028.59
566.477	10077.4
566.839	10107.23
567.201	10207.34
567.563	10185.88
567.925	10314.23
568.287	10243.95
568.648	10321.47
569.01	10315.14
569.372	10394.01
569.734	10377.28
570.095	10430.84
570.457	10498.18
570.819	10562.14
571.18	10519.43
571.542	10593.1
571.903	10735.69
572.265	10680.78
572.626	10767.56
572.987	10705.64
573.349	10845.29
573.71	10777.95
574.071	10947.66
574.432	11063.59
574.794	11137.49
575.155	11139.75
575.516	11130.48
575.877	11215.45
576.238	11279.63
576.599	11325.28
576.96	11387.2
577.32	11472.17
577.681	11594.43
578.042	11654.76
578.403	11800.07
578.763	11821.54
579.124	12003.68
579.485	12071.93
579.845	12199.83
580.206	12323.67
580.566	12410.45
580.927	12479.83
581.287	12705.13
581.648	12797.78
582.008	12895.18
582.368	13012.02
582.728	13241.84
583.089	13339.69
583.449	13478.9
583.809	13602.96
584.169	13812.22
584.529	13971.99
584.889	14197.52
585.249	14384.64
585.609	14510.06
585.969	14730.39
586.329	14930.84
586.688	15103.49
587.048	15300.77
587.408	15504.38
587.768	15748.22
588.127	15927.19
588.487	16169
588.846	16477.01
589.206	16611.02
589.565	16917.9
589.925	17299.81
590.284	17442.18
590.643	17774.6
591.003	18005.11
591.362	18310.86
591.721	18505.21
592.08	18869.72
592.44	19098.18
592.799	19430.15
593.158	19735.68
593.517	19992.85
593.876	20266.06
594.235	20543.34
594.593	20807.07
594.952	21146.49
595.311	21480.95
595.67	21688.17
596.029	22147.6
596.387	22515.27
596.746	22790.52
597.104	22931.3
597.463	23320.9
597.822	23624.39
598.18	23803.6
598.538	24082.23
598.897	24592.05
599.255	24736.45
599.613	25331.01
599.972	25404.91
600.33	25801.74
600.688	25953.82
601.046	26326.02
601.404	26831.09
601.762	26921.93
602.12	27389.49
602.478	27494.12
602.836	27892.08
603.194	27961.91
603.552	28413.87
603.91	28565.51
604.268	28976.12
604.625	29251.14
604.983	29544.01
605.341	29720.96
605.698	30135.63
606.056	30400.94
606.413	30617.66
606.771	30885.9
607.128	31217.64
607.485	31264.64
607.843	31525.65
608.2	31900.56
608.557	32288.35
608.914	32398.17
609.272	32715.23
609.629	33015.11
609.986	33254.65
610.343	33237.47
610.7	33715.43
611.057	33819.83
611.414	33982.76
611.771	34337.56
612.127	34504.78
612.484	34676.76
612.841	34963.98
613.198	35101.83
613.554	35275.39
613.911	35625.66
614.267	35805.54
614.624	35854.35
614.98	36071.3
615.337	36431.74
615.693	36541.12
616.05	36584.73
616.406	36936.36
616.762	36904.5
617.118	37033.76
617.475	37226.52
617.831	37564.59
618.187	37552.61
618.543	37941.3
618.899	38149.21
619.255	38106.5
619.611	38189.89
619.967	38477.34
620.323	38676.65
620.678	38700.83
621.034	38793.49
621.39	38923.88
621.746	39063.31
622.101	39407.25
622.457	39232.34
622.812	39367.03
623.168	39568.38
623.523	39647.47
623.879	39867.81
624.234	39704.42
624.589	39966.34
624.945	40203.39
625.3	40131.76
625.655	40148.7
626.01	40472.99
626.365	40409.04
626.72	40334.46
627.075	40436.15
627.43	40570.16
627.785	40549.82
628.14	40718.18
628.495	40705.53
628.85	40715.92
629.205	40595.02
629.559	40876.14
629.914	40808.35
630.269	40794.56
630.623	40769.03
630.978	40828.46
631.332	41003.82
631.687	41203.37
632.041	41016.7
632.396	41115.01
632.75	41080.66
633.104	41259.64
633.459	40938.74
633.813	41063.93
634.167	41175.57
634.521	41231.39
634.875	41266.41
635.229	41152.97
635.583	41128.11
635.937	41210.6
636.291	41111.84
636.645	41122.24
636.999	41109.13
637.352	41266.41
637.706	41028.68
638.06	41206.3
638.413	41188
638.767	41053.99
639.121	41103.48
639.474	40941.23
639.828	40969.47
640.181	41152.29
640.534	41086.98
640.888	41040.88
641.241	40895.58
641.594	41003.6
641.947	41046.99
642.301	41059.87
642.654	41028.91
643.007	41202.91
643.36	41098.28
643.713	40925.63
644.066	41180.32
644.419	40952.07
644.771	40763.83
645.124	40287.68
645.477	40251.53
645.83	40235.26
646.182	40023.96
646.535	39994.81
646.888	40030.74
647.24	39909.39
647.593	40081.59
647.945	39977.64
648.298	39868.49
648.65	39616.97
649.002	39696.06
649.355	39891.99
649.707	39845.89
650.059	40060.12
650.411	40355.48
650.763	40489.71
651.115	40811.06
651.467	40715.47
651.819	40664.17
652.171	40606.55
652.523	40444.52
652.875	40571.52
653.227	40462.59
653.578	40689.25
653.93	40594.79
654.282	40470.73
654.633	40309.15
654.985	40400.45
655.337	40488.81
655.688	40504.4
656.039	40691.51
656.391	40312.99
656.742	40374.01
657.094	40430.05
657.445	40564.06
657.796	40478.64
658.147	40494.46
658.498	40418.53
658.849	40474.57
659.2	40357.96
659.551	40472.99
659.902	40500.33
660.253	40436.15
660.604	40455.81
660.955	40432.09
661.306	40392.77
661.656	40400
662.007	40396.61
662.358	40317.97
662.708	40383.95
663.059	40402.03
663.409	40028.26
663.76	40446.32
664.11	40228.48
664.461	40291.98
664.811	40308.7
665.161	40348.02
665.511	40315.93
665.862	40315.03
666.212	40296.72
666.562	40301.69
666.912	40163.85
667.262	40262.6
667.612	40272.77
667.962	40341.02
668.312	40320.68
668.662	40521.8
669.011	40241.58
669.361	40219.66
669.711	40201.13
670.06	40221.02
670.41	40109.38
670.76	40065.77
671.109	40262.37
671.459	40117.29
671.808	40137.63
672.157	40117.07
672.507	39907.81
672.856	39983.28
673.205	40119.1
673.554	40093.79
673.904	39896.51
674.253	40034.36
674.602	40035.71
674.951	39666.01
675.3	39391.89
675.649	39801.82
675.998	39853.12
676.346	39833.46
676.695	39936.96
677.044	39583.75
677.393	39793.01
677.741	39817.41
678.09	39670.75
678.438	39633.01
678.787	39678.66
679.135	39827.81
679.484	39499
679.832	39736.06
680.181	39341.04
680.529	39556.63
680.877	39485.67
681.225	39386.69
681.573	39721.82
681.922	39341.95
682.27	39280.03
682.618	39302.85
682.966	39121.39
683.314	39286.35
683.661	39107.15
684.009	38814.28
684.357	38995.51
684.705	38930.88
685.053	38816.31
685.4	38729.98
685.748	38645.01
686.095	38691.79
686.443	38618.12
686.79	38463.78
687.138	38541.51
687.485	38576.54
687.832	38511.01
688.18	38392.37
688.527	38372.71
688.874	38229.43
689.221	38108.98
689.568	38003
689.915	37932.49
690.262	38111.92
690.609	37884.58
690.956	37704.7
691.303	37719.62
691.65	37443.24
691.997	37522.78
692.344	37373.86
692.69	37263.36
693.037	37307.65
693.383	36980.88
693.73	37144.49
694.077	36868.79
694.423	36916.02
694.769	36855.23
695.116	36703.15
695.462	36625.63
695.808	36561.23
696.155	36673.32
696.501	36360.1
696.847	36339.31
697.193	36094.8
697.539	36212.31
697.885	36007.8
698.231	35823.17
698.577	35961.02
698.923	36031.07
699.269	35809.38
699.614	35561.71
699.96	35514.48
700.306	35471.54
700.651	35313.35
700.997	35252.56
701.342	35144.32
701.688	35166.46
702.033	34874.72
702.379	34804.44
702.724	34834.95
703.069	34900.93
703.415	34562.86
703.76	34537.78
704.105	34570.55
704.45	34546.37
704.795	34229.09
705.14	34194.74
705.485	34166.04
705.83	34002.2
706.175	34132.82
706.52	34001.52
706.865	33837.01
707.209	33826.61
707.554	33759.95
707.899	33827.97
708.243	33531.93
708.588	33634.98
708.932	33305.72
709.277	33443.57
709.621	33180.07
709.966	33145.72
710.31	33267.08
710.654	32972.17
710.998	33109.34
711.342	32903.25
711.687	32930.59
712.031	32751.84
712.375	32776.92
712.719	32776.69
713.063	32660.99
713.407	32776.92
713.75	32471.39
714.094	32532.41
714.438	32321.11
714.782	32406.08
715.125	32373.09
715.469	32291.06
715.812	32185.3
716.156	32203.15
716.499	32147.56
716.843	32095.58
717.186	31985.76
717.53	32023.04
717.873	32063.49
718.216	31921.35
718.559	31810.84
718.902	31566.56
719.246	31774.91
719.589	31371.31
719.932	31401.36
720.275	31489.5
720.617	31349.61
720.96	31277.75
721.303	31303.74
721.646	31315.94
721.989	31004.09
722.331	31198.43
722.674	31127.47
723.016	31023.07
723.359	31004.54
723.701	30964.09
724.044	30829.18
724.386	30741.04
724.729	30929.74
725.071	30716.18
725.413	30726.81
725.755	30756.41
726.097	30593.7
726.439	30418.34
726.782	30391.9
727.124	30565.68
727.465	30318.91
727.807	30397.55
728.149	30282.97
728.491	30368.17
728.833	30355.29
729.175	30148.97
729.516	30102.87
729.858	30059.7
730.199	30118.01
730.541	30099.93
730.882	30126.14
731.224	29982.64
731.565	29755.08
731.906	29914.62
732.248	29976.54
732.589	29716.66
732.93	29593.95
733.271	29668.53
733.612	29755.08
733.953	29735.42
734.294	29468.31
734.635	29423.79
734.976	29558.47
735.317	29326.39
735.658	29485.03
735.999	29330.23
736.339	29385.15
736.68	29416.78
737.021	29201.42
737.361	29172.5
737.702	29314.19
738.042	29191.25
738.383	29109.22
738.723	29158.26
739.063	29083.01
739.404	29134.08
739.744	28978.83
740.084	28831.26
740.424	28851.83
740.764	28795.33
741.104	28877.81
741.444	28753.07
741.784	28660.42
742.124	28725.95
742.464	28615
742.804	28595.79
743.143	28483.02
743.483	28605.28
743.823	28472.85
744.162	28391.05
744.502	28453.87
744.841	28288.23
745.181	28495.45
745.52	28235.35
745.86	28409.58
746.199	28292.07
746.538	28219.07
746.877	28320.09
747.216	28319.64
747.556	28186.76
747.895	28129.13
748.234	27991.51
748.573	28028.12
748.911	27939.31
749.25	27969.14
749.589	27847.33
749.928	27860.21
750.267	27893.43
750.605	27793.77
750.944	27704.74
751.283	27793.1
751.621	27704.29
751.96	27681.46
752.298	27699.77
752.636	27571.18
752.975	27602.59
753.313	27377.51
753.651	27541.35
753.989	27357.85
754.327	27365.09
754.666	27183.85
755.004	27204.41
755.342	27208.93
755.679	27147.24
756.017	27060.01
756.355	27044.64
756.693	26964.87
757.031	27027.02
757.368	26769.4
757.706	26859.56
758.044	26766.01
758.381	26891.88
758.719	26724.65
759.056	26653.69
