Data from hue_330_FLMS001491_48.txt Node
Date: Mon Feb 06 15:45:27 GMT 2017
User: dcchb
Spectrometer: FLMS00149
Trigger mode: 0
Integration Time (sec): 2.000000E-2
Scans to average: 10
Electric dark correction enabled: true
Nonlinearity correction enabled: false
Boxcar width: 0
XAxis mode: Wavelengths
Number of Pixels in Spectrum: 2048
>>>>>Begin Spectral Data<<<<<
341.393	-15.82
341.776	-15.82
342.16	-15.82
342.543	-76.61
342.927	-51.52
343.31	-67.12
343.693	-68.25
344.077	-55.37
344.46	-57.85
344.843	-56.5
345.226	-47.46
345.61	-24.18
345.993	-30.28
346.376	-6.33
346.759	19.89
347.142	22.82
347.525	39.32
347.908	57.4
348.291	70.73
348.674	96.95
349.057	106.21
349.44	112.31
349.823	147.11
350.206	141.01
350.588	193.22
350.971	197.73
351.354	218.75
351.737	209.26
352.119	232.08
352.502	258.3
352.884	275.47
353.267	267.56
353.65	273.21
354.032	290.39
354.414	310.05
354.797	285.64
355.179	296.72
355.562	311.18
355.944	314.57
356.326	298.75
356.709	339.88
357.091	315.25
357.473	340.33
357.855	323.16
358.238	334
358.62	346.66
359.002	327.22
359.384	350.27
359.766	349.37
360.148	315.7
360.53	317.28
360.912	337.39
361.294	320.67
361.676	325.64
362.057	326.32
362.439	322.7
362.821	328.13
363.203	304.85
363.584	332.65
363.966	322.03
364.348	303.27
364.729	338.3
365.111	314.79
365.493	321.12
365.874	308.69
366.256	320.9
366.637	299.88
367.019	302.36
367.4	293.78
367.781	318.18
368.163	306.88
368.544	319.31
368.925	304.62
369.306	312.99
369.688	308.24
370.069	289.48
370.45	315.25
370.831	313.89
371.212	285.42
371.593	306.21
371.974	303.72
372.355	308.01
372.736	307.11
373.117	334.23
373.498	297.39
373.879	310.27
374.26	311.63
374.641	290.39
375.021	315.02
375.402	302.82
375.783	300.11
376.163	322.03
376.544	308.24
376.925	323.38
377.305	310.5
377.686	304.85
378.066	332.42
378.447	317.05
378.827	308.69
379.208	328.35
379.588	321.8
379.968	316.38
380.349	312.08
380.729	319.99
381.109	337.17
381.489	310.27
381.87	319.31
382.25	325.87
382.63	334.45
383.01	307.11
383.39	338.3
383.77	324.74
384.15	325.19
384.53	319.77
384.91	326.77
385.29	345.98
385.67	334.68
386.049	340.56
386.429	360.67
386.809	346.88
387.189	341.46
387.568	342.14
387.948	332.87
388.328	325.42
388.707	365.64
389.087	343.04
389.466	343.04
389.846	333.55
390.225	357.28
390.605	340.33
390.984	337.84
391.363	354.79
391.743	350.5
392.122	362.7
392.501	352.99
392.881	355.24
393.26	378.07
393.639	348.47
394.018	348.47
394.397	379.43
394.776	374.45
395.155	383.27
395.534	374.68
395.913	373.78
396.292	403.15
396.671	359.99
397.05	387.79
397.429	390.27
397.808	370.16
398.186	370.16
398.565	369.03
398.944	396.37
399.323	358.63
399.701	382.14
400.08	371.29
400.458	399.99
400.837	399.09
401.215	371.74
401.594	381.01
401.972	399.54
402.351	424.4
402.729	409.03
403.107	417.39
403.486	414
403.864	418.75
404.242	407.45
404.62	409.03
404.999	411.51
405.377	434.79
405.755	415.58
406.133	415.13
406.511	431.18
406.889	428.92
407.267	443.83
407.645	437.28
408.023	452.42
408.401	443.15
408.779	485.18
409.156	450.84
409.534	446.54
409.912	434.34
410.29	452.87
410.667	457.62
411.045	476.82
411.422	491.51
411.8	498.07
412.178	479.76
412.555	507.11
412.933	494.9
413.31	484.51
413.687	514.56
414.065	491.51
414.442	532.42
414.819	527.9
415.197	526.31
415.574	531.29
415.951	523.15
416.328	552.3
416.705	547.1
417.082	536.48
417.46	556.14
417.837	581.45
418.214	566.54
418.591	575.58
418.967	556.14
419.344	575.8
419.721	595.01
420.098	602.7
420.475	605.41
420.852	614.45
421.228	594.79
421.605	605.41
421.982	606.31
422.358	649.7
422.735	630.49
423.111	644.28
423.488	634.11
423.864	660.1
424.241	667.33
424.617	655.12
424.994	667.55
425.37	696.7
425.746	648.34
426.123	692.86
426.499	661
426.875	691.06
427.251	716.82
427.627	694.9
428.003	729.02
428.379	707.78
428.756	721.56
429.132	718.17
429.507	744.16
429.883	756.14
430.259	761.56
430.635	758.17
431.011	777.15
431.387	792.75
431.763	761.34
432.138	793.88
432.514	801.33
432.89	793.43
433.265	832.29
433.641	830.26
434.016	809.92
434.392	855.57
434.767	864.16
435.143	857.6
435.518	857.83
435.894	873.65
436.269	909.81
436.644	876.36
437.02	878.17
437.395	901.22
437.77	915
438.145	945.74
438.52	919.75
438.895	956.81
439.271	932.18
439.646	977.6
440.021	969.47
440.395	1001.1
440.77	969.92
441.145	959.07
441.52	1002.46
441.895	992.97
442.27	985.06
442.645	1004.95
443.019	1007.88
443.394	1023.48
443.769	1001.1
444.143	1003.82
444.518	1026.64
444.892	1028.67
445.267	1023.25
445.641	1066.19
446.016	1035.68
446.39	1056.92
446.764	1038.16
447.139	1024.83
447.513	1049.46
447.887	1049.01
448.262	1051.27
448.636	1066.86
449.01	1076.13
449.384	1069.35
449.758	1103.25
450.132	1101.44
450.506	1115.68
450.88	1067.77
451.254	1101.89
451.628	1126.3
452.002	1107.09
452.376	1130.82
452.75	1105.96
453.123	1111.84
453.497	1152.96
453.871	1164.94
454.244	1155.9
454.618	1161.78
454.992	1186.86
455.365	1176.01
455.739	1206.07
456.112	1194.54
456.486	1197.48
456.859	1260.76
457.232	1243.36
457.606	1242
457.979	1217.82
458.352	1266.86
458.725	1270.25
459.099	1279.29
459.472	1289.01
459.845	1302.79
460.218	1312.96
460.591	1320.19
460.964	1332.39
461.337	1329.91
461.71	1346.41
462.083	1369.23
462.456	1377.82
462.829	1370.13
463.201	1379.17
463.574	1437.93
463.947	1406.06
464.32	1434.99
464.692	1464.59
465.065	1451.26
465.438	1457.59
465.81	1475.89
466.183	1494.2
466.555	1529
466.928	1562.22
467.3	1512.28
467.672	1540.75
468.045	1594.53
468.417	1610.58
468.789	1577.81
469.161	1585.27
469.534	1603.8
469.906	1639.73
470.278	1632.73
470.65	1672.27
471.022	1714.53
471.394	1726.96
471.766	1717.92
472.138	1747.07
472.51	1795.88
472.882	1782.1
473.253	1794.3
473.625	1797.47
473.997	1857.58
474.369	1844.02
474.74	1886.05
475.112	1863.91
475.484	1921.31
475.855	1943.9
476.227	1951.36
476.598	2031.81
476.97	2026.61
477.341	2077.01
477.713	2077.23
478.084	2102.09
478.455	2120.62
478.827	2156.1
479.198	2167.4
479.569	2191.81
479.94	2250.79
480.311	2245.82
480.682	2318.36
481.053	2355.19
481.424	2356.32
481.795	2397
482.166	2403.55
482.537	2466.83
482.908	2509.31
483.279	2525.58
483.65	2564
484.021	2575.3
484.391	2592.25
484.762	2623.43
485.133	2631.8
485.503	2656.2
485.874	2738.23
486.244	2759.7
486.615	2773.49
486.985	2773.94
487.356	2805.58
487.726	2855.29
488.097	2893.71
488.467	2906.82
488.837	2927.38
489.207	3003.76
489.578	2997.66
489.948	3065.23
490.318	3118.56
490.688	3106.13
491.058	3121.95
491.428	3173.25
491.798	3186.36
492.168	3249.63
492.538	3220.48
492.908	3295.96
493.278	3346.8
493.648	3305
494.017	3381.15
494.387	3392.45
494.757	3461.38
495.126	3457.54
495.496	3436.97
495.866	3504.54
496.235	3476.07
496.605	3493.24
496.974	3530.98
497.344	3552.67
497.713	3584.54
498.082	3608.49
498.452	3662.28
498.821	3702.95
499.19	3682.84
499.559	3694.82
499.928	3675.16
500.298	3700.92
500.667	3720.35
501.036	3746.57
501.405	3755.83
501.774	3746.79
502.143	3767.81
502.512	3787.92
502.88	3858.88
503.249	3829.05
503.618	3860.46
503.987	3844.64
504.356	3910.86
504.724	3929.16
505.093	3935.94
505.462	3929.61
505.83	3949.73
506.199	3996.96
506.567	4024.53
506.936	4000.8
507.304	4043.96
507.672	4055.49
508.041	4057.97
508.409	4094.36
508.777	4118.54
509.145	4149.95
509.514	4079.67
509.882	4155.14
510.25	4170.74
510.618	4145.43
510.986	4182.94
511.354	4208.48
511.722	4191.3
512.09	4246.44
512.458	4228.59
512.826	4255.26
513.193	4316.72
513.561	4333.22
513.929	4273.56
514.297	4336.16
514.664	4377.29
515.032	4326.67
515.4	4379.09
515.767	4358.53
516.135	4351.75
516.502	4354.01
516.869	4444.85
517.237	4427.68
517.604	4419.09
517.972	4459.09
518.339	4500.22
518.706	4462.03
519.073	4475.59
519.44	4512.65
519.808	4517.62
520.175	4528.92
520.542	4574.12
520.909	4591.74
521.276	4560.11
521.643	4622.03
522.009	4609.82
522.376	4626.32
522.743	4698.41
523.11	4681.68
523.477	4707.22
523.843	4682.59
524.21	4743.15
524.577	4779.76
524.943	4836.48
525.31	4737.05
525.676	4845.97
526.043	4880.55
526.409	4859.31
526.776	4932.75
527.142	4889.59
527.508	4958.74
527.874	4982.92
528.241	5011.85
528.607	4985.63
528.973	5066.53
529.339	5083.26
529.705	5045.29
530.071	5130.26
530.437	5132.29
530.803	5194.44
531.169	5212.07
531.535	5217.94
531.901	5203.48
532.267	5258.62
532.632	5248
532.998	5257.04
533.364	5333.42
533.73	5308.56
534.095	5409.35
534.461	5407.54
534.826	5476.92
535.192	5480.53
535.557	5523.92
535.923	5489.57
536.288	5471.72
536.653	5492.96
537.019	5531.15
537.384	5573.19
537.749	5568.22
538.114	5592.17
538.479	5611.83
538.845	5573.19
539.21	5649.12
539.575	5679.62
539.94	5665.39
540.305	5693.41
540.67	5723.92
541.034	5780.41
541.399	5779.06
541.764	5773.86
542.129	5838.49
542.494	5876.46
542.858	5921.88
543.223	5903.8
543.587	5969.79
543.952	5951.03
544.316	5984.25
544.681	5948.09
545.045	6013.85
545.41	6088.2
545.774	6039.39
546.138	6088.88
546.503	6084.13
546.867	6082.1
547.231	6181.53
547.595	6150.8
547.959	6128.2
548.324	6255.65
548.688	6220.4
549.052	6213.85
549.416	6236.9
549.779	6262.21
550.143	6322.32
550.507	6336.33
550.871	6341.75
551.235	6412.71
551.599	6409.55
551.962	6434.41
552.326	6435.99
552.689	6470.34
553.053	6486.16
553.417	6497
553.78	6609.09
554.143	6539.04
554.507	6557.12
554.87	6550.11
555.234	6682.76
555.597	6617.45
555.96	6573.84
556.323	6663.33
556.686	6664.68
557.05	6707.39
557.413	6723.21
557.776	6689.32
558.139	6773.16
558.502	6765.92
558.865	6757.34
559.228	6821.06
559.59	6796.21
559.953	6813.38
560.316	6912.13
560.679	6865.58
561.041	7004.34
561.404	7032.13
561.767	7046.14
562.129	7003.66
562.492	7062.87
562.854	7000.72
563.217	7031.23
563.579	7074.84
563.941	7172.47
564.304	7146.48
564.666	7212.24
565.028	7196.87
565.39	7199.13
565.753	7240.71
566.115	7294.05
566.477	7241.62
566.839	7306.25
567.201	7365.23
567.563	7331.33
567.925	7363.87
568.287	7334.27
568.648	7387.15
569.01	7437.32
569.372	7496.07
569.734	7608.61
570.095	7580.59
570.457	7586.69
570.819	7680.93
571.18	7736.29
571.542	7666.01
571.903	7754.37
572.265	7813.13
572.626	7834.37
572.987	7926.57
573.349	7870.3
573.71	7934.25
574.071	8007.47
574.432	8043.63
574.794	8088.37
575.155	8141.03
575.516	8113.91
575.877	8202.04
576.238	8319.56
576.599	8357.97
576.96	8391.87
577.32	8507.35
577.681	8628.02
578.042	8680.9
578.403	8746.21
578.763	8836.83
579.124	8894
579.485	9054
579.845	9121.34
580.206	9201.11
580.566	9254.22
580.927	9427.55
581.287	9605.85
581.648	9655.79
582.008	9836.58
582.368	9946.63
582.728	10073.41
583.089	10238.6
583.449	10314.98
583.809	10549.55
584.169	10670.45
584.529	10852.6
584.889	11128.29
585.249	11205.81
585.609	11397.89
585.969	11561.96
586.329	11810.99
586.688	12078.78
587.048	12221.37
587.408	12442.16
587.768	12670.18
588.127	12859.1
588.487	12988.13
588.846	13357.16
589.206	13583.15
589.565	13700.66
589.925	14122.57
590.284	14301.09
590.643	14595.77
591.003	14878.03
591.362	15134.97
591.721	15339.03
592.08	15600.27
592.44	15974.5
592.799	16225.79
593.158	16437.76
593.517	16783.06
593.876	17123.39
594.235	17332.88
594.593	17609.25
594.952	17960.66
595.311	18228
595.67	18429.12
596.029	18888.09
596.387	19056.67
596.746	19358.14
597.104	19628.41
597.463	19871.34
597.822	20253.25
598.18	20420.93
598.538	20648.72
598.897	21094.36
599.255	21233.34
599.613	21715.36
599.972	21930.27
600.33	22269.47
600.688	22456.81
601.046	22859.06
601.404	23119.84
601.762	23370.23
602.12	23778.13
602.478	24001.63
602.836	24246.82
603.194	24409.98
603.552	24786.69
603.91	24926.8
604.268	25266.45
604.625	25570.18
604.983	25784.63
605.341	26015.81
605.698	26269.82
606.056	26611.5
606.413	26774.44
606.771	27091.72
607.128	27292.62
607.485	27394.99
607.843	27707.07
608.2	28030.22
608.557	28295.98
608.914	28403.77
609.272	28676.53
609.629	28966.47
609.986	29114.94
610.343	29154.94
610.7	29764.42
611.057	29732.1
611.414	30007.35
611.771	30154.91
612.127	30415.92
612.484	30544.06
612.841	30919.86
613.198	30941.56
613.554	31069.92
613.911	31414.09
614.267	31453.41
614.624	31530.24
614.98	31860.41
615.337	32027.63
615.693	32166.16
616.05	32323.67
616.406	32695.86
616.762	32595.53
617.118	32682.53
617.475	32877.55
617.831	33134.27
618.187	33310.54
618.543	33439.8
618.899	33692
619.255	33776.29
619.611	33866.68
619.967	33938.99
620.323	34202.26
620.678	34181.02
621.034	34310.51
621.39	34496.49
621.746	34403.84
622.101	34909.59
622.457	34685.87
622.812	34852.64
623.168	34962.02
623.523	35107.33
623.879	35164.27
624.234	35136.03
624.589	35396.58
624.945	35395.68
625.3	35485.62
625.655	35708.44
626.01	35772.39
626.365	35794.31
626.72	35675.45
627.075	35858.72
627.43	35896.68
627.785	35940.52
628.14	36066.17
628.495	36032.72
628.85	36118.37
629.205	35988.66
629.559	36355.2
629.914	36263.23
630.269	36295.09
630.623	36272.04
630.978	36184.81
631.332	36453.05
631.687	36553.39
632.041	36497.57
632.396	36633.61
632.75	36474.97
633.104	36610.34
633.459	36319.5
633.813	36617.12
634.167	36524.24
634.521	36667.96
634.875	36683.78
635.229	36572.37
635.583	36464.35
635.937	36488.08
636.291	36513.39
636.645	36502.32
636.999	36594.97
637.352	36632.94
637.706	36430.91
638.06	36441.53
638.413	36513.39
638.767	36491.02
639.121	36548.42
639.474	36495.54
639.828	36408.99
640.181	36441.3
640.534	36482.43
640.888	36395.2
641.241	36368.31
641.594	36303
641.947	36505.93
642.301	36322.66
642.654	36464.8
643.007	36447.18
643.36	36410.57
643.713	36444.69
644.066	36436.33
644.419	36352.49
644.771	36220.74
645.124	35659.85
645.477	35724.26
645.83	35572.17
646.182	35380.54
646.535	35355.91
646.888	35457.37
647.24	35135.12
647.593	35487.65
647.945	35254.67
648.298	35290.37
648.65	35037.5
649.002	35097.61
649.355	35284.04
649.707	35201.79
650.059	35292.63
650.411	35850.36
650.763	35705.73
651.115	36112.72
651.467	36137.58
651.819	36043.35
652.171	35864.14
652.523	35987.98
652.875	36039.28
653.227	35798.83
653.578	36100.75
653.93	35943.91
654.282	35783.92
654.633	35750.02
654.985	35700.76
655.337	35908.43
655.688	35898.49
656.039	35921.99
656.391	35536.24
656.742	35588.89
657.094	35778.04
657.445	35804.93
657.796	35739.4
658.147	35713.86
658.498	35633.87
658.849	35794.54
659.2	35674.32
659.551	35597.26
659.902	35735.11
660.253	35673.19
660.604	35716.12
660.955	35557.71
661.306	35638.61
661.656	35709.8
662.007	35695.78
662.358	35586.41
662.708	35510.48
663.059	35601.1
663.409	35399.52
663.76	35635.9
664.11	35696.91
664.461	35553.42
664.811	35586.18
665.161	35676.58
665.511	35496.02
665.862	35592.74
666.212	35769.23
666.562	35682.68
666.912	35640.87
667.262	35438.16
667.612	35537.37
667.962	35573.08
668.312	35485.17
668.662	35630.02
669.011	35497.15
669.361	35505.96
669.711	35548.67
670.06	35354.78
670.41	35407.88
670.76	35362.01
671.109	35491.27
671.459	35440.2
671.808	35295.34
672.157	35486.3
672.507	35335.57
672.856	35375.79
673.205	35347.32
673.554	35367.88
673.904	35265.51
674.253	35487.88
674.602	35253.08
674.951	34904.17
675.3	34786.2
675.649	35224.38
675.998	35286.76
676.346	35138.06
676.695	35275.46
677.044	35108.23
677.393	35056.71
677.741	35128.12
678.09	35092.86
678.438	34948.69
678.787	35175.57
679.135	35119.3
679.484	34777.16
679.832	35034.56
680.181	34694.91
680.529	34817.62
680.877	34764.51
681.225	34796.15
681.573	34948.69
681.922	34758.41
682.27	34538.75
682.618	34590.5
682.966	34544.4
683.314	34662.82
683.661	34504.63
684.009	34349.61
684.357	34210.63
684.705	34268.03
685.053	34179.89
685.4	34205.65
685.748	34134.24
686.095	34055.6
686.443	33951.2
686.79	33937.41
687.138	34001.14
687.485	33930.86
687.832	33826
688.18	33859.67
688.527	33578.1
688.874	33704.42
689.221	33636.63
689.568	33568.61
689.915	33430.31
690.262	33357.09
690.609	33370.2
690.956	33325.45
691.303	33263.76
691.65	33115.51
691.997	33143.76
692.344	32992.35
692.69	32802.53
693.037	32984.44
693.383	32600.72
693.73	32911.68
694.077	32587.17
694.423	32419.26
694.769	32393.5
695.116	32462.42
695.462	32383.1
695.808	32281.64
696.155	32282.77
696.501	32045.71
696.847	32023.79
697.193	31859.5
697.539	31920.29
697.885	31692.5
698.231	31633.97
698.577	31674.2
698.923	31532.96
699.269	31426.74
699.614	31247.54
699.96	31278.05
700.306	31305.62
700.651	31136.13
700.997	31042.12
701.342	31053.87
701.688	30843.48
702.033	30880.77
702.379	30798.51
702.724	30595.81
703.069	30672.64
703.415	30534.56
703.76	30461.8
704.105	30501.57
704.45	30396.26
704.795	30247.11
705.14	30139.09
705.485	30037.18
705.83	29984.75
706.175	30066.33
706.52	29940.91
706.865	29815.49
707.209	29748.82
707.554	29646.23
707.899	29771.42
708.243	29560.58
708.588	29634.93
708.932	29389.51
709.277	29245.11
709.621	29441.03
709.966	29199.23
710.31	29185.22
710.654	28907.94
710.998	28993.59
711.342	29057.09
711.687	28929.63
712.031	28860.26
712.375	28729.19
712.719	28835.4
713.063	28757.89
713.407	28858.22
713.75	28610.32
714.094	28622.07
714.438	28491.68
714.782	28515.18
715.125	28338.69
715.469	28339.37
715.812	28248.52
716.156	28074.74
716.499	28198.13
716.843	28162.88
717.186	28040.39
717.53	28159.26
717.873	27983.22
718.216	27966.95
718.559	27884.92
718.902	27732.38
719.246	27755.65
719.589	27691.02
719.932	27578.71
720.275	27648.76
720.617	27619.39
720.96	27546.17
721.303	27557.69
721.646	27453.97
721.989	27279.73
722.331	27462.1
722.674	27285.61
723.016	27236.35
723.359	27239.96
723.701	27217.82
724.044	26956.81
724.386	26931.5
724.729	26974.66
725.071	26967.88
725.413	27050.81
725.755	26952.74
726.097	26842.23
726.439	26710.71
726.782	26768.34
727.124	26849.01
727.465	26571.5
727.807	26649.02
728.149	26564.5
728.491	26466.65
728.833	26491.73
729.175	26365.41
729.516	26410.38
729.858	26343.94
730.199	26399.98
730.541	26325.18
730.882	26245.86
731.224	26338.29
731.565	26224.62
731.906	26155.47
732.248	26202.7
732.589	26124.74
732.93	25933.78
733.271	25907.34
733.612	26065.3
733.953	26068.69
734.294	25898.98
734.635	25772.43
734.976	25905.31
735.317	25720
735.658	25726.1
735.999	25696.5
736.339	25644.52
736.68	25836.38
737.021	25632.55
737.361	25474.13
737.702	25642.04
738.042	25506.45
738.383	25465.55
738.723	25462.61
739.063	25354.14
739.404	25399.11
739.744	25335.83
740.084	25207.02
740.424	25320.24
740.764	25199.56
741.104	25257.41
741.444	25118.21
741.784	25119.11
742.124	25115.27
742.464	25090.19
742.804	25058.32
743.143	24909.4
743.483	24927.25
743.823	24832.34
744.162	24886.58
744.502	24762.06
744.841	24827.37
745.181	24896.52
745.52	24611.33
745.86	24770.42
746.199	24696.75
746.538	24556.64
746.877	24582.4
747.216	24562.74
747.556	24571.33
747.895	24478.23
748.234	24405.01
748.573	24458.79
748.911	24386.25
749.25	24324.78
749.589	24221.51
749.928	24273.26
750.267	24252.7
750.605	24224.67
750.944	24141.96
751.283	23984.91
751.621	24122.98
751.96	23939.03
752.298	23984
752.636	23963.21
752.975	23687.74
753.313	23658.13
753.651	23813.16
753.989	23661.3
754.327	23602.54
754.666	23559.83
755.004	23600.96
755.342	23462.66
755.679	23470.57
756.017	23317.8
756.355	23509.66
756.693	23289.11
757.031	23323.23
757.368	23156.91
757.706	23173.4
758.044	23160.52
758.381	23126.85
758.719	22950.58
759.056	22972.5
759.394	22875.33
759.731	22650.7
760.068	22744.49
760.405	22707.65
