Data from hue_330_FLMS001491_98.txt Node
Date: Mon Feb 06 15:46:11 GMT 2017
User: dcchb
Spectrometer: FLMS00149
Trigger mode: 0
Integration Time (sec): 2.000000E-2
Scans to average: 10
Electric dark correction enabled: true
Nonlinearity correction enabled: false
Boxcar width: 0
XAxis mode: Wavelengths
Number of Pixels in Spectrum: 2048
>>>>>Begin Spectral Data<<<<<
341.393	2.03
341.776	2.03
342.16	2.03
342.543	-58.3
342.927	-70.51
343.31	-73.9
343.693	-59.43
344.077	-56.04
344.46	-77.29
344.843	-55.14
345.226	-41.81
345.61	-22.15
345.993	-35.48
346.376	-6.55
346.759	7.68
347.142	28.25
347.525	38.42
347.908	79.77
348.291	82.94
348.674	90.85
349.057	99.88
349.44	127.68
349.823	150.05
350.206	167.68
350.588	198.19
350.971	201.8
351.354	212.42
351.737	249.71
352.119	246.55
352.502	258.52
352.884	274.57
353.267	281.35
353.65	310.27
354.032	308.69
354.414	297.62
354.797	309.6
355.179	329.93
355.562	335.81
355.944	305.3
356.326	331.97
356.709	346.21
357.091	325.87
357.473	337.39
357.855	357.05
358.238	352.53
358.62	340.78
359.002	328.13
359.384	331.52
359.766	326.77
360.148	344.4
360.53	347.56
360.912	330.39
361.294	329.93
361.676	332.19
362.057	337.84
362.439	323.83
362.821	336.26
363.203	334.68
363.584	329.03
363.966	321.57
364.348	329.26
364.729	317.51
365.111	325.87
365.493	333.32
365.874	323.16
366.256	296.49
366.637	322.25
367.019	301.69
367.4	324.51
367.781	303.95
368.163	304.17
368.544	307.79
368.925	298.52
369.306	325.87
369.688	289.71
370.069	300.56
370.45	301.69
370.831	301.24
371.212	322.7
371.593	320.9
371.974	312.53
372.355	324.29
372.736	343.95
373.117	306.66
373.498	318.41
373.879	321.8
374.26	311.63
374.641	324.06
375.021	319.77
375.402	302.59
375.783	312.76
376.163	317.51
376.544	334.23
376.925	331.74
377.305	344.85
377.686	318.64
378.066	329.48
378.447	326.09
378.827	317.96
379.208	334.68
379.588	327.68
379.968	316.15
380.349	344.4
380.729	349.14
381.109	336.26
381.489	364.28
381.87	303.27
382.25	348.01
382.63	327.67
383.01	335.13
383.39	344.17
383.77	334.45
384.15	359.31
384.53	335.36
384.91	355.24
385.29	355.7
385.67	336.94
386.049	327.9
386.429	317.28
386.809	354.57
387.189	348.24
387.568	331.06
387.948	337.39
388.328	348.92
388.707	354.11
389.087	364.06
389.466	354.57
389.846	319.54
390.225	360.89
390.605	357.5
390.984	371.97
391.363	353.66
391.743	389.82
392.122	363.83
392.501	364.51
392.881	373.1
393.26	381.91
393.639	357.5
394.018	362.25
394.397	392.08
394.776	362.93
395.155	376.49
395.534	363.83
395.913	378.52
396.292	400.89
396.671	395.24
397.05	372.42
397.429	371.06
397.808	410.16
398.186	388.01
398.565	404.06
398.944	368.58
399.323	391.4
399.701	388.69
400.08	375.81
400.458	421.68
400.837	392.31
401.215	408.58
401.594	408.58
401.972	422.36
402.351	412.64
402.729	423.27
403.107	404.96
403.486	378.52
403.864	411.51
404.242	405.19
404.62	425.75
404.999	435.92
405.377	408.35
405.755	414.45
406.133	417.62
406.511	411.97
406.889	434.79
407.267	414.45
407.645	405.64
408.023	450.61
408.401	462.81
408.779	465.98
409.156	476.82
409.534	459.87
409.912	465.98
410.29	464.39
410.667	479.99
411.045	473.89
411.422	506.43
411.8	494.68
412.178	478.63
412.555	508.24
412.933	505.98
413.31	509.37
413.687	520.21
414.065	507.56
414.442	505.52
414.819	533.32
415.197	535.58
415.574	552.3
415.951	543.71
416.328	563.15
416.705	562.7
417.082	565.18
417.46	575.8
417.837	572.87
418.214	588.01
418.591	583.26
418.967	592.75
419.344	621.23
419.721	575.8
420.098	605.86
420.475	633.88
420.852	642.69
421.228	637.27
421.605	634.11
421.982	663.71
422.358	632.53
422.735	650.15
423.111	651.28
423.488	651.73
423.864	672.3
424.241	701
424.617	691.96
424.994	679.3
425.37	691.73
425.746	703.26
426.123	695.8
426.499	697.16
426.875	695.35
427.251	716.37
427.627	726.99
428.003	728.79
428.379	749.36
428.756	769.7
429.132	779.64
429.507	774.44
429.883	783.03
430.259	769.02
430.635	800.2
431.011	774.89
431.387	801.56
431.763	797.49
432.138	817.61
432.514	816.25
432.89	832.07
433.265	853.54
433.641	850.37
434.016	894.44
434.392	885.17
434.767	886.76
435.143	891.05
435.518	891.95
435.894	903.93
436.269	932.4
436.644	950.48
437.02	926.3
437.395	942.12
437.77	938.96
438.145	975.12
438.52	960.2
438.895	995.68
439.271	988
439.646	1007.43
440.021	997.04
440.395	989.58
440.77	1011.27
441.145	993.19
441.52	1026.19
441.895	1014.89
442.27	1027.77
442.645	1040.42
443.019	1028.45
443.394	1016.7
443.769	1049.01
444.143	1053.98
444.518	1044.27
444.892	1073.19
445.267	1070.03
445.641	1075.45
446.016	1078.62
446.39	1089.69
446.764	1078.39
447.139	1069.58
447.513	1102.12
447.887	1112.06
448.262	1113.64
448.636	1107.09
449.01	1121.55
449.384	1103.02
449.758	1126.75
450.132	1143.02
450.506	1152.74
450.88	1139.63
451.254	1127.2
451.628	1160.42
452.002	1183.25
452.376	1170.36
452.75	1188.22
453.123	1161.78
453.497	1159.52
453.871	1190.03
454.244	1213.08
454.618	1209.23
454.992	1253.53
455.365	1213.98
455.739	1240.42
456.112	1235.9
456.486	1247.2
456.859	1259.63
457.232	1275.45
457.606	1272.96
457.979	1278.84
458.352	1308.67
458.725	1299.85
459.099	1331.26
459.472	1342.79
459.845	1344.15
460.218	1366.52
460.591	1371.94
460.964	1357.93
461.337	1403.13
461.71	1380.3
462.083	1434.54
462.456	1430.7
462.829	1441.77
463.201	1446.97
463.574	1429.11
463.947	1453.52
464.32	1495.55
464.692	1478.61
465.065	1489.45
465.438	1517.02
465.81	1540.3
466.183	1557.7
466.555	1597.47
466.928	1576.68
467.3	1582.33
467.672	1610.13
468.045	1596.34
468.417	1606.74
468.789	1627.75
469.161	1631.82
469.534	1661.43
469.906	1706.85
470.278	1708.2
470.65	1710.24
471.022	1743.23
471.394	1787.3
471.766	1798.6
472.138	1799.27
472.51	1810.35
472.882	1812.16
473.253	1844.25
473.625	1901.19
473.997	1914.75
474.369	1894.64
474.74	1955.2
475.112	1960.85
475.484	1989.33
475.855	2010.79
476.227	2010.12
476.598	2056.9
476.97	2077.69
477.341	2133.05
477.713	2166.27
478.084	2141.41
478.455	2188.42
478.827	2204.69
479.198	2240.17
479.569	2282.43
479.94	2306.61
480.311	2339.83
480.682	2376.89
481.053	2394.51
481.424	2469.77
481.795	2443.78
482.166	2496.21
482.537	2514.06
482.908	2536.66
483.279	2580.72
483.65	2645.13
484.021	2634.06
484.391	2691
484.762	2718.35
485.133	2700.95
485.503	2731.68
485.874	2801.73
486.244	2865.91
486.615	2863.43
486.985	2905.23
487.356	2939.36
487.726	2976.19
488.097	3008.96
488.467	2992.69
488.837	3058
489.207	3103.42
489.578	3127.38
489.948	3184.55
490.318	3166.02
490.688	3212.12
491.058	3256.64
491.428	3272.23
491.798	3310.2
492.168	3320.82
492.538	3346.35
492.908	3399.23
493.278	3439.91
493.648	3459.34
494.017	3475.39
494.387	3525.33
494.757	3541.83
495.126	3563.75
495.496	3501.15
495.866	3582.96
496.235	3601.04
496.605	3649.17
496.974	3655.5
497.344	3690.3
497.713	3716.51
498.082	3718.77
498.452	3737.08
498.821	3793.57
499.19	3789.05
499.559	3820.92
499.928	3836.74
500.298	3865.66
500.667	3932.55
501.036	3888.26
501.405	3916.51
501.774	3884.64
502.143	3965.77
502.512	3996.28
502.88	4000.12
503.249	3954.47
503.618	3964.87
503.987	4012.55
504.356	4068.82
504.724	4078.76
505.093	4069.72
505.462	4051.19
505.83	4064.53
506.199	4127.8
506.567	4157.4
506.936	4163.73
507.304	4205.77
507.672	4189.95
508.041	4255.48
508.409	4217.06
508.777	4258.87
509.145	4238.98
509.514	4266.78
509.882	4277.85
510.25	4308.36
510.618	4299.77
510.986	4304.29
511.354	4358.76
511.722	4377.96
512.09	4417.74
512.458	4335.25
512.826	4408.47
513.193	4431.75
513.561	4441.01
513.929	4439.43
514.297	4459.77
514.664	4509.26
515.032	4495.02
515.4	4481.46
515.767	4506.1
516.135	4540.45
516.502	4496.15
516.869	4586.77
517.237	4565.98
517.604	4582.03
517.972	4596.04
518.339	4618.41
518.706	4601.46
519.073	4626.55
519.44	4624.74
519.808	4671.97
520.175	4660.67
520.542	4717.62
520.909	4746.32
521.276	4729.37
521.643	4799.87
522.009	4798.29
522.376	4785.41
522.743	4781.34
523.11	4818.4
523.477	4822.02
523.843	4915.58
524.21	4899.08
524.577	4942.02
524.943	4943.82
525.31	4965.52
525.676	5006.42
526.043	5002.13
526.409	5082.35
526.776	5036.7
527.142	5106.98
527.508	5115.35
527.874	5176.81
528.241	5138.17
528.607	5128.23
528.973	5199.64
529.339	5179.07
529.705	5273.99
530.071	5295.23
530.437	5310.14
530.803	5359.86
531.169	5376.81
531.535	5387.88
531.901	5401.44
532.267	5386.75
532.632	5473.98
532.998	5430.14
533.364	5486.41
533.73	5492.96
534.095	5518.5
534.461	5556.24
534.826	5539.29
535.192	5612.51
535.557	5649.12
535.923	5622.45
536.288	5621.1
536.653	5685.5
537.019	5659.74
537.384	5676.91
537.749	5777.25
538.114	5784.03
538.479	5758.49
538.845	5758.49
539.21	5805.27
539.575	5846.63
539.94	5847.98
540.305	5932.5
540.67	5901.99
541.034	5935.89
541.399	5929.56
541.764	5989.45
542.129	6007.75
542.494	5971.59
542.858	6037.13
543.223	6036.45
543.587	6084.13
543.952	6102.89
544.316	6093.4
544.681	6150.12
545.045	6162.32
545.41	6280.74
545.774	6224.02
546.138	6279.16
546.503	6248.65
546.867	6350.79
547.231	6320.74
547.595	6358.25
547.959	6379.95
548.324	6367.52
548.688	6452.03
549.052	6452.49
549.416	6439.83
549.779	6485.03
550.143	6473.05
550.507	6570.67
550.871	6530.22
551.235	6513.95
551.599	6639.37
551.962	6621.97
552.326	6628.98
552.689	6692.71
553.053	6647.73
553.417	6615.19
553.78	6705.13
554.143	6721.41
554.507	6706.72
554.87	6773.38
555.234	6796.21
555.597	6828.07
555.96	6804.57
556.323	6861.06
556.686	6834.4
557.05	6885.02
557.413	6882.08
557.776	6916.43
558.139	7002.98
558.502	6992.13
558.865	7020.38
559.228	7041.85
559.59	7072.36
559.953	7047.5
560.316	7121.85
560.679	7139.25
561.041	7184.9
561.404	7098.34
561.767	7214.5
562.129	7175.86
562.492	7261.05
562.854	7207.04
563.217	7218.12
563.579	7317.1
563.941	7301.05
564.304	7341.95
564.666	7367.49
565.028	7416.3
565.39	7450.43
565.753	7461.27
566.115	7540.14
566.477	7484.77
566.839	7537.88
567.201	7535.17
567.563	7566.58
567.925	7581.72
568.287	7690.65
568.648	7647.71
569.01	7675.73
569.372	7704.66
569.734	7731.1
570.095	7786.91
570.457	7828.95
570.819	7826.91
571.18	7844.99
571.542	7872.34
571.903	7954.14
572.265	7983.07
572.626	7999.56
572.987	8046.79
573.349	8144.42
573.71	8140.12
574.071	8261.48
574.432	8235.26
574.794	8308.71
575.155	8399.33
575.516	8425.99
575.877	8518.65
576.238	8571.07
576.599	8582.6
576.96	8625.31
577.32	8746.44
577.681	8834.8
578.042	8861.69
578.403	8978.29
578.763	9093.09
579.124	9140.78
579.485	9285.63
579.845	9345.97
580.206	9474.78
580.566	9641.1
580.927	9685.17
581.287	9932.85
581.648	9999.29
582.008	10148.89
582.368	10254.65
582.728	10420.52
583.089	10560.63
583.449	10736.89
583.809	10837
584.169	11078.13
584.529	11274.96
584.889	11518.34
585.249	11621.84
585.609	11754.27
585.969	12009.63
586.329	12228.83
586.688	12469.5
587.048	12667.46
587.408	12831.75
587.768	13087.79
588.127	13403.04
588.487	13545.18
588.846	13921.67
589.206	14068.1
589.565	14320.75
589.925	14693.4
590.284	14862.43
590.643	15147.17
591.003	15376.32
591.362	15650.66
591.721	15913.93
592.08	16263.98
592.44	16559.79
592.799	16824.64
593.158	17124.52
593.517	17409.49
593.876	17667.78
594.235	18012.18
594.593	18320.65
594.952	18587.31
595.311	18826.17
595.67	19195.43
596.029	19613.72
596.387	19902.53
596.746	20259.35
597.104	20534.83
597.463	20775.95
597.822	21111.99
598.18	21349.72
598.538	21560.34
598.897	22083.49
599.255	22177.5
599.613	22784.26
599.972	22997.36
600.33	23175.21
600.688	23299.73
601.046	23828.53
601.404	24215.41
601.762	24360.72
602.12	24688.16
602.478	24991.89
602.836	25249.28
603.194	25442.95
603.552	25669.61
603.91	25912.99
604.268	26245.41
604.625	26407.89
604.983	26867.99
605.341	26899.86
605.698	27329.68
606.056	27601.99
606.413	27874.3
606.771	28102.54
607.128	28405.81
607.485	28500.04
607.843	28742.3
608.2	29049.86
608.557	29318.33
608.914	29455.5
609.272	29842.61
609.629	30033.33
609.986	30410.05
610.343	30286.66
610.7	30823.14
611.057	30977.26
611.414	31047.09
611.771	31309.69
612.127	31526.18
612.484	31815.89
612.841	32014.98
613.198	32132.94
613.554	32290.9
613.911	32606.6
614.267	32799.14
614.624	32832.58
614.98	33054.27
615.337	33546.46
615.693	33351.21
616.05	33507.82
616.406	33921.14
616.762	33821.03
617.118	34028.03
617.475	34021.7
617.831	34323.62
618.187	34597.73
618.543	34655.59
618.899	35124.95
619.255	35025.29
619.611	35009.47
619.967	35321.78
620.323	35406.07
620.678	35552.29
621.034	35515.68
621.39	35703.47
621.746	35824.14
622.101	36153.63
622.457	35959.05
622.812	36195.43
623.168	36395.2
623.523	36311.59
623.879	36575.99
624.234	36458.25
624.589	36643.78
624.945	36728.07
625.3	36829.09
625.655	36875.87
626.01	37062.75
626.365	37049.2
626.72	37044.45
627.075	37198.12
627.43	37190.43
627.785	37298.23
628.14	37367.83
628.495	37352.24
628.85	37529.41
629.205	37457.09
629.559	37610.08
629.914	37574.83
630.269	37628.16
630.623	37548.17
630.978	37513.82
631.332	37761.72
631.687	37858.89
632.041	37705.9
632.396	37809.18
632.75	37739.35
633.104	37705.45
633.459	37732.57
633.813	37723.53
634.167	37890.98
634.521	37783.87
634.875	37842.39
635.229	37825.22
635.583	37783.64
635.937	37799.91
636.291	37693.92
636.645	37766.01
636.999	37808.05
637.352	37999.68
637.706	37637.2
638.06	37881.26
638.413	37755.84
638.767	37782.96
639.121	37954.48
639.474	37643.08
639.828	37757.2
640.181	37840.81
640.534	37816.18
640.888	37703.42
641.241	37666.58
641.594	37741.38
641.947	37728.05
642.301	37783.19
642.654	37762.17
643.007	37794.03
643.36	37747.03
643.713	37612.12
644.066	37968.49
644.419	37740.02
644.771	37519.01
645.124	37140.04
645.477	37111.79
645.83	36948.18
646.182	36830.9
646.535	36656.44
646.888	36839.26
647.24	36661.41
647.593	36842.42
647.945	36641.07
648.298	36442.43
648.65	36581.64
649.002	36335.99
649.355	36540.28
649.707	36438.59
650.059	36692.37
650.411	36974.85
650.763	37088.29
651.115	37545.23
651.467	37284.9
651.819	37378.9
652.171	37197.44
652.523	37199.47
652.875	37281.73
653.227	37078.35
653.578	37592.68
653.93	37313.82
654.282	37189.3
654.633	37177.33
654.985	37127.16
655.337	37187.04
655.688	37142.3
656.039	37311.34
656.391	37074.28
656.742	37100.04
657.094	37187.95
657.445	37193.82
657.796	37253.94
658.147	37000.84
658.498	36998.12
658.849	37104.11
659.2	36895.75
659.551	37069.76
659.902	37064.56
660.253	36983.89
660.604	37150.21
660.955	36801.97
661.306	37104.11
661.656	36910.67
662.007	37170.77
662.358	37039.03
662.708	36908.41
663.059	36996.99
663.409	36749.99
663.76	37015.3
664.11	36962.42
664.461	36924
664.811	36977.11
665.161	36916.77
665.511	36861.18
665.862	36961.29
666.212	36950.44
666.562	37081.28
666.912	36780.28
667.262	36960.61
667.612	36871.57
667.962	36845.58
668.312	36766.04
668.662	37039.93
669.011	36845.58
669.361	36788.64
669.711	36831.57
670.06	36804.46
670.41	36734.4
670.76	36715.64
671.109	36838.58
671.459	36787.96
671.808	36592.26
672.157	36764.68
672.507	36520.4
672.856	36708.64
673.205	36692.37
673.554	36708.19
673.904	36651.01
674.253	36814.4
674.602	36687.17
674.951	36268.2
675.3	36065.94
675.649	36507.29
675.998	36445.82
676.346	36542.54
676.695	36703.22
677.044	36260.29
677.393	36512.94
677.741	36469.1
678.09	36486.27
678.438	36244.24
678.787	36494.18
679.135	36383.45
679.484	36176.22
679.832	36307.07
680.181	36108.88
680.529	36070.24
680.877	36078.6
681.225	36153.85
681.573	36280.4
681.922	35929.45
682.27	35799.96
682.618	35918.15
682.966	35844.93
683.314	35896.46
683.661	35809.23
684.009	35765.16
684.357	35541.89
684.705	35502.57
685.053	35563.13
685.4	35547.99
685.748	35316.59
686.095	35335.34
686.443	35241.79
686.79	35181.22
687.138	35128.79
687.485	35220.32
687.832	35151.84
688.18	35105.74
688.527	34977.39
688.874	34989.14
689.221	34917.95
689.568	34818.52
689.915	34651.29
690.262	34666.43
690.609	34548.24
690.956	34449.04
691.303	34391.41
691.65	34273.68
691.997	34329.27
692.344	33975.83
692.69	34156.84
693.037	34093.79
693.383	33889.5
693.73	34058.31
694.077	33700.58
694.423	33770.64
694.769	33647.48
695.116	33658.55
695.462	33517.76
695.808	33499.23
696.155	33533.81
696.501	33106.93
696.847	33269.86
697.193	33011.34
697.539	33121.61
697.885	32824.67
698.231	32843.88
698.577	32860.83
698.923	32816.09
699.269	32523.66
699.614	32405.93
699.96	32443.67
700.306	32526.83
700.651	32347.17
700.997	32161.87
701.342	32149.66
701.688	32167.29
702.033	31844.13
702.379	32042.1
702.724	31904.7
703.069	31918.93
703.415	31457.7
703.76	31631.26
704.105	31650.69
704.45	31577.7
704.795	31305.39
705.14	31285.28
705.485	31294.54
705.83	31134.77
706.175	31092.52
706.52	30952.86
706.865	30910.15
707.209	30926.87
707.554	30774.33
707.899	30979.07
708.243	30705.18
708.588	30718.06
708.932	30527.33
709.277	30533.89
709.621	30481.91
709.966	30273.1
710.31	30241.92
710.654	30112.43
710.998	30189.49
711.342	30198.53
711.687	30017.97
712.031	29928.03
712.375	29856.39
712.719	29781.14
713.063	29899.1
713.407	29942.94
713.75	29744.53
714.094	29742.95
714.438	29480.81
714.782	29625.21
715.125	29406.68
715.469	29338.21
715.812	29216.63
716.156	29184.09
716.499	29156.52
716.843	29165.79
717.186	29016.41
717.53	29215.73
717.873	29085.34
718.216	29128.05
718.559	28961.95
718.902	28707.04
719.246	28804.67
719.589	28701.84
719.932	28733.71
720.275	28654.16
720.617	28646.93
720.96	28546.37
721.303	28661.85
721.646	28627.27
721.989	28332.59
722.331	28401.97
722.674	28295.75
723.016	28313.15
723.359	28191.8
723.701	28311.35
724.044	28075.65
724.386	27922.2
724.729	28235.19
725.071	28100.05
725.413	27939.15
725.755	27908.87
726.097	27724.69
726.439	27707.29
726.782	27759.95
727.124	27827.29
727.465	27583.46
727.807	27612.83
728.149	27631.59
728.491	27605.83
728.833	27574.42
729.175	27382.56
729.516	27408.54
729.858	27438.37
730.199	27542.55
730.541	27300.07
730.882	27285.16
731.224	27328.32
731.565	27094.65
731.906	27166.97
732.248	27177.82
732.589	27049.68
732.93	27108.67
733.271	26834.1
733.612	27085.16
733.953	27029.35
734.294	26921.55
734.635	26773.53
734.976	26905.96
735.317	26675.68
735.658	26625.74
735.999	26729.01
736.339	26595.46
736.68	26656.02
737.021	26595.23
737.361	26471.17
737.702	26618.51
738.042	26551.17
738.383	26509.13
738.723	26529.92
739.063	26442.47
739.404	26407.67
739.744	26292.64
740.084	26164.06
740.424	26170.61
740.764	26184.85
741.104	26245.86
741.444	26112.08
741.784	25939.43
742.124	25967.9
742.464	25956.83
742.804	25908.92
743.143	25814.01
743.483	25878.87
743.823	25709.83
744.162	25822.6
744.502	25825.31
744.841	25659.44
745.181	25736.27
745.52	25524.07
745.86	25690.62
746.199	25507.58
746.538	25557.97
746.877	25507.8
747.216	25437.07
747.556	25442.49
747.895	25399.78
748.234	25327.47
748.573	25313.68
748.911	25220.81
749.25	25177.64
749.589	25115.72
749.928	25148.94
750.267	25166.12
750.605	24970.42
750.944	25029.62
751.283	24894.03
751.621	24977.42
751.96	24782.4
752.298	24795.05
752.636	24793.92
752.975	24736.75
753.313	24543.54
753.651	24757.32
753.989	24481.16
754.327	24537.43
754.666	24480.71
755.004	24484.1
755.342	24403.88
755.679	24422.63
756.017	24158.01
756.355	24279.14
756.693	24189.87
757.031	24265.58
757.368	23998.47
757.706	24019.03
758.044	23910.11
758.381	23944.68
758.719	23847.51
759.056	23901.52
759.394	23729.55
759.731	23603.9
