Data from hue_330_FLMS001491_73.txt Node
Date: Mon Feb 06 15:45:52 GMT 2017
User: dcchb
Spectrometer: FLMS00149
Trigger mode: 0
Integration Time (sec): 2.000000E-2
Scans to average: 10
Electric dark correction enabled: true
Nonlinearity correction enabled: false
Boxcar width: 0
XAxis mode: Wavelengths
Number of Pixels in Spectrum: 2048
>>>>>Begin Spectral Data<<<<<
341.393	1.05
341.776	1.05
342.16	1.05
342.543	-54.77
342.927	-47.77
343.31	-50.48
343.693	-55.22
344.077	-55
344.46	-65.17
344.843	-57.26
345.226	-30.14
345.61	-14.1
345.993	-32.85
346.376	-9.58
346.759	1.72
347.142	29.52
347.525	36.98
347.908	44.89
348.291	66.35
348.674	80.82
349.057	109.52
349.44	133.02
349.823	137.99
350.206	160.59
350.588	209.4
350.971	216.63
351.354	235.84
351.737	225.22
352.119	257.99
352.502	253.92
352.884	283.98
353.267	278.1
353.65	295.5
354.032	314.94
354.414	314.03
354.797	328.72
355.179	323.07
355.562	329.4
355.944	319.45
356.326	342.73
356.709	327.82
357.091	342.51
357.473	336.63
357.855	363.52
358.238	354.03
358.62	344.31
359.002	355.16
359.384	336.18
359.766	326.01
360.148	343.41
360.53	358.55
360.912	337.08
361.294	331.66
361.676	319.68
362.057	329.85
362.439	330.08
362.821	343.18
363.203	326.01
363.584	333.47
363.966	311.77
364.348	319.23
364.729	323.3
365.111	336.86
365.493	317.2
365.874	327.82
366.256	323.52
366.637	328.27
367.019	319.45
367.4	332.34
367.781	312
368.163	322.39
368.544	325.78
368.925	320.58
369.306	314.26
369.688	316.74
370.069	322.62
370.45	304.54
370.831	297.08
371.212	328.95
371.593	314.71
371.974	307.03
372.355	311.55
372.736	313.13
373.117	313.35
373.498	330.53
373.879	315.16
374.26	320.36
374.641	324.65
375.021	318.78
375.402	324.2
375.783	326.91
376.163	310.42
376.544	338.66
376.925	343.18
377.305	337.08
377.686	346.12
378.066	324.43
378.447	342.73
378.827	338.21
379.208	346.8
379.588	344.76
379.968	330.53
380.349	339.79
380.729	335.5
381.109	326.01
381.489	336.63
381.87	349.28
382.25	334.14
382.63	354.48
383.01	321.26
383.39	346.12
383.77	349.06
384.15	350.19
384.53	341.83
384.91	346.57
385.29	340.25
385.67	357.87
386.049	358.55
386.429	376.18
386.809	373.01
387.189	348.61
387.568	370.75
387.948	366.23
388.328	355.16
388.707	359.91
389.087	359
389.466	380.02
389.846	355.16
390.225	360.36
390.605	357.87
390.984	351.32
391.363	371.88
391.743	344.99
392.122	378.66
392.501	367.36
392.881	351.32
393.26	381.6
393.639	388.15
394.018	392
394.397	373.92
394.776	391.09
395.155	394.71
395.534	379.57
395.913	401.71
396.292	398.1
396.671	397.42
397.05	419.79
397.429	400.36
397.808	395.39
398.186	376.18
398.565	383.18
398.944	408.49
399.323	384.76
399.701	382.5
400.08	410.07
400.458	410.53
400.837	425.21
401.215	411.2
401.594	405.55
401.972	413.01
402.351	417.08
402.729	424.31
403.107	397.87
403.486	428.83
403.864	418.21
404.242	434.48
404.62	431.77
404.999	436.74
405.377	440.13
405.755	442.84
406.133	425.44
406.511	441.71
406.889	448.72
407.267	432.9
407.645	450.07
408.023	451.65
408.401	471.54
408.779	468.15
409.156	481.94
409.534	475.61
409.912	486.68
410.29	482.61
410.667	492.56
411.045	485.1
411.422	494.59
411.8	497.53
412.178	510.41
412.555	511.54
412.933	514.48
413.31	524.2
413.687	529.84
414.065	536.17
414.442	526
414.819	530.3
415.197	540.92
415.574	554.7
415.951	597.64
416.328	576.85
416.705	568.71
417.082	587.92
417.46	573.01
417.837	571.65
418.214	601.03
418.591	579.56
418.967	598.09
419.344	598.54
419.721	629.28
420.098	634.02
420.475	645.77
420.852	651.88
421.228	649.16
421.605	648.26
421.982	647.81
422.358	651.2
422.735	658.43
423.111	665.21
423.488	674.02
423.864	675.38
424.241	709.5
424.617	695.26
424.994	702.27
425.37	711.08
425.746	709.28
426.123	711.99
426.499	726.68
426.875	726
427.251	751.31
427.627	750.4
428.003	748.82
428.379	762.61
428.756	774.36
429.132	771.87
429.507	792.44
429.883	791.53
430.259	792.66
430.635	788.82
431.011	806
431.387	829.05
431.763	865.66
432.138	847.12
432.514	856.39
432.89	876.73
433.265	884.19
433.641	885.54
434.016	901.59
434.392	897.74
434.767	912.66
435.143	924.18
435.518	932.77
435.894	943.39
436.269	953.79
436.644	906.56
437.02	972.55
437.395	944.52
437.77	979.78
438.145	999.21
438.52	987.46
438.895	1005.99
439.271	1004.63
439.646	1016.61
440.021	1042.6
440.395	1017.29
440.77	1007.12
441.145	1031.53
441.52	1047.12
441.895	1064.97
442.27	1070.62
442.645	1054.35
443.019	1063.84
443.394	1084.63
443.769	1076.27
444.143	1066.1
444.518	1094.8
444.892	1087.34
445.267	1099.32
445.641	1102.49
446.016	1104.52
446.39	1129.83
446.764	1114.01
447.139	1102.26
447.513	1135.7
447.887	1135.03
448.262	1130.73
448.636	1147
449.01	1131.18
449.384	1158.98
449.758	1167.79
450.132	1188.58
450.506	1174.35
450.88	1191.3
451.254	1198.3
451.628	1208.02
452.002	1211.86
452.376	1205.76
452.75	1219.54
453.123	1210.96
453.497	1231.75
453.871	1260.9
454.244	1238.75
454.618	1249.83
454.992	1302.25
455.365	1259.09
455.739	1277.62
456.112	1304.97
456.486	1290.73
456.859	1331.86
457.232	1315.81
457.606	1316.72
457.979	1368.92
458.352	1360.33
458.725	1393.32
459.099	1377.96
459.472	1403.49
459.845	1409.82
460.218	1413.44
460.591	1439.2
460.964	1456.83
461.337	1439.43
461.71	1466.32
462.083	1478.07
462.456	1493.89
462.829	1482.81
463.201	1493.89
463.574	1523.04
463.947	1538.63
464.32	1536.6
464.692	1549.71
465.065	1560.55
465.438	1579.53
465.81	1615.47
466.183	1628.35
466.555	1647.56
466.928	1662.92
467.3	1645.97
467.672	1679.65
468.045	1717.16
468.417	1701.34
468.789	1712.86
469.161	1724.16
469.534	1730.27
469.906	1791.51
470.278	1779.3
470.65	1818.85
471.022	1845.97
471.394	1862.92
471.766	1890.26
472.138	1896.14
472.51	1935.46
472.882	1959.19
473.253	1951.28
473.625	1957.38
473.997	1987.43
474.369	2019.3
474.74	2072.4
475.112	2067.21
475.484	2117.83
475.855	2122.8
476.227	2165.73
476.598	2176.36
476.97	2204.38
477.341	2242.34
477.713	2281.89
478.084	2269.69
478.455	2379.97
478.827	2347.42
479.198	2386.07
479.569	2401.21
479.94	2472.62
480.311	2490.25
480.682	2549.23
481.053	2584.93
481.424	2606.4
481.795	2617.47
482.166	2633.74
482.537	2703.8
482.908	2729.11
483.279	2764.81
483.65	2781.76
484.021	2853.4
484.391	2878.48
484.762	2920.29
485.133	2904.47
485.503	2938.37
485.874	3003
486.244	2998.03
486.615	3076.67
486.985	3072.83
487.356	3112.38
487.726	3177.68
488.097	3185.37
488.467	3201.86
488.837	3294.07
489.207	3322.99
489.578	3334.97
489.948	3384.69
490.318	3433.5
490.688	3428.3
491.058	3491.8
491.428	3502.2
491.798	3492.93
492.168	3592.14
492.538	3657.45
492.908	3645.7
493.278	3681.17
493.648	3661.06
494.017	3697.45
494.387	3755.75
494.757	3775.18
495.126	3812.47
495.496	3815.41
495.866	3841.4
496.235	3865.58
496.605	3900.38
496.974	3921.85
497.344	3947.61
497.713	3992.35
498.082	4012.24
498.452	4006.82
498.821	4033.93
499.19	4021.96
499.559	4099.69
499.928	4104.67
500.298	4136.76
500.667	4188.05
501.036	4150.77
501.405	4183.31
501.774	4174.72
502.143	4214.27
502.512	4219.92
502.88	4246.81
503.249	4270.31
503.618	4291.33
503.987	4269.41
504.356	4348.5
504.724	4327.03
505.093	4295.85
505.462	4362.51
505.83	4410.87
506.199	4436.41
506.567	4457.2
506.936	4412.45
507.304	4484.54
507.672	4487.25
508.041	4547.37
508.409	4536.75
508.777	4503.98
509.145	4597.76
509.514	4539
509.882	4600.7
510.25	4629.62
510.618	4647.02
510.986	4672.56
511.354	4682.28
511.722	4673.24
512.09	4672.33
512.458	4699.9
512.826	4741.94
513.193	4703.75
513.561	4737.42
513.929	4750.3
514.297	4815.16
514.664	4802.73
515.032	4837.98
515.4	4874.14
515.767	4888.15
516.135	4888.15
516.502	4822.61
516.869	4914.14
517.237	4913.46
517.604	4900.13
517.972	4957.98
518.339	4968.6
518.706	4968.37
519.073	4988.71
519.44	4996.17
519.808	5070.06
520.175	4994.81
520.542	5067.35
520.909	5107.58
521.276	5120.46
521.643	5115.71
522.009	5162.04
522.376	5161.59
522.743	5190.97
523.11	5231.42
523.477	5256.5
523.843	5273.45
524.21	5291.53
524.577	5341.7
524.943	5341.47
525.31	5404.52
525.676	5401.13
526.043	5433.44
526.409	5430.28
526.776	5428.47
527.142	5507.12
527.508	5524.29
527.874	5535.59
528.241	5553.44
528.607	5565.19
528.973	5670.27
529.339	5635.02
529.705	5675.7
530.071	5703.49
530.437	5764.74
530.803	5768.13
531.169	5820.1
531.535	5803.15
531.901	5804.73
532.267	5826.2
532.632	5863.49
532.998	5898.29
533.364	5924.28
533.73	5987.33
534.095	6027.1
534.461	5989.81
534.826	6021.23
535.192	6010.15
535.557	6120.43
535.923	6088.79
536.288	6154.56
536.653	6156.82
537.019	6144.39
537.384	6170.83
537.749	6220.09
538.114	6327.66
538.479	6260.54
538.845	6329.47
539.21	6236.14
539.575	6362.23
539.94	6340.09
540.305	6390.48
540.67	6403.59
541.034	6445.85
541.399	6445.85
541.764	6506.41
542.129	6501.44
542.494	6497.82
542.858	6545.73
543.223	6549.57
543.587	6623.47
543.952	6641.32
544.316	6688.78
544.681	6662.56
545.045	6712.96
545.41	6780.75
545.774	6813.3
546.138	6779.17
546.503	6780.53
546.867	6856.68
547.231	6926.96
547.595	6933.07
547.959	6881.77
548.324	6921.99
548.688	7000.64
549.052	6983.23
549.416	7044.02
549.779	6943.24
550.143	7069.56
550.507	7142.33
550.871	7128.77
551.235	7130.8
551.599	7167.64
551.962	7218.03
552.326	7143.68
552.689	7242.89
553.053	7232.04
553.417	7206.28
553.78	7290.8
554.143	7238.37
554.507	7322.89
554.87	7333.06
555.234	7452.83
555.597	7402.43
555.96	7394.3
556.323	7439.72
556.686	7453.05
557.05	7464.35
557.413	7448.76
557.776	7485.82
558.139	7564.01
558.502	7533.95
558.865	7580.05
559.228	7621.64
559.59	7712.71
559.953	7707.06
560.316	7761.75
560.679	7749.54
561.041	7775.53
561.404	7796.09
561.767	7868.18
562.129	7805.81
562.492	7907.05
562.854	7878.8
563.217	7905.92
563.579	7949.99
563.941	7989.54
564.304	7923.32
564.666	8061.17
565.028	7990.21
565.39	8071.12
565.753	8088.97
566.115	8124.67
566.477	8182.52
566.839	8202.41
567.201	8199.25
567.563	8175.29
567.925	8314.27
568.287	8240.15
568.648	8318.11
569.01	8421.16
569.372	8460.71
569.734	8441.5
570.095	8473.36
570.457	8496.19
570.819	8534.15
571.18	8555.4
571.542	8613.47
571.903	8623.42
572.265	8735.28
572.626	8759.91
572.987	8756.07
573.349	8829.97
573.71	8870.87
574.071	8944.09
574.432	8973.01
574.794	9076.29
575.155	9153.12
575.516	9083.97
575.877	9214.81
576.238	9282.61
576.599	9380.46
576.96	9395.15
577.32	9568.93
577.681	9593.34
578.042	9699.32
578.403	9717.4
578.763	9872.2
579.124	9907.68
579.485	10088.92
579.845	10119.2
580.206	10249.14
580.566	10374.33
580.927	10499.3
581.287	10695
581.648	10723.02
582.008	10871.49
582.368	11080.98
582.728	11272.61
583.089	11349
583.449	11579.5
583.809	11718.25
584.169	11932.48
584.529	12066.04
584.889	12284.79
585.249	12406.59
585.609	12594.84
585.969	12925.68
586.329	13053.81
586.688	13305.78
587.048	13525.89
587.408	13819.21
587.768	13982.15
588.127	14219.43
588.487	14430.04
588.846	14726.31
589.206	14956.58
589.565	15169.46
589.925	15403.58
590.284	15668.2
590.643	15956.56
591.003	16284.46
591.362	16549.08
591.721	16757.89
592.08	17017.77
592.44	17501.6
592.799	17676.51
593.158	17834.02
593.517	18213.67
593.876	18469.03
594.235	18760.55
594.593	18998.29
594.952	19455.22
595.311	19487.99
595.67	19911.03
596.029	20272.15
596.387	20596.66
596.746	20890.44
597.104	21070.1
597.463	21388.73
597.822	21790.75
598.18	21911.43
598.538	22209.27
598.897	22586.89
599.255	22713.44
599.613	23280.66
599.972	23420.99
600.33	23720.2
600.688	23892.39
601.046	24190.92
601.404	24569.44
601.762	24803.56
602.12	25199.25
602.478	25363.32
602.836	25695.96
603.194	25942.51
603.552	26084.43
603.91	26262.95
604.268	26613.45
604.625	26708.82
604.983	27136.15
605.341	27240.1
605.698	27665.63
606.056	27884.61
606.413	28028.33
606.771	28328.89
607.128	28557.58
607.485	28607.3
607.843	28918.7
608.2	29273.5
608.557	29534.28
608.914	29707.38
609.272	29932.24
609.629	30174.49
609.986	30578.55
610.343	30508.27
610.7	30918.2
611.057	31070.06
611.414	31244.97
611.771	31475.92
612.127	31739.87
612.484	31884.05
612.841	32196.58
613.198	32102.8
613.554	32315
613.911	32630.92
614.267	32683.35
614.624	32801.99
614.98	33086.5
615.337	33171.92
615.693	33430.9
616.05	33573.27
616.406	33773.94
616.762	33846.26
617.118	33970.32
617.475	34109.53
617.831	34350.42
618.187	34363.53
618.543	34627.48
618.899	34964.65
619.255	34893.91
619.611	35039.9
619.967	35248.25
620.323	35278.99
620.678	35359.66
621.034	35352.21
621.39	35427.46
621.746	35504.52
622.101	35951.29
622.457	35722.14
622.812	35847.11
623.168	36021.12
623.523	36231.05
623.879	36291.39
624.234	36303.14
624.589	36415.68
624.945	36654.54
625.3	36691.61
625.655	36807.31
626.01	36839.62
626.365	36901.09
626.72	36939.06
627.075	37074.42
627.43	37060.86
627.785	36955.1
628.14	37068.77
628.495	37286.84
628.85	37250.91
629.205	37207.75
629.559	37366.39
629.914	37356.9
630.269	37400.06
630.623	37442.09
630.978	37375.43
631.332	37624.69
631.687	37699.71
632.041	37588.98
632.396	37564.8
632.75	37552.15
633.104	37608.19
633.459	37440.51
633.813	37687.74
634.167	37685.93
634.521	37783.1
634.875	37666.04
635.229	37764.12
635.583	37515.99
635.937	37493.84
636.291	37494.07
636.645	37590.57
636.999	37598.25
637.352	37681.64
637.706	37458.14
638.06	37663.33
638.413	37591.92
638.767	37493.17
639.121	37557.8
639.474	37407.29
639.828	37559.38
640.181	37558.48
640.534	37668.76
640.888	37570.23
641.241	37522.54
641.594	37480.96
641.947	37595.31
642.301	37474.64
642.654	37593.5
643.007	37506.27
643.36	37526.61
643.713	37462.89
644.066	37757.79
644.419	37322.78
644.771	37253.17
645.124	36835.56
645.477	36934.54
645.83	36670.14
646.182	36546.07
646.535	36436.7
646.888	36566.41
647.24	36235.57
647.593	36630.14
647.945	36485.96
648.298	36289.81
648.65	36356.02
649.002	36266.76
649.355	36343.14
649.707	36406.42
650.059	36445.51
650.411	36881.21
650.763	36886.63
651.115	37266.28
651.467	37301.53
651.819	37151.25
652.171	37153.74
652.523	37024.48
652.875	37097.92
653.227	36979.73
653.578	37019.51
653.93	37035.1
654.282	37006.63
654.633	36803.69
654.985	36944.48
655.337	37044.36
655.688	36920.98
656.039	37115.78
656.391	36728.22
656.742	36756.46
657.094	36864.03
657.445	36956.46
657.796	36976.34
658.147	36845.73
658.498	36985.84
658.849	36942.67
659.2	36949.45
659.551	36808.66
659.902	36962.56
660.253	36857.7
660.604	36787.2
660.955	36721.21
661.306	36731.15
661.656	36787.2
662.007	36743.58
662.358	36763.47
662.708	36716.46
663.059	36642.79
663.409	36589.91
663.76	36763.24
664.11	36717.82
664.461	36843.69
664.811	36623.59
665.161	36683.7
665.511	36681.21
665.862	36738.61
666.212	36697.71
666.562	36801.43
666.912	36685.28
667.262	36762.34
667.612	36600.08
667.962	36720.76
668.312	36618.39
668.662	36874.88
669.011	36661.1
669.361	36650.7
669.711	36619.29
670.06	36636.47
670.41	36650.48
670.76	36399.41
671.109	36647.09
671.459	36575.9
671.808	36555.34
672.157	36539.75
672.507	36427.88
672.856	36498.16
673.205	36458.39
673.554	36694.77
673.904	36509.69
674.253	36735.67
674.602	36420.2
674.951	35985.41
675.3	35912.42
675.649	36281.22
675.998	36417.71
676.346	36300.88
676.695	36480.31
677.044	36198.96
677.393	36236.02
677.741	36224.73
678.09	36357.6
678.438	36078.29
678.787	36306.98
679.135	36210.49
679.484	35916.26
679.832	36115.35
680.181	35861.35
680.529	36036.71
680.877	35947.44
681.225	35880.33
681.573	36156.93
681.922	35913.77
682.27	35769.6
682.618	35779.31
682.966	35646.66
683.314	35715.81
683.661	35539.09
684.009	35545.87
684.357	35389.04
684.705	35362.6
685.053	35426.55
685.4	35295.03
685.748	35135.71
686.095	35062.04
686.443	35139.78
686.79	34959.22
687.138	35219.55
687.485	35121.25
687.832	35050.07
688.18	35073.57
688.527	34804.2
688.874	34869.51
689.221	34714.03
689.568	34723.3
689.915	34594.71
690.262	34628.84
690.609	34528.27
690.956	34299.13
691.303	34388.39
691.65	34119.24
691.997	34157.21
692.344	33939.14
692.69	33876.99
693.037	33980.49
693.383	33624.79
693.73	33841.96
694.077	33689.65
694.423	33634.96
694.769	33538.69
695.116	33413.27
695.462	33374.4
695.808	33262.32
696.155	33408.08
696.501	33127.41
696.847	33257.57
697.193	32896.68
697.539	33032.72
697.885	32849.9
698.231	32684.93
698.577	32729
698.923	32648.55
699.269	32483.13
699.614	32378.72
699.96	32277.03
700.306	32352.06
700.651	32139.18
700.997	32161.1
701.342	32147.54
701.688	32059.86
702.033	31946.87
702.379	32004.5
702.724	31706.88
703.069	31846.99
703.415	31677.5
703.76	31468.24
704.105	31512.08
704.45	31442.93
704.795	31270.28
705.14	31283.84
705.485	31373.55
705.83	31094.92
706.175	31171.98
706.52	31004.07
706.865	30958.88
707.209	30836.62
707.554	30818.09
707.899	30930.18
708.243	30720.92
708.588	30642.95
708.932	30306.69
709.277	30427.82
709.621	30428.04
709.966	30263.3
710.31	30339
710.654	30094.49
710.998	30084.32
711.342	30043.42
711.687	30117.09
712.031	29887.94
712.375	29823.31
712.719	29788.06
713.063	29853.37
713.407	29909.64
713.75	29688.85
714.094	29711.9
714.438	29543.55
714.782	29629.42
715.125	29367.05
715.469	29397.79
715.812	29226.27
716.156	29153.72
716.499	29109.88
716.843	29142.43
717.186	29087.29
717.53	29182.42
717.873	29048.87
718.216	29066.27
718.559	28984.46
718.902	28708.31
719.246	28831.7
719.589	28710.35
719.932	28543.35
720.275	28566.85
720.617	28519.62
720.96	28503.12
721.303	28467.64
721.646	28503.57
721.989	28312.39
722.331	28422.44
722.674	28339.96
723.016	28371.82
723.359	28316.46
723.701	28217.48
724.044	28020.87
724.386	27856.58
724.729	28034.88
725.071	28012.96
725.413	27951.27
725.755	27850.71
726.097	27826.98
726.439	27704.27
726.782	27721.22
727.124	27786.98
727.465	27576.14
727.807	27518.74
728.149	27567.1
728.491	27566.2
728.833	27410.04
729.175	27363.94
729.516	27341.57
729.858	27396.26
730.199	27405.3
730.541	27371.17
730.882	27203.04
731.224	27310.38
731.565	27140.67
731.906	27216.15
732.248	27170.73
732.589	26862.71
732.93	27012.31
733.271	27020
733.612	26865.42
733.953	26982.48
734.294	26871.3
734.635	26836.05
734.976	26880.34
735.317	26796.5
735.658	26761.47
735.999	26664.98
736.339	26719.89
736.68	26812.09
737.021	26563.74
737.361	26460.01
737.702	26550.86
738.042	26540.91
738.383	26392.22
738.723	26541.14
739.063	26439.9
739.404	26411.88
739.744	26436.28
740.084	26320.13
740.424	26263.63
740.764	26175.27
741.104	26150.64
741.444	26139.79
741.784	26140.7
742.124	26094.6
742.464	26012.34
742.804	26001.72
743.143	25941.83
743.483	25995.39
743.823	25810.54
744.162	25771.89
744.502	25807.15
744.841	25715.4
745.181	25686.02
745.52	25714.27
745.86	25656.19
746.199	25558.34
746.538	25575.51
746.877	25625.23
747.216	25539.13
747.556	25485.8
747.895	25536.87
748.234	25333.26
748.573	25305.01
748.911	25268.86
749.25	25194.06
749.589	25082.19
749.928	25179.37
750.267	25155.19
750.605	25099.37
750.944	25034.96
751.283	24888.3
751.621	25046.04
751.96	24988.86
752.298	24766.95
752.636	24865.25
752.975	24719.04
753.313	24582.32
753.651	24751.13
753.989	24548.42
754.327	24519.27
754.666	24441.08
755.004	24417.13
755.342	24484.02
755.679	24410.35
756.017	24275.44
756.355	24405.6
756.693	24179.17
757.031	24251.48
757.368	24038.15
757.706	24109.11
758.044	24082.9
758.381	24012.17
758.719	23965.16
759.056	23858.72
759.394	23700.99
759.731	23593.65
760.068	23622.34
760.405	23502.57
