Data from hue_32_FLMS001491_00026.txt Node
Date: Tue Feb 07 17:23:06 GMT 2017
User: dcchb
Spectrometer: FLMS00149
Trigger mode: 0
Integration Time (sec): 2.000000E-2
Scans to average: 10
Electric dark correction enabled: true
Nonlinearity correction enabled: false
Boxcar width: 0
XAxis mode: Wavelengths
Number of Pixels in Spectrum: 2048
>>>>>Begin Spectral Data<<<<<
341.393	3.33
341.776	3.33
342.16	3.33
342.543	-50.9
342.927	-65.59
343.31	-76.44
343.693	-73.5
344.077	-60.17
344.46	-55.42
344.843	-52.48
345.226	-43.22
345.61	-22.65
345.993	-11.36
346.376	-11.58
346.759	20.51
347.142	30
347.525	32.94
347.908	62.31
348.291	69.09
348.674	84.01
349.057	107.96
349.44	124.46
349.823	153.84
350.206	153.16
350.588	195.42
350.971	212.82
351.354	234.74
351.737	249.2
352.119	256.21
352.502	256.21
352.884	279.94
353.267	293.5
353.65	289.43
354.032	293.04
354.414	304.57
354.797	300.05
355.179	333.72
355.562	338.69
355.944	351.35
356.326	318.81
356.709	328.75
357.091	342.53
357.473	338.47
357.855	351.35
358.238	334.17
358.62	347.05
359.002	342.99
359.384	355.41
359.766	356.32
360.148	364.68
360.53	349.31
360.912	331.01
361.294	327.62
361.676	333.27
362.057	340.95
362.439	336.66
362.821	317.45
363.203	333.27
363.584	341.18
363.966	324.23
364.348	318.35
364.729	322.65
365.111	330.78
365.493	320.61
365.874	325.58
366.256	324
366.637	328.75
367.019	316.32
367.4	315.64
367.781	316.32
368.163	323.32
368.544	336.21
368.925	323.78
369.306	330.33
369.688	340.73
370.069	323.78
370.45	320.39
370.831	319.03
371.212	319.48
371.593	318.13
371.974	316.77
372.355	314.51
372.736	326.71
373.117	331.23
373.498	322.42
373.879	327.17
374.26	337.79
374.641	328.97
375.021	330.78
375.402	322.42
375.783	345.92
376.163	338.24
376.544	323.78
376.925	335.98
377.305	339.6
377.686	341.86
378.066	347.96
378.447	312.25
378.827	341.18
379.208	327.17
379.588	340.05
379.968	351.12
380.349	344.34
380.729	345.25
381.109	333.04
381.489	335.75
381.87	361.74
382.25	352.02
382.63	344.57
383.01	339.14
383.39	344.79
383.77	348.41
384.15	365.36
384.53	346.83
384.91	350.67
385.29	360.61
385.67	359.71
386.049	368.3
386.429	394.28
386.809	381.18
387.189	364.45
387.568	357.45
387.948	363.55
388.328	358.8
388.707	354.28
389.087	369.43
389.466	370.56
389.846	357.9
390.225	376.66
390.605	375.07
390.984	370.33
391.363	385.02
391.743	392.25
392.122	354.51
392.501	383.21
392.881	382.98
393.26	404.45
393.639	389.76
394.018	392.93
394.397	378.24
394.776	406.94
395.155	383.89
395.534	361.29
395.913	391.12
396.292	393.15
396.671	385.7
397.05	394.96
397.429	397.22
397.808	389.99
398.186	393.61
398.565	398.58
398.944	405.36
399.323	392.93
399.701	411.01
400.08	407.62
400.458	411.23
400.837	405.36
401.215	430.44
401.594	413.27
401.972	431.34
402.351	406.26
402.729	387.28
403.107	413.04
403.486	410.33
403.864	435.86
404.242	405.81
404.62	432.7
404.999	444.23
405.377	412.81
405.755	413.49
406.133	437.22
406.511	421.63
406.889	447.39
407.267	433.83
407.645	424.57
408.023	457.56
408.401	462.3
408.779	445.81
409.156	460.72
409.534	462.98
409.912	491.91
410.29	476.99
410.667	463.43
411.045	476.09
411.422	473.83
411.8	465.47
412.178	491.91
412.555	497.11
412.933	470.21
413.31	481.96
413.687	501.85
414.065	514.51
414.442	480.61
414.819	500.95
415.197	510.21
415.574	485.58
415.951	509.99
416.328	509.53
416.705	507.95
417.082	509.31
417.46	521.96
417.837	514.51
418.214	532.36
418.591	518.35
418.967	516.99
419.344	533.26
419.721	500.72
420.098	555.18
420.475	551.79
420.852	540.72
421.228	541.17
421.605	556.77
421.982	544.34
422.358	548.18
422.735	558.57
423.111	542.3
423.488	555.18
423.864	560.38
424.241	601.51
424.617	583.21
424.994	569.65
425.37	594.5
425.746	590.44
426.123	582.3
426.499	588.4
426.875	594.73
427.251	616.65
427.627	606.03
428.003	592.47
428.379	627.5
428.756	633.6
429.132	632.02
429.507	652.58
429.883	642.64
430.259	652.13
430.635	633.83
431.011	659.81
431.387	676.31
431.763	676.31
432.138	654.84
432.514	650.77
432.89	680.6
433.265	693.94
433.641	688.06
434.016	669.3
434.392	698.23
434.767	704.78
435.143	741.39
435.518	729.87
435.894	711.79
436.269	731.68
436.644	754.27
437.02	727.16
437.395	735.97
437.77	725.57
438.145	758.34
438.52	786.59
438.895	775.29
439.271	772.8
439.646	771.67
440.021	803.54
440.395	761.05
440.77	788.4
441.145	783.43
441.52	794.27
441.895	775.29
442.27	799.02
442.645	827.72
443.019	819.36
443.394	811.45
443.769	840.15
444.143	843.54
444.518	848.96
444.892	822.52
445.267	850.09
445.641	831.79
446.016	846.25
446.39	858.23
446.764	855.51
447.139	863.65
447.513	883.99
447.887	882.63
448.262	869.3
448.636	882.18
449.01	902.52
449.384	879.69
449.758	899.13
450.132	908.85
450.506	921.28
450.88	941.39
451.254	930.31
451.628	915.85
452.002	947.49
452.376	942.97
452.75	946.81
453.123	947.26
453.497	976.87
453.871	982.06
454.244	997.66
454.618	1021.84
454.992	993.14
455.365	1004.89
455.739	1030.42
456.112	1034.49
456.486	1049.18
456.859	1048.05
457.232	1043.98
457.606	1053.48
457.979	1055.51
458.352	1122.17
458.725	1088.28
459.099	1124.66
459.472	1121.04
459.845	1126.24
460.218	1160.82
460.591	1190.87
460.964	1189.29
461.337	1181.16
461.71	1206.69
462.083	1231.55
462.456	1220.48
462.829	1214.15
463.201	1238.1
463.574	1262.74
463.947	1264.09
464.32	1269.29
464.692	1315.16
465.065	1327.37
465.438	1351.77
465.81	1389.51
466.183	1389.51
466.555	1406.46
466.928	1401.04
467.3	1423.63
467.672	1438.32
468.045	1486.01
468.417	1485.1
468.789	1484.88
469.161	1511.99
469.534	1549.73
469.906	1562.39
470.278	1603.74
470.65	1621.6
471.022	1636.28
471.394	1685.55
471.766	1694.14
472.138	1704.08
472.51	1736.4
472.882	1782.04
473.253	1816.39
473.625	1831.08
473.997	1854.13
474.369	1898.42
474.74	1918.09
475.112	1968.48
475.484	1988.82
475.855	2005.54
476.227	2044.18
476.598	2159.43
476.97	2195.14
477.341	2222.48
477.713	2270.17
478.084	2271.75
478.455	2387.68
478.827	2370.95
479.198	2463.38
479.569	2468.13
479.94	2575.92
480.311	2583.38
480.682	2671.29
481.053	2745.86
481.424	2791.51
481.795	2873.31
482.166	2896.82
482.537	2984.95
482.908	3066.3
483.279	3102.69
483.65	3179.07
484.021	3276.92
484.391	3358.73
484.762	3373.64
485.133	3471.26
485.503	3526.86
485.874	3593.97
486.244	3664.25
486.615	3779.96
486.985	3850.69
487.356	4012.04
487.726	3985.83
488.097	4095.43
488.467	4153.28
488.837	4265.37
489.207	4341.98
489.578	4426.72
489.948	4502.42
490.318	4633.04
490.688	4668.75
491.058	4796.2
491.428	4844.79
491.798	4935.18
492.168	5099.92
492.538	5121.39
492.908	5202.29
493.278	5298.79
493.648	5374.72
494.017	5432.8
494.387	5498.56
494.757	5566.8
495.126	5711.43
495.496	5727.48
495.866	5778.1
496.235	5898.32
496.605	5971.99
496.974	6026.68
497.344	6101.7
497.713	6152.1
498.082	6276.16
498.452	6312.09
498.821	6370.17
499.19	6437.29
499.559	6532.43
499.928	6601.13
500.298	6615.36
500.667	6761.8
501.036	6795.7
501.405	6849.48
501.774	6939.65
502.143	7010.83
502.512	6991.4
502.88	7062.36
503.249	7134.9
503.618	7186.42
503.987	7248.79
504.356	7274.55
504.724	7366.98
505.093	7419.41
505.462	7453.76
505.83	7522.68
506.199	7560.87
506.567	7727.42
506.936	7736.01
507.304	7797.93
507.672	7818.72
508.041	7903.01
508.409	7898.04
508.777	8029.34
509.145	8093.97
509.514	8103.69
509.882	8201.08
510.25	8156.57
510.618	8261.42
510.986	8230.46
511.354	8390.01
511.722	8478.59
512.09	8517.01
512.458	8493.28
512.826	8576.67
513.193	8606.04
513.561	8640.85
513.929	8715.87
514.297	8797.9
514.664	8837.45
515.032	8889.2
515.4	8988.41
515.767	8992.25
516.135	9001.97
516.502	8995.19
516.869	9153.15
517.237	9146.6
517.604	9184.33
517.972	9220.49
518.339	9266.37
518.706	9337.1
519.073	9440.6
519.44	9460.26
519.808	9490.99
520.175	9460.49
520.542	9623.42
520.909	9706.35
521.276	9681.95
521.643	9767.6
522.009	9775.05
522.376	9862.51
522.743	9940.02
523.11	10036.97
523.477	10038.78
523.843	10121.94
524.21	10278.77
524.577	10250.07
524.943	10351.31
525.31	10321.48
525.676	10396.28
526.043	10454.36
526.409	10550.17
526.776	10715.14
527.142	10637.4
527.508	10715.59
527.874	10829.72
528.241	10926.21
528.607	10942.48
528.973	10968.02
529.339	11008.92
529.705	11154.45
530.071	11246.2
530.437	11320.1
530.803	11320.1
531.169	11349.02
531.535	11338.4
531.901	11395.12
532.267	11483.94
532.632	11506.31
532.998	11563.26
533.364	11705.17
533.73	11682.57
534.095	11736.58
534.461	11803.93
534.826	11870.14
535.192	11903.36
535.557	12007.31
535.923	11961.89
536.288	12055.22
536.653	12071.04
537.019	12071.94
537.384	12170.47
537.749	12266.74
538.114	12291.82
538.479	12378.15
538.845	12329.34
539.21	12379.96
539.575	12452.27
539.94	12438.94
540.305	12573.4
540.67	12564.36
541.034	12600.74
541.399	12718.93
541.764	12725.03
542.129	12704.92
542.494	12837.8
542.858	12822.66
543.223	12887.29
543.587	12999.83
543.952	13014.29
544.316	13037.34
544.681	13052.71
545.045	13157.79
545.41	13264.23
545.774	13239.37
546.138	13256.32
546.503	13374.28
546.867	13339.93
547.231	13446.37
547.595	13471.23
547.959	13514.84
548.324	13634.39
548.688	13635.74
549.052	13712.13
549.416	13736.08
549.779	13796.87
550.143	13766.59
550.507	13878
550.871	13925
551.235	13899.92
551.599	14125.9
551.962	14091.32
552.326	14151.89
552.689	14162.28
553.053	14110.98
553.417	14261.72
553.78	14376.06
554.143	14353.92
554.507	14459.45
554.87	14482.05
555.234	14594.14
555.597	14498.77
555.96	14580.8
556.323	14606.57
556.686	14690.18
557.05	14791.19
557.413	14818.99
557.776	14799.78
558.139	14863.96
558.502	14901.7
558.865	14963.84
559.228	15033.22
559.59	15108.47
559.953	15068.47
560.316	15311.41
560.679	15185.31
561.041	15387.34
561.404	15437.73
561.767	15498.75
562.129	15421.23
562.492	15584.39
562.854	15617.39
563.217	15613.77
563.579	15764.5
563.941	15696.48
564.304	15811.28
564.666	15860.54
565.028	15932.41
565.39	15920.88
565.753	15976.7
566.115	16106.19
566.477	16167.2
566.839	16166.75
567.201	16333.3
567.563	16371.72
567.925	16528.1
568.287	16473.41
568.648	16451.94
569.01	16467.99
569.372	16675.44
569.734	16650.13
570.095	16838.82
570.457	16893.28
570.819	16989.55
571.18	16866.39
571.542	17045.15
571.903	17124.01
572.265	17173.73
572.626	17233.16
572.987	17298.92
573.349	17372.82
573.71	17430.45
574.071	17649.42
574.432	17770.32
574.794	17761.51
575.155	17916.08
575.516	17882.64
575.877	18101.84
576.238	18091.67
576.599	18268.16
576.96	18352.46
577.32	18445.11
577.681	18623.86
578.042	18676.74
578.403	18726.68
578.763	19008.26
579.124	19103.62
579.485	19334.58
579.845	19385.42
580.206	19555.59
580.566	19697.5
580.927	19782.93
581.287	20066.53
581.648	20082.81
582.008	20268.11
582.368	20533.87
582.728	20516.69
583.089	20744.26
583.449	21034.19
583.809	21141.08
584.169	21342.43
584.529	21572.26
584.889	21956.65
585.249	21952.36
585.609	22153.94
585.969	22528.84
586.329	22677.31
586.688	22957.31
587.048	23048.15
587.408	23308.71
587.768	23485.2
588.127	23777.4
588.487	24025.07
588.846	24376.48
589.206	24459.64
589.565	24815.79
589.925	25012.85
590.284	25267.98
590.643	25567.18
591.003	25844.91
591.362	26204.45
591.721	26352.92
592.08	26606.93
592.44	26896.64
592.799	27089.63
593.158	27281.71
593.517	27677.41
593.876	27869.04
594.235	28076.49
594.593	28340.22
594.952	28745.4
595.311	28854.33
595.67	29257.48
596.029	29763
596.387	29872.6
596.746	30199.83
597.104	30290.45
597.463	30476.2
597.822	30850.21
598.18	31008.62
598.538	31292
598.897	31680.01
599.255	31612.22
599.613	32289.04
599.972	32301.02
600.33	32591.85
600.688	32671.63
601.046	33128.56
601.404	33426.64
601.762	33560.87
602.12	33919.28
602.478	34016
602.836	34240.85
603.194	34279.27
603.552	34553.39
603.91	34580.5
604.268	35093.71
604.625	34998.8
604.983	35495.96
605.341	35530.53
605.698	35790.19
606.056	36039.22
606.413	36208.26
606.771	36368.7
607.128	36609.38
607.485	36729.83
607.843	36814.34
608.2	37161.68
608.557	37427.43
608.914	37405.97
609.272	37814.54
609.629	37963.01
609.986	38181.31
610.343	38205.94
610.7	38510.8
611.057	38564.13
611.414	38772.26
611.771	39124.56
612.127	39158.24
612.484	39299.93
612.841	39548.06
613.198	39354.61
613.554	39528.4
613.911	39846.13
614.267	40050.19
614.624	40031.89
614.98	40061.94
615.337	40366.79
615.693	40448.6
616.05	40530.4
616.406	40796.84
616.762	40788.93
617.118	40812.66
617.475	40931.3
617.831	41164.74
618.187	41246.77
618.543	41423.94
618.899	41622.35
619.255	41555.01
619.611	41813.08
619.967	41918.62
620.323	42113.41
620.678	42033.19
621.034	42160.87
621.39	41985.51
621.746	42123.81
622.101	42746.84
622.457	42520.41
622.812	42535.1
623.168	42726.73
623.523	42604.92
623.879	42972.6
624.234	42681.53
624.589	42920.4
624.945	43001.52
625.3	43024.12
625.655	43164.68
626.01	43086.04
626.365	43256.66
626.72	43248.75
627.075	43190.22
627.43	43253.95
627.785	43103.67
628.14	43328.3
628.495	43392.7
628.85	43442.42
629.205	43280.16
629.559	43645.12
629.914	43488.74
630.269	43662.75
630.623	43478.12
630.978	43441.29
631.332	43720.83
631.687	43894.38
632.041	43627.72
632.396	43607.38
632.75	43449.2
633.104	43693.26
633.459	43495.52
633.813	43479.48
634.167	43530.32
634.521	43586.59
634.875	43599.02
635.229	43504.34
635.583	43433.83
635.937	43527.61
636.291	43450.55
636.645	43653.71
636.999	43381.18
637.352	43585.01
637.706	43377.56
638.06	43554.28
638.413	43490.55
638.767	43402.19
639.121	43449.42
639.474	43345.24
639.828	43317.45
640.181	43309.99
640.534	43463.21
640.888	43206.04
641.241	43069.77
641.594	43227.73
641.947	43220.73
642.301	43148.41
642.654	43269.09
643.007	43192.71
643.36	43134.63
643.713	43126.04
644.066	43346.15
644.419	43053.5
644.771	42858.03
645.124	42594.3
645.477	42642.44
645.83	42189.12
646.182	42040.42
646.535	42119.74
646.888	42173.75
647.24	41870.71
647.593	42081.77
647.945	42037.03
648.298	41809.92
648.65	41829.58
649.002	41711.62
649.355	41940.08
649.707	41846.3
650.059	42132.17
650.411	42438.38
650.763	42404.7
651.115	42881.75
651.467	42668.43
651.819	42700.06
652.171	42786.39
652.523	42522.67
652.875	42614.64
653.227	42425.72
653.578	42779.84
653.93	42691.02
654.282	42521.09
654.633	42312.05
654.985	42478.15
655.337	42624.36
655.688	42668.43
656.039	42630.91
656.391	42384.82
656.742	42477.47
657.094	42411.03
657.445	42509.11
657.796	42568.54
658.147	42353.86
658.498	42319.06
658.849	42449.67
659.2	42297.14
659.551	42396.34
659.902	42455.32
660.253	42370.13
660.604	42532.16
660.955	42151.15
661.306	42395.66
661.656	42169.68
662.007	42166.97
662.358	42138.04
662.708	42303.46
663.059	42274.31
663.409	42028.44
663.76	42193.18
664.11	42216.23
664.461	42284.26
664.811	42326.74
665.161	42147.99
665.511	42201.55
665.862	42254.43
666.212	42238.61
666.562	42168.33
666.912	42085.84
667.262	42109.12
667.612	42236.35
667.962	42171.26
668.312	42095.33
668.662	42268.66
669.011	42252.62
669.361	42129.46
669.711	42266.85
670.06	42134.88
670.41	42052.62
670.76	42025.73
671.109	42137.37
671.459	42153.86
671.808	42121.55
672.157	42039.52
672.507	41864.83
672.856	41926.52
673.205	41858.73
673.554	42007.43
673.904	41917.71
674.253	42040.19
674.602	41916.58
674.951	41413.77
675.3	41268.69
675.649	41855.11
675.998	41739.19
676.346	41797.94
676.695	41816.7
677.044	41547.55
677.393	41740.31
677.741	41851.72
678.09	41720.88
678.438	41609.02
678.787	41681.33
679.135	41662.58
679.484	41482.24
679.832	41617.15
680.181	41289.93
680.529	41479.76
680.877	41380.55
681.225	41199.99
681.573	41501.45
681.922	41011.97
682.27	41158.18
682.618	41102.14
682.966	41063.27
683.314	41196.6
683.661	40956.15
684.009	40926.78
684.357	40882.94
684.705	40758.19
685.053	40735.82
685.4	40683.39
685.748	40381.48
686.095	40339.9
686.443	40368.15
686.79	40350.52
687.138	40474.13
687.485	40411.99
687.832	40268.94
688.18	40248.6
688.527	40136.52
688.874	40147.14
689.221	39867.82
689.568	39843.64
689.915	39728.39
690.262	39840.48
690.609	39773.14
690.956	39540.6
691.303	39526.59
691.65	39291.11
691.997	39236.43
692.344	39018.58
692.69	39076.66
693.037	39180.16
693.383	38733.61
693.73	39009.54
694.077	38747.63
694.423	38779.71
694.769	38473.06
695.116	38482.55
695.462	38508.08
695.808	38477.58
696.155	38515.77
696.501	38161.88
696.847	38142.44
697.193	37877.37
697.539	38071.94
697.885	37707.2
698.231	37662.23
698.577	37699.52
698.923	37737.03
699.269	37474.89
699.614	37214.78
699.96	37199.87
700.306	37328
700.651	37090.72
700.997	37044.17
701.342	36901.35
701.688	36845.53
702.033	36776.83
702.379	36615.48
702.724	36603.05
703.069	36693.22
703.415	36243.06
703.76	36205.32
704.105	36176.62
704.45	36257.3
704.795	35888.49
705.14	35938.43
705.485	35981.82
705.83	35687.59
706.175	35646.46
706.52	35630.19
706.865	35523.3
707.209	35439.24
707.554	35241.73
707.899	35416.87
708.243	35138.23
708.588	35086.25
708.932	35003.32
709.277	35017.55
709.621	35054.16
709.966	34746.37
710.31	34821.4
710.654	34508.41
710.998	34571.24
711.342	34511.58
711.687	34423.45
712.031	34403.33
712.375	34334.41
712.719	34474.52
713.063	34232.94
713.407	34261.42
713.75	34115.66
714.094	34036.11
714.438	34081.99
714.782	34012.38
715.125	34002.89
715.469	34077.01
715.812	33774.87
716.156	33479.74
716.499	33524.94
716.843	33713.41
717.186	33503.24
717.53	33385.96
717.873	33538.95
718.216	33321.33
718.559	33286.07
718.902	33095.34
719.246	33061.22
719.589	33043.37
719.932	32864.62
720.275	33021.45
720.617	32973.54
720.96	32863.94
721.303	32861.9
721.646	32727.44
721.989	32749.36
722.331	32741.46
722.674	32665.07
723.016	32644.06
723.359	32534
723.701	32638.86
724.044	32386.66
724.386	32180.34
724.729	32341.69
725.071	32317.96
725.413	32252.2
725.755	32187.8
726.097	32079.55
726.439	31911.65
726.782	32052.21
727.124	32000.01
727.465	31894.47
727.807	31821.03
728.149	31917.97
728.491	31629.17
728.833	31787.13
729.175	31690.18
729.516	31637.76
729.858	31566.35
730.199	31616.74
730.541	31415.61
730.882	31407.48
731.224	31494.71
731.565	31328.61
731.906	31411.77
732.248	31382.85
732.589	31281.38
732.93	31142.18
733.271	31094.04
733.612	31158.22
733.953	31191.21
734.294	30951.9
734.635	30816.31
734.976	30963.65
735.317	30801.17
735.658	30810.21
735.999	30788.74
736.339	30712.81
736.68	30815.4
737.021	30646.37
737.361	30402.53
737.702	30878.91
738.042	30609.08
738.383	30551.68
738.723	30490.44
739.063	30421.97
739.404	30504.68
739.744	30321.63
740.084	30320.73
740.424	30364.57
740.764	30292.03
741.104	30387.62
741.444	30275.53
741.784	30102.43
742.124	30188.3
742.464	30073.5
742.804	29992.15
743.143	29827.18
743.483	29926.84
743.823	29769.78
744.162	29728.65
744.502	29712.61
744.841	29673.51
745.181	29852.94
745.52	29677.58
745.86	29755.55
746.199	29670.8
746.538	29632.61
746.877	29635.32
747.216	29584.93
747.556	29390.36
747.895	29447.76
748.234	29369.79
748.573	29327.08
748.911	29320.75
749.25	29223.36
749.589	29153.08
749.928	29177.48
750.267	29218.61
750.605	29121.44
750.944	28990.59
751.283	28979.97
751.621	28996.7
751.96	28986.3
752.298	28723.71
752.636	28762.58
752.975	28759.19
753.313	28630.38
753.651	28750.83
753.989	28548.57
754.327	28431.74
754.666	28446.65
755.004	28386.54
755.342	28404.17
755.679	28438.07
756.017	28266.77
756.355	28313.78
756.693	28164.63
757.031	28233.33
757.368	27920.11
