Data from hue_36_FLMS001491_00070.txt Node
Date: Tue Feb 07 17:30:09 GMT 2017
User: dcchb
Spectrometer: FLMS00149
Trigger mode: 0
Integration Time (sec): 2.000000E-2
Scans to average: 10
Electric dark correction enabled: true
Nonlinearity correction enabled: false
Boxcar width: 0
XAxis mode: Wavelengths
Number of Pixels in Spectrum: 2048
>>>>>Begin Spectral Data<<<<<
341.393	-9.1
341.776	-9.1
342.16	-9.1
342.543	-69.43
342.927	-57
343.31	-69.66
343.693	-80.05
344.077	-43.9
344.46	-48.19
344.843	-45.71
345.226	-56.33
345.61	-34.18
345.993	-15.2
346.376	-11.81
346.759	18.7
347.142	24.35
347.525	39.26
347.908	48.08
348.291	64.8
348.674	90.34
349.057	119.49
349.44	150
349.823	142.54
350.206	168.53
350.588	171.46
350.971	215.08
351.354	219.15
351.737	257.56
352.119	265.25
352.502	259.15
352.884	277
353.267	284.46
353.65	294.63
354.032	291.69
354.414	330.78
354.797	321.29
355.179	338.69
355.562	299.14
355.944	340.95
356.326	340.05
356.709	336.21
357.091	344.57
357.473	333.27
357.855	333.04
358.238	338.01
358.62	338.92
359.002	322.19
359.384	374.17
359.766	339.6
360.148	330.33
360.53	342.76
360.912	350.22
361.294	319.26
361.676	360.16
362.057	327.17
362.439	356.54
362.821	349.76
363.203	334.17
363.584	326.49
363.966	325.58
364.348	345.25
364.729	335.53
365.111	321.97
365.493	326.94
365.874	323.78
366.256	327.39
366.637	301.4
367.019	317.22
367.4	314.29
367.781	310.22
368.163	297.79
368.544	310.22
368.925	304.12
369.306	313.61
369.688	311.8
370.069	327.17
370.45	321.07
370.831	320.39
371.212	316.55
371.593	330.33
371.974	326.26
372.355	314.96
372.736	326.71
373.117	306.6
373.498	315.19
373.879	324.45
374.26	325.13
374.641	326.04
375.021	333.49
375.402	338.47
375.783	327.84
376.163	324
376.544	327.39
376.925	336.88
377.305	335.75
377.686	332.82
378.066	341.63
378.447	321.52
378.827	342.08
379.208	327.39
379.588	338.92
379.968	349.31
380.349	336.43
380.729	348.41
381.109	336.88
381.489	348.41
381.87	340.27
382.25	340.05
382.63	350.44
383.01	343.21
383.39	353.15
383.77	327.17
384.15	338.24
384.53	325.58
384.91	335.75
385.29	346.38
385.67	359.03
386.049	352.25
386.429	347.96
386.809	340.73
387.189	357.45
387.568	360.16
387.948	358.35
388.328	354.51
388.707	348.18
389.087	331.91
389.466	355.64
389.846	350.67
390.225	354.51
390.605	334.17
390.984	368.75
391.363	377.33
391.743	353.61
392.122	367.39
392.501	371.69
392.881	375.3
393.26	378.92
393.639	375.75
394.018	386.6
394.397	364.23
394.776	389.09
395.155	369.2
395.534	360.61
395.913	375.3
396.292	382.08
396.671	370.56
397.05	397.22
397.429	378.24
397.808	382.76
398.186	375.07
398.565	398.35
398.944	400.84
399.323	397.45
399.701	381.4
400.08	382.08
400.458	388.41
400.837	402.64
401.215	374.4
401.594	394.96
401.972	402.42
402.351	398.35
402.729	415.75
403.107	394.96
403.486	380.05
403.864	412.36
404.242	391.35
404.62	410.78
404.999	415.98
405.377	431.12
405.755	411.68
406.133	414.17
406.511	417.33
406.889	416.66
407.267	418.69
407.645	439.25
408.023	441.51
408.401	413.49
408.779	429.54
409.156	421.85
409.534	442.64
409.912	428.41
410.29	444.68
410.667	430.44
411.045	429.08
411.422	430.21
411.8	469.99
412.178	446.49
412.555	455.75
412.933	444.45
413.31	451.68
413.687	480.61
414.065	463.89
414.442	467.5
414.819	476.32
415.197	483.32
415.574	495.98
415.951	470.44
416.328	468.41
416.705	467.73
417.082	482.19
417.46	465.47
417.837	469.54
418.214	507.5
418.591	491.68
418.967	484.68
419.344	512.47
419.721	505.47
420.098	500.27
420.475	498.91
420.852	516.99
421.228	513.38
421.605	500.27
421.982	522.64
422.358	519.93
422.735	545.24
423.111	507.5
423.488	517.22
423.864	525.81
424.241	539.82
424.617	521.29
424.994	531.91
425.37	560.15
425.746	523.77
426.123	544.34
426.499	541.17
426.875	552.02
427.251	556.77
427.627	566.03
428.003	578.46
428.379	573.04
428.756	585.01
429.132	561.74
429.507	575.52
429.883	590.89
430.259	595.18
430.635	611.9
431.011	585.24
431.387	612.81
431.763	603.09
432.138	614.39
432.514	624.56
432.89	618.46
433.265	638.12
433.641	626.14
434.016	647.16
434.392	640.83
434.767	640.6
435.143	636.76
435.518	667.5
435.894	655.97
436.269	662.98
436.644	678.12
437.02	676.31
437.395	673.6
437.77	663.88
438.145	676.76
438.52	657.78
438.895	705.91
439.271	668.4
439.646	705.24
440.021	686.48
440.395	706.82
440.77	697.55
441.145	707.04
441.52	721.73
441.895	730.77
442.27	732.13
442.645	724.22
443.019	728.29
443.394	749.08
443.769	771.22
444.143	722.41
444.518	749.08
444.892	728.51
445.267	768.51
445.641	761.05
446.016	755.18
446.39	748.62
446.764	780.71
447.139	772.58
447.513	782.3
447.887	797.89
448.262	793.37
448.636	788.4
449.01	804.22
449.384	775.06
449.758	801.96
450.132	796.31
450.506	804.89
450.88	792.69
451.254	837.44
451.628	829.3
452.002	828.62
452.376	843.99
452.75	863.88
453.123	852.35
453.497	853.48
453.871	867.27
454.244	875.17
454.618	889.64
454.992	846.93
455.365	882.18
455.739	899.81
456.112	939.35
456.486	898.68
456.859	916.98
457.232	923.54
457.606	949.52
457.979	954.27
458.352	952.23
458.725	971.44
459.099	965.79
459.472	983.19
459.845	1019.35
460.218	1006.47
460.591	1001.05
460.964	1039.01
461.337	1039.46
461.71	1040.59
462.083	1078.79
462.456	1084.66
462.829	1069.97
463.201	1089.41
463.574	1094.6
463.947	1103.19
464.32	1134.83
464.692	1172.34
465.065	1143.64
465.438	1153.59
465.81	1160.59
466.183	1184.09
466.555	1216.18
466.928	1206.69
467.3	1200.82
467.672	1239.68
468.045	1280.59
468.417	1294.6
468.789	1305.22
469.161	1298.89
469.534	1317.65
469.906	1377.53
470.278	1380.02
470.65	1412.11
471.022	1422.5
471.394	1454.82
471.766	1492.56
472.138	1480.13
472.51	1547.93
472.882	1574.37
473.253	1600.35
473.625	1607.13
473.997	1670.63
474.369	1653.69
474.74	1715.15
475.112	1733.91
475.484	1761.48
475.855	1808.03
476.227	1819.1
476.598	1881.48
476.97	1909.27
477.341	1966.9
477.713	2040.79
478.084	2024.98
478.455	2125.09
478.827	2132.54
479.198	2186.55
479.569	2242.14
479.94	2316.94
480.311	2323.95
480.682	2431.74
481.053	2490.95
481.424	2568.69
481.795	2603.04
482.166	2655.92
482.537	2753.09
482.908	2806.42
483.279	2861.56
483.65	2938.62
484.021	3024.04
484.391	3099.07
484.762	3163.7
485.133	3176.58
485.503	3266.52
485.874	3360.76
486.244	3468.55
486.615	3534.54
486.985	3662.9
487.356	3771.6
487.726	3835.1
488.097	3934.98
488.467	3970.23
488.837	4089.33
489.207	4205.71
489.578	4305.37
489.948	4375.65
490.318	4437.11
490.688	4536.55
491.058	4641.86
491.428	4757.56
491.798	4816.99
492.168	4944.9
492.538	4989.19
492.908	5084.78
493.278	5256.3
493.648	5273.93
494.017	5372.23
494.387	5458.11
494.757	5561.61
495.126	5655.39
495.496	5710.08
495.866	5831.88
496.235	5868.94
496.605	5967.24
496.974	6072.55
497.344	6119.33
497.713	6218.99
498.082	6324.3
498.452	6470.51
498.821	6535.82
499.19	6502.6
499.559	6630.96
499.928	6755.92
500.298	6826.88
500.667	6826.88
501.036	6893.77
501.405	7000.66
501.774	7095.12
502.143	7178.74
502.512	7201.11
502.88	7412.63
503.249	7411.73
503.618	7438.84
503.987	7496.02
504.356	7575.34
504.724	7658.27
505.093	7663.47
505.462	7700.31
505.83	7863.92
506.199	7896.46
506.567	8042.44
506.936	8047.87
507.304	8124.02
507.672	8219.16
508.041	8239.5
508.409	8342.77
508.777	8433.17
509.145	8522.43
509.514	8517.23
509.882	8582.32
510.25	8630.23
510.618	8690.79
510.986	8735.53
511.354	8852.14
511.722	8913.83
512.09	8984.11
512.458	9028.18
512.826	9081.74
513.193	9121.51
513.561	9125.58
513.929	9240.15
514.297	9408.06
514.664	9396.98
515.032	9387.49
515.4	9466.81
515.767	9570.09
516.135	9661.84
516.502	9585.45
516.869	9782.74
517.237	9786.58
517.604	9757.2
517.972	9906.35
518.339	9933.69
518.706	9938.89
519.073	10017.53
519.44	10097.53
519.808	10178.21
520.175	10168.94
520.542	10306.11
520.909	10368.48
521.276	10401.7
521.643	10438.54
522.009	10518.54
522.376	10584.3
522.743	10605.31
523.11	10698.65
523.477	10801.69
523.843	10907.91
524.21	10981.12
524.577	11021.12
524.943	11137.28
525.31	11141.57
525.676	11250.04
526.043	11312.64
526.409	11410.26
526.776	11444.39
527.142	11520.77
527.508	11589.24
527.874	11691.84
528.241	11659.98
528.607	11766.87
528.973	11858.84
529.339	11859.74
529.705	11973.19
530.071	12060.42
530.437	12089.8
530.803	12205.05
531.169	12297.02
531.535	12220.87
531.901	12332.27
532.267	12377.25
532.632	12479.62
532.998	12460.18
533.364	12634.41
533.73	12584.92
534.095	12703.56
534.461	12770.23
534.826	12812.49
535.192	12926.16
535.557	12950.79
535.923	12988.08
536.288	12965.25
536.653	13068.3
537.019	12968.64
537.384	13083.67
537.749	13158.92
538.114	13204.79
538.479	13227.39
538.845	13364.34
539.21	13273.72
539.575	13448.4
539.94	13468.52
540.305	13522.75
540.67	13528.18
541.034	13563.65
541.399	13731.79
541.764	13782.41
542.129	13819.24
542.494	13944.89
542.858	13896.53
543.223	13941.72
543.587	14035.28
543.952	13977.43
544.316	14123.87
544.681	14148.95
545.045	14181.49
545.41	14310.75
545.774	14275.73
546.138	14356.18
546.503	14376.29
546.867	14436.17
547.231	14528.83
547.595	14543.52
547.959	14672.1
548.324	14672.78
548.688	14671.65
549.052	14848.37
549.416	14814.02
549.779	14821.7
550.143	14924.3
550.507	14969.04
550.871	15041.81
551.235	15065.99
551.599	15095.37
551.962	15154.12
552.326	15176.72
552.689	15335.59
553.053	15241.58
553.417	15307.56
553.78	15447.67
554.143	15454.45
554.507	15444.28
554.87	15629.59
555.234	15717.27
555.597	15669.36
555.96	15677.95
556.323	15822.8
556.686	15821
557.05	15907.55
557.413	15939.86
557.776	16011.95
558.139	16078.39
558.502	16138.5
558.865	16139.41
559.228	16252.17
559.59	16266.18
559.953	16258.95
560.316	16424.6
560.679	16533.75
561.041	16573.97
561.404	16625.04
561.767	16733.29
562.129	16689.45
562.492	16870.46
562.854	16880.4
563.217	16810.35
563.579	17004.47
563.941	16968.76
564.304	17080.17
564.666	17227.51
565.028	17240.39
565.39	17218.7
565.753	17348.64
566.115	17434.29
566.477	17466.15
566.839	17557.67
567.201	17672.25
567.563	17664.11
567.925	17828.63
568.287	17866.59
568.648	17887.61
569.01	17974.39
569.372	18093.03
569.734	17947.95
570.095	18178.45
570.457	18260.03
570.819	18286.47
571.18	18282.85
571.542	18413.47
571.903	18525.11
572.265	18528.04
572.626	18729.39
572.987	18724.2
573.349	18832.44
573.71	18850.75
574.071	18890.52
574.432	19065.66
574.794	19173.68
575.155	19188.59
575.516	19307.23
575.877	19375.71
576.238	19538.64
576.599	19694.34
576.96	19689.82
577.32	19914.22
577.681	19943.83
578.042	20110.15
578.403	20242.58
578.763	20406.41
579.124	20484.6
579.485	20677.37
579.845	20795.55
580.206	20858.15
580.566	20921.65
580.927	21153.29
581.287	21330
581.648	21352.6
582.008	21722.08
582.368	21833.72
582.728	22012.92
583.089	22077.56
583.449	22265.57
583.809	22387.38
584.169	22708.95
584.529	22779.91
584.889	23115.04
585.249	23059.9
585.609	23207.24
585.969	23667.34
586.329	23698.3
586.688	23908.92
587.048	24176.93
587.408	24389.13
587.768	24553.2
588.127	24768.56
588.487	24932.17
588.846	25401.76
589.206	25279.96
589.565	25626.84
589.925	25897.12
590.284	26128.52
590.643	26225.47
591.003	26491.45
591.362	26944.77
591.721	26934.38
592.08	27242.39
592.44	27614.81
592.799	27767.57
593.158	27803.05
593.517	28123.95
593.876	28288.69
594.235	28525.3
594.593	28821.78
594.952	28950.59
595.311	29078.5
595.67	29549
596.029	29683.46
596.387	29917.35
596.746	30228.3
597.104	30423.55
597.463	30588.29
597.822	30873.48
598.18	30880.49
598.538	31038.22
598.897	31602.05
599.255	31320.48
599.613	32136.05
599.972	32107.57
600.33	32237.74
600.688	32231.86
601.046	32678.41
601.404	32957.27
601.762	32971.05
602.12	33365.62
602.478	33644.48
602.836	33771.26
603.194	33609.68
603.552	33947.3
603.91	33923.57
604.268	34236.56
604.625	34354.07
604.983	34686.49
605.341	34625.02
605.698	34836.99
606.056	35047.38
606.413	35086.48
606.771	35430.2
607.128	35556.97
607.485	35512.91
607.843	35621.15
608.2	36008.94
608.557	36201.7
608.914	36188.14
609.272	36414.58
609.629	36690.05
609.986	36911.52
610.343	36718.53
610.7	37098.18
611.057	37363.71
611.414	37319.41
611.771	37480.31
612.127	37711.72
612.484	37769.12
612.841	38068.32
613.198	37984.93
613.554	38026.51
613.911	38387.63
614.267	38282.55
614.624	38426.05
614.98	38574.75
615.337	38831.01
615.693	38848.64
616.05	38872.37
616.406	39190.55
616.762	39052.48
617.118	39170.89
617.475	39221.06
617.831	39421.73
618.187	39581.28
618.543	39626.7
618.899	39763.42
619.255	39836.64
619.611	39798.22
619.967	39878.89
620.323	40244.54
620.678	40061.04
621.034	40116.85
621.39	40214.48
621.746	40256.06
622.101	40644.3
622.457	40367.02
622.812	40659.44
623.168	40820.57
623.523	40653.11
623.879	40894.24
624.234	40572.89
624.589	40767.46
624.945	40858.08
625.3	40925.42
625.655	40926.55
626.01	40898.08
626.365	41057.85
626.72	41003.39
627.075	41105.08
627.43	41025.76
627.785	40954.35
628.14	41047.9
628.495	41175.36
628.85	41215.13
629.205	41077.73
629.559	41467.78
629.914	41146.66
630.269	41192.53
630.623	41131.97
630.978	41199.09
631.332	41407.44
631.687	41524.73
632.041	41280.44
632.396	41302.13
632.75	41177.39
633.104	41237.96
633.459	41201.8
633.813	41341.23
634.167	41224.85
634.521	41275.02
634.875	41363.15
635.229	41230.72
635.583	41202.02
635.937	41210.61
636.291	41055.81
636.645	41252.87
636.999	41155.25
637.352	41240.22
637.706	40939.88
638.06	41111.4
638.413	41171.06
638.767	41002.93
639.121	41029.83
639.474	40857.4
639.828	40884.97
640.181	40783.28
640.534	40990.5
640.888	40740.79
641.241	40720
641.594	40864.41
641.947	41049.49
642.301	40859.66
642.654	40824.63
643.007	41002.93
643.36	40874.8
643.713	40788.48
644.066	41021.92
644.419	40606.79
644.771	40502.83
645.124	40017.65
645.477	40183.29
645.83	39798.9
646.182	39556.19
646.535	39559.13
646.888	39715.06
647.24	39488.85
647.593	39738.79
647.945	39726.36
648.298	39450.66
648.65	39383.99
649.002	39304.9
649.355	39517.32
649.707	39450.88
650.059	39623.53
650.411	40050.64
650.763	40017.65
651.115	40446.34
651.467	40373.35
651.819	40308.26
652.171	40242.28
652.523	40099.45
652.875	40049.29
653.227	39986.46
653.578	40338.32
653.93	40121.15
654.282	40080.92
654.633	39908.5
654.985	39979.23
655.337	39916.63
655.688	40010.42
656.039	40137.19
656.391	39839.57
656.742	40072.11
657.094	40081.6
657.445	40084.99
657.796	39966.12
658.147	39965.67
658.498	39675.06
658.849	39916.63
659.2	39837.77
659.551	39821.04
659.902	39890.87
660.253	39818.78
660.604	39846.35
660.955	39767.26
661.306	39801.38
661.656	39729.75
662.007	39732.91
662.358	39840.03
662.708	39835.05
663.059	39903.98
663.409	39438.91
663.76	39832.57
664.11	39764.77
664.461	39905.33
664.811	39898.78
665.161	39729.75
665.511	39646.36
665.862	39750.76
666.212	39829.63
666.562	39714.61
666.912	39690.43
667.262	39720.71
667.612	39750.54
667.962	39701.27
668.312	39689.97
668.662	39856.07
669.011	39782.4
669.361	39609.98
669.711	39650.2
670.06	39507.61
670.41	39610.43
670.76	39452.47
671.109	39566.36
671.459	39606.59
671.808	39416.53
672.157	39617.66
672.507	39328.17
672.856	39330.43
673.205	39431.9
673.554	39553.25
673.904	39393.94
674.253	39579.24
674.602	39517.1
674.951	39024.68
675.3	38862.65
675.649	39381.73
675.998	39342.86
676.346	39301.51
676.695	39431.68
677.044	39168.86
677.393	39216.54
677.741	39340.6
678.09	39182.87
678.438	39165.47
678.787	39216.77
679.135	39098.58
679.484	38969.31
679.832	39010.44
680.181	38717.34
680.529	39069.65
680.877	38750.79
681.225	38787.4
681.573	39077.33
681.922	38739.94
682.27	38469.67
682.618	38637.35
682.966	38544.01
683.314	38520.06
683.661	38425.83
684.009	38376.11
684.357	38247.53
684.705	38259.5
685.053	38228.77
685.4	38124.59
685.748	37953.07
686.095	38055.67
686.443	37885.28
686.79	37738.16
687.138	37928.21
687.485	37802.34
687.832	37742.23
688.18	37770.48
688.527	37636.92
688.874	37584.72
689.221	37397.15
689.568	37421.11
689.915	37262.92
690.262	37313.76
690.609	37282.58
690.956	37020.44
691.303	37127.33
691.65	36941.35
691.997	36992.64
692.344	36798.3
692.69	36776.6
693.037	36728.7
693.383	36282.15
693.73	36549.72
694.077	36305.88
694.423	36388.59
694.769	36222.49
695.116	36063.63
695.462	36183.17
695.808	36072.89
696.155	36108.6
696.501	35741.83
696.847	35841.49
697.193	35609.85
697.539	35764.65
697.885	35372.57
698.231	35280.37
698.577	35343.19
698.923	35340.48
699.269	35051
699.614	34995.63
699.96	34866.6
700.306	35081.96
700.651	34725.13
700.997	34560.16
701.342	34639.26
701.688	34594.74
702.033	34468.64
702.379	34394.29
702.724	34443.11
703.069	34395.42
703.415	33926.06
703.76	34109.78
704.105	34135.09
704.45	33926.06
704.795	33717.48
705.14	33684.48
705.485	33733.29
705.83	33549.57
706.175	33565.16
706.52	33456.46
706.865	33384.38
707.209	33361.1
707.554	33151.16
707.899	33199.97
708.243	33095.57
708.588	32952.52
708.932	32837.5
709.277	32943.26
709.621	32880.89
709.966	32506.43
710.31	32698.29
710.654	32435.02
710.998	32521.35
711.342	32514.34
711.687	32360.9
712.031	32248.36
712.375	32114.58
712.719	32183.73
713.063	32228.7
713.407	32175.82
713.75	31978.99
714.094	31788.03
714.438	31846.79
714.782	31813.8
715.125	31674.59
715.469	31688.38
715.812	31608.15
716.156	31353.24
716.499	31549.17
716.843	31485.44
717.186	31355.5
717.53	31367.71
717.873	31290.65
718.216	31362.28
718.559	31123.87
718.902	31037.09
719.246	30924.1
719.589	30861.73
719.932	30790.09
720.275	30827.38
720.617	30796.87
720.96	30735.86
721.303	30787.61
721.646	30769.53
721.989	30562.08
722.331	30658.12
722.674	30550.78
723.016	30582.19
723.359	30475.75
723.701	30607.27
724.044	30341.97
724.386	30254.52
724.729	30272.37
725.071	30276.66
725.413	30188.3
725.755	30088.42
726.097	30053.39
726.439	29943.34
726.782	29973.84
727.124	30039.61
727.465	29893.85
727.807	29827.18
728.149	29804.36
728.491	29671.71
728.833	29785.15
729.175	29556.68
729.516	29549
729.858	29603.23
730.199	29604.36
730.541	29505.16
730.882	29489.79
731.224	29555.1
731.565	29295.44
731.906	29226.75
732.248	29312.39
732.589	29138.16
732.93	28994.44
733.271	29215.22
733.612	29111.27
733.953	29173.64
734.294	28865.17
734.635	28937.94
734.976	28975.45
735.317	28810.03
735.658	28807.32
735.999	28843.48
736.339	28777.27
736.68	28928.67
737.021	28680.32
737.361	28582.24
737.702	28683.48
738.042	28678.74
738.383	28534.11
738.723	28627.21
739.063	28451.85
739.404	28573.43
739.744	28314.91
740.084	28254.34
740.424	28336.6
740.764	28303.61
741.104	28260.9
741.444	28190.84
741.784	28071.52
742.124	28126.66
742.464	28191.29
742.804	28104.29
743.143	27898.64
743.483	27983.16
743.823	27871.75
744.162	27789.5
744.502	27833.56
744.841	27698.2
745.181	27807.12
745.52	27686.9
745.86	27768.7
746.199	27573
746.538	27566
746.877	27648.26
747.216	27524.42
747.556	27488.71
747.895	27556.96
748.234	27368.49
748.573	27414.82
748.911	27344.31
749.25	27259.79
749.589	27086.01
749.928	27240.58
750.267	27234.03
750.605	27109.74
750.944	27047.82
751.283	27018.89
751.621	26991.32
751.96	26964.88
752.298	26894.83
752.636	26954.49
752.975	26800.59
753.313	26737.09
753.651	26732.12
753.989	26599.47
754.327	26655.97
754.666	26551.56
755.004	26482.64
755.342	26554.05
755.679	26497.55
756.017	26208.52
756.355	26364
756.693	26138.47
757.031	26249.65
757.368	26044.91
757.706	26019.82
