Data from hue_300_FLMS001491_00092.txt Node
Date: Tue Feb 07 15:51:27 GMT 2017
User: dcchb
Spectrometer: FLMS00149
Trigger mode: 0
Integration Time (sec): 2.000000E-2
Scans to average: 10
Electric dark correction enabled: true
Nonlinearity correction enabled: false
Boxcar width: 0
XAxis mode: Wavelengths
Number of Pixels in Spectrum: 2048
>>>>>Begin Spectral Data<<<<<
341.393	-16.58
341.776	-16.58
342.16	-16.58
342.543	-53.42
342.927	-52.29
343.31	-73.76
343.693	-52.96
344.077	-79.18
344.46	-81.21
344.843	-42.12
345.226	-41.67
345.61	-27.2
345.993	-27.43
346.376	20.25
346.759	8.5
347.142	10.99
347.525	39.01
347.908	62.29
348.291	85.56
348.674	91.44
349.057	107.48
349.44	119.69
349.823	135.96
350.206	188.38
350.588	189.74
350.971	197.2
351.354	225.45
351.737	227.48
352.119	246.69
352.502	267.7
352.884	287.59
353.267	284.2
353.65	275.16
354.032	283.07
354.414	306.12
354.797	294.14
355.179	321.71
355.562	296.86
355.944	323.3
356.326	321.71
356.709	332.11
357.091	324.43
357.473	318.55
357.855	350.41
358.238	328.27
358.62	353.8
359.002	338.89
359.384	323.75
359.766	350.64
360.148	315.61
360.53	328.27
360.912	324.2
361.294	309.96
361.676	334.82
362.057	324.2
362.439	318.55
362.821	322.39
363.203	308.16
363.584	321.94
363.966	314.71
364.348	320.58
364.729	319
365.111	328.49
365.493	346.35
365.874	335.27
366.256	329.17
366.637	302.51
367.019	313.13
367.4	328.27
367.781	328.04
368.163	296.4
368.544	311.55
368.925	317.65
369.306	309.74
369.688	287.14
370.069	295.27
370.45	303.64
370.831	291.88
371.212	302.51
371.593	288.5
371.974	308.38
372.355	299.57
372.736	308.38
373.117	322.84
373.498	309.29
373.879	308.16
374.26	293.24
374.641	313.35
375.021	315.84
375.402	312.68
375.783	300.92
376.163	329.17
376.544	323.52
376.925	291.43
377.305	328.04
377.686	326.01
378.066	328.49
378.447	323.3
378.827	336.4
379.208	335.5
379.588	335.73
379.968	316.07
380.349	340.02
380.729	332.34
381.109	331.21
381.489	321.26
381.87	319.23
382.25	312.45
382.63	338.21
383.01	328.04
383.39	338.89
383.77	348.38
384.15	326.91
384.53	329.62
384.91	343.86
385.29	342.96
385.67	327.82
386.049	368.95
386.429	343.86
386.809	357.65
387.189	327.59
387.568	339.57
387.948	349.96
388.328	344.31
388.707	368.27
389.087	334.6
389.466	352.22
389.846	351.77
390.225	363.75
390.605	355.84
390.984	377.53
391.363	359.45
391.743	362.62
392.122	351.32
392.501	377.98
392.881	375.27
393.26	379.11
393.639	370.3
394.018	367.36
394.397	360.36
394.776	374.59
395.155	362.84
395.534	385.67
395.913	385.22
396.292	390.41
396.671	368.27
397.05	393.8
397.429	399.9
397.808	370.3
398.186	411.43
398.565	373.92
398.944	397.64
399.323	381.37
399.701	381.15
400.08	403.52
400.458	399.45
400.837	384.99
401.215	389.51
401.594	404.65
401.972	437.42
402.351	420.92
402.729	402.84
403.107	398.77
403.486	423.86
403.864	423.86
404.242	429.96
404.62	427.02
404.999	424.54
405.377	431.99
405.755	454.59
406.133	450.75
406.511	448.27
406.889	441.71
407.267	467.93
407.645	456.17
408.023	464.54
408.401	448.27
408.779	482.16
409.156	477.87
409.534	483.97
409.912	486
410.29	500.24
410.667	497.76
411.045	521.94
411.422	522.61
411.8	516.74
412.178	537.98
412.555	523.29
412.933	561.26
413.31	556.96
413.687	562.84
414.065	559
414.442	590.18
414.819	591.99
415.197	566
415.574	580.69
415.951	613.91
416.328	630.18
416.705	615.72
417.082	612.1
417.46	640.12
417.837	665.21
418.214	649.16
418.591	678.54
418.967	683.51
419.344	678.09
419.721	666.79
420.098	703.17
420.475	730.07
420.852	697.52
421.228	695.26
421.605	707.69
421.982	716.96
422.358	722.16
422.735	743.17
423.111	754.47
423.488	776.17
423.864	776.84
424.241	783.85
424.617	777.3
424.994	783.85
425.37	798.54
425.746	803.96
426.123	832.66
426.499	825.2
426.875	830.18
427.251	845.32
427.627	860.91
428.003	860.01
428.379	890.51
428.756	893.9
429.132	889.38
429.507	909.5
429.883	917.63
430.259	923.73
430.635	938.42
431.011	938.42
431.387	939.1
431.763	983.17
432.138	983.17
432.514	973.45
432.89	990.85
433.265	1023.39
433.641	1036.05
434.016	1028.59
434.392	1069.72
434.767	1077.85
435.143	1045.31
435.518	1109.94
435.894	1098.64
436.269	1087.34
436.644	1125.31
437.02	1116.27
437.395	1135.7
437.77	1132.54
438.145	1170.73
438.52	1160.56
438.895	1180.9
439.271	1172.31
439.646	1193.1
440.021	1188.13
440.395	1223.84
440.77	1211.63
441.145	1201.24
441.52	1223.84
441.895	1222.71
442.27	1223.16
442.645	1254.8
443.019	1256.15
443.394	1251.86
443.769	1291.63
444.143	1273.55
444.518	1263.61
444.892	1263.16
445.267	1282.14
445.641	1305.19
446.016	1297.06
446.39	1280.56
446.764	1316.04
447.139	1310.16
447.513	1304.51
447.887	1325.98
448.262	1329.15
448.636	1293.44
449.01	1302.93
449.384	1326.43
449.758	1334.12
450.132	1369.14
450.506	1315.81
450.88	1377.73
451.254	1340.9
451.628	1376.83
452.002	1362.82
452.376	1374.12
452.75	1390.61
453.123	1409.14
453.497	1436.71
453.871	1409.14
454.244	1421.35
454.618	1412.99
454.992	1435.81
455.365	1461.12
455.739	1478.75
456.112	1470.61
456.486	1481.91
456.859	1501.57
457.232	1537.05
457.606	1471.51
457.979	1529.82
458.352	1526.88
458.725	1568.46
459.099	1568.01
459.472	1602.81
459.845	1576.82
460.218	1601.68
460.591	1605.97
460.964	1582.92
461.337	1644.84
461.71	1653.88
462.083	1651.85
462.456	1645.97
462.829	1647.1
463.201	1706.54
463.574	1675.8
463.947	1726.65
464.32	1697.5
464.692	1721.9
465.065	1765.52
465.438	1742.24
465.81	1764.39
466.183	1791.28
466.555	1812.52
466.928	1808.91
467.3	1820.21
467.672	1808.23
468.045	1855.46
468.417	1867.21
468.789	1865.18
469.161	1884.39
469.534	1908.79
469.906	1932.52
470.278	1925.97
470.65	1951.28
471.022	1968.23
471.394	2015.23
471.766	2003.03
472.138	2023.82
472.51	2008.9
472.882	2036.47
473.253	2090.71
473.625	2081.22
473.997	2125.96
474.369	2152.63
474.74	2172.74
475.112	2179.52
475.484	2198.73
475.855	2208.44
476.227	2197.82
476.598	2239.86
476.97	2283.25
477.341	2306.75
477.713	2309.91
478.084	2332.96
478.455	2397.14
478.827	2381.77
479.198	2431.49
479.569	2438.04
479.94	2493.63
480.311	2464.48
480.682	2504.26
481.053	2567.53
481.424	2553.97
481.795	2580.64
482.166	2614.54
482.537	2653.86
482.908	2696.57
483.279	2701.09
483.65	2682.78
484.021	2758.71
484.391	2748.09
484.762	2769.11
485.133	2818.6
485.503	2846.85
485.874	2884.36
486.244	2857.69
486.615	2889.78
486.985	2931.36
487.356	3013.62
487.726	2961.42
488.097	3030.57
488.467	3019.04
488.837	3104.69
489.207	3092.04
489.578	3118.03
489.948	3144.69
490.318	3151.92
490.688	3175.88
491.058	3235.76
491.428	3253.39
491.798	3279.38
492.168	3299.04
492.538	3310.11
492.908	3281.64
493.278	3397.11
493.648	3330.68
494.017	3405.93
494.387	3401.18
494.757	3423.55
495.126	3451.58
495.496	3467.39
495.866	3481.63
496.235	3506.04
496.605	3520.73
496.974	3511.24
497.344	3518.92
497.713	3535.64
498.082	3564.79
498.452	3642.98
498.821	3608.41
499.19	3638.46
499.559	3626.26
499.928	3661.29
500.298	3640.05
500.667	3713.94
501.036	3672.59
501.405	3690.21
501.774	3704.9
502.143	3711.91
502.512	3728.18
502.88	3748.29
503.249	3759.36
503.618	3772.7
503.987	3800.72
504.356	3803.88
504.724	3837.1
505.093	3781.74
505.462	3839.59
505.83	3829.42
506.199	3844.11
506.567	3910.09
506.936	3916.65
507.304	3912.58
507.672	3923.88
508.041	3924.33
508.409	3950.32
508.777	3970.43
509.145	3989.41
509.514	3994.39
509.882	3998.45
510.25	3986.25
510.618	3993.03
510.986	3999.81
511.354	4011.56
511.722	4023.99
512.09	4054.95
512.458	4028.51
512.826	4082.29
513.193	4061.28
513.561	4068.96
513.929	4088.85
514.297	4148.96
514.664	4167.49
515.032	4173.36
515.4	4155.51
515.767	4173.14
516.135	4190.54
516.502	4127.04
516.869	4221.73
517.237	4192.8
517.604	4186.25
517.972	4213.14
518.339	4237.09
518.706	4212.69
519.073	4213.59
519.44	4252.91
519.808	4235.51
520.175	4282.74
520.542	4314.6
520.909	4311.21
521.276	4255.62
521.643	4335.85
522.009	4346.69
522.376	4340.14
522.743	4348.73
523.11	4369.97
523.477	4386.92
523.843	4452
524.21	4461.72
524.577	4505.11
524.943	4465.56
525.31	4479.8
525.676	4523.64
526.043	4552.11
526.409	4565.22
526.776	4628.27
527.142	4572.9
527.508	4617.19
527.874	4655.84
528.241	4639.34
528.607	4664.88
528.973	4716.85
529.339	4730.19
529.705	4761.37
530.071	4759.79
530.437	4807.02
530.803	4794.14
531.169	4817.19
531.535	4815.83
531.901	4883.63
532.267	4876.62
532.632	4904.87
532.998	4914.14
533.364	4988.26
533.73	4932.67
534.095	4964.98
534.461	4984.19
534.826	5000.69
535.192	5003.63
535.557	5057.41
535.923	5089.5
536.288	5099.89
536.653	5060.8
537.019	5066.9
537.384	5110.29
537.749	5153.45
538.114	5177.18
538.479	5188.93
538.845	5248.82
539.21	5141.47
539.575	5237.52
539.94	5241.81
540.305	5307.57
540.67	5303.28
541.034	5298.08
541.399	5329.49
541.764	5371.3
542.129	5397.06
542.494	5399.1
542.858	5424.18
543.223	5452.2
543.587	5502.14
543.952	5506.89
544.316	5506.21
544.681	5497.85
545.045	5541.01
545.41	5544.63
545.774	5572.2
546.138	5556.38
546.503	5599.32
546.867	5669.37
547.231	5623.27
547.595	5712.53
547.959	5727.9
548.324	5705.3
548.688	5712.08
549.052	5748.69
549.416	5744.62
549.779	5771.74
550.143	5756.6
550.507	5799.08
550.871	5832.98
551.235	5780.1
551.599	5925.64
551.962	5842.93
552.326	5898.74
552.689	5934.9
553.053	5956.59
553.417	5928.35
553.78	5970.15
554.143	6025.07
554.507	6033.65
554.87	6030.04
555.234	6058.06
555.597	6051.51
555.96	6091.28
556.323	6074.11
556.686	6142.58
557.05	6129.47
557.413	6134.44
557.776	6141.22
558.139	6200.66
558.502	6164.05
558.865	6150.94
559.228	6212.63
559.59	6261.9
559.953	6260.09
560.316	6330.82
560.679	6294.66
561.041	6309.13
561.404	6379.63
561.767	6386.19
562.129	6414.44
562.492	6410.14
562.854	6419.41
563.217	6415.11
563.579	6423.93
563.941	6474.55
564.304	6547.77
564.666	6576.69
565.028	6511.61
565.39	6543.7
565.753	6530.82
566.115	6640.42
566.477	6644.94
566.839	6614.2
567.201	6681.55
567.563	6667.99
567.925	6665.73
568.287	6728.55
568.648	6746.63
569.01	6754.31
569.372	6819.62
569.734	6799.06
570.095	6868.89
570.457	6891.71
570.819	6853.75
571.18	6969.9
571.542	7012.39
571.903	7016.68
572.265	7045.38
572.626	7198.82
572.987	7163.12
573.349	7172.61
573.71	7184.59
574.071	7258.93
574.432	7277.46
574.794	7406.95
575.155	7413.05
575.516	7414.41
575.877	7523.33
576.238	7606.49
576.599	7687.4
576.96	7757
577.32	7842.19
577.681	7868.63
578.042	7950.21
578.403	8024.79
578.763	8062.08
579.124	8232.24
579.485	8320.6
579.845	8432.91
580.206	8560.59
580.566	8670.2
580.927	8718.78
581.287	8941.38
581.648	8997.87
582.008	9174.36
582.368	9285.09
582.728	9474.92
583.089	9601.02
583.449	9747.91
583.809	9957.85
584.169	10069.71
584.529	10255.92
584.889	10481.45
585.249	10667.88
585.609	10788.78
585.969	11081.43
586.329	11284.59
586.688	11483.91
587.048	11784.01
587.408	11867.85
587.768	12132.25
588.127	12374.05
588.487	12633.48
588.846	12979.23
589.206	13090.87
589.565	13412.9
589.925	13685.43
590.284	13927.46
590.643	14241.12
591.003	14485.41
591.362	14739.87
591.721	15009.46
592.08	15302.11
592.44	15633.4
592.799	15881.76
593.158	16195.42
593.517	16514.74
593.876	16815.52
594.235	17015.74
594.593	17279.91
594.952	17721.71
595.311	17955.83
595.67	18227.01
596.029	18646.43
596.387	18912.86
596.746	19217.94
597.104	19475.11
597.463	19760.98
597.822	20113.06
598.18	20386.27
598.538	20703.78
598.897	21135.63
599.255	21130.43
599.613	21823.07
599.972	21762.96
600.33	22185.09
600.688	22346.45
601.046	22870.95
601.404	23112.98
601.762	23273.43
602.12	23632.29
602.478	23890.36
602.836	24152.05
603.194	24308.88
603.552	24684.24
603.91	24839.49
604.268	25221.17
604.625	25290.32
604.983	25752.23
605.341	25876.97
605.698	26268.38
606.056	26583.17
606.413	26688.93
606.771	26990.17
607.128	27175.47
607.485	27447.1
607.843	27425.18
608.2	27918.5
608.557	28090.48
608.914	28355.1
609.272	28558.26
609.629	28771.14
609.986	29137.91
610.343	29056.78
610.7	29561.17
611.057	29655.18
611.414	29880.03
611.771	30074.15
612.127	30438.21
612.484	30408.16
612.841	30755.94
613.198	30762.95
613.554	30927.46
613.911	31256.27
614.267	31457.39
614.624	31431.86
614.98	31824.39
615.337	32062.58
615.693	31926.53
616.05	32209.24
616.406	32531.26
616.762	32552.51
617.118	32620.75
617.475	32736.23
617.831	32887.64
618.187	33067.97
618.543	33258.25
618.899	33477.23
619.255	33486.27
619.611	33634.74
619.967	33844.68
620.323	34095.52
620.678	34053.94
621.034	33957.67
621.39	34267.04
621.746	34267.49
622.101	34677.65
622.457	34479.91
622.812	34690.08
623.168	34841.03
623.523	34803.29
623.879	35056.85
624.234	34908.38
624.589	35143.85
624.945	35253.9
625.3	35277.86
625.655	35416.16
626.01	35432.88
626.365	35507.23
626.72	35511.52
627.075	35642.59
627.43	35538.42
627.785	35729.15
628.14	35791.06
628.495	35783.61
628.85	35742.25
629.205	35803.04
629.559	36094.56
629.914	36063.15
630.269	36076.71
630.623	35900.44
630.978	35959.42
631.332	36126.2
631.687	36083.71
632.041	36096.59
632.396	36159.19
632.75	35985.86
633.104	36048.91
633.459	36085.52
633.813	36089.36
634.167	36071.51
634.521	36209.13
634.875	36137.72
635.229	36134.56
635.583	35971.17
635.937	36183.6
636.291	36090.94
636.645	36187.89
636.999	36173.2
637.352	36278.28
637.706	36025.18
638.06	36222.47
638.413	36155.12
638.767	36135.69
639.121	36282.58
639.474	36006.43
639.828	36102.24
640.181	36221.34
640.534	36224.73
640.888	36177.27
641.241	35848.46
641.594	36115.58
641.947	36090.72
642.301	36083.71
642.654	36041.45
643.007	36132.98
643.36	35958.97
643.713	35985.64
644.066	36242.35
644.419	35956.26
644.771	35802.82
645.124	35473.11
645.477	35512.2
645.83	35223.4
646.182	35137.3
646.535	35141.36
646.888	35231.08
647.24	34965.78
647.593	35178.65
647.945	35215.49
648.298	34972.1
648.65	34909.28
649.002	34922.39
649.355	35094.81
649.707	34932.56
650.059	35223.62
650.411	35648.24
650.763	35544.97
651.115	35906.32
651.467	35931.4
651.819	35780.67
652.171	35639.2
652.523	35677.4
652.875	35618.41
653.227	35507.91
653.578	35798.75
653.93	35702.48
654.282	35634.91
654.633	35547.91
654.985	35667
655.337	35529.15
655.688	35678.3
656.039	35794.23
656.391	35305.2
656.742	35424.29
657.094	35427.91
657.445	35661.12
657.796	35621.35
658.147	35512.88
658.498	35502.26
658.849	35592.43
659.2	35460
659.551	35391.3
659.902	35485.08
660.253	35452.54
660.604	35520.34
660.955	35370.51
661.306	35523.73
661.656	35511.75
662.007	35375.26
662.358	35513.56
662.708	35430.62
663.059	35495.48
663.409	35240.8
663.76	35522.37
664.11	35476.27
664.461	35514.91
664.811	35441.47
665.161	35406.22
665.511	35302.04
665.862	35430.4
666.212	35483.05
666.562	35536.61
666.912	35457.51
667.262	35484.86
667.612	35435.59
667.962	35472.2
668.312	35365.09
668.662	35599.21
669.011	35549.49
669.361	35234.24
669.711	35444.63
670.06	35181.14
670.41	35243.51
670.76	35245.09
671.109	35287.8
671.459	35255.03
671.808	35282.83
672.157	35154.47
672.507	35070.63
672.856	35059.78
673.205	35113.12
673.554	35364.18
673.904	35130.29
674.253	35248.71
674.602	35205.77
674.951	34766.46
675.3	34600.81
675.649	35111.08
675.998	35108.14
676.346	35074.25
676.695	35194.47
677.044	34824.54
677.393	34936.85
677.741	34896.62
678.09	34901.37
678.438	34732.79
678.787	34920.13
679.135	34868.38
679.484	34714.71
679.832	34669.74
680.181	34567.59
680.529	34738.21
680.877	34506.8
681.225	34742.73
681.573	34844.2
681.922	34530.08
682.27	34412.34
682.618	34460.93
682.966	34332.8
683.314	34426.81
683.661	34286.02
684.009	34196.76
684.357	34191.33
684.705	34043.09
685.053	34053.26
685.4	34063.65
685.748	33918.12
686.095	33898.46
686.443	33839.48
686.79	33801.96
687.138	33779.82
687.485	33789.76
687.832	33723.55
688.18	33730.1
688.527	33542.31
688.874	33350.68
689.221	33568.07
689.568	33271.13
689.915	33215.31
690.262	33274.52
690.609	33142.32
690.956	32976.22
691.303	33038.14
691.65	32943.68
691.997	32814.87
692.344	32627.08
692.69	32626.63
693.037	32630.7
693.383	32508.21
693.73	32603.13
694.077	32284.72
694.423	32293.76
694.769	32248.78
695.116	32141.44
695.462	32096.02
695.808	31923.6
696.155	32036.81
696.501	31840.89
696.847	31809.02
697.193	31522.7
697.539	31741.23
697.885	31559.09
698.231	31392.08
698.577	31407.9
698.923	31298.08
699.269	31166.33
699.614	31112.32
699.96	31014.02
700.306	31024.41
700.651	30973.34
700.997	30793.68
701.342	30714.14
701.688	30614.03
702.033	30660.58
702.379	30626.91
702.724	30458.32
703.069	30484.76
703.415	30275.05
703.76	30185.56
704.105	30139.01
704.45	30071.67
704.795	29965.91
705.14	29903.99
705.485	29944.89
705.83	29678.68
706.175	29806.82
706.52	29685.69
706.865	29609.31
707.209	29559.36
707.554	29513.04
707.899	29465.36
708.243	29241.86
708.588	29260.39
708.932	29138.81
709.277	29196.44
709.621	29104.01
709.966	29036.89
710.31	29071.92
710.654	28719.61
710.998	28770.91
711.342	28644.81
711.687	28697.47
712.031	28487.3
712.375	28436.68
712.719	28588.09
713.063	28438.72
713.407	28619.5
713.75	28327.31
714.094	28215.44
714.438	28178.38
714.782	28179.74
715.125	28099.52
715.469	28116.46
715.812	28044.15
716.156	27884.38
716.499	27901.78
716.843	27843.93
717.186	27768.68
717.53	27911.27
717.873	27789.69
718.216	27766.19
718.559	27623.37
718.902	27374.56
719.246	27507.44
719.589	27446.65
719.932	27395.13
720.275	27404.39
720.617	27295.24
720.96	27191.29
721.303	27266.09
721.646	27317.62
721.989	27016.15
722.331	27216.6
722.674	27020.45
723.016	27034.23
723.359	27036.49
723.701	27123.72
724.044	26761.7
724.386	26728.7
724.729	26807.8
725.071	26731.87
725.413	26798.76
725.755	26662.94
726.097	26539.78
726.439	26525.09
726.782	26561.25
727.124	26654.58
727.465	26553.57
727.807	26428.6
728.149	26376.17
728.491	26393.8
728.833	26406
729.175	26283.74
729.516	26321.26
729.858	26300.01
730.199	26234.03
730.541	26110.42
730.882	26196.06
731.224	26180.24
731.565	25995.62
731.906	26018.67
732.248	26071.55
732.589	25873.59
732.93	25912
733.271	25862.51
733.612	25922.4
733.953	25984.54
734.294	25803.08
734.635	25730.31
734.976	25808.95
735.317	25617.55
735.658	25668.39
735.999	25656.42
736.339	25667.94
736.68	25645.12
737.021	25580.94
737.361	25321.51
737.702	25579.36
738.042	25483.31
738.383	25433.82
738.723	25427.04
739.063	25404.45
739.404	25443.99
739.744	25262.75
740.084	25272.92
740.424	25136.88
740.764	25188.63
741.104	25186.6
741.444	25069.76
741.784	25076.09
742.124	25095.75
742.464	25077
742.804	25000.16
743.143	24992.7
743.483	24936.89
743.823	24758.36
744.162	24782.77
744.502	24910.45
744.841	24884.91
745.181	24872.26
745.52	24717.91
745.86	24854.18
746.199	24676.33
746.538	24677.91
746.877	24699.15
747.216	24696.89
747.556	24660.51
747.895	24732.6
748.234	24553.85
748.573	24525.37
748.911	24613.73
749.25	24442.66
749.589	24318.37
749.928	24402.44
750.267	24507.75
750.605	24373.96
750.944	24486.05
751.283	24271.37
751.621	24322.67
751.96	24287.86
752.298	24196.34
752.636	24340.07
752.975	24158.83
753.313	23992.5
753.651	24166.29
753.989	23985.05
754.327	23918.38
754.666	23948.44
755.004	23973.75
755.342	23941.43
755.679	23879.29
756.017	23816.24
756.355	23850.59
756.693	23719.52
757.031	23833.86
757.368	23572.85
757.706	23601.1
758.044	23596.13
758.381	23617.83
758.719	23395.01
759.056	23494.66
759.394	23424.16
759.731	23205.63
