Data from hue_60_FLMS001491_18.txt Node
Date: Mon Feb 06 15:12:01 GMT 2017
User: dcchb
Spectrometer: FLMS00149
Trigger mode: 0
Integration Time (sec): 2.000000E-2
Scans to average: 10
Electric dark correction enabled: true
Nonlinearity correction enabled: false
Boxcar width: 0
XAxis mode: Wavelengths
Number of Pixels in Spectrum: 2048
>>>>>Begin Spectral Data<<<<<
341.393	-14.04
341.776	-14.04
342.16	-14.04
342.543	-56.52
342.927	-58.33
343.31	-77.09
343.693	-66.24
344.077	-72.34
344.46	-50.65
344.843	-54.49
345.226	-38.9
345.61	-28.95
345.993	-20.82
346.376	-0.71
346.759	-0.93
347.142	21.21
347.525	49.46
347.908	63.47
348.291	86.75
348.674	76.81
349.057	113.42
349.44	121.1
349.823	153.87
350.206	150.02
350.588	192.06
350.971	204.71
351.354	223.69
351.737	240.19
352.119	225.28
352.502	256.24
352.884	270.47
353.267	267.08
353.65	311.38
354.032	304.6
354.414	301.66
354.797	315.22
355.179	300.98
355.562	307.76
355.944	340.3
356.326	317.93
356.709	337.59
357.091	350.02
357.473	339.62
357.855	357.48
358.238	338.27
358.62	334.43
359.002	341.66
359.384	339.17
359.766	336.69
360.148	352.73
360.53	324.26
360.912	334.88
361.294	336.23
361.676	324.26
362.057	327.19
362.439	338.27
362.821	322.45
363.203	340.53
363.584	333.52
363.966	331.49
364.348	328.32
364.729	340.98
365.111	299.62
365.493	322
365.874	324.48
366.256	311.83
366.637	338.49
367.019	300.3
367.4	328.1
367.781	329.91
368.163	334.43
368.544	311.6
368.925	323.13
369.306	322.68
369.688	329.68
370.069	335.78
370.45	324.48
370.831	317.03
371.212	316.35
371.593	322.9
371.974	317.48
372.355	328.1
372.736	325.39
373.117	321.09
373.498	336.01
373.879	314.09
374.26	329.68
374.641	296.01
375.021	328.78
375.402	322
375.783	319.51
376.163	319.96
376.544	325.61
376.925	341.43
377.305	343.01
377.686	327.19
378.066	330.81
378.447	353.41
378.827	328.1
379.208	347.99
379.588	317.7
379.968	331.49
380.349	347.53
380.729	346.18
381.109	350.47
381.489	339.85
381.87	330.13
382.25	320.42
382.63	347.99
383.01	340.98
383.39	351.37
383.77	324.48
384.15	333.52
384.53	344.14
384.91	356.57
385.29	347.31
385.67	352.96
386.049	337.82
386.429	371.26
386.809	371.94
387.189	360.19
387.568	362.45
387.948	367.87
388.328	354.09
388.707	377.36
389.087	361.54
389.466	338.95
389.846	394.99
390.225	355.89
390.605	335.1
390.984	371.49
391.363	357.48
391.743	365.39
392.122	364.71
392.501	371.26
392.881	379.17
393.26	370.58
393.639	374.88
394.018	345.05
394.397	396.12
394.776	388.66
395.155	402.22
395.534	359.96
395.913	377.59
396.292	385.95
396.671	367.65
397.05	383.24
397.429	380.98
397.808	361.32
398.186	366.97
398.565	376.23
398.944	359.96
399.323	384.59
399.701	388.89
400.08	377.81
400.458	413.52
400.837	379.4
401.215	399.28
401.594	392.28
401.972	392.28
402.351	402.45
402.729	399.28
403.107	404.71
403.486	427.76
403.864	394.99
404.242	399.74
404.62	407.19
404.999	407.64
405.377	424.14
405.755	432.5
406.133	416.23
406.511	418.49
406.889	419.17
407.267	417.59
407.645	431.6
408.023	413.07
408.401	430.92
408.779	418.94
409.156	411.26
409.534	421.43
409.912	416.68
410.29	437.7
410.667	437.02
411.045	464.82
411.422	456.68
411.8	417.14
412.178	431.82
412.555	446.06
412.933	450.81
413.31	464.14
413.687	472.73
414.065	463.24
414.442	467.76
414.819	483.8
415.197	474.31
415.574	476.8
415.951	465.5
416.328	489.22
416.705	477.93
417.082	478.6
417.46	495.78
417.837	488.55
418.214	493.52
418.591	496.46
418.967	472.5
419.344	506.85
419.721	499.85
420.098	507.53
420.475	509.79
420.852	515.44
421.228	542.56
421.605	523.12
421.982	515.21
422.358	523.12
422.735	529.68
423.111	517.25
423.488	542.56
423.864	542.33
424.241	510.47
424.617	547.75
424.994	535.32
425.37	522.9
425.746	511.82
426.123	522.22
426.499	533.29
426.875	557.92
427.251	556.57
427.627	570.58
428.003	564.7
428.379	573.29
428.756	579.17
429.132	594.98
429.507	586.4
429.883	582.78
430.259	601.31
430.635	599.28
431.011	597.24
431.387	589.56
431.763	616.45
432.138	620.52
432.514	595.21
432.89	612.61
433.265	620.75
433.641	616.68
434.016	636.11
434.392	639.95
434.767	656.68
435.143	639.5
435.518	659.84
435.894	665.49
436.269	647.64
436.644	679.73
437.02	675.21
437.395	664.81
437.77	679.73
438.145	672.04
438.52	712.27
438.895	688.09
439.271	691.93
439.646	714.98
440.021	696.9
440.395	701.65
440.77	698.48
441.145	720.18
441.52	709.33
441.895	715.21
442.27	707.75
442.645	726.96
443.019	750.46
443.394	740.07
443.769	753.4
444.143	721.08
444.518	776.9
444.892	757.47
445.267	774.41
445.641	762.44
446.016	765.15
446.39	781.42
446.764	776
447.139	794.75
447.513	769.22
447.887	757.47
448.262	801.08
448.636	790.23
449.01	813.28
449.384	792.95
449.758	786.84
450.132	796.79
450.506	807.86
450.88	815.77
451.254	826.62
451.628	838.14
452.002	836.33
452.376	852.38
452.75	842.66
453.123	852.83
453.497	858.71
453.871	883.56
454.244	882.66
454.618	885.6
454.992	898.93
455.365	896.9
455.739	897.12
456.112	925.6
456.486	926.95
456.859	966.05
457.232	943
457.606	966.27
457.979	933.96
458.352	943.45
458.725	1029.1
459.099	979.38
459.472	1022.32
459.845	1012.83
460.218	1046.05
460.591	1036.78
460.964	1026.39
461.337	1066.84
461.71	1066.16
462.083	1082.2
462.456	1069.32
462.829	1124.24
463.201	1124.91
463.574	1128.3
463.947	1147.29
464.32	1165.59
464.692	1190.22
465.065	1182.99
465.438	1201.97
465.81	1240.17
466.183	1226.61
466.555	1268.64
466.928	1282.65
467.3	1273.84
467.672	1301.41
468.045	1339.6
468.417	1337.56
468.789	1375.3
469.161	1387.96
469.534	1412.82
469.906	1442.19
470.278	1458.69
470.65	1482.19
471.022	1507.5
471.394	1555.41
471.766	1546.82
472.138	1584.56
472.51	1630.21
472.882	1689.42
473.253	1675.41
473.625	1716.31
473.997	1778.23
474.369	1796.76
474.74	1855.52
475.112	1881.96
475.484	1949.07
475.855	1996.98
476.227	1996.76
476.598	2089.41
476.97	2124.89
477.341	2182.06
477.713	2211.67
478.084	2262.51
478.455	2342.74
478.827	2444.43
479.198	2476.52
479.569	2544.09
479.94	2609.62
480.311	2686.23
480.682	2780.24
481.053	2892.78
481.424	2945.88
481.795	3003.51
482.166	3098.87
482.537	3152.21
482.908	3296.61
483.279	3401.24
483.65	3482.82
484.021	3639.2
484.391	3705.19
484.762	3767.78
485.133	3874.67
485.503	3953.77
485.874	4139.75
486.244	4195.79
486.615	4387.43
486.985	4474.88
487.356	4604.82
487.726	4731.82
488.097	4843.46
488.467	4958.03
488.837	5080.74
489.207	5294.52
489.578	5414.74
489.948	5560.5
490.318	5722.31
490.688	5746.04
491.058	5959.36
491.428	6139.47
491.798	6268.06
492.168	6509.63
492.538	6585.34
492.908	6757.99
493.278	6861.71
493.648	7037.07
494.017	7157.3
494.387	7354.58
494.757	7484.75
495.126	7642.93
495.496	7723.16
495.866	7849.71
496.235	8080.44
496.605	8219.19
496.974	8403.37
497.344	8555.68
497.713	8633.19
498.082	8809.46
498.452	8992.5
498.821	9109.79
499.19	9324.25
499.559	9359.27
499.928	9602.88
500.298	9726.04
500.667	9926.26
501.036	9879.03
501.405	10212.58
501.774	10315.86
502.143	10429.75
502.512	10495.74
502.88	10690.09
503.249	10763.76
503.618	11009.17
503.987	11062.51
504.356	11259.79
504.724	11403.74
505.093	11431.08
505.462	11655.48
505.83	11787.68
506.199	11935.7
506.567	12112.42
506.936	12198.3
507.304	12441.68
507.672	12442.36
508.041	12658.62
508.409	12736.36
508.777	12959.86
509.145	13075.33
509.514	13206.63
509.882	13254.76
510.25	13482.78
510.618	13567.75
510.986	13576.56
511.354	13813.85
511.722	14034.4
512.09	14206.15
512.458	14165.25
512.826	14370.22
513.193	14515.07
513.561	14602.3
513.929	14782.18
514.297	14871.22
514.664	14999.35
515.032	15073.25
515.4	15331.77
515.767	15396.18
516.135	15516.17
516.502	15457.64
516.869	15815.15
517.237	15891.08
517.604	15972.66
517.972	16221.69
518.339	16338.3
518.706	16307.34
519.073	16490.39
519.44	16596.82
519.808	16714.79
520.175	16813.99
520.542	17097.15
520.909	17214.43
521.276	17250.37
521.643	17517.7
522.009	17601.54
522.376	17752.73
522.743	17838.82
523.11	18066.39
523.477	18265.25
523.843	18380.96
524.21	18558.58
524.577	18698.01
524.943	18818.91
525.31	18888.29
525.676	19202.86
526.043	19251.67
526.409	19481.72
526.776	19597.42
527.142	19674.26
527.508	19787.02
527.874	19970.29
528.241	19988.15
528.607	20243.06
528.973	20390.62
529.339	20342.71
529.705	20529.38
530.071	20720.1
530.437	20747.22
530.803	20984.5
531.169	21111.06
531.535	21123.48
531.901	21313.54
532.267	21355.79
532.632	21498.39
532.998	21619.29
533.364	21709.01
533.73	21779.74
534.095	21916.91
534.461	22031.48
534.826	22157.13
535.192	22280.97
535.557	22403.22
535.923	22379.5
536.288	22479.61
536.653	22577.46
537.019	22616.33
537.384	22685.25
537.749	22903.55
538.114	22891.12
538.479	23071.46
538.845	23089.08
539.21	23035.3
539.575	23114.62
539.94	23301.05
540.305	23365.91
540.67	23327.04
541.034	23544.89
541.399	23577.43
541.764	23675.06
542.129	23812.9
542.494	23890.64
542.858	23982.17
543.223	23907.37
543.587	24131.99
543.952	24063.52
544.316	24253.57
544.681	24187.58
545.045	24312.1
545.41	24505.99
545.774	24507.12
546.138	24635.26
546.503	24567.69
546.867	24721.36
547.231	24874.8
547.595	24964.06
547.959	25000.44
548.324	24913.44
548.688	25199.76
549.052	25196.82
549.416	25228.69
549.779	25256.26
550.143	25385.07
550.507	25503.48
550.871	25697.15
551.235	25546.87
551.599	25888.1
551.962	25893.08
552.326	25915.67
552.689	26171.04
553.053	26000.64
553.417	26058.72
553.78	26486.05
554.143	26321.09
554.507	26461.87
554.87	26532.61
555.234	26828.64
555.597	26697.12
555.96	26871.81
556.323	26967.17
556.686	27009.66
557.05	27301.63
557.413	27265.47
557.776	27446.48
558.139	27431.79
558.502	27708.17
558.865	27605.35
559.228	27876.3
559.59	27973.02
559.953	28037.43
560.316	28329.17
560.679	28434.48
561.041	28432.22
561.404	28592.44
561.767	28819.1
562.129	28648.26
562.492	28914.47
562.854	29002.15
563.217	29031.07
563.579	29336.38
563.941	29391.97
564.304	29417.73
564.666	29723.71
565.028	29723.94
565.39	29902.46
565.753	29976.81
566.115	30113.08
566.477	30348.33
566.839	30291.38
567.201	30572.05
567.563	30479.17
567.925	30824.47
568.287	30752.16
568.648	30781.54
569.01	30909.22
569.372	31306.95
569.734	31140.85
570.095	31483.89
570.457	31540.61
570.819	31561.63
571.18	31564.34
571.542	31844.33
571.903	31856.08
572.265	31964.56
572.626	32034.38
572.987	32169.75
573.349	32167.94
573.71	32336.3
574.071	32491.32
574.432	32599.11
574.794	32814.93
575.155	32572
575.516	32677.76
575.877	32772.22
576.238	32838.2
576.599	32926.11
576.96	32977.41
577.32	32990.52
577.681	33125.88
578.042	33301.02
578.403	33289.49
578.763	33392.54
579.124	33296.27
579.485	33534.91
579.845	33591.18
580.206	33583.04
580.566	33525.19
580.927	33613.1
581.287	33750.95
581.648	33633.44
582.008	33819.42
582.368	33745.07
582.728	33908.23
583.089	33654.91
583.449	33760.44
583.809	33996.14
584.169	34056.93
584.529	34000.21
584.889	34028.46
585.249	33973.77
585.609	33888.35
585.969	34088.57
586.329	34015.57
586.688	34041.11
587.048	34004.28
587.408	34072.75
587.768	33978.51
588.127	34006.54
588.487	34044.95
588.846	34209.47
589.206	34176.02
589.565	34182.8
589.925	34298.05
590.284	34131.96
590.643	34176.25
591.003	34400.88
591.362	34349.8
591.721	34275.45
592.08	34332.85
592.44	34465.73
592.799	34356.81
593.158	34352.06
593.517	34423.7
593.876	34538.72
594.235	34349.58
594.593	34371.05
594.952	34500.99
595.311	34446.75
595.67	34402.91
596.029	34688.78
596.387	34745.95
596.746	34816.23
597.104	34776.91
597.463	34733.52
597.822	34843.35
598.18	34707.53
598.538	34870.24
598.897	34822.78
599.255	34622.79
599.613	35334.41
599.972	34863.91
600.33	35008.09
600.688	34954.98
601.046	35162.21
601.404	35316.11
601.762	35133.74
602.12	35386.39
602.478	35238.14
602.836	35269.78
603.194	35218.48
603.552	35338.48
603.91	35259.84
604.268	35392.49
604.625	35319.95
604.983	35524.01
605.341	35323.56
605.698	35580.96
606.056	35659.37
606.413	35640.84
606.771	35749.31
607.128	35704.12
607.485	35714.74
607.843	35746.83
608.2	36030.44
608.557	35940.04
608.914	36119.7
609.272	36180.94
609.629	36225.23
609.986	36345.68
610.343	36293.48
610.7	36441.05
611.057	36459.8
611.414	36461.39
611.771	36582.96
612.127	36569.86
612.484	36721.72
612.841	36798.78
613.198	36713.81
613.554	36788.38
613.911	36981.37
614.267	37027.25
614.624	36941.6
614.98	37074.7
615.337	37242.16
615.693	37205.55
616.05	37220.69
616.406	37426.56
616.762	37232.44
617.118	37265.88
617.475	37364.41
617.831	37443.51
618.187	37481.02
618.543	37444.18
618.899	37589.27
619.255	37789.03
619.611	37668.59
619.967	37836.94
620.323	37822.71
620.678	37766.89
621.034	37623.16
621.39	37740.67
621.746	37655.48
622.101	38213.43
622.457	37879.65
622.812	37919.65
623.168	38056.6
623.523	38135.92
623.879	38198.29
624.234	37963.27
624.589	38250.94
624.945	38235.35
625.3	38310.15
625.655	38243.94
626.01	38281.9
626.365	38338.17
626.72	38363.03
627.075	38208.01
627.43	38255.92
627.785	38228.57
628.14	38396.48
628.495	38419.07
628.85	38305.86
629.205	38316.48
629.559	38503.14
629.914	38294.11
630.269	38292.52
630.623	38325.07
630.978	38223.6
631.332	38300.43
631.687	38447.55
632.041	38141.57
632.396	38281.68
632.75	38293.2
633.104	38266.31
633.459	38202.58
633.813	38103.83
634.167	38166.2
634.521	38159.19
634.875	38217.5
635.229	38214.56
635.583	38036.26
635.937	38119.65
636.291	38010.72
636.645	38049.14
636.999	37829.94
637.352	38072.19
637.706	37794.68
638.06	37786.1
638.413	37886.89
638.767	37768.47
639.121	37935.02
639.474	37731.41
639.828	37714.91
640.181	37883.95
640.534	37836.94
640.888	37669.04
641.241	37656.83
641.594	37686.66
641.947	37685.53
642.301	37735.02
642.654	37727.12
643.007	37514.01
643.36	37620.23
643.713	37367.8
644.066	37547.01
644.419	37395.82
644.771	37090.52
645.124	36789.51
645.477	36796.29
645.83	36540.93
646.182	36435.17
646.535	36311.33
646.888	36409.18
647.24	36209.64
647.593	36505.45
647.945	36250.77
648.298	36160.15
648.65	36189.53
649.002	36011.45
649.355	36237.89
649.707	36100.04
650.059	36296.87
650.411	36735.05
650.763	36701.61
651.115	37126.23
651.467	37063.4
651.819	36999.68
652.171	36942.96
652.523	36810.53
652.875	36821.15
653.227	36702.51
653.578	36847.36
653.93	36804.43
654.282	36591.1
654.633	36430.43
654.985	36594.26
655.337	36738.67
655.688	36755.39
656.039	36784.77
656.391	36482.18
656.742	36533.02
657.094	36639.46
657.445	36748.84
657.796	36436.75
658.147	36530.54
658.498	36414.38
658.849	36642.17
659.2	36623.87
659.551	36369.86
659.902	36551.1
660.253	36481.95
660.604	36486.24
660.955	36311.33
661.306	36521.72
661.656	36282.41
662.007	36520.37
662.358	36456.64
662.708	36376.42
663.059	36406.47
663.409	36225.46
663.76	36404.21
664.11	36349.98
664.461	36333.93
664.811	36287.15
665.161	36363.31
665.511	36344.33
665.862	36319.47
666.212	36292.35
666.562	36518.56
666.912	36334.16
667.262	36255.97
667.612	36248.74
667.962	36218.68
668.312	36148.85
668.662	36392.46
669.011	36295.97
669.361	36114.73
669.711	36302.97
670.06	36118.8
670.41	36069.53
670.76	36070.44
671.109	36249.19
671.459	36268.17
671.808	36112.47
672.157	36188.4
672.507	35921.29
672.856	35954.51
673.205	36004
673.554	36106.37
673.904	35985.47
674.253	36182.3
674.602	36147.95
674.951	35600.62
675.3	35420.06
675.649	35825.7
675.998	35757.68
676.346	35864.79
676.695	35952.47
677.044	35647.62
677.393	35790.67
677.741	35859.82
678.09	35801.52
678.438	35707.73
678.787	35811.23
679.135	35672.03
679.484	35478.36
679.832	35645.81
680.181	35440.62
680.529	35666.15
680.877	35402.43
681.225	35336.22
681.573	35502.99
681.922	35333.05
682.27	35243.79
682.618	35307.29
682.966	35155.88
683.314	35328.31
683.661	35046.06
684.009	34847.87
684.357	34885.61
684.705	34825.04
685.053	34931.93
685.4	34919.73
685.748	34764.03
686.095	34724.26
686.443	34541.21
686.79	34595.9
687.138	34633.41
687.485	34556.8
687.832	34589.8
688.18	34463.92
688.527	34336.92
688.874	34269.35
689.221	34151.39
689.568	34205.85
689.915	33957.27
690.262	34143.71
690.609	33920.44
690.956	33765.86
691.303	33767.22
691.65	33583.04
691.997	33548.69
692.344	33487.9
692.69	33414.69
693.037	33406.78
693.383	33062.15
693.73	33299.21
694.077	33048.37
694.423	33151.64
694.769	32966.79
695.116	32833.23
695.462	32887.02
695.808	32767.47
696.155	32801.14
696.501	32644.99
696.847	32554.37
697.193	32399.57
697.539	32571.54
697.885	32368.39
698.231	32205.9
698.577	32140.82
698.923	32035.29
699.269	31921.17
699.614	31821.73
699.96	31978.79
700.306	31778.35
700.651	31539.48
700.997	31591.01
701.342	31649.99
701.688	31454.06
702.033	31334.29
702.379	31493.15
702.724	31343.78
703.069	31393.72
703.415	31005.71
703.76	31007.52
704.105	31014.52
704.45	30828.77
704.795	30744.25
705.14	30677.36
705.485	30572.5
705.83	30620.41
706.175	30596.68
706.52	30495.44
706.865	30434.43
707.209	30183.58
707.554	30186.3
707.899	30224.26
708.243	30083.93
708.588	29971.16
708.932	29819.3
709.277	29761.45
709.621	29827.44
709.966	29686.42
710.31	29647.1
710.654	29477.84
710.998	29460.21
711.342	29598.74
711.687	29404.4
712.031	29362.14
712.375	29327.79
712.719	29279.65
713.063	29084.4
713.407	29226.32
713.75	29156.49
714.094	29015.03
714.438	28894.35
714.782	28958.76
715.125	28829.5
715.469	28855.71
715.812	28704.53
716.156	28584.53
716.499	28705.66
716.843	28616.85
717.186	28506.34
717.53	28587.24
717.873	28671.76
718.216	28492.1
718.559	28464.53
718.902	28258.66
719.246	28390.41
719.589	28225.22
719.932	28099.35
720.275	28077.88
720.617	27915.85
720.96	28027.48
721.303	27952.46
721.646	27889.63
721.989	27716.08
722.331	27759.92
722.674	27682.63
723.016	27789.75
723.359	27614.39
723.701	27703.65
724.044	27496.2
724.386	27417.56
724.729	27562.18
725.071	27485.8
725.413	27316.54
725.755	27379.36
726.097	27205.81
726.439	27088.98
726.782	27173.04
727.124	27116.32
727.465	27028.64
727.807	27077.45
728.149	26939.15
728.491	26924.46
728.833	26933.73
729.175	26842.2
729.516	26734.18
729.858	26792.04
730.199	26700.74
730.541	26766.73
730.882	26721.53
731.224	26667.52
731.565	26536
731.906	26644.02
732.248	26590.46
732.589	26446.28
732.93	26441.08
733.271	26459.16
733.612	26392.72
733.953	26357.92
734.294	26208.77
734.635	26213.07
734.976	26255.78
735.317	26046.97
735.658	26093.75
735.999	26093.97
736.339	26079.74
736.68	26118.38
737.021	25968.55
737.361	26037.03
737.702	26069.79
738.042	25940.98
738.383	25893.98
738.723	25976.46
739.063	25741.89
739.404	25802.46
739.744	25722.01
740.084	25527.21
740.424	25665.74
740.764	25660.54
741.104	25606.3
741.444	25468.68
741.784	25378.29
742.124	25429.13
742.464	25412.18
742.804	25379.19
743.143	25254.45
743.483	25520.2
743.823	25200.44
744.162	25170.61
744.502	25290.38
744.841	25134
745.181	25157.5
745.52	25066.88
745.86	25150.27
746.199	24851.07
746.538	24917.51
746.877	25114.57
747.216	24940.78
747.556	24893.78
747.895	24836.61
748.234	24822.82
748.573	24782.14
748.911	24764.52
749.25	24579.44
749.589	24519.1
749.928	24555.71
750.267	24557.07
750.605	24518.88
750.944	24426.45
751.283	24407.24
751.621	24394.58
751.96	24365.21
752.298	24223.06
752.636	24136.74
752.975	24156.4
753.313	24054.48
753.651	24107.36
753.989	24037.98
754.327	24001.6
754.666	23857.65
755.004	23873.02
755.342	23818.55
755.679	23740.36
756.017	23644.55
756.355	23622.63
756.693	23674.6
