Data from hue_90_FLMS001491_43.txt Node
Date: Mon Feb 06 15:25:11 GMT 2017
User: dcchb
Spectrometer: FLMS00149
Trigger mode: 0
Integration Time (sec): 2.000000E-2
Scans to average: 10
Electric dark correction enabled: true
Nonlinearity correction enabled: false
Boxcar width: 0
XAxis mode: Wavelengths
Number of Pixels in Spectrum: 2048
>>>>>Begin Spectral Data<<<<<
341.393	-17.8
341.776	-17.8
342.16	-17.8
342.543	-60.96
342.927	-77.68
343.31	-46.72
343.693	-62.09
344.077	-61.18
344.46	-53.28
344.843	-66.38
345.226	-52.6
345.61	-22.54
345.993	-30.68
346.376	-15.99
346.759	2.32
347.142	24.24
347.525	50.45
347.908	45.25
348.291	80.96
348.674	103.56
349.057	104.69
349.44	135.87
349.823	146.72
350.206	153.5
350.588	174.74
350.971	207.51
351.354	206.83
351.737	231.91
352.119	249.09
352.502	252.71
352.884	264
353.267	270.33
353.65	297.68
354.032	284.12
354.414	305.81
354.797	326.6
355.179	318.47
355.562	319.14
355.944	312.14
356.326	325.25
356.709	365.24
357.091	332.25
357.473	345.36
357.855	344.91
358.238	324.57
358.62	346.49
359.002	337
359.384	339.03
359.766	335.19
360.148	354.4
360.53	347.39
360.912	316.43
361.294	323.89
361.676	344.68
362.057	317.34
362.439	335.87
362.821	319.14
363.203	324.34
363.584	336.09
363.966	325.47
364.348	306.72
364.729	301.74
365.111	317.56
365.493	328.18
365.874	320.05
366.256	309.43
366.637	293.16
367.019	323.21
367.4	301.52
367.781	308.97
368.163	313.95
368.544	287.51
368.925	314.17
369.306	320.5
369.688	309.2
370.069	296.77
370.45	317.11
370.831	306.49
371.212	318.24
371.593	299.71
371.974	319.6
372.355	304.91
372.736	312.59
373.117	327.51
373.498	311.91
373.879	319.6
374.26	315.98
374.641	308.07
375.021	311.91
375.402	325.25
375.783	325.92
376.163	334.74
376.544	329.54
376.925	316.21
377.305	329.99
377.686	327.73
378.066	332.03
378.447	308.75
378.827	353.04
379.208	315.3
379.588	367.05
379.968	329.99
380.349	326.15
380.729	323.21
381.109	345.81
381.489	342.65
381.87	333.61
382.25	328.64
382.63	328.64
383.01	311.46
383.39	350.1
383.77	351.69
384.15	339.03
384.53	345.36
384.91	358.92
385.29	354.4
385.67	337.22
386.049	342.87
386.429	341.06
386.809	354.62
387.189	354.17
387.568	376.32
387.948	358.69
388.328	360.5
388.707	347.84
389.087	362.76
389.466	371.35
389.846	335.87
390.225	368.63
390.605	366.83
390.984	358.24
391.363	375.41
391.743	383.78
392.122	357.79
392.501	389.42
392.881	385.13
393.26	377.67
393.639	380.84
394.018	373.15
394.397	372.02
394.776	375.19
395.155	375.64
395.534	378.58
395.913	387.62
396.292	379.48
396.671	384.91
397.05	380.84
397.429	389.42
397.808	390.78
398.186	377.45
398.565	392.59
398.944	388.97
399.323	400.95
399.701	403.89
400.08	397.33
400.458	410.67
400.837	386.26
401.215	379.48
401.594	408.41
401.972	388.52
402.351	422.19
402.729	394.62
403.107	406.37
403.486	412.7
403.864	420.84
404.242	412.25
404.62	410.44
404.999	416.09
405.377	426.03
405.755	434.17
406.133	416.99
406.511	432.59
406.889	431.46
407.267	423.77
407.645	439.59
408.023	445.02
408.401	445.69
408.779	449.76
409.156	452.7
409.534	426.26
409.912	442.3
410.29	470.33
410.667	473.26
411.045	487.28
411.422	460.16
411.8	486.15
412.178	472.13
412.555	469.42
412.933	453.15
413.31	496.31
413.687	471.46
414.065	481.4
414.442	502.42
414.819	503.09
415.197	506.48
415.574	501.06
415.951	518.46
416.328	495.64
416.705	496.31
417.082	526.6
417.46	516.43
417.837	513.72
418.214	510.78
418.591	524.56
418.967	528.18
419.344	528.4
419.721	541.06
420.098	537.9
420.475	520.27
420.852	547.84
421.228	563.43
421.605	537.9
421.982	548.74
422.358	560.04
422.735	555.52
423.111	576.09
423.488	565.47
423.864	559.36
424.241	591.45
424.617	569.31
424.994	596.65
425.37	585.58
425.746	578.35
426.123	579.48
426.499	594.17
426.875	586.03
427.251	577.44
427.627	626.25
428.003	592.58
428.379	597.1
428.756	609.98
429.132	619.02
429.507	612.47
429.883	613.15
430.259	648.4
430.635	623.77
431.011	636.2
431.387	648.18
431.763	675.07
432.138	662.64
432.514	663.77
432.89	675.29
433.265	687.5
433.641	683.2
434.016	718
434.392	682.3
434.767	710.77
435.143	708.96
435.518	700.15
435.894	716.2
436.269	717.33
436.644	734.05
437.02	733.37
437.395	760.71
437.77	756.87
438.145	745.12
438.52	765.01
438.895	748.29
439.271	769.53
439.646	787.38
440.021	770.66
440.395	755.74
440.77	790.09
441.145	781.5
441.52	798.91
441.895	800.26
442.27	802.3
442.645	818.11
443.019	843.2
443.394	814.72
443.769	820.83
444.143	800.71
444.518	838
444.892	852.69
445.267	871.22
445.641	848.17
446.016	820.83
446.39	850.88
446.764	856.08
447.139	831
447.513	869.41
447.887	875.51
448.262	880.94
448.636	894.04
449.01	871.22
449.384	890.65
449.758	899.47
450.132	911.22
450.506	907.83
450.88	904.44
451.254	940.37
451.628	920.71
452.002	953.48
452.376	949.41
452.75	968.17
453.123	954.16
453.497	986.92
453.871	981.73
454.244	997.54
454.618	993.25
454.992	1034.15
455.365	1032.8
455.739	1054.27
456.112	1084.1
456.486	1050.42
456.859	1067.15
457.232	1096.07
457.606	1085.23
457.979	1087.26
458.352	1099.24
458.725	1142.4
459.099	1146.47
459.472	1157.54
459.845	1175.17
460.218	1152.12
460.591	1179.01
460.964	1207.48
461.337	1236.18
461.71	1257.2
462.083	1263.07
462.456	1280.7
462.829	1255.84
463.201	1301.94
463.574	1292.9
463.947	1293.36
464.32	1332.45
464.692	1331.77
465.065	1335.16
465.438	1382.62
465.81	1402.28
466.183	1422.84
466.555	1455.16
466.928	1468.94
467.3	1446.12
467.672	1498.1
468.045	1534.48
468.417	1564.76
468.789	1576.96
469.161	1605.44
469.534	1626.45
469.906	1645.44
470.278	1707.81
470.65	1724.76
471.022	1752.1
471.394	1798.65
471.766	1814.92
472.138	1811.76
472.51	1856.28
472.882	1925.2
473.253	1959.33
473.625	2009.27
473.997	2021.02
474.369	2061.25
474.74	2090.85
475.112	2122.03
475.484	2213.33
475.855	2290.84
476.227	2302.14
476.598	2365.64
476.97	2436.15
477.341	2491.97
477.713	2527.45
478.084	2606.09
478.455	2660.78
478.827	2744.84
479.198	2793.88
479.569	2872.98
479.94	2971.28
480.311	3046.08
480.682	3121.78
481.053	3229.12
481.424	3328.33
481.795	3379.4
482.166	3480.42
482.537	3579.17
482.908	3660.98
483.279	3764.48
483.65	3903.68
484.021	3976
484.391	4102.55
484.762	4125.82
485.133	4272.49
485.503	4372.14
485.874	4506.83
486.244	4599.94
486.615	4771.91
486.985	4841.74
487.356	5017.78
487.726	5078.79
488.097	5259.35
488.467	5364.66
488.837	5482.85
489.207	5603.52
489.578	5748.15
489.948	5895.72
490.318	6025.89
490.688	6110.86
491.058	6250.97
491.428	6443.28
491.798	6560.56
492.168	6742.7
492.538	6789.26
492.908	6951.29
493.278	7113.77
493.648	7146.99
494.017	7394.89
494.387	7461.1
494.757	7645.96
495.126	7690.48
495.496	7855.67
495.866	7951.71
496.235	8106.28
496.605	8226.73
496.974	8355.32
497.344	8473.96
497.713	8549.44
498.082	8731.13
498.452	8833.27
498.821	9018.58
499.19	9013.83
499.559	9252.69
499.928	9238.01
500.298	9367.27
500.667	9487.72
501.036	9483.2
501.405	9652.91
501.774	9692.91
502.143	9873.7
502.512	9952.79
502.88	10021.71
503.249	10110.75
503.618	10220.13
503.987	10247.92
504.356	10427.13
504.724	10435.26
505.093	10494.02
505.462	10597.29
505.83	10649.49
506.199	10732.88
506.567	10844.29
506.936	10966.32
507.304	11075.47
507.672	11122.7
508.041	11131.52
508.409	11185.07
508.777	11276.37
509.145	11462.35
509.514	11496.03
509.882	11554.33
510.25	11564.27
510.618	11646.76
510.986	11696.02
511.354	11758.39
511.722	11877.71
512.09	11914.32
512.458	11917.71
512.826	12020.76
513.193	12023.24
513.561	12055.33
513.929	12193.41
514.297	12242.45
514.664	12337.36
515.032	12335.33
515.4	12363.8
515.767	12451.48
516.135	12531.25
516.502	12373.06
516.869	12573.96
517.237	12606.5
517.604	12547.3
517.972	12669.33
518.339	12717.46
518.706	12740.06
519.073	12787.06
519.44	12861.19
519.808	12898.02
520.175	12865.48
520.542	12982.31
520.909	13002.65
521.276	12913.84
521.643	13025.7
522.009	13063.44
522.376	13197.68
522.743	13142.08
523.11	13232.48
523.477	13329.88
523.843	13321.29
524.21	13367.39
524.577	13427.05
524.943	13407.39
525.31	13454.17
525.676	13596.99
526.043	13517.67
526.409	13629.08
526.776	13662.97
527.142	13644.44
527.508	13658.68
527.874	13709.98
528.241	13749.3
528.607	13659.13
528.973	13822.52
529.339	13737.77
529.705	13730.54
530.071	13815.74
530.437	13809.18
530.803	13795.85
531.169	13845.34
531.535	13722.63
531.901	13812.12
532.267	13864.1
532.632	13820.03
532.998	13796.76
533.364	13813.7
533.73	13763.08
534.095	13860.71
534.461	13781.16
534.826	13801.5
535.192	13775.97
535.557	13884.44
535.923	13707.49
536.288	13716.98
536.653	13721.5
537.019	13690.32
537.384	13697.32
537.749	13683.09
538.114	13658.68
538.479	13600.83
538.845	13635.86
539.21	13504.79
539.575	13639.02
539.94	13524.45
540.305	13510.66
540.67	13404
541.034	13489.65
541.399	13439.7
541.764	13420.49
542.129	13403.09
542.494	13445.8
542.858	13398.35
543.223	13307.28
543.587	13359.71
543.952	13297.11
544.316	13237.67
544.681	13157.22
545.045	13162.87
545.41	13204.68
545.774	13119.94
546.138	13107.73
546.503	13069.09
546.867	13061.86
547.231	13084.46
547.595	12986.83
547.959	13018.92
548.324	12986.16
548.688	12945.48
549.052	12884.46
549.416	12875.88
549.779	12882.43
550.143	12799.72
550.507	12866.61
550.871	12753.85
551.235	12739.83
551.599	12822.77
551.962	12735.77
552.326	12693.28
552.689	12757.46
553.053	12562.21
553.417	12576.22
553.78	12765.82
554.143	12629.1
554.507	12620.06
554.87	12610.35
555.234	12635.2
555.597	12460.52
555.96	12511.59
556.323	12552.04
556.686	12501.87
557.05	12540.74
557.413	12505.26
557.776	12422.78
558.139	12550.23
558.502	12390.69
558.865	12472.5
559.228	12557.92
559.59	12494.42
559.953	12490.35
560.316	12542.33
560.679	12468.43
561.041	12476.79
561.404	12485.38
561.767	12580.06
562.129	12406.28
562.492	12568.09
562.854	12535.09
563.217	12478.37
563.579	12481.31
563.941	12518.15
564.304	12556.34
564.666	12571.48
565.028	12533.96
565.39	12667.75
565.753	12568.54
566.115	12535.55
566.477	12594.08
566.839	12702.77
567.201	12613.28
567.563	12667.29
567.925	12693.96
568.287	12685.82
568.648	12704.36
569.01	12708.2
569.372	12690.12
569.734	12685.15
570.095	12688.31
570.457	12794.07
570.819	12815.99
571.18	12732.38
571.542	12892.15
571.903	12792.04
572.265	12778.03
572.626	12836.33
572.987	12785.03
573.349	12898.7
573.71	12919.04
574.071	12871.58
574.432	12842.88
574.794	12977.57
575.155	12925.59
575.516	12853.73
575.877	12952.03
576.238	12846.72
576.599	12952.26
576.96	12934.41
577.32	12948.42
577.681	13004.01
578.042	12898.47
578.403	12977.12
578.763	12984.12
579.124	12877.91
579.485	12940.51
579.845	12922.88
580.206	13012.37
580.566	12980.96
580.927	12966.04
581.287	12999.26
581.648	12904.8
582.008	12919.94
582.368	13001.3
582.728	13008.08
583.089	12943.9
583.449	12929.21
583.809	12917.68
584.169	12943.9
584.529	12961.3
584.889	12987.51
585.249	12836.1
585.609	12797.01
585.969	12938.93
586.329	12864.35
586.688	12809.44
587.048	12844.46
587.408	12802.66
587.768	12815.99
588.127	12801.53
588.487	12748.2
588.846	12842.2
589.206	12799.49
589.565	12806.5
589.925	12843.79
590.284	12783.9
590.643	12783
591.003	12805.37
591.362	12767.18
591.721	12783.68
592.08	12768.31
592.44	12751.13
592.799	12796.1
593.158	12773.96
593.517	12727.41
593.876	12779.38
594.235	12639.72
594.593	12658.71
594.952	12711.81
595.311	12664.13
595.67	12658.25
596.029	12800.85
596.387	12754.98
596.746	12792.26
597.104	12703
597.463	12630.01
597.822	12675.43
598.18	12657.35
598.538	12627.75
598.897	12689.21
599.255	12611.48
599.613	12768.08
599.972	12699.16
600.33	12799.27
600.688	12580.06
601.046	12657.35
601.404	12634.3
601.762	12609.67
602.12	12687.41
602.478	12681.53
602.836	12659.61
603.194	12656.22
603.552	12621.87
603.91	12580.74
604.268	12583.91
604.625	12573.29
604.983	12582.32
605.341	12610.8
605.698	12657.35
606.056	12706.84
606.413	12660.74
606.771	12710.68
607.128	12675.88
607.485	12715.65
607.843	12726.28
608.2	12740.51
608.557	12716.78
608.914	12693.96
609.272	12820.28
609.629	12829.1
609.986	12766.27
610.343	12763.56
610.7	12820.96
611.057	12798.59
611.414	12755.65
611.771	12775.31
612.127	12851.02
612.484	12810.57
612.841	12847.63
613.198	12765.37
613.554	12689.21
613.911	12797.91
614.267	12836.33
614.624	12846.5
614.98	12891.92
615.337	12908.64
615.693	12878.36
616.05	12946.83
616.406	12933.95
616.762	12921.3
617.118	12909.55
617.475	12903.67
617.831	12972.14
618.187	12943.44
618.543	12964.91
618.899	13044.69
619.255	13039.71
619.611	12958.59
619.967	13046.72
620.323	13055.98
620.678	13097.79
621.034	12970.56
621.39	12969.21
621.746	13050.33
622.101	13168.3
622.457	13058.02
622.812	13042.2
623.168	13015.53
623.523	12990
623.879	13084.91
624.234	12973.5
624.589	13070.22
624.945	13028.41
625.3	13073.39
625.655	13071.8
626.01	13027.28
626.365	13086.27
626.72	13054.63
627.075	13034.06
627.43	12990.22
627.785	13017.12
628.14	12961.75
628.495	12950.45
628.85	13082.65
629.205	12875.88
629.559	12987.96
629.914	12985.03
630.269	12982.77
630.623	12882.66
630.978	12900.73
631.332	12966.95
631.687	12984.12
632.041	12888.08
632.396	12903.22
632.75	12828.87
633.104	12837.46
633.459	12745.48
633.813	12878.36
634.167	12804.69
634.521	12804.92
634.875	12829.32
635.229	12823.22
635.583	12771.47
635.937	12707.74
636.291	12722.66
636.645	12818.02
636.999	12727.63
637.352	12724.92
637.706	12660.74
638.06	12601.31
638.413	12713.17
638.767	12651.02
639.121	12560.4
639.474	12547.52
639.828	12610.57
640.181	12584.81
640.534	12502.33
640.888	12460.07
641.241	12462.33
641.594	12448.09
641.947	12503.68
642.301	12450.8
642.654	12514.08
643.007	12425.72
643.36	12468.2
643.713	12450.58
644.066	12520.41
644.419	12374.65
644.771	12253.97
645.124	12241.32
645.477	12230.92
645.83	12133.07
646.182	12119.29
646.535	12079.29
646.888	12089.68
647.24	11997.93
647.593	12061.21
647.945	12109.34
648.298	12078.61
648.65	12060.08
649.002	12009.46
649.355	12031.15
649.707	12004.26
650.059	12114.09
650.411	12240.86
650.763	12213.97
651.115	12293.52
651.467	12304.82
651.819	12341.43
652.171	12284.25
652.523	12275.67
652.875	12230.24
653.227	12189.79
653.578	12354.99
653.93	12317.25
654.282	12251.94
654.633	12243.58
654.985	12265.5
655.337	12304.14
655.688	12314.31
656.039	12305.27
656.391	12287.64
656.742	12215.55
657.094	12219.17
657.445	12304.82
657.796	12341.88
658.147	12209.23
658.498	12211.03
658.849	12286.06
659.2	12395.21
659.551	12265.72
659.902	12292.61
660.253	12354.99
660.604	12355.66
660.955	12304.14
661.306	12329.68
661.656	12339.62
662.007	12321.54
662.358	12283.12
662.708	12335.55
663.059	12342.33
663.409	12261.43
663.76	12368.77
664.11	12349.11
664.461	12360.86
664.811	12421.88
665.161	12385.04
665.511	12286.74
665.862	12365.61
666.212	12324.7
666.562	12446.73
666.912	12331.03
667.262	12376
667.612	12355.44
667.962	12333.52
668.312	12315.89
668.662	12340.52
669.011	12418.49
669.361	12383.01
669.711	12324.25
670.06	12384.14
670.41	12326.74
670.76	12252.16
671.109	12374.19
671.459	12338.72
671.808	12337.13
672.157	12387.75
672.507	12269.56
672.856	12299.85
673.205	12290.58
673.554	12284.03
673.904	12210.36
674.253	12304.14
674.602	12259.17
674.951	12052.17
675.3	12004.94
675.649	12171.49
675.998	12159.96
676.346	12171.26
676.695	12209.68
677.044	12127.65
677.393	12101.21
677.741	12173.52
678.09	12167.42
678.438	12082.9
678.787	12140.98
679.135	12126.29
679.484	11992.28
679.832	12093.07
680.181	12015.33
680.529	11944.15
680.877	11938.05
681.225	11875.68
681.573	12037.48
681.922	11958.84
682.27	11881.55
682.618	11896.47
682.966	11862.57
683.314	11931.72
683.661	11828.45
684.009	11851.27
684.357	11791.84
684.705	11689.69
685.053	11820.08
685.4	11663.7
685.748	11669.58
686.095	11634.1
686.443	11572.86
686.79	11675.46
687.138	11590.26
687.485	11618.96
687.832	11553.65
688.18	11538.74
688.527	11515.46
688.874	11402.92
689.221	11424.39
689.568	11426.87
689.915	11314.79
690.262	11345.07
690.609	11268.69
690.956	11220.78
691.303	11222.36
691.65	11202.25
691.997	11147.79
692.344	10969.94
692.69	11035.02
693.037	11100.33
693.383	10942.59
693.73	10962.48
694.077	11014.23
694.423	10878.64
694.769	10868.25
695.116	10873.22
695.462	10851.3
695.808	10766.1
696.155	10835.7
696.501	10651.53
696.847	10748.47
697.193	10621.02
697.539	10677.06
697.885	10561.13
698.231	10495.37
698.577	10451.53
698.923	10499.67
699.269	10436.62
699.614	10317.98
699.96	10276.4
700.306	10303.29
700.651	10277.53
700.997	10233.01
701.342	10171.09
701.688	10198.21
702.033	10139
702.379	10078.89
702.724	10080.02
703.069	10049.06
703.415	9962.51
703.76	9932.22
704.105	9986.91
704.45	9915.5
704.795	9868.05
705.14	9769.74
705.485	9790.08
705.83	9786.24
706.175	9790.76
706.52	9694.04
706.865	9652.01
707.209	9631.89
707.554	9614.94
707.899	9661.95
708.243	9589.86
708.588	9530.43
708.932	9511.22
709.277	9486.81
709.621	9535.4
709.966	9472.58
710.31	9423.09
710.654	9310.77
710.998	9320.49
711.342	9339.25
711.687	9360.26
712.031	9208.18
712.375	9299.47
712.719	9237.33
713.063	9239.14
713.407	9266.48
713.75	9188.52
714.094	9227.38
714.438	9147.61
714.782	9122.98
715.125	9078.01
715.469	9159.82
715.812	9076.2
716.156	9068.52
716.499	9045.69
716.843	9095.18
717.186	9042.76
717.53	9058.8
717.873	8995.75
718.216	8997.56
718.559	8974.74
718.902	8911.46
719.246	8933.15
719.589	8932.25
719.932	8885.47
720.275	8902.2
720.617	8857.22
720.96	8879.6
721.303	8875.53
721.646	8875.08
721.989	8816.32
722.331	8825.81
722.674	8819.26
723.016	8789.66
723.359	8714.86
723.701	8814.51
724.044	8730.22
724.386	8664.46
724.729	8734.06
725.071	8692.03
725.413	8725.93
725.755	8637.34
726.097	8682.54
726.439	8627.17
726.782	8652.48
727.124	8678.92
727.465	8618.13
727.807	8650.68
728.149	8719.15
728.491	8608.42
728.833	8603.45
729.175	8659.26
729.516	8589.44
729.858	8636.89
730.199	8608.64
730.541	8620.62
730.882	8586.05
731.224	8665.59
731.565	8631.69
731.906	8645.25
732.248	8630.11
732.589	8604.12
732.93	8564.13
733.271	8576.33
733.612	8605.25
733.953	8571.13
734.294	8577.01
734.635	8620.62
734.976	8649.55
735.317	8581.75
735.658	8595.31
735.999	8671.47
736.339	8513.73
736.68	8602.32
737.021	8564.13
737.361	8626.5
737.702	8572.71
738.042	8635.54
738.383	8637.57
738.723	8607.51
739.063	8642.99
739.404	8645.93
739.744	8625.82
740.084	8640.96
740.424	8632.6
740.764	8659.49
741.104	8620.39
741.444	8610.9
741.784	8705.82
742.124	8741.75
742.464	8730.22
742.804	8774.97
743.143	8758.02
743.483	8840.95
743.823	8751.92
744.162	8787.17
744.502	8873.5
744.841	8865.36
745.181	8945.81
745.52	8950.56
745.86	8986.49
746.199	9025.58
746.538	9051.57
746.877	9152.36
747.216	9148.29
747.556	9148.29
747.895	9236.42
748.234	9217.89
748.573	9309.19
748.911	9322.07
749.25	9400.04
749.589	9467.83
749.928	9559.35
750.267	9675.96
750.605	9695.85
750.944	9756.86
751.283	9764.09
751.621	9907.59
751.96	9951.21
752.298	10013.58
752.636	10084.99
752.975	10183.74
753.313	10266.23
753.651	10487.46
753.989	10474.36
754.327	10609.27
754.666	10713
755.004	10841.58
755.342	11000.22
755.679	11069.37
756.017	11147.56
756.355	11304.62
756.693	11455.35
757.031	11568.34
757.368	11562.01
757.706	11829.35
758.044	11885.85
758.381	12092.62
758.719	12221.43
759.056	12365.83
759.394	12501.65
