Data from hue_80_FLMS001491_10.txt Node
Date: Mon Feb 06 15:22:23 GMT 2017
User: dcchb
Spectrometer: FLMS00149
Trigger mode: 0
Integration Time (sec): 2.000000E-2
Scans to average: 10
Electric dark correction enabled: true
Nonlinearity correction enabled: false
Boxcar width: 0
XAxis mode: Wavelengths
Number of Pixels in Spectrum: 2048
>>>>>Begin Spectral Data<<<<<
341.393	0.66
341.776	0.66
342.16	0.66
342.543	-64.42
342.927	-73.46
343.31	-83.85
343.693	-68.49
344.077	-59.45
344.46	-56.74
344.843	-55.61
345.226	-52.22
345.61	-33.91
345.993	-14.48
346.376	-7.02
346.759	4.05
347.142	20.1
347.525	51.06
347.908	60.78
348.291	83.15
348.674	97.16
349.057	115.46
349.44	108.01
349.823	131.73
350.206	164.28
350.588	188.68
350.971	202.69
351.354	209.25
351.737	239.3
352.119	244.73
352.502	280.43
352.884	262.35
353.267	275.68
353.65	270.94
354.032	277.94
354.414	322.92
354.797	315.23
355.179	307.55
355.562	298.74
355.944	327.21
356.326	320.43
356.709	338.51
357.091	326.98
357.473	348.23
357.855	341.9
358.238	352.07
358.62	336.93
359.002	333.99
359.384	329.69
359.766	343.93
360.148	326.53
360.53	347.32
360.912	319.07
361.294	340.54
361.676	320.88
362.057	345.97
362.439	321.33
362.821	332.18
363.203	317.49
363.584	344.38
363.966	323.14
364.348	320.43
364.729	307.77
365.111	307.1
365.493	319.53
365.874	321.79
366.256	323.59
366.637	304.16
367.019	331.5
367.4	305.51
367.781	310.03
368.163	325.85
368.544	302.8
368.925	298.51
369.306	313.88
369.688	323.82
370.069	305.51
370.45	305.06
370.831	321.33
371.212	319.3
371.593	310.71
371.974	313.42
372.355	333.76
372.736	300.54
373.117	325.18
373.498	324.05
373.879	328.34
374.26	324.72
374.641	317.72
375.021	304.38
375.402	311.84
375.783	320.2
376.163	327.89
376.544	324.95
376.925	330.6
377.305	311.84
377.686	329.47
378.066	315.01
378.447	324.05
378.827	307.32
379.208	320.43
379.588	336.7
379.968	332.63
380.349	355.68
380.729	316.59
381.109	330.37
381.489	344.61
381.87	338.06
382.25	333.99
382.63	345.06
383.01	357.26
383.39	336.02
383.77	338.06
384.15	325.4
384.53	332.86
384.91	364.95
385.29	348.68
385.67	351.62
386.049	350.03
386.429	348
386.809	344.16
387.189	346.87
387.568	330.15
387.948	348.23
388.328	336.47
388.707	334.21
389.087	341.22
389.466	338.28
389.846	352.07
390.225	345.74
390.605	348.68
390.984	358.62
391.363	374.67
391.743	358.39
392.122	385.51
392.501	365.63
392.881	372.18
393.26	340.77
393.639	351.62
394.018	379.64
394.397	387.09
394.776	386.87
395.155	390.48
395.534	386.19
395.913	381.9
396.292	382.57
396.671	385.74
397.05	412.86
397.429	390.94
397.808	381.67
398.186	392.74
398.565	365.85
398.944	369.92
399.323	378.28
399.701	396.13
400.08	383.25
400.458	395
400.837	398.85
401.215	392.29
401.594	390.26
401.972	392.07
402.351	374.21
402.729	399.52
403.107	380.77
403.486	409.69
403.864	422.35
404.242	420.09
404.62	416.25
404.999	431.84
405.377	396.81
405.755	409.01
406.133	425.51
406.511	417.15
406.889	410.82
407.267	444.49
407.645	414.21
408.023	444.95
408.401	450.6
408.779	435.45
409.156	427.77
409.534	417.83
409.912	445.17
410.29	425.51
410.667	447.21
411.045	454.66
411.422	447.66
411.8	449.69
412.178	458.73
412.555	468
412.933	474.1
413.31	460.31
413.687	458.73
414.065	476.13
414.442	465.74
414.819	480.65
415.197	493.31
415.574	483.36
415.951	475.91
416.328	505.28
416.705	485.4
417.082	482.91
417.46	472.52
417.837	490.82
418.214	498.5
418.591	496.47
418.967	505.06
419.344	513.64
419.721	487.88
420.098	517.94
420.475	511.84
420.852	514.55
421.228	541.67
421.605	531.5
421.982	517.94
422.358	524.72
422.735	533.98
423.111	548.22
423.488	522.23
423.864	558.84
424.241	537.82
424.617	540.99
424.994	547.77
425.37	550.93
425.746	564.94
426.123	572.4
426.499	567.2
426.875	587.32
427.251	586.64
427.627	567.2
428.003	571.95
428.379	597.48
428.756	583.25
429.132	621.21
429.507	580.31
429.883	586.64
430.259	602.91
430.635	635
431.011	627.77
431.387	630.25
431.763	625.05
432.138	637.48
432.514	637.48
432.89	653.53
433.265	638.16
433.641	670.93
434.016	676.8
434.392	660.76
434.767	695.79
435.143	663.47
435.518	676.58
435.894	698.5
436.269	699.4
436.644	696.24
437.02	699.18
437.395	700.31
437.77	716.58
438.145	730.81
438.52	701.44
438.895	744.15
439.271	725.16
439.646	751.6
440.021	729.23
440.395	756.58
440.77	726.52
441.145	765.39
441.52	765.62
441.895	756.8
442.27	797.71
442.645	772.17
443.019	780.3
443.394	808.1
443.769	814.2
444.143	787.99
444.518	796.35
444.892	799.96
445.267	799.06
445.641	820.98
446.016	810.13
446.39	805.16
446.764	818.5
447.139	813.75
447.513	822.11
447.887	814.65
448.262	830.02
448.636	853.75
449.01	866.4
449.384	857.14
449.758	892.84
450.132	891.49
450.506	893.97
450.88	870.02
451.254	887.42
451.628	906.4
452.002	897.36
452.376	915.44
452.75	929.45
453.123	923.35
453.497	916.57
453.871	932.84
454.244	945.95
454.618	957.25
454.992	972.16
455.365	986.85
455.739	1007.87
456.112	1013.74
456.486	1027.98
456.859	1033.86
457.232	1040.41
457.606	1038.38
457.979	1059.39
458.352	1060.3
458.725	1051.26
459.099	1096.91
459.472	1110.69
459.845	1129.9
460.218	1122.67
460.591	1126.51
460.964	1140.97
461.337	1173.29
461.71	1173.74
462.083	1195.43
462.456	1213.74
462.829	1224.59
463.201	1251.7
463.574	1247.86
463.947	1303.23
464.32	1273.85
464.692	1304.13
465.065	1299.39
465.438	1320.86
465.81	1369.22
466.183	1371.25
466.555	1412.15
466.928	1415.54
467.3	1436.11
467.672	1438.59
468.045	1465.94
468.417	1483.11
468.789	1515.65
469.161	1518.59
469.534	1526.95
469.906	1606.27
470.278	1623.45
470.65	1641.07
471.022	1665.48
471.394	1726.04
471.766	1728.3
472.138	1769.66
472.51	1797.68
472.882	1829.99
473.253	1874.29
473.625	1920.61
473.997	1968.52
474.369	1957.67
474.74	2019.59
475.112	2073.15
475.484	2120.61
475.855	2164
476.227	2219.14
476.598	2281.28
476.97	2303.2
477.341	2380.04
477.713	2440.37
478.084	2483.08
478.455	2570.99
478.827	2623.65
479.198	2736.41
479.569	2728.28
479.94	2862.51
480.311	2887.59
480.682	3012.34
481.053	3081.71
481.424	3183.63
481.795	3262.5
482.166	3323.29
482.537	3403.74
482.908	3551.76
483.279	3615.26
483.65	3747.68
484.021	3847.57
484.391	3959.43
484.762	4059.09
485.133	4121.69
485.503	4225.64
485.874	4308.35
486.244	4462.47
486.615	4570.71
486.985	4671.5
487.356	4877.6
487.726	4963.25
488.097	5080.53
488.467	5189
488.837	5327.3
489.207	5490.24
489.578	5577.92
489.948	5763.45
490.318	5877.35
490.688	5963.9
491.058	6103.1
491.428	6250.89
491.798	6403.21
492.168	6602.75
492.538	6684.1
492.908	6829.86
493.278	6968.39
493.648	7048.16
494.017	7196.18
494.387	7375.39
494.757	7543.74
495.126	7635.04
495.496	7716.85
495.866	7880.46
496.235	8047.91
496.605	8258.53
496.974	8284.06
497.344	8445.41
497.713	8635.69
498.082	8674.33
498.452	8901.45
498.821	8956.81
499.19	9070.93
499.559	9254.88
499.928	9359.06
500.298	9414.43
500.667	9595.67
501.036	9651.03
501.405	9839.05
501.774	9896.67
502.143	10049.89
502.512	10110.91
502.88	10355.87
503.249	10375.08
503.618	10462.54
503.987	10539.14
504.356	10675.86
504.724	10787.05
505.093	10949.53
505.462	10991.34
505.83	11127.83
506.199	11221.84
506.567	11372.12
506.936	11405.79
507.304	11607.36
507.672	11713.8
508.041	11757.19
508.409	11929.84
508.777	11897.3
509.145	12102.04
509.514	12123.96
509.882	12329.83
510.25	12302.04
510.618	12393.78
510.986	12412.99
511.354	12561.92
511.722	12728.46
512.09	12900.89
512.458	12871.51
512.826	12933.66
513.193	13091.85
513.561	13058.85
513.929	13209.36
514.297	13365.51
514.664	13384.94
515.032	13480.99
515.4	13633.3
515.767	13675.78
516.135	13650.7
516.502	13649.8
516.869	13906.29
517.237	13886.85
517.604	13941.77
517.972	14054.53
518.339	14144.7
518.706	14224.92
519.073	14258.37
519.44	14275.99
519.808	14390.12
520.175	14427.18
520.542	14544.91
520.909	14678.7
521.276	14621.07
521.643	14719.6
522.009	14840.5
522.376	14868.75
522.743	14991.68
523.11	15068.74
523.477	15162.53
523.843	15236.2
524.21	15402.07
524.577	15437.32
524.943	15492.69
525.31	15545.79
525.676	15671.66
526.043	15710.99
526.409	15709.86
526.776	15927.25
527.142	15827.14
527.508	15836.41
527.874	16004.99
528.241	15975.16
528.607	16026.91
528.973	16223.74
529.339	16016.06
529.705	16257.64
530.071	16179.67
530.437	16249.73
530.803	16344.64
531.169	16457.18
531.535	16304.87
531.901	16401.59
532.267	16396.39
532.632	16422.38
532.998	16556.84
533.364	16622.15
533.73	16523.39
534.095	16677.74
534.461	16648.36
534.826	16751.18
535.192	16675.93
535.557	16823.27
535.923	16750.05
536.288	16800
536.653	16800.45
537.019	16682.26
537.384	16680.68
537.749	16884.51
538.114	16820.79
538.479	16730.62
538.845	16787.79
539.21	16848.13
539.575	16780.34
539.94	16809.71
540.305	16865.53
540.67	16786.66
541.034	16854.23
541.399	16877.28
541.764	16840.22
542.129	16743.95
542.494	16732.88
542.858	16818.75
543.223	16903.72
543.587	16818.75
543.952	16826.21
544.316	16704.18
544.681	16738.98
545.045	16699.89
545.41	16837.74
545.774	16774.01
546.138	16795.48
546.503	16792.76
546.867	16718.42
547.231	16784.18
547.595	16784.4
547.959	16818.98
548.324	16696.04
548.688	16761.81
549.052	16771.52
549.416	16804.29
549.779	16785.99
550.143	16790.73
550.507	16731.75
550.871	16717.29
551.235	16777.85
551.599	16812.43
551.962	16804.97
552.326	16719.55
552.689	16715.03
553.053	16727.23
553.417	16705.99
553.78	16833.44
554.143	16800.45
554.507	16789.6
554.87	16792.54
555.234	16908.69
555.597	16710.96
555.96	16719.09
556.323	16844.06
556.686	16787.57
557.05	16775.82
557.413	16825.31
557.776	16778.3
558.139	16892.2
558.502	16966.32
558.865	16903.72
559.228	16986.66
559.59	17007
559.953	16943.5
560.316	17147.33
560.679	17003.38
561.041	17077.28
561.404	17016.71
561.767	17146.43
562.129	17167.22
562.492	17316.37
562.854	17193.21
563.217	17183.71
563.579	17242.24
563.941	17327.89
564.304	17368.34
564.666	17335.12
565.028	17395.23
565.39	17385.74
565.753	17602.23
566.115	17490.6
566.477	17531.95
566.839	17605.4
567.201	17595.68
567.563	17635.45
567.925	17668.45
568.287	17698.5
568.648	17647.66
569.01	17744.38
569.372	17854.66
569.734	17684.04
570.095	17737.6
570.457	17879.52
570.819	17809.24
571.18	17941.21
571.542	17951.38
571.903	17945.95
572.265	18036.57
572.626	18062.34
572.987	18062.11
573.349	18019.85
573.71	18121.32
574.071	18129.9
574.432	18277.47
574.794	18258.71
575.155	18241.31
575.516	18152.95
575.877	18255.78
576.238	18243.57
576.599	18368.99
576.96	18358.6
577.32	18302.78
577.681	18345.72
578.042	18422.78
578.403	18376.23
578.763	18416.9
579.124	18322.67
579.485	18472.95
579.845	18512.95
580.206	18350.46
580.566	18424.81
580.927	18376.23
581.287	18422.78
581.648	18436.11
582.008	18583.23
582.368	18426.85
582.728	18514.53
583.089	18372.84
583.449	18334.87
583.809	18357.92
584.169	18502.32
584.529	18350.46
584.889	18515.66
585.249	18389.78
585.609	18443.79
585.969	18468.88
586.329	18421.65
586.688	18397.24
587.048	18456
587.408	18397.02
587.768	18287.41
588.127	18355.21
588.487	18359.28
588.846	18378.26
589.206	18217.13
589.565	18239.28
589.925	18322.89
590.284	18337.36
590.643	18310.46
591.003	18315.89
591.362	18317.24
591.721	18371.93
592.08	18402.21
592.44	18333.52
592.799	18351.37
593.158	18304.36
593.517	18259.39
593.876	18361.54
594.235	18253.52
594.593	18310.69
594.952	18276.12
595.311	18218.72
595.67	18246.96
596.029	18348.66
596.387	18272.95
596.746	18386.17
597.104	18286.06
597.463	18248.55
597.822	18298.71
598.18	18241.54
598.538	18217.36
598.897	18341.2
599.255	18184.82
599.613	18465.26
599.972	18308.43
600.33	18357.7
600.688	18293.29
601.046	18242.22
601.404	18351.37
601.762	18299.17
602.12	18453.29
602.478	18354.31
602.836	18277.25
603.194	18345.04
603.552	18334.19
603.91	18310.92
604.268	18365.83
604.625	18269.11
604.983	18433.4
605.341	18260.52
605.698	18363.34
606.056	18369.22
606.413	18377.13
606.771	18397.47
607.128	18465.04
607.485	18399.5
607.843	18352.05
608.2	18406.73
608.557	18578.93
608.914	18307.3
609.272	18505.94
609.629	18548.42
609.986	18682.66
610.343	18514.75
610.7	18625.94
611.057	18650.79
611.414	18586.16
611.771	18632.26
612.127	18668.65
612.484	18630.68
612.841	18712.49
613.198	18574.64
613.554	18619.16
613.911	18741.87
614.267	18755.88
614.624	18733.5
614.98	18769.44
615.337	18814.86
615.693	18872.71
616.05	18831.36
616.406	18900.51
616.762	18822.32
617.118	18807.63
617.475	18843.78
617.831	18919.71
618.187	18968.98
618.543	18973.05
618.899	18994.74
619.255	18955.19
619.611	18945.7
619.967	19152.48
620.323	19224.79
620.678	19053.95
621.034	19088.52
621.39	18897.57
621.746	18998.58
622.101	19226.37
622.457	19013.95
622.812	19059.6
623.168	19112.25
623.523	19151.8
623.879	19157.67
624.234	18975.31
624.589	19052.59
624.945	19110.9
625.3	19040.84
625.655	19165.13
626.01	19116.09
626.365	19153.15
626.72	19113.38
627.075	19054.4
627.43	19109.99
627.785	19077.68
628.14	19073.83
628.495	19120.84
628.85	19105.92
629.205	19067.28
629.559	19171.91
629.914	19113.83
630.269	19179.14
630.623	18977.79
630.978	18985.7
631.332	19135.53
631.687	19052.37
632.041	18965.14
632.396	18986.15
632.75	18992.93
633.104	19035.64
633.459	18815.99
633.813	18906.16
634.167	18884.01
634.521	18899.38
634.875	18876.78
635.229	18728.98
635.583	18690.79
635.937	18722.88
636.291	18750
636.645	18667.52
636.999	18656.67
637.352	18732.37
637.706	18620.97
638.06	18707.29
638.413	18572.6
638.767	18613.73
639.121	18619.61
639.474	18545.71
639.828	18500.29
640.181	18509.78
640.534	18535.54
640.888	18428.65
641.241	18525.6
641.594	18573.73
641.947	18453.29
642.301	18503
642.654	18476.11
643.007	18478.82
643.36	18417.13
643.713	18431.14
644.066	18534.19
644.419	18406.73
644.771	18332.61
645.124	18086.06
645.477	18135.33
645.83	18038.16
646.182	17868.89
646.535	17901.21
646.888	17842
647.24	17802
647.593	17845.17
647.945	17839.74
648.298	17726.07
648.65	17708.45
649.002	17672.97
649.355	17699.41
649.707	17642.46
650.059	17761.55
650.411	18132.62
650.763	17980.08
651.115	18197.25
651.467	18139.17
651.819	18224.14
652.171	18108.21
652.523	18260.52
652.875	18137.81
653.227	18126.06
653.578	18236.79
653.93	18163.58
654.282	18044.03
654.633	17998.38
654.985	18104.59
655.337	18124.48
655.688	18072.05
656.039	18126.29
656.391	18068.66
656.742	18077.93
657.094	18165.16
657.445	18156.57
657.796	18059.85
658.147	18091.26
658.498	18124.03
658.849	18112.73
659.2	18151.82
659.551	18040.42
659.902	18113.63
660.253	18180.75
660.604	18241.99
660.955	18127.42
661.306	18216.91
661.656	18140.3
662.007	18227.76
662.358	18088.55
662.708	18202.9
663.059	18145.72
663.409	18060.3
663.76	18187.76
664.11	18146.85
664.461	18258.71
664.811	18246.51
665.161	18214.65
665.511	18144.82
665.862	18212.39
666.212	18254.2
666.562	18270.01
666.912	18187.3
667.262	18204.03
667.612	18152.05
667.962	18196.34
668.312	18146.18
668.662	18214.65
669.011	18227.08
669.361	18161.54
669.711	18143.92
670.06	18061.21
670.41	18145.5
670.76	18104.37
671.109	18149.57
671.459	18052.39
671.808	18103.46
672.157	18079.28
672.507	18039.06
672.856	17995.22
673.205	18016.91
673.554	18064.6
673.904	17932.62
674.253	18027.76
674.602	18014.88
674.951	17771.5
675.3	17688.33
675.649	17908.44
675.998	17919.29
676.346	17925.84
676.695	17999.29
677.044	17824.83
677.393	17917.25
677.741	17989.8
678.09	17952.06
678.438	17863.92
678.787	17849.91
679.135	17728.56
679.484	17745.73
679.832	17805.62
680.181	17657.37
680.529	17754.55
680.877	17623.7
681.225	17597.72
681.573	17716.58
681.922	17550.94
682.27	17522.46
682.618	17585.06
682.966	17483.59
683.314	17453.09
683.661	17427.1
684.009	17276.37
684.357	17275.24
684.705	17327.21
685.053	17267.1
685.4	17252.64
685.748	17167.44
686.095	17096.26
686.443	17097.84
686.79	17075.24
687.138	17048.58
687.485	17134.68
687.832	16987.56
688.18	17016.04
688.527	16915.7
688.874	16861.69
689.221	16833.22
689.568	16811.52
689.915	16735.37
690.262	16721.13
690.609	16726.55
690.956	16541.02
691.303	16550.06
691.65	16565.88
691.997	16539.21
692.344	16412.89
692.69	16358.88
693.037	16318.88
693.383	16282.04
693.73	16200.92
694.077	16139.67
694.423	16162.95
694.769	16077.3
695.116	16066
695.462	16065.78
695.808	15962.73
696.155	15936.74
696.501	15768.61
696.847	15812.45
697.193	15652
697.539	15735.17
697.885	15480.93
698.231	15550.99
698.577	15576.75
698.923	15483.87
699.269	15430.54
699.614	15376.08
699.96	15206.37
700.306	15236.87
700.651	15213.6
700.997	15136.76
701.342	15165.69
701.688	15144.45
702.033	15013.83
702.379	14999.82
702.724	14958.91
703.069	15010.89
703.415	14825.36
703.76	14851.8
704.105	14811.8
704.45	14780.16
704.795	14673.72
705.14	14516.44
705.485	14542.43
705.83	14482.77
706.175	14565.48
706.52	14455.65
706.865	14373.85
707.209	14301.76
707.554	14336.11
707.899	14310.12
708.243	14245.94
708.588	14210.46
708.932	14095.89
709.277	14026.51
709.621	14073.51
709.966	13999.39
710.31	14082.78
710.654	13853.63
710.998	13913.07
711.342	13954.65
711.687	13875.33
712.031	13819.96
712.375	13857.47
712.719	13770.92
713.063	13739.96
713.407	13796.69
713.75	13734.77
714.094	13728.66
714.438	13648.21
714.782	13720.76
715.125	13552.62
715.469	13608.44
715.812	13483.02
716.156	13445.73
716.499	13443.93
716.843	13473.08
717.186	13344.95
717.53	13386.75
717.873	13327.09
718.216	13410.71
718.559	13319.18
718.902	13262.91
719.246	13271.28
719.589	13233.76
719.932	13177.72
720.275	13159.19
720.617	13155.57
720.96	13168.45
721.303	13133.43
721.646	13071.96
721.989	13063.6
722.331	13110.83
722.674	13011.62
723.016	13119.41
723.359	13063.37
723.701	13038.29
724.044	12987.44
724.386	12945.86
724.729	12955.35
725.071	12883.26
725.413	12936.37
725.755	12965.52
726.097	12942.02
726.439	12841.46
726.782	12890.95
727.124	12902.02
727.465	12803.27
727.807	12906.54
728.149	12833.32
728.491	12799.2
728.833	12754.68
729.175	12834.68
729.516	12749.71
729.858	12787.67
730.199	12773.89
730.541	12755.81
730.882	12759.65
731.224	12799.88
731.565	12711.29
731.906	12729.37
732.248	12798.29
732.589	12692.99
732.93	12636.72
733.271	12689.37
733.612	12730.27
733.953	12678.3
734.294	12705.87
734.635	12607.11
734.976	12680.78
735.317	12581.8
735.658	12669.26
735.999	12641.24
736.339	12660.22
736.68	12620.9
737.021	12700.67
737.361	12645.3
737.702	12696.6
738.042	12652.31
738.383	12682.82
738.723	12691.63
739.063	12683.95
739.404	12769.59
739.744	12730.05
740.084	12750.39
740.424	12740.67
740.764	12662.93
741.104	12745.41
741.444	12789.48
741.784	12830.83
742.124	12711.52
742.464	12795.13
742.804	12771.63
743.143	12739.09
743.483	12846.2
743.823	12728.69
744.162	12848.69
744.502	12891.85
744.841	12890.27
745.181	12934.79
745.52	12988.34
745.86	13024.5
746.199	13000.1
746.538	13049.81
746.877	13090.94
747.216	13081.45
747.556	13096.36
747.895	13197.6
748.234	13178.85
748.573	13261.33
748.911	13312.4
749.25	13370.93
749.589	13395.11
749.928	13454.1
750.267	13596.24
750.605	13639.18
750.944	13640.53
751.283	13680.76
751.621	13800.3
751.96	13870.58
752.298	13930.92
752.636	14091.82
752.975	14106.73
753.313	14147.18
753.651	14347.18
753.989	14408.87
754.327	14456.33
754.666	14537.68
755.004	14780.84
755.342	14826.04
755.679	14928.41
756.017	14919.59
756.355	15005.02
756.693	15080.95
757.031	15275.29
