Data from hue_22_FLMS001491_00034.txt Node
Date: Tue Feb 07 17:10:01 GMT 2017
User: dcchb
Spectrometer: FLMS00149
Trigger mode: 0
Integration Time (sec): 2.000000E-2
Scans to average: 10
Electric dark correction enabled: true
Nonlinearity correction enabled: false
Boxcar width: 0
XAxis mode: Wavelengths
Number of Pixels in Spectrum: 2048
>>>>>Begin Spectral Data<<<<<
341.393	-8.14
341.776	-8.14
342.16	-8.14
342.543	-69.38
342.927	-57.17
343.31	-68.02
343.693	-75.93
344.077	-81.58
344.46	-55.14
344.843	-61.92
345.226	-48.81
345.61	-37.74
345.993	-16.95
346.376	8.36
346.759	5.65
347.142	24.86
347.525	49.26
347.908	56.27
348.291	84.52
348.674	104.18
349.057	112.99
349.44	125.42
349.823	141.92
350.206	160
350.588	187.79
350.971	209.49
351.354	211.07
351.737	227.79
352.119	261.01
352.502	251.74
352.884	290.39
353.267	280.67
353.65	275.02
354.032	287.22
354.414	316.15
354.797	314.34
355.179	315.92
355.562	312.53
355.944	338.75
356.326	312.76
356.709	348.92
357.091	338.75
357.473	329.71
357.855	353.66
358.238	331.52
358.62	375.58
359.002	344.4
359.384	330.61
359.766	343.49
360.148	336.49
360.53	319.99
360.912	340.78
361.294	335.58
361.676	354.11
362.057	337.84
362.439	344.85
362.821	321.57
363.203	330.39
363.584	320.22
363.966	322.7
364.348	317.28
364.729	321.35
365.111	352.76
365.493	330.39
365.874	305.3
366.256	320.67
366.637	301.01
367.019	307.56
367.4	309.82
367.781	318.18
368.163	312.31
368.544	306.21
368.925	316.15
369.306	317.28
369.688	320.44
370.069	315.25
370.45	318.41
370.831	332.42
371.212	309.14
371.593	309.82
371.974	292.2
372.355	320.22
372.736	333.55
373.117	330.61
373.498	333.32
373.879	323.61
374.26	347.79
374.641	330.39
375.021	325.87
375.402	314.12
375.783	334.45
376.163	326.32
376.544	330.16
376.925	324.96
377.305	322.03
377.686	332.19
378.066	333.32
378.447	350.27
378.827	340.56
379.208	325.64
379.588	319.77
379.968	325.42
380.349	339.88
380.729	336.04
381.109	348.24
381.489	338.07
381.87	354.34
382.25	328.13
382.63	338.52
383.01	346.88
383.39	357.05
383.77	331.06
384.15	352.08
384.53	353.44
384.91	357.28
385.29	359.31
385.67	345.53
386.049	346.88
386.429	359.99
386.809	348.69
387.189	345.98
387.568	353.89
387.948	355.47
388.328	382.59
388.707	357.73
389.087	369.71
389.466	385.75
389.846	357.96
390.225	350.5
390.605	376.71
390.984	363.83
391.363	359.09
391.743	371.52
392.122	379.43
392.501	390.72
392.881	384.62
393.26	373.32
393.639	376.94
394.018	384.85
394.397	367.9
394.776	380.78
395.155	388.24
395.534	384.62
395.913	387.56
396.292	382.81
396.671	394.11
397.05	380.33
397.429	397.05
397.808	405.41
398.186	397.05
398.565	402.02
398.944	399.54
399.323	396.37
399.701	415.36
400.08	395.7
400.458	402.02
400.837	415.81
401.215	388.69
401.594	422.81
401.972	408.35
402.351	414.68
402.729	411.74
403.107	404.74
403.486	430.95
403.864	397.73
404.242	399.99
404.62	409.93
404.999	399.09
405.377	422.14
405.755	445.41
406.133	421.23
406.511	459.65
406.889	453.77
407.267	430.72
407.645	440.89
408.023	436.82
408.401	451.29
408.779	446.77
409.156	457.84
409.534	446.77
409.912	468.69
410.29	460.78
410.667	477.5
411.045	457.62
411.422	472.3
411.8	455.13
412.178	468.69
412.555	480.67
412.933	491.51
413.31	489.03
413.687	487.67
414.065	500.1
414.442	502.13
414.819	505.3
415.197	501
415.574	507.11
415.951	506.88
416.328	505.52
416.705	502.36
417.082	512.98
417.46	498.29
417.837	515.24
418.214	519.53
418.591	510.5
418.967	519.31
419.344	515.47
419.721	527.22
420.098	515.92
420.475	535.35
420.852	539.87
421.228	545.3
421.605	554.11
421.982	535.35
422.358	553.66
422.735	566.76
423.111	540.1
423.488	554.56
423.864	559.53
424.241	575.13
424.617	578.06
424.994	558.86
425.37	577.39
425.746	592.07
426.123	588.23
426.499	595.46
426.875	611.96
427.251	597.05
427.627	605.18
428.003	600.21
428.379	607.22
428.756	606.09
429.132	621.9
429.507	630.49
429.883	632.07
430.259	635.92
430.635	636.14
431.011	644.05
431.387	665.52
431.763	672.98
432.138	659.42
432.514	659.64
432.89	650.83
433.265	682.69
433.641	666.65
434.016	691.06
434.392	700.09
434.767	696.93
435.143	726.76
435.518	737.38
435.894	724.73
436.269	727.66
436.644	729.7
437.02	759.3
437.395	744.39
437.77	728.34
438.145	734.22
438.52	765.63
438.895	778.06
439.271	775.35
439.646	792.97
440.021	786.19
440.395	784.16
440.77	760.21
441.145	787.78
441.52	790.71
441.895	793.43
442.27	805.85
442.645	796.59
443.019	793.2
443.394	822.13
443.769	814.22
444.143	825.52
444.518	839.3
444.892	841.56
445.267	850.37
445.641	834.33
446.016	851.5
446.39	842.69
446.764	878.62
447.139	856.02
447.513	846.08
447.887	855.34
448.262	863.71
448.636	865.74
449.01	879.75
449.384	909.58
449.758	897.38
450.132	886.53
450.506	925.17
450.88	927.43
451.254	909.13
451.628	907.55
452.002	936.92
452.376	947.55
452.75	937.83
453.123	935.79
453.497	973.99
453.871	951.39
454.244	976.25
454.618	980.31
454.992	1014.21
455.365	1006.98
455.739	1025.74
456.112	1039.29
456.486	1036.81
456.859	1042.91
457.232	1073.42
457.606	1057.37
457.979	1046.3
458.352	1073.87
458.725	1109.8
459.099	1103.93
459.472	1157.94
459.845	1133.98
460.218	1132.63
460.591	1153.87
460.964	1161.1
461.337	1181.21
461.71	1180.31
462.083	1217.14
462.456	1221.89
462.829	1245.17
463.201	1246.52
463.574	1245.16
463.947	1267.99
464.32	1277.03
464.692	1298.5
465.065	1339.63
465.438	1310.02
465.81	1314.54
466.183	1337.59
466.555	1367.2
466.928	1359.06
467.3	1406.29
467.672	1399.29
468.045	1413.97
468.417	1437.02
468.789	1467.98
469.161	1482.45
469.534	1485.84
469.906	1528.32
470.278	1550.24
470.65	1544.82
471.022	1569.9
471.394	1589.56
471.766	1620.97
472.138	1622.78
472.51	1667.98
472.882	1664.14
473.253	1724.93
473.625	1738.71
473.997	1814.87
474.369	1789.56
474.74	1812.16
475.112	1852.83
475.484	1900.52
475.855	1896.45
476.227	1940.51
476.598	1975.09
476.97	1973.28
477.341	2060.28
477.713	2100.28
478.084	2083.34
478.455	2144.12
478.827	2180.96
479.198	2252.6
479.569	2240.39
479.94	2294.4
480.311	2339.37
480.682	2399.71
481.053	2466.6
481.424	2474.96
481.795	2491.46
482.166	2532.59
482.537	2573.49
482.908	2714.73
483.279	2672.47
483.65	2746.37
484.021	2779.36
484.391	2830.21
484.762	2864.56
485.133	2886.7
485.503	2985.68
485.874	3028.62
486.244	3038.34
486.615	3142.29
486.985	3149.97
487.356	3184.78
487.726	3271.33
488.097	3295.73
488.467	3341.83
488.837	3424.77
489.207	3466.58
489.578	3495.5
489.948	3509.96
490.318	3603.07
490.688	3598.1
491.058	3683.07
491.428	3717.64
491.798	3765.1
492.168	3843.06
492.538	3858.88
492.908	3916.06
493.278	3930.07
493.648	4006.67
494.017	4077.18
494.387	4086.45
494.757	4145.2
495.126	4203.96
495.496	4214.58
495.866	4235.59
496.235	4270.85
496.605	4332.77
496.974	4368.02
497.344	4380.45
497.713	4421.13
498.082	4443.95
498.452	4546.77
498.821	4525.53
499.19	4579.31
499.559	4592.2
499.928	4625.19
500.298	4676.04
500.667	4721.91
501.036	4695.92
501.405	4712.42
501.774	4718.97
502.143	4836.26
502.512	4835.58
502.88	4877.84
503.249	4897.72
503.618	4916.71
503.987	4951.73
504.356	4977.04
504.724	4970.04
505.093	4954.9
505.462	4990.38
505.83	5102.01
506.199	5105.85
506.567	5154.67
506.936	5143.37
507.304	5169.81
507.672	5219.98
508.041	5240.77
508.409	5311.95
508.777	5325.06
509.145	5350.14
509.514	5332.97
509.882	5366.41
510.25	5432.4
510.618	5441.44
510.986	5498.84
511.354	5536.58
511.722	5540.42
512.09	5583.36
512.458	5538.61
512.826	5663.58
513.193	5617.48
513.561	5637.59
513.929	5715.1
514.297	5739.06
514.664	5770.92
515.032	5755.1
515.4	5845.95
515.767	5800.3
516.135	5842.78
516.502	5859.96
516.869	5985.15
517.237	5941.09
517.604	5955.78
517.972	6027.64
518.339	6023.34
518.706	5997.58
519.073	6053.17
519.44	6068.32
519.808	6139.5
520.175	6107.41
520.542	6184.92
520.909	6218.82
521.276	6193.51
521.643	6292.72
522.009	6266.5
522.376	6311.25
522.743	6347.4
523.11	6383.79
523.477	6436.21
523.843	6512.82
524.21	6548.08
524.577	6568.41
524.943	6622.65
525.31	6676.66
525.676	6636.66
526.043	6712.59
526.409	6752.36
526.776	6861.06
527.142	6795.98
527.508	6856.99
527.874	6868.52
528.241	6932.25
528.607	6972.47
528.973	7044.56
529.339	7035.07
529.705	7061.28
530.071	7050.89
530.437	7161.17
530.803	7161.39
531.169	7264.67
531.535	7190.55
531.901	7254.95
532.267	7270.54
532.632	7350.54
532.998	7376.53
533.364	7420.6
533.73	7465.57
534.095	7484.55
534.461	7553.02
534.826	7554.83
535.192	7543.08
535.557	7600.03
535.923	7599.57
536.288	7706.24
536.653	7659.69
537.019	7716.63
537.384	7677.31
537.749	7746.01
538.114	7808.16
538.479	7784.2
538.845	7829.17
539.21	7832.11
539.575	7878.21
539.94	7942.39
540.305	8009.28
540.67	7994.82
541.034	7977.64
541.399	8072.1
541.764	8077.75
542.129	8136.28
542.494	8117.75
542.858	8134.25
543.223	8160.46
543.587	8309.84
543.952	8263.29
544.316	8277.3
544.681	8298.54
545.045	8324.3
545.41	8413.79
545.774	8412.43
546.138	8396.39
546.503	8513
546.867	8477.52
547.231	8592.32
547.595	8617.17
547.959	8618.3
548.324	8625.76
548.688	8618.53
549.052	8684.97
549.416	8696.27
549.779	8781.46
550.143	8736.04
550.507	8782.59
550.871	8847.68
551.235	8835.7
551.599	8881.12
551.962	8889.94
552.326	9005.19
552.689	8943.49
553.053	8967.45
553.417	9026.66
553.78	9130.16
554.143	9031.4
554.507	9215.8
554.87	9164.96
555.234	9263.71
555.597	9189.14
555.96	9214.45
556.323	9309.13
556.686	9323.6
557.05	9375.35
557.413	9433.88
557.776	9447.21
558.139	9457.38
558.502	9444.27
558.865	9455.34
559.228	9500.99
559.59	9605.17
559.953	9542.12
560.316	9749.35
560.679	9667.09
561.041	9685.4
561.404	9816.92
561.767	9798.16
562.129	9771.72
562.492	9898.27
562.854	9870.47
563.217	9921.55
563.579	9928.33
563.941	9975.1
564.304	10001.77
564.666	10084.48
565.028	10053.52
565.39	10137.13
565.753	10235.89
566.115	10224.14
566.477	10214.87
566.839	10248.32
567.201	10335.32
567.563	10346.39
567.925	10451.7
568.287	10424.81
568.648	10448.54
569.01	10576.45
569.372	10528.31
569.734	10567.86
570.095	10660.51
570.457	10680.85
570.819	10675.43
571.18	10663.45
571.542	10827.51
571.903	10846.49
572.265	10921.52
572.626	10915.19
572.987	11011.46
573.349	11040.84
573.71	11121.97
574.071	11137.56
574.432	11244
574.794	11343.2
575.155	11320.38
575.516	11355.63
575.877	11389.98
576.238	11559.92
576.599	11619.58
576.96	11556.76
577.32	11723.99
577.681	11768.73
578.042	11890.31
578.403	11916.3
578.763	11919.69
579.124	12159
579.485	12154.03
579.845	12300.02
580.206	12374.36
580.566	12539.78
580.927	12667.24
581.287	12753.56
581.648	12853.22
582.008	13058.64
582.368	13139.77
582.728	13248.24
583.089	13424.05
583.449	13548.57
583.809	13689.36
584.169	13963.02
584.529	13899.3
584.889	14202.56
585.249	14332.28
585.609	14477.81
585.969	14766.17
586.329	14910.12
586.688	15198.7
587.048	15314.17
587.408	15514.17
587.768	15703.77
588.127	15931.56
588.487	16192.79
588.846	16494.71
589.206	16625.1
589.565	16914.58
589.925	17219.43
590.284	17437.96
590.643	17663.26
591.003	17896.25
591.362	18270.48
591.721	18485.84
592.08	18835.89
592.44	19120.4
592.799	19435.2
593.158	19710.67
593.517	20083.99
593.876	20343.87
594.235	20512.68
594.593	20864.54
594.952	21261.59
595.311	21318.54
595.67	21743.84
596.029	22098.4
596.387	22405.96
596.746	22670.59
597.104	22956.46
597.463	23259.05
597.822	23671.47
598.18	23885.7
598.538	24178.57
598.897	24606.58
599.255	24654.27
599.613	25319.56
599.972	25503.51
600.33	25751.87
600.688	25954.35
601.046	26415.8
601.404	26875.23
601.762	27103.69
602.12	27397.47
602.478	27752.94
602.836	28107.06
603.194	28090.56
603.552	28620.04
603.91	28739.36
604.268	29115.62
604.625	29394.26
604.983	29657.75
605.341	29850.74
605.698	30179.77
606.056	30528.01
606.413	30742.02
606.771	31124.61
607.128	31348.55
607.485	31580.41
607.843	31836.23
608.2	32254.75
608.557	32482.54
608.914	32668.29
609.272	32912.81
609.629	33116.42
609.986	33462.62
610.343	33713.92
610.7	34041.14
611.057	34193.68
611.414	34454.91
611.771	34705.08
612.127	34997.05
612.484	35081.56
612.841	35359.52
613.198	35466.41
613.554	35640.19
613.911	36107.3
614.267	36248.99
614.624	36333.73
614.98	36580.51
615.337	36865.92
615.693	37046.94
616.05	37254.16
616.406	37576.41
616.762	37436.76
617.118	37702.06
617.475	37970.3
617.831	38114.93
618.187	38189.96
618.543	38390.85
618.899	38631.53
619.255	38724.63
619.611	38963.5
619.967	39227.22
620.323	39332.98
620.678	39374.33
621.034	39470.37
621.39	39516.7
621.746	39730.71
622.101	39969.8
622.457	39834.66
622.812	40138.15
623.168	40379.05
623.523	40413.85
623.879	40570.91
624.234	40466.73
624.589	40660.85
624.945	40712.6
625.3	40894.52
625.655	40866.5
626.01	41073.5
626.365	41111.91
626.72	41053.84
627.075	41140.16
627.43	41199.82
627.785	41222.87
628.14	41233.27
628.495	41535.18
628.85	41475.52
629.205	41543.99
629.559	41784.44
629.914	41520.26
630.269	41746.92
630.623	41674.16
630.978	41765.91
631.332	41850.88
631.687	42007.71
632.041	41853.81
632.396	42010.42
632.75	41993.7
633.104	42040.25
633.459	41903.98
633.813	41831.89
634.167	42019.23
634.521	42105.33
634.875	42188.95
635.229	42074.6
635.583	41928.39
635.937	42040.02
636.291	42014.26
636.645	42160.25
636.999	42089.97
637.352	42058.33
637.706	41960.93
638.06	42129.97
638.413	41901.27
638.767	42144.65
639.121	42167.93
639.474	41928.39
639.828	41945.34
640.181	42055.84
640.534	42068.05
640.888	41988.27
641.241	41864.44
641.594	42042.74
641.947	42070.53
642.301	42092.23
642.654	42003.87
643.007	42103.98
643.36	42123.41
643.713	41966.13
644.066	42136.97
644.419	41852.46
644.771	41652.01
645.124	41372.25
645.477	41248.18
645.83	41121.4
646.182	40893.61
646.535	40861.52
646.888	40945.36
647.24	40698.14
647.593	40978.36
647.945	40998.24
648.298	40622.66
648.65	40604.58
649.002	40666.28
649.355	40732.04
649.707	40710.79
650.059	40913.73
650.411	41254.51
650.763	41275.3
651.115	41733.14
651.467	41558.46
651.819	41670.77
652.171	41600.94
652.523	41494.95
652.875	41572.24
653.227	41437.55
653.578	41637.32
653.93	41533.37
654.282	41460.38
654.633	41329.76
654.985	41604.1
655.337	41334.28
655.688	41430.78
656.039	41502.19
656.391	41202.98
656.742	41249.76
657.094	41381.96
657.445	41513.48
657.796	41393.49
658.147	41453.83
658.498	41282.53
658.849	41337.22
659.2	41309.87
659.551	41291.57
659.902	41401.17
660.253	41296.77
660.604	41385.13
660.955	41136.77
661.306	41291.57
661.656	41242.76
662.007	41355.97
662.358	41265.58
662.708	41280.95
663.059	41318.24
663.409	41047.73
663.76	41325.24
664.11	41324.79
664.461	41401.62
664.811	41346.26
665.161	41255.41
665.511	41129.31
665.862	41243.66
666.212	41329.08
666.562	41220.39
666.912	41094.29
667.262	41090.45
667.612	41070.78
667.962	41226.94
668.312	41100.84
668.662	41253.15
669.011	41136.77
669.361	41106.26
669.711	41114.85
670.06	41050.9
670.41	41013.84
670.76	40972.26
671.109	41096.32
671.459	40988.75
671.808	40958.25
672.157	41090.9
672.507	40826.27
672.856	40857.46
673.205	40877.8
673.554	41108.07
673.904	40903.33
674.253	41071.69
674.602	40902.2
674.951	40473.06
675.3	40295.44
675.649	40923.9
675.998	40744.24
676.346	40755.31
676.695	40916.21
677.044	40645.26
677.393	40835.08
677.741	40755.99
678.09	40763
678.438	40660.4
678.787	40627.86
679.135	40754.41
679.484	40388.54
679.832	40638.03
680.181	40275.78
680.529	40450.46
680.877	40372.5
681.225	40253.63
681.573	40431.25
681.922	40050.47
682.27	40181.32
682.618	40219.96
682.966	40012.28
683.314	40096.12
683.661	39979.06
684.009	39822.91
684.357	39628.34
684.705	39718.28
685.053	39727.09
685.4	39692.29
685.748	39441.9
686.095	39501.56
686.443	39448.68
686.79	39389.7
687.138	39506.98
687.485	39537.27
687.832	39321
688.18	39382.02
688.527	39084.85
688.874	39000.1
689.221	38937.06
689.568	38977.28
689.915	38738.42
690.262	38811.86
690.609	38590.85
690.956	38552.43
691.303	38562.15
691.65	38398.54
691.997	38342.04
692.344	38202.84
692.69	38163.52
693.037	38237.41
693.383	37950.41
693.73	38011.66
694.077	37737.76
694.423	37846.91
694.769	37698.9
695.116	37675.85
695.462	37552.46
695.808	37449.64
696.155	37502.74
696.501	37279.47
696.847	37359.24
697.193	37130.32
697.539	37234.28
697.885	36744.34
698.231	36865.92
698.577	36773.04
698.923	36811.01
699.269	36641.97
699.614	36358.14
699.96	36323.56
700.306	36291.02
700.651	36168.31
700.997	36035.89
701.342	35970.58
701.688	36013.29
702.033	35822.33
702.379	35919.06
702.724	35709.8
703.069	35844.71
703.415	35416.24
703.76	35519.52
704.105	35396.58
704.45	35320.2
704.795	35205.4
705.14	35053.54
705.485	35106.2
705.83	34855.58
706.175	34930.38
706.52	34913.66
706.865	34721.12
707.209	34723.61
707.554	34520.45
707.899	34680.44
708.243	34479.09
708.588	34440.9
708.932	34150.06
709.277	34160.46
709.621	34165.66
709.966	33893.8
710.31	33948.26
710.654	33717.76
710.998	33767.47
711.342	33609.06
711.687	33690.19
712.031	33491.32
712.375	33545.33
712.719	33479.8
713.063	33354.38
713.407	33587.37
713.75	33382.85
714.094	33247.49
714.438	33075.06
714.782	33256.3
715.125	33099.24
715.469	33113.25
715.812	32913.03
716.156	32826.26
716.499	32823.32
716.843	32810.89
717.186	32545.58
717.53	32861.96
717.873	32643.89
718.216	32593.04
718.559	32542.2
718.902	32374.06
719.246	32336.78
719.589	32283.44
719.932	32173.17
720.275	32179.27
720.617	32100.85
720.96	32091.81
721.303	31965.49
721.646	32134.07
721.989	31818.6
722.331	31852.72
722.674	31812.5
723.016	31832.61
723.359	31682.1
723.701	31666.96
724.044	31659.51
724.386	31459.06
724.729	31513.75
725.071	31412.73
725.413	31467.42
725.755	31551.26
726.097	31203.93
726.439	31121.89
726.782	31084.83
727.124	31255.9
727.465	31105.4
727.807	30972.52
728.149	30915.35
728.491	30937.94
728.833	30902.69
729.175	30793.54
729.516	30853.65
729.858	30807.55
730.199	30817.95
730.541	30746.31
730.882	30567.11
731.224	30770.72
731.565	30513.55
731.906	30617.73
732.248	30565.52
732.589	30298.86
732.93	30347
733.271	30343.61
733.612	30429.48
733.953	30352.87
734.294	30280.79
734.635	30082.82
734.976	30166.66
735.317	29988.59
735.658	30007.57
735.999	30175.7
736.339	29995.37
736.68	30075.37
737.021	29903.17
737.361	29810.06
737.702	29887.58
738.042	29852.55
738.383	29716.73
738.723	29829.05
739.063	29644.42
739.404	29667.92
739.744	29716.73
740.084	29533.69
740.424	29596.51
740.764	29624.98
741.104	29521.94
741.444	29365.1
741.784	29351.54
742.124	29384.09
742.464	29352.9
742.804	29291.21
743.143	29169.63
743.483	29279.68
743.823	29130.53
744.162	29105.22
744.502	29168.05
744.841	28956.98
745.181	28979.8
745.52	28989.97
745.86	29008.28
746.199	28976.64
746.538	28865.91
746.877	28941.16
747.216	28815.29
747.556	28759.92
747.895	28838.11
748.234	28666.82
748.573	28575.97
748.911	28658.23
749.25	28636.54
749.589	28456.2
749.928	28485.13
750.267	28567.61
750.605	28506.14
750.944	28273.15
751.283	28314.51
751.621	28324.9
751.96	28112.26
752.298	28113.16
752.636	28202.42
752.975	28058.47
753.313	27953.39
753.651	28148.86
753.989	27896.89
754.327	27870.68
754.666	27697.35
755.004	27847.63
755.342	27865.03
755.679	27763.56
756.017	27484.02
756.355	27693.74
756.693	27493.97
757.031	27622.78
757.368	27515.66
757.706	27276.34
758.044	27182.79
758.381	27267.08
758.719	27142.34
759.056	27199.74
759.394	27138.27
759.731	26907.99
