Data from hue_00_FLMS001491_93.txt Node
Date: Mon Feb 06 15:30:41 GMT 2017
User: dcchb
Spectrometer: FLMS00149
Trigger mode: 0
Integration Time (sec): 2.000000E-2
Scans to average: 10
Electric dark correction enabled: true
Nonlinearity correction enabled: false
Boxcar width: 0
XAxis mode: Wavelengths
Number of Pixels in Spectrum: 2048
>>>>>Begin Spectral Data<<<<<
341.393	-25.56
341.776	-25.56
342.16	-25.56
342.543	-75.51
342.927	-54.04
343.31	-59.01
343.693	-58.33
344.077	-86.13
344.46	-56.98
344.843	-55.39
345.226	-50.87
345.61	-36.86
345.993	-18.33
346.376	11.95
346.759	4.04
347.142	20.54
347.525	39.74
347.908	66.41
348.291	67.31
348.674	85.39
349.057	126.52
349.44	134.88
349.823	136.01
350.206	151.15
350.588	178.95
350.971	217.14
351.354	230.47
351.737	202.45
352.119	262.11
352.502	259.4
352.884	287.2
353.267	263.24
353.65	285.61
354.032	295.78
354.414	304.14
354.797	319.06
355.179	316.57
355.562	325.39
355.944	322
356.326	325.39
356.709	340.98
357.091	324.03
357.473	319.06
357.855	348.21
358.238	352.5
358.62	345.05
359.002	326.52
359.384	351.37
359.766	338.72
360.148	345.73
360.53	350.47
360.912	342.11
361.294	321.09
361.676	329.68
362.057	322.68
362.439	333.07
362.821	319.29
363.203	332.17
363.584	325.39
363.966	337.14
364.348	309.34
364.729	306.63
365.111	307.08
365.493	306.63
365.874	321.77
366.256	298.27
366.637	322.22
367.019	320.19
367.4	309.57
367.781	294.88
368.163	295.11
368.544	304.82
368.925	322.22
369.306	306.18
369.688	306.18
370.069	304.6
370.45	309.12
370.831	322
371.212	327.65
371.593	303.24
371.974	309.57
372.355	297.59
372.736	284.94
373.117	315.67
373.498	312.96
373.879	312.73
374.26	319.29
374.641	325.16
375.021	307.99
375.402	303.47
375.783	317.7
376.163	320.19
376.544	345.95
376.925	309.34
377.305	314.77
377.686	326.52
378.066	324.03
378.447	313.64
378.827	312.96
379.208	334.88
379.588	325.84
379.968	337.14
380.349	328.78
380.729	327.87
381.109	317.93
381.489	342.79
381.87	317.25
382.25	347.31
382.63	327.19
383.01	343.92
383.39	315.67
383.77	359.74
384.15	329.68
384.53	329.45
384.91	345.73
385.29	341.43
385.67	329.91
386.049	361.54
386.429	350.92
386.809	354.09
387.189	347.53
387.568	350.7
387.948	356.57
388.328	347.76
388.707	334.65
389.087	342.79
389.466	332.39
389.846	347.53
390.225	343.69
390.605	355.67
390.984	369
391.363	343.92
391.743	349.34
392.122	362.45
392.501	327.87
392.881	340.08
393.26	371.94
393.639	368.78
394.018	364.26
394.397	356.57
394.776	362
395.155	366.29
395.534	373.3
395.913	359.51
396.292	367.65
396.671	368.55
397.05	378.49
397.429	370.36
397.808	370.58
398.186	366.29
398.565	375.56
398.944	368.55
399.323	358.61
399.701	380.75
400.08	378.27
400.458	390.7
400.837	364.03
401.215	364.93
401.594	391.37
401.972	401.54
402.351	378.04
402.729	360.19
403.107	393.63
403.486	389.79
403.864	414.42
404.242	393.86
404.62	386.85
404.999	398.38
405.377	397.7
405.755	416.23
406.133	419.62
406.511	404.03
406.889	402.45
407.267	411.49
407.645	392.73
408.023	402
408.401	419.62
408.779	443.8
409.156	426.18
409.534	421.43
409.912	451.26
410.29	452.84
410.667	431.6
411.045	447.87
411.422	425.05
411.8	450.13
412.178	466.4
412.555	444.48
412.933	444.03
413.31	435.44
413.687	449.9
414.065	474.99
414.442	458.72
414.819	465.04
415.197	466.63
415.574	463.69
415.951	473.18
416.328	469.56
416.705	464.14
417.082	468.21
417.46	501.88
417.837	490.81
418.214	488.77
418.591	509.34
418.967	494.65
419.344	496.91
419.721	497.81
420.098	484.03
420.475	490.81
420.852	515.21
421.228	493.74
421.605	501.88
421.982	515.21
422.358	548.43
422.735	510.01
423.111	542.56
423.488	519.96
423.864	540.07
424.241	528.32
424.617	532.61
424.994	527.42
425.37	533.29
425.746	532.16
426.123	563.57
426.499	545.27
426.875	543.01
427.251	553.4
427.627	558.15
428.003	553.4
428.379	562.89
428.756	598.15
429.132	569.67
429.507	591.82
429.883	590.92
430.259	594.31
430.635	566.28
431.011	605.15
431.387	613.97
431.763	605.61
432.138	594.98
432.514	606.74
432.89	638.15
433.265	621.88
433.641	644.93
434.016	635.44
434.392	642.67
434.767	652.84
435.143	654.87
435.518	656.9
435.894	670.91
436.269	658.49
436.644	653.51
437.02	681.76
437.395	685.6
437.77	673.4
438.145	714.53
438.52	681.31
438.895	680.86
439.271	712.5
439.646	729.22
440.021	686.51
440.395	733.74
440.77	728.99
441.145	714.08
441.52	737.35
441.895	735.09
442.27	740.29
442.645	724.47
443.019	741.42
443.394	759.73
443.769	766.28
444.143	759.27
444.518	754.75
444.892	765.38
445.267	747.07
445.641	762.44
446.016	781.42
446.39	794.3
446.764	797.92
447.139	793.4
447.513	816
447.887	808.09
448.262	815.54
448.636	804.02
449.01	824.58
449.384	812.15
449.758	835.66
450.132	842.21
450.506	819.84
450.88	851.7
451.254	834.75
451.628	843.34
452.002	835.43
452.376	852.6
452.75	873.17
453.123	859.16
453.497	868.2
453.871	876.78
454.244	891.93
454.618	884.24
454.992	917.69
455.365	893.28
455.739	909.78
456.112	910.91
456.486	931.47
456.859	938.03
457.232	979.61
457.606	953.39
457.979	951.36
458.352	983
458.725	953.62
459.099	995.88
459.472	975.99
459.845	1015.09
460.218	1048.53
460.591	999.49
460.964	1036.78
461.337	1047.4
461.71	1047.85
462.083	1036.78
462.456	1092.6
462.829	1089.89
463.201	1078.14
463.574	1062.54
463.947	1089.89
464.32	1139.38
464.692	1138.7
465.065	1135.99
465.438	1135.31
465.81	1162.2
466.183	1188.42
466.555	1186.61
466.928	1203.33
467.3	1186.61
467.672	1224.57
468.045	1218.47
468.417	1244.91
468.789	1277.23
469.161	1274.97
469.534	1286.04
469.906	1313.38
470.278	1338.69
470.65	1316.1
471.022	1352.7
471.394	1403.55
471.766	1392.25
472.138	1422.76
472.51	1426.15
472.882	1448.3
473.253	1515.41
473.625	1484.68
473.997	1508.18
474.369	1525.36
474.74	1568.07
475.112	1585.47
475.484	1585.01
475.855	1639.25
476.227	1659.82
476.598	1664.56
476.97	1703.66
477.341	1736.88
477.713	1758.57
478.084	1778.91
478.455	1814.61
478.827	1843.31
479.198	1881.96
479.569	1865.01
479.94	1959.47
480.311	1974.16
480.682	2008.05
481.053	2059.13
481.424	2103.42
481.795	2101.84
482.166	2102.29
482.537	2159.46
482.908	2206.69
483.279	2217.31
483.65	2300.02
484.021	2321.04
484.391	2362.62
484.762	2390.42
485.133	2412.79
485.503	2417.76
485.874	2502.05
486.244	2507.25
486.615	2582.95
486.985	2597.19
487.356	2619.11
487.726	2665.89
488.097	2705.44
488.467	2739.33
488.837	2754.02
489.207	2829.5
489.578	2843.29
489.948	2890.52
490.318	2915.38
490.688	2949.95
491.058	3018.65
491.428	3051.42
491.798	3057.52
492.168	3103.62
492.538	3144.97
492.908	3195.37
493.278	3214.8
493.648	3224.29
494.017	3289.83
494.387	3315.14
494.757	3340.67
495.126	3365.08
495.496	3396.27
495.866	3469.03
496.235	3514.68
496.605	3487.79
496.974	3510.39
497.344	3564.85
497.713	3563.72
498.082	3632.87
498.452	3636.49
498.821	3668.58
499.19	3671.97
499.559	3702.02
499.928	3760.78
500.298	3758.07
500.667	3785.63
501.036	3775.69
501.405	3825.41
501.774	3842.36
502.143	3901.79
502.512	3869.25
502.88	3938.17
503.249	4001.45
503.618	3996.48
503.987	3968.68
504.356	4008
504.724	3983.37
505.093	4037.61
505.462	4073.99
505.83	4072.18
506.199	4133.65
506.567	4156.47
506.936	4123.71
507.304	4208.45
507.672	4216.36
508.041	4197.83
508.409	4236.47
508.777	4259.29
509.145	4294.1
509.514	4330.25
509.882	4298.39
510.25	4353.3
510.618	4367.77
510.986	4318.5
511.354	4452.06
511.722	4424.04
512.09	4475.11
512.458	4453.41
512.826	4515.11
513.193	4471.94
513.561	4513.3
513.929	4539.29
514.297	4566.41
514.664	4567.31
515.032	4616.35
515.4	4645.95
515.767	4604.82
516.135	4657.02
516.502	4639.85
516.869	4696.35
517.237	4734.76
517.604	4693.41
517.972	4750.36
518.339	4755.1
518.706	4761.43
519.073	4745.38
519.44	4789.22
519.808	4831.71
520.175	4840.3
520.542	4869.9
520.909	4901.76
521.276	4911.48
521.643	4918.03
522.009	4920.29
522.376	5024.92
522.743	5005.72
523.11	5044.13
523.477	5031.7
523.843	5072.38
524.21	5102.21
524.577	5188.31
524.943	5170.68
525.31	5225.6
525.676	5274.18
526.043	5269.21
526.409	5303.34
526.776	5327.97
527.142	5303.34
527.508	5387.17
527.874	5400.28
528.241	5396.44
528.607	5459.04
528.973	5480.51
529.339	5454.52
529.705	5532.26
530.071	5536.1
530.437	5571.35
530.803	5653.61
531.169	5668.07
531.535	5656.77
531.901	5671.46
532.267	5694.51
532.632	5807.95
532.998	5717.56
533.364	5753.04
533.73	5828.07
534.095	5822.64
534.461	5824
534.826	5842.98
535.192	5854.06
535.557	5938.12
535.923	5939.25
536.288	6002.53
536.653	5989.87
537.019	6014.05
537.384	5998.68
537.749	6095.63
538.114	6113.26
538.479	6136.08
538.845	6146.93
539.21	6093.37
539.575	6138.12
539.94	6143.31
540.305	6192.58
540.67	6229.64
541.034	6272.8
541.399	6249.52
541.764	6320.48
542.129	6292.46
542.494	6350.99
542.858	6419.69
543.223	6375.62
543.587	6463.3
543.952	6504.21
544.316	6415.85
544.681	6469.18
545.045	6522.06
545.41	6588.95
545.774	6604.09
546.138	6556.41
546.503	6633.92
546.867	6678.44
547.231	6658.33
547.595	6654.49
547.959	6724.77
548.324	6750.3
548.688	6757.53
549.052	6763.41
549.416	6773.58
549.779	6826.46
550.143	6819.91
550.507	6858.77
550.871	6901.71
551.235	6892.9
551.599	6889.51
551.962	6989.17
552.326	6918.21
552.689	7004.08
553.053	6993.91
553.417	7017.64
553.78	7090.18
554.143	7086.34
554.507	7141.25
554.87	7129.05
555.234	7190.52
555.597	7206.79
555.96	7186.9
556.323	7254.7
556.686	7264.87
557.05	7297.18
557.413	7267.8
557.776	7331.08
558.139	7359.78
558.502	7358.2
558.865	7400.23
559.228	7384.86
559.59	7445.65
559.953	7464.41
560.316	7530.17
560.679	7543.95
561.041	7609.04
561.404	7611.52
561.767	7634.8
562.129	7593.22
562.492	7690.84
562.854	7760.67
563.217	7663.73
563.579	7761.12
563.941	7790.5
564.304	7804.06
564.666	7854.91
565.028	7812.65
565.39	7909.82
565.753	7903.27
566.115	7941.68
566.477	7951.4
566.839	7944.62
567.201	8011.74
567.563	8039.31
567.925	8054.45
568.287	8085.41
568.648	8100.32
569.01	8139.42
569.372	8193.2
569.734	8203.6
570.095	8245.63
570.457	8248.57
570.819	8315.91
571.18	8371.73
571.542	8404.5
571.903	8438.62
572.265	8515.68
572.626	8567.66
572.987	8540.31
573.349	8573.76
573.71	8687.2
574.071	8658.95
574.432	8712.96
574.794	8819.85
575.155	8846.74
575.516	8902.11
575.877	8911.38
576.238	8972.39
576.599	9074.08
576.96	9100.3
577.32	9155.21
577.681	9188.2
578.042	9271.59
578.403	9352.27
578.763	9468.88
579.124	9569.44
579.485	9658.93
579.845	9711.58
580.206	9850.79
580.566	9893.04
580.927	9987.05
581.287	10116.09
581.648	10147.28
582.008	10352.92
582.368	10459.81
582.728	10590.2
583.089	10621.39
583.449	10817.99
583.809	10972.56
584.169	11125.1
584.529	11190.41
584.889	11469.95
585.249	11497.3
585.609	11701.58
585.969	11939.09
586.329	12052.08
586.688	12186.32
587.048	12437.61
587.408	12660.66
587.768	12782.46
588.127	13056.58
588.487	13236.23
588.846	13478.71
589.206	13631.25
589.565	13839.38
589.925	14084.35
590.284	14289.54
590.643	14569.08
591.003	14807.72
591.362	15066.92
591.721	15329.74
592.08	15490.86
592.44	15811.99
592.799	16054.46
593.158	16248.81
593.517	16505.75
593.876	16823.48
594.235	17105.74
594.593	17267.09
594.952	17554.76
595.311	17756.57
595.67	18170.34
596.029	18435.87
596.387	18609.88
596.746	19041.05
597.104	19110.66
597.463	19366.02
597.822	19848.49
598.18	19864.99
598.538	20251.87
598.897	20648.69
599.255	20662.03
599.613	21227.89
599.972	21363.25
600.33	21571.16
600.688	21822
601.046	22224.47
601.404	22436.44
601.762	22615.2
602.12	23056.54
602.478	23273.71
602.836	23448.39
603.194	23515.74
603.552	23826.92
603.91	23996.85
604.268	24446.33
604.625	24448.37
604.983	24967
605.341	24997.73
605.698	25356.37
606.056	25573.08
606.413	25727.2
606.771	25996.35
607.128	26366.06
607.485	26377.36
607.843	26606.28
608.2	27011.92
608.557	27279.93
608.914	27248.29
609.272	27604.9
609.629	27830.65
609.986	28149.74
610.343	28192
610.7	28524.65
611.057	28664.98
611.414	28853
611.771	29002.82
612.127	29235.81
612.484	29348.8
612.841	29628.8
613.198	29754.22
613.554	29878.51
613.911	30259.97
614.267	30375.22
614.624	30362.56
614.98	30514.2
615.337	30798.48
615.693	30875.32
616.05	31031.47
616.406	31260.62
616.762	31356.66
617.118	31482.99
617.475	31503.55
617.831	31720.04
618.187	31839.59
618.543	31955.06
618.899	32292.91
619.255	32453.13
619.611	32442.06
619.967	32717.76
620.323	32814.93
620.678	32889.95
621.034	32860.58
621.39	33007.47
621.746	33082.27
622.101	33450.84
622.457	33351.41
622.812	33363.84
623.168	33590.73
623.523	33635.02
623.879	33764.28
624.234	33658.97
624.589	33734.23
624.945	33929.48
625.3	34019.19
625.655	34064.16
626.01	34219.64
626.365	34294.21
626.72	34243.82
627.075	34400.2
627.43	34373.98
627.785	34307.77
628.14	34580.53
628.495	34593.41
628.85	34565.84
629.205	34558.61
629.559	34790.24
629.914	34602.9
630.269	34719.06
630.623	34608.78
630.978	34667.76
631.332	34946.17
631.687	34973.52
632.041	34810.81
632.396	34970.13
632.75	34787.53
633.104	34911.14
633.459	34879.51
633.813	34901.65
634.167	34966.96
634.521	34959.28
634.875	35077.69
635.229	34910.47
635.583	34863.01
635.937	34894.42
636.291	34931.26
636.645	34904.82
636.999	34883.35
637.352	35105.72
637.706	34912.5
638.06	35003.35
638.413	35016.23
638.767	35059.61
639.121	35040.18
639.474	34704.14
639.828	34896
640.181	34954.98
640.534	34903.69
640.888	34635.9
641.241	34677.25
641.594	34877.92
641.947	34919.96
642.301	34893.29
642.654	34824.59
643.007	34912.95
643.36	34740.3
643.713	34746.85
644.066	35052.61
644.419	34835.89
644.771	34498.27
645.124	34168.56
645.477	34204.27
645.83	34033.2
646.182	33758.63
646.535	33911.62
646.888	33870.95
647.24	33720.44
647.593	33816.03
647.945	33833.43
648.298	33687.45
648.65	33675.24
649.002	33425.76
649.355	33722.47
649.707	33644.06
650.059	33789.37
650.411	34183.48
650.763	34124.5
651.115	34486.52
651.467	34385.51
651.819	34290.6
652.171	34300.31
652.523	34348
652.875	34280.2
653.227	34176.47
653.578	34430.7
653.93	34389.12
654.282	34317.49
654.633	34106.65
654.985	34257.38
655.337	34237.04
655.688	34253.99
656.039	34404.49
656.391	34038.62
656.742	34197.94
657.094	34118.17
657.445	34223.7
657.796	34075.23
658.147	34087.66
658.498	34085.4
658.849	34035.46
659.2	34089.47
659.551	34000.66
659.902	34119.75
660.253	33989.59
660.604	34178.51
660.955	33949.36
661.306	34069.13
661.656	33947.55
662.007	34062.35
662.358	33975.12
662.708	34145.29
663.059	34011.73
663.409	33889.25
663.76	34029.59
664.11	34068.23
664.461	34205.17
664.811	34058.96
665.161	34024.16
665.511	33963.15
665.862	33926.09
666.212	34104.39
666.562	34098.06
666.912	33957.04
667.262	34046.31
667.612	33971.73
667.962	33921.34
668.312	33885.41
668.662	34083.14
669.011	33902.36
669.361	33826.88
669.711	33805.64
670.06	33856.26
670.41	33774.68
670.76	33771.74
671.109	33875.24
671.459	33893.77
671.808	33696.26
672.157	33865.75
672.507	33684.51
672.856	33713.21
673.205	33685.19
673.554	33852.19
673.904	33686.54
674.253	33764.28
674.602	33649.48
674.951	33301.47
675.3	33083.62
675.649	33727.9
675.998	33620.33
676.346	33644.06
676.695	33831.85
677.044	33493.55
677.393	33614.91
677.741	33635.7
678.09	33532.88
678.438	33412.43
678.787	33490.62
679.135	33513.44
679.484	33308.02
679.832	33345.99
680.181	33147.12
680.529	33216.5
680.877	33164.07
681.225	33195.94
681.573	33365.42
681.922	33140.8
682.27	32945.77
682.618	33021.48
682.966	32990.74
683.314	33121.13
683.661	32962.95
684.009	32748.04
684.357	32753.46
684.705	32774.93
685.053	32721.15
685.4	32683.41
685.748	32390.08
686.095	32510.3
686.443	32367.03
686.79	32321.83
687.138	32437.08
687.485	32379.23
687.832	32195.06
688.18	32358.22
688.527	32171.1
688.874	32180.37
689.221	32037.77
689.568	32001.16
689.915	31947.38
690.262	31891.11
690.609	31861.73
690.956	31713.94
691.303	31717.33
691.65	31523.21
691.997	31460.16
692.344	31281.86
692.69	31340.39
693.037	31278.7
693.383	31151.02
693.73	31171.81
694.077	31024.24
694.423	30929.78
694.769	30980.4
695.116	30765.26
695.462	30833.74
695.808	30723.46
696.155	30786.73
696.501	30525.5
696.847	30577.25
697.193	30360.76
697.539	30447.76
697.885	30219.97
698.231	30148.56
698.577	30177.03
698.923	30043.7
699.269	30028.11
699.614	29755.8
699.96	29755.8
700.306	29744.05
700.651	29642.81
700.997	29581.79
701.342	29552.19
701.688	29450.04
702.033	29404.17
702.379	29391.52
702.724	29281.46
703.069	29350.84
703.415	28935.93
703.76	29107.23
704.105	29039.21
704.45	28992.43
704.795	28885.77
705.14	28814.58
705.485	28686
705.83	28587.92
706.175	28655.04
706.52	28565.1
706.865	28489.39
707.209	28431.77
707.554	28355.38
707.899	28415.27
708.243	28155.62
708.588	28198.55
708.932	27994.94
709.277	28034.26
709.621	28050.31
709.966	27819.58
710.31	27940.48
710.654	27478.12
710.998	27626.82
711.342	27713.37
711.687	27615.74
712.031	27352.02
712.375	27401.29
712.719	27361.06
713.063	27403.54
713.407	27488.06
713.75	27107.06
714.094	27248.75
714.438	26985.93
714.782	27163.1
715.125	26926.27
715.469	27049.66
715.812	26768.99
716.156	26834.07
716.499	26764.01
716.843	26736.22
717.186	26682.21
717.53	26827.74
717.873	26865.48
718.216	26623
718.559	26560.86
718.902	26461.42
719.246	26423.01
719.589	26400.18
719.932	26199.28
720.275	26329
720.617	26298.94
720.96	26190.02
721.303	26213.07
721.646	26180.75
721.989	26008.33
722.331	26079.29
722.674	26041.55
723.016	25985.73
723.359	25983.02
723.701	25945.96
724.044	25771.05
724.386	25659.64
724.729	25704.61
725.071	25667.09
725.413	25657.6
725.755	25718.17
726.097	25447.21
726.439	25482.24
726.782	25401.11
727.124	25536.25
727.465	25385.07
727.807	25370.6
728.149	25287.89
728.491	25265.97
728.833	25304.39
729.175	25185.52
729.516	25191.17
729.858	25121.57
730.199	25092.65
730.541	25033.89
730.882	25088.13
731.224	25070.72
731.565	24912.76
731.906	24950.95
732.248	24995.47
732.589	24844.06
732.93	24744.86
733.271	24745.08
733.612	24783.73
733.953	24834.12
734.294	24593.9
734.635	24606.33
734.976	24649.27
735.317	24559.55
735.658	24637.74
735.999	24430.74
736.339	24540.57
736.68	24559.55
737.021	24415.37
737.361	24338.09
737.702	24470.97
738.042	24361.37
738.383	24278.66
738.723	24412.66
739.063	24174.25
739.404	24310.52
739.744	24194.82
740.084	24028.72
740.424	24189.17
740.764	24044.54
741.104	24100.81
741.444	23964.77
741.784	23951.21
742.124	24004.54
742.464	23854.26
742.804	23825.79
743.143	23745.56
743.483	23857.65
743.823	23666.24
744.162	23808.16
744.502	23721.38
744.841	23645.9
745.181	23719.57
745.52	23576.98
745.86	23565.68
746.199	23526.13
746.538	23504.89
746.877	23604.55
747.216	23501.73
747.556	23407.27
747.895	23447.26
748.234	23383.09
748.573	23300.83
748.911	23344.22
749.25	23370.88
749.589	23086.37
749.928	23185.58
750.267	23213.6
750.605	23146.48
750.944	23006.15
751.283	23072.36
751.621	23015.19
751.96	22837.11
752.298	22934.06
752.636	22914.17
752.975	22718.7
753.313	22693.84
753.651	22776.77
753.989	22579.94
754.327	22697.68
754.666	22526.84
755.004	22513.28
755.342	22549.89
755.679	22396.9
756.017	22306.96
756.355	22442.77
756.693	22396.22
757.031	22354.41
757.368	22116
757.706	22189.67
758.044	22015.21
758.381	22162.55
758.719	22090.92
759.056	22092.72
759.394	21859.74
759.731	21775.22
760.068	21859.51
760.405	21796.91
760.743	21789.46
761.08	21633.3
761.417	21511.27
