Data from hue_20_FLMS001491_11.txt Node
Date: Mon Feb 06 15:33:40 GMT 2017
User: dcchb
Spectrometer: FLMS00149
Trigger mode: 0
Integration Time (sec): 2.000000E-2
Scans to average: 10
Electric dark correction enabled: true
Nonlinearity correction enabled: false
Boxcar width: 0
XAxis mode: Wavelengths
Number of Pixels in Spectrum: 2048
>>>>>Begin Spectral Data<<<<<
341.393	-27.7
341.776	-27.7
342.16	-27.7
342.543	-76.74
342.927	-70.86
343.31	-60.46
343.693	-74.48
344.077	-65.66
344.46	-64.53
344.843	-65.44
345.226	-45.1
345.61	-38.54
345.993	-26.34
346.376	-5.78
346.759	6.43
347.142	32.19
347.525	53.66
347.908	69.7
348.291	87.55
348.674	92.98
349.057	103.82
349.44	141.79
349.823	132.75
350.206	154.45
350.588	184.95
350.971	200.55
351.354	215.46
351.737	224.95
352.119	241.9
352.502	271.05
352.884	273.99
353.267	286.19
353.65	293.2
354.032	278.28
354.414	305.85
354.797	273.09
355.179	304.95
355.562	310.83
355.944	335.68
356.326	339.07
356.709	339.3
357.091	336.81
357.473	339.3
357.855	337.72
358.238	338.17
358.62	325.51
359.002	350.15
359.384	333.65
359.766	336.36
360.148	329.81
360.53	337.94
360.912	341.78
361.294	336.14
361.676	343.59
362.057	329.58
362.439	335.23
362.821	325.29
363.203	319.41
363.584	317.83
363.966	315.12
364.348	313.08
364.729	321.67
365.111	334.55
365.493	310.37
365.874	317.6
366.256	306.31
366.637	299.3
367.019	309.02
367.4	323.48
367.781	294.33
368.163	325.51
368.544	284.39
368.925	289.58
369.306	324.61
369.688	310.6
370.069	318.51
370.45	311.96
370.831	321.45
371.212	309.02
371.593	323.93
371.974	317.6
372.355	310.83
372.736	320.99
373.117	339.3
373.498	299.75
373.879	307.44
374.26	328.23
374.641	330.26
375.021	331.16
375.402	332.29
375.783	312.41
376.163	317.83
376.544	331.62
376.925	337.04
377.305	332.97
377.686	335.46
378.066	332.29
378.447	323.71
378.827	340.43
379.208	338.17
379.588	321.9
379.968	323.93
380.349	313.08
380.729	293.42
381.109	333.42
381.489	355.8
381.87	319.41
382.25	325.06
382.63	338.4
383.01	351.95
383.39	352.86
383.77	336.81
384.15	335.68
384.53	332.97
384.91	343.37
385.29	347.43
385.67	325.29
386.049	336.59
386.429	326.64
386.809	342.91
387.189	362.12
387.568	333.2
387.948	362.12
388.328	342.01
388.707	344.27
389.087	382.01
389.466	358.06
389.846	357.83
390.225	363.71
390.605	343.82
390.984	337.04
391.363	335.91
391.743	360.09
392.122	350.6
392.501	344.5
392.881	336.81
393.26	350.15
393.639	380.2
394.018	344.04
394.397	381.11
394.776	370.26
395.155	370.26
395.534	387.66
395.913	386.76
396.292	369.13
396.671	370.94
397.05	403.93
397.429	377.49
397.808	380.43
398.186	361.22
398.565	374.55
398.944	384.95
399.323	377.04
399.701	378.17
400.08	378.39
400.458	383.82
400.837	384.27
401.215	369.13
401.594	396.47
401.972	395.57
402.351	369.35
402.729	391.73
403.107	368
403.486	398.28
403.864	388.11
404.242	422.01
404.62	422.91
404.999	382.01
405.377	386.98
405.755	391.73
406.133	420.43
406.511	392.63
406.889	412.52
407.267	421.33
407.645	442.12
408.023	400.09
408.401	422.91
408.779	419.97
409.156	414.78
409.534	424.27
409.912	396.92
410.29	434.89
410.667	428.34
411.045	436.92
411.422	419.52
411.8	442.57
412.178	455.23
412.555	429.69
412.933	447.77
413.31	418.39
413.687	457.71
414.065	441.67
414.442	446.19
414.819	445.96
415.197	471.95
415.574	463.82
415.951	480.31
416.328	445.06
416.705	448.67
417.082	455.23
417.46	472.18
417.837	499.52
418.214	488.22
418.591	455.45
418.967	487.77
419.344	492.06
419.721	467.88
420.098	495.23
420.475	485.28
420.852	513.31
421.228	502.01
421.605	512.4
421.982	497.71
422.358	501.55
422.735	520.99
423.111	506.75
423.488	505.4
423.864	511.27
424.241	535.68
424.617	507.43
424.994	535.9
425.37	501.55
425.746	527.99
426.123	522.35
426.499	531.16
426.875	530.25
427.251	513.98
427.627	551.27
428.003	528.67
428.379	550.37
428.756	565.06
429.132	560.76
429.507	549.69
429.883	558.73
430.259	587.43
430.635	579.52
431.011	585.39
431.387	588.56
431.763	599.63
432.138	591.5
432.514	587.65
432.89	556.69
433.265	584.72
433.641	581.1
434.016	592.4
434.392	606.18
434.767	633.98
435.143	607.09
435.518	633.98
435.894	629.91
436.269	623.59
436.644	644.83
437.02	634.88
437.395	633.75
437.77	657.48
438.145	660.87
438.52	644.6
438.895	669.91
439.271	649.12
439.646	665.62
440.021	656.58
440.395	669.23
440.77	672.62
441.145	696.58
441.52	691.61
441.895	697.71
442.27	719.18
442.645	690.48
443.019	703.81
443.394	684.6
443.769	708.55
444.143	709.68
444.518	718.05
444.892	751.27
445.267	747.65
445.641	737.93
446.016	709.68
446.39	736.12
446.764	756.24
447.139	746.97
447.513	755.79
447.887	753.75
448.262	749.23
448.636	765.5
449.01	774.09
449.384	746.97
449.758	774.54
450.132	776.35
450.506	786.07
450.88	771.83
451.254	763.24
451.628	802.56
452.002	809.12
452.376	795.11
452.75	828.1
453.123	802.56
453.497	824.94
453.871	814.99
454.244	826.74
454.618	841.88
454.992	861.77
455.365	877.14
455.739	894.76
456.112	880.3
456.486	870.58
456.859	887.53
457.232	901.32
457.606	900.87
457.979	913.52
458.352	896.35
458.725	934.54
459.099	923.92
459.472	959.17
459.845	948.1
460.218	952.62
460.591	969.34
460.964	954.88
461.337	948.1
461.71	1024.7
462.083	1036.91
462.456	1013.63
462.829	1038.49
463.201	1031.71
463.574	1042.56
463.947	1065.83
464.32	1064.48
464.692	1054.31
465.065	1086.62
465.438	1121.2
465.81	1109.67
466.183	1116.23
466.555	1138.6
466.928	1139.73
467.3	1161.65
467.672	1161.65
468.045	1183.8
468.417	1196.23
468.789	1198.49
469.161	1238.03
469.534	1227.19
469.906	1306.51
470.278	1256.34
470.65	1248.88
471.022	1288.43
471.394	1336.33
471.766	1321.65
472.138	1354.41
472.51	1373.4
472.882	1406.16
473.253	1404.36
473.625	1445.71
473.997	1482.32
474.369	1461.53
474.74	1490
475.112	1522.54
475.484	1537.01
475.855	1575.65
476.227	1590.34
476.598	1608.87
476.97	1648.64
477.341	1661.98
477.713	1659.04
478.084	1692.71
478.455	1727.74
478.827	1799.37
479.198	1829.66
479.569	1814.74
479.94	1892.93
480.311	1910.11
480.682	1956.66
481.053	1975.64
481.424	2031.01
481.795	2049.76
482.166	2099.7
482.537	2109.65
482.908	2175.86
483.279	2152.81
483.65	2221.51
484.021	2280.94
484.391	2299.25
484.762	2318.68
485.133	2365.01
485.503	2365.91
485.874	2418.57
486.244	2474.38
486.615	2506.47
486.985	2569.3
487.356	2622.4
487.726	2638
488.097	2672.12
488.467	2699.69
488.837	2763.42
489.207	2782.85
489.578	2855.84
489.948	2869.18
490.318	2933.58
490.688	2990.3
491.058	2987.59
491.428	3051.54
491.798	3092.22
492.168	3121.6
492.538	3129.51
492.908	3168.38
493.278	3222.16
493.648	3266.23
494.017	3322.95
494.387	3307.13
494.757	3353.23
495.126	3393.23
495.496	3430.29
495.866	3447.24
496.235	3468.26
496.605	3534.02
496.974	3545.09
497.344	3612.66
497.713	3612.43
498.082	3580.12
498.452	3616.5
498.821	3717.29
499.19	3679.55
499.559	3741.47
499.928	3748.93
500.298	3774.69
500.667	3832.99
501.036	3823.95
501.405	3820.79
501.774	3875.93
502.143	3925.87
502.512	3898.3
502.88	3949.15
503.249	3964.06
503.618	4009.26
503.987	4030.28
504.356	4030.73
504.724	4083.83
505.093	4058.07
505.462	4067.56
505.83	4115.02
506.199	4119.09
506.567	4237.95
506.936	4145.53
507.304	4227.78
507.672	4213.55
508.041	4253.55
508.409	4300.32
508.777	4328.8
509.145	4322.25
509.514	4362.02
509.882	4359.31
510.25	4398.85
510.618	4441.34
510.986	4415.35
511.354	4444.5
511.722	4495.12
512.09	4484.73
512.458	4534.44
512.826	4487.21
513.193	4525.4
513.561	4586.42
513.929	4560.43
514.297	4643.59
514.664	4660.77
515.032	4692.18
515.4	4700.31
515.767	4691.5
516.135	4720.43
516.502	4686.76
516.869	4726.3
517.237	4779.18
517.604	4739.64
517.972	4822.34
518.339	4831.38
518.706	4815.57
519.073	4851.5
519.44	4860.08
519.808	4880.42
520.175	4865.28
520.542	4910.25
520.909	4927.65
521.276	4926.52
521.643	5018.27
522.009	5026.86
522.376	5020.76
522.743	5032.96
523.11	5178.04
523.477	5170.81
523.843	5169.68
524.21	5194.76
524.577	5218.04
524.943	5211.71
525.31	5240.64
525.676	5302.56
526.043	5317.7
526.409	5343.01
526.776	5374.87
527.142	5384.59
527.508	5405.83
527.874	5450.13
528.241	5488.54
528.607	5531.25
528.973	5576.22
529.339	5528.32
529.705	5597.24
530.071	5650.35
530.437	5672.94
530.803	5745.71
531.169	5747.07
531.535	5735.99
531.901	5768.76
532.267	5772.6
532.632	5786.39
532.998	5743.22
533.364	5882.66
533.73	5871.58
534.095	5904.8
534.461	5991.13
534.826	5952.48
535.192	6005.36
535.557	5997.23
535.923	6034.97
536.288	6107.51
536.653	6071.58
537.019	6102.09
537.384	6053.27
537.749	6137.34
538.114	6218.69
538.479	6188.86
538.845	6214.85
539.21	6157.68
539.575	6177.79
539.94	6265.7
540.305	6304.79
540.67	6296.2
541.034	6297.56
541.399	6352.7
541.764	6386.6
542.129	6406.03
542.494	6436.09
542.858	6435.64
543.223	6430.89
543.587	6511.79
543.952	6516.76
544.316	6542.3
544.681	6591.34
545.045	6594.05
545.41	6627.72
545.774	6636.53
546.138	6627.72
546.503	6759.24
546.867	6662.75
547.231	6728.06
547.595	6777.55
547.959	6801.95
548.324	6790.2
548.688	6839.69
549.052	6842.63
549.416	6868.62
549.779	6944.1
550.143	6898
550.507	6997.65
550.871	6994.94
551.235	7005.11
551.599	7077.2
551.962	7099.8
552.326	7145.9
552.689	7097.77
553.053	7086.01
553.417	7080.59
553.78	7174.6
554.143	7173.92
554.507	7196.75
554.87	7183.64
555.234	7344.54
555.597	7205.56
555.96	7227.93
556.323	7352
556.686	7360.13
557.05	7403.75
557.413	7443.29
557.776	7355.39
558.139	7448.72
558.502	7511.99
558.865	7456.85
559.228	7515.83
559.59	7462.5
559.953	7539.79
560.316	7617.3
560.679	7628.15
561.041	7610.07
561.404	7643.97
561.767	7743.17
562.129	7762.83
562.492	7815.49
562.854	7871.08
563.217	7806.22
563.579	7861.36
563.941	7923.51
564.304	7872.21
564.666	7969.15
565.028	7956.95
565.39	8013.45
565.753	8081.92
566.115	8057.97
566.477	8115.59
566.839	8124.86
567.201	8188.13
567.563	8164.18
567.925	8184.52
568.287	8249.6
568.648	8280.79
569.01	8322.37
569.372	8345.19
569.734	8376.15
570.095	8365.98
570.457	8454.79
570.819	8455.47
571.18	8504.28
571.542	8495.02
571.903	8586.54
572.265	8649.81
572.626	8675.8
572.987	8735.69
573.349	8793.31
573.71	8705.18
574.071	8810.04
574.432	8911.05
574.794	8958.51
575.155	8955.34
575.516	8994.44
575.877	9112.18
576.238	9084.61
576.599	9275.34
576.96	9270.36
577.32	9315.79
577.681	9448.89
578.042	9561.2
578.403	9542.22
578.763	9618.6
579.124	9736.79
579.485	9746.74
579.845	9841.2
580.206	9940.18
580.566	10063.11
580.927	10191.02
581.287	10300.62
581.648	10371.35
582.008	10552.82
582.368	10629.2
582.728	10781.51
583.089	10818.57
583.449	10997.55
583.809	11171.33
584.169	11297.43
584.529	11451.32
584.889	11705.1
585.249	11723.41
585.609	11916.17
585.969	12278.87
586.329	12330.62
586.688	12545.53
587.048	12762.93
587.408	12985.29
587.768	13155.23
588.127	13361.56
588.487	13459.18
588.846	13782.79
589.206	13994.53
589.565	14173.29
589.925	14516.1
590.284	14702.54
590.643	14969.42
591.003	15242.64
591.362	15520.14
591.721	15747.71
592.08	16037.42
592.44	16380.69
592.799	16605.31
593.158	16897.51
593.517	17146.99
593.876	17423.14
594.235	17666.75
594.593	18072.62
594.952	18321.43
595.311	18483
595.67	18852.48
596.029	19299.7
596.387	19545.57
596.746	19871.44
597.104	20066.24
597.463	20345.78
597.822	20641.14
598.18	20903.28
598.538	21163.16
598.897	21540.1
599.255	21675.01
599.613	22304.15
599.972	22444.93
600.33	22703.68
600.688	22998.59
601.046	23321.97
601.404	23773.26
601.762	23890.77
602.12	24147.71
602.478	24493.92
602.836	24759.9
603.194	24883.51
603.552	25309.94
603.91	25472.2
604.268	25891.4
604.625	25991.51
604.983	26364.6
605.341	26517.14
605.698	26927.75
606.056	27351.7
606.413	27360.96
606.771	27729.54
607.128	28035.29
607.485	28016.76
607.843	28398.9
608.2	28819.68
608.557	28996.17
608.914	29092.44
609.272	29491.98
609.629	29702.82
609.986	29968.12
610.343	30027.11
610.7	30419.19
611.057	30609.46
611.414	30778.72
611.771	30975.1
612.127	31268.43
612.484	31422.1
612.841	31753.61
613.198	31878.36
613.554	32059.14
613.911	32316.09
614.267	32571.9
614.624	32522.63
614.98	32940.48
615.337	33171.2
615.693	33277.42
616.05	33285.78
616.406	33555.37
616.762	33688.48
617.118	33839.89
617.475	34042.82
617.831	34199.2
618.187	34427.22
618.543	34601.22
618.899	34793.31
619.255	34902.23
619.611	34903.14
619.967	35213.18
620.323	35417.7
620.678	35300.19
621.034	35409.56
621.39	35519.39
621.746	35604.81
622.101	36002.54
622.457	35858.82
622.812	36089.77
623.168	36174.51
623.523	36395.07
623.879	36461.51
624.234	36228.75
624.589	36740.15
624.945	36673.48
625.3	36816.08
625.655	36972.23
626.01	36961.16
626.365	37019.46
626.72	37127.03
627.075	37083.42
627.43	37077.54
627.785	37072.57
628.14	37347.14
628.495	37360.25
628.85	37455.61
629.205	37416.52
629.559	37587.81
629.914	37497.87
630.269	37698.99
630.623	37641.6
630.978	37640.47
631.332	37831.19
631.687	37875.49
632.041	37781.7
632.396	37883.62
632.75	37759.56
633.104	37848.37
633.459	37767.47
633.813	37750.74
634.167	37927.24
634.521	37872.78
634.875	37933.79
635.229	37822.61
635.583	37797.75
635.937	37806.79
636.291	37784.64
636.645	37861.93
636.999	37845.21
637.352	38021.92
637.706	37733.57
638.06	38103.05
638.413	37946.67
638.767	37807.69
639.121	37977.18
639.474	37833
639.828	37820.35
640.181	37930.4
640.534	37922.94
640.888	37777.41
641.241	37698.09
641.594	37848.82
641.947	37899.44
642.301	37805.21
642.654	37767.24
643.007	38012.88
643.36	37918.2
643.713	37831.87
644.066	37936.28
644.419	37684.08
644.771	37488.83
645.124	37188.27
645.477	37171.55
645.83	36954.83
646.182	36792.58
646.535	36643.2
646.888	36965.23
647.24	36694.95
647.593	36920.26
647.945	36741.96
648.298	36686.59
648.65	36629.19
649.002	36612.47
649.355	36711
649.707	36727.27
650.059	36781.96
650.411	37219.69
650.763	37367.25
651.115	37655.61
651.467	37541.71
651.819	37577.64
652.171	37558.43
652.523	37361.83
652.875	37496.51
653.227	37473.46
653.578	37519.79
653.93	37452.9
654.282	37261.94
654.633	37172.91
654.985	37307.14
655.337	37416.06
655.688	37284.99
656.039	37408.15
656.391	37060.37
656.742	37277.54
657.094	37280.02
657.445	37425.1
657.796	37247.48
658.147	37101.72
658.498	37165.68
658.849	37353.24
659.2	37217.43
659.551	37085.9
659.902	37315.73
660.253	37275.05
660.604	37334.03
660.955	37136.3
661.306	37243.19
661.656	37283.41
662.007	37259.68
662.358	37274.37
662.708	37174.49
663.059	37306.69
663.409	36983.53
663.76	37264.43
664.11	37218.1
664.461	37273.02
664.811	37297.42
665.161	37210.87
665.511	37123.42
665.862	37213.36
666.212	37242.06
666.562	37291.32
666.912	37321.6
667.262	37212.45
667.612	37106.02
667.962	37207.48
668.312	37211.32
668.662	37267.82
669.011	37235.05
669.361	37046.36
669.711	37134.04
670.06	37144.88
670.41	37024.66
670.76	36975.4
671.109	37201.15
671.459	37146.24
671.808	37100.14
672.157	37112.57
672.507	36871.9
672.856	37108.28
673.205	37075.73
673.554	37073.02
673.904	36866.93
674.253	37184.88
674.602	37096.75
674.951	36510.55
675.3	36391.91
675.649	36945.79
675.998	36841.39
676.346	36847.49
676.695	37068.5
677.044	36680.72
677.393	36943.31
677.741	36892.91
678.09	36845.68
678.438	36886.81
678.787	36912.8
679.135	36838.9
679.484	36682.07
679.832	36814.05
680.181	36507.16
680.529	36696.08
680.877	36621.28
681.225	36434.4
681.573	36811.33
681.922	36671
682.27	36471.23
682.618	36548.06
682.966	36369.54
683.314	36390.1
683.661	36288.86
684.009	36161.41
684.357	36127.74
684.705	36000.28
685.053	36166.83
685.4	35902.21
685.748	35947.18
686.095	35845.94
686.443	35720.29
686.79	35805.71
687.138	35833.73
687.485	35838.93
687.832	35635.77
688.18	35628.09
688.527	35472.39
688.874	35516.91
689.221	35462.67
689.568	35361.43
689.915	35264.93
690.262	35297.93
690.609	35128.67
690.956	35178.61
691.303	35089.57
691.65	34902.91
691.997	34926.86
692.344	34747.43
692.69	34673.09
693.037	34772.07
693.383	34538.63
693.73	34497.72
694.077	34420.66
694.423	34458.85
694.769	34241.91
695.116	34197.39
695.462	34121.24
695.808	34051.63
696.155	34123.95
696.501	33770.51
696.847	33881.24
697.193	33740.91
697.539	33721.47
697.885	33514.02
698.231	33516.05
698.577	33452.33
698.923	33396.28
699.269	33209.4
699.614	33029.29
699.96	33089.85
700.306	32935.5
700.651	32882.62
700.997	32868.39
701.342	32877.43
701.688	32686.92
702.033	32556.76
702.379	32624.78
702.724	32415.07
703.069	32568.73
703.415	32180.04
703.76	32283.77
704.105	32317.44
704.45	32156.99
704.795	32051.91
705.14	31846.72
705.485	31942.54
705.83	31869.32
706.175	31924.46
706.52	31646.05
706.865	31654.63
707.209	31630
707.554	31414.41
707.899	31499.84
708.243	31393.4
708.588	31323.12
708.932	31079.28
709.277	31137.36
709.621	31140.3
709.966	30920.87
710.31	31074.31
710.654	30769.23
710.998	30787.99
711.342	30767.88
711.687	30717.03
712.031	30606.3
712.375	30542.57
712.719	30472.29
713.063	30437.94
713.407	30630.71
713.75	30383.48
714.094	30309.36
714.438	30186.88
714.782	30225.52
715.125	30168.12
715.469	30201.56
715.812	30003.6
716.156	29842.03
716.499	29894.68
716.843	29905.98
717.186	29656.95
717.53	29750.05
717.873	29875.7
718.216	29730.39
718.559	29585.31
718.902	29400.46
719.246	29532.2
719.589	29344.41
719.932	29382.15
720.275	29308.93
720.617	29316.16
720.96	29244.08
721.303	29202.27
721.646	29218.54
721.989	29063.74
722.331	29116.4
722.674	29018.77
723.016	28931.54
723.359	28983.74
723.701	28946.46
724.044	28665.11
724.386	28727.48
724.729	28769.29
725.071	28662.85
725.413	28696.75
725.755	28603.87
726.097	28593.47
726.439	28470.08
726.782	28489.52
727.124	28605.9
727.465	28442.06
727.807	28298.11
728.149	28294.27
728.491	28292.91
728.833	28362.29
729.175	28220.37
729.516	28072.13
729.858	28122.75
730.199	28134.95
730.541	28113.94
730.882	27908.74
731.224	27955.07
731.565	27903.77
731.906	27891.34
732.248	27849.31
732.589	27714.62
732.93	27646.83
733.271	27584.46
733.612	27750.56
733.953	27676.89
734.294	27536.55
734.635	27501.07
734.976	27561.41
735.317	27431.47
735.658	27324.35
735.999	27440.73
736.339	27278.48
736.68	27418.81
737.021	27304.47
737.361	27124.36
737.702	27331.81
738.042	27160.29
738.383	27082.55
738.723	27151.93
739.063	26957.13
739.404	27031.03
739.744	27044.81
740.084	26888.66
740.424	26907.87
740.764	26893.86
741.104	26857.92
741.444	26719.17
741.784	26648.89
742.124	26810.69
742.464	26737.25
742.804	26598.04
743.143	26593.3
743.483	26657.93
743.823	26455.67
744.162	26602.79
744.502	26537.93
744.841	26454.54
745.181	26565.05
745.52	26410.25
745.86	26366.19
746.199	26359.18
746.538	26229.69
746.877	26325.73
747.216	26349.24
747.556	26217.49
747.895	26242.8
748.234	26043.26
748.573	26107.44
748.911	26108.11
749.25	25938.85
749.589	25873.99
749.928	25940.21
750.267	25897.95
750.605	25878.74
750.944	25802.13
751.283	25636.94
751.621	25646.88
751.96	25695.47
752.298	25633.55
752.636	25582.48
752.975	25412.09
753.313	25336.61
753.651	25426.1
753.989	25347
754.327	25285.54
754.666	25264.52
755.004	25167.8
755.342	25259.77
755.679	25110.85
756.017	25040.57
756.355	25132.09
756.693	25037.63
757.031	25114.69
757.368	24842.16
757.706	24958.31
758.044	24765.32
758.381	24929.39
758.719	24595.84
759.056	24683.29
759.394	24586.12
759.731	24540.7
760.068	24376.18
760.405	24467.7
760.743	24352.45
761.08	24393.58
761.417	24358.78
