Data from hue_80_FLMS001491_7.txt Node
Date: Mon Feb 06 15:22:22 GMT 2017
User: dcchb
Spectrometer: FLMS00149
Trigger mode: 0
Integration Time (sec): 2.000000E-2
Scans to average: 10
Electric dark correction enabled: true
Nonlinearity correction enabled: false
Boxcar width: 0
XAxis mode: Wavelengths
Number of Pixels in Spectrum: 2048
>>>>>Begin Spectral Data<<<<<
341.393	-13.33
341.776	-13.33
342.16	-13.33
342.543	-63.95
342.927	-50.39
343.31	-73.22
343.693	-67.57
344.077	-52.65
344.46	-68.25
344.843	-40.68
345.226	-53.78
345.61	-36.38
345.993	-27.34
346.376	6.55
346.759	-2.71
347.142	19.89
347.525	36.84
347.908	47.23
348.291	102.14
348.674	95.36
349.057	114.57
349.44	121.13
349.823	168.13
350.206	155.93
350.588	172.88
350.971	218.53
351.354	239.99
351.737	260.11
352.119	255.13
352.502	261.46
352.884	260.56
353.267	290.61
353.65	292.87
354.032	317.28
354.414	296.49
354.797	319.09
355.179	317.73
355.562	329.48
355.944	327.9
356.326	330.39
356.709	330.61
357.091	356.15
357.473	369.03
357.855	340.56
358.238	366.32
358.62	356.15
359.002	365.19
359.384	338.52
359.766	367.67
360.148	345.53
360.53	332.42
360.912	322.7
361.294	328.8
361.676	318.64
362.057	327.68
362.439	343.95
362.821	333.78
363.203	331.06
363.584	331.97
363.966	328.8
364.348	337.62
364.729	327.45
365.111	334.91
365.493	323.16
365.874	333.1
366.256	319.77
366.637	316.38
367.019	315.02
367.4	320.44
367.781	325.87
368.163	322.25
368.544	321.35
368.925	348.92
369.306	330.39
369.688	310.73
370.069	302.82
370.45	303.95
370.831	326.32
371.212	297.39
371.593	318.64
371.974	336.26
372.355	322.93
372.736	319.99
373.117	311.18
373.498	326.32
373.879	312.99
374.26	314.12
374.641	344.4
375.021	311.63
375.402	327
375.783	321.8
376.163	316.15
376.544	338.3
376.925	336.49
377.305	323.38
377.686	337.39
378.066	338.52
378.447	335.58
378.827	309.14
379.208	315.02
379.588	331.52
379.968	313.21
380.349	343.27
380.729	335.81
381.109	342.82
381.489	344.85
381.87	344.85
382.25	339.88
382.63	352.53
383.01	354.11
383.39	337.39
383.77	357.05
384.15	327.9
384.53	342.82
384.91	358.18
385.29	344.4
385.67	364.06
386.049	367.22
386.429	341.23
386.809	340.1
387.189	369.26
387.568	357.73
387.948	351.4
388.328	360.89
388.707	338.97
389.087	353.89
389.466	343.95
389.846	356.15
390.225	364.51
390.605	360.22
390.984	343.72
391.363	368.8
391.743	354.79
392.122	378.97
392.501	389.82
392.881	411.51
393.26	356.6
393.639	380.1
394.018	392.53
394.397	370.84
394.776	385.75
395.155	371.29
395.534	386.43
395.913	377.39
396.292	382.14
396.671	376.04
397.05	367
397.429	395.02
397.808	384.17
398.186	370.39
398.565	407.67
398.944	395.7
399.323	409.48
399.701	382.36
400.08	393.89
400.458	406.54
400.837	390.95
401.215	412.19
401.594	375.13
401.972	398.63
402.351	417.84
402.729	417.62
403.107	406.77
403.486	406.09
403.864	428.01
404.242	412.64
404.62	421.46
404.999	393.44
405.377	436.37
405.755	444.28
406.133	422.36
406.511	416.26
406.889	424.62
407.267	432.08
407.645	418.07
408.023	424.62
408.401	427.79
408.779	437.5
409.156	461.68
409.534	431.18
409.912	423.49
410.29	438.63
410.667	444.73
411.045	455.81
411.422	452.19
411.8	458.52
412.178	468.01
412.555	472.08
412.933	454.9
413.31	471.4
413.687	461.46
414.065	481.34
414.442	474.79
414.819	490.83
415.197	494.9
415.574	481.34
415.951	474.34
416.328	505.07
416.705	500.78
417.082	493.32
417.46	508.24
417.837	500.78
418.214	496.48
418.591	503.26
418.967	514.56
419.344	494
419.721	511.85
420.098	525.18
420.475	527.67
420.852	509.14
421.228	518.63
421.605	530.16
421.982	520.21
422.358	526.54
422.735	555.01
423.111	542.13
423.488	534.45
423.864	530.61
424.241	556.82
424.617	557.73
424.994	556.14
425.37	559.76
425.746	565.18
426.123	547.1
426.499	557.5
426.875	578.74
427.251	583.94
427.627	590.27
428.003	587.78
428.379	590.27
428.756	586.2
429.132	608.12
429.507	613.77
429.883	585.75
430.259	615.13
430.635	635.01
431.011	622.58
431.387	636.82
431.763	626.42
432.138	635.69
432.514	652.19
432.89	633.2
433.265	659.42
433.641	670.72
434.016	667.1
434.392	682.69
434.767	690.38
435.143	672.3
435.518	684.73
435.894	690.6
436.269	713.43
436.644	694.45
437.02	698.51
437.395	712.98
437.77	721.11
438.145	700.77
438.52	724.05
438.895	757.72
439.271	740.32
439.646	724.73
440.021	750.94
440.395	719.76
440.77	775.8
441.145	761.79
441.52	781
441.895	782.13
442.27	782.13
442.645	752.97
443.019	772.41
443.394	771.96
443.769	808.11
444.143	775.12
444.518	793.88
444.892	802.69
445.267	815.8
445.641	806.53
446.016	824.61
446.39	853.99
446.764	836.59
447.139	833.65
447.513	820.77
447.887	842.01
448.262	848.57
448.636	851.5
449.01	864.38
449.384	874.78
449.758	889.02
450.132	887.43
450.506	899.19
450.88	891.5
451.254	902.58
451.628	922.91
452.002	896.47
452.376	929.47
452.75	929.69
453.123	925.85
453.497	958.39
453.871	951.61
454.244	941.9
454.618	970.37
454.992	981.67
455.365	981.44
455.739	1003.36
456.112	997.26
456.486	991.39
456.859	1042.46
457.232	1054.44
457.606	1046.53
457.979	1053.31
458.352	1068.22
458.725	1091.72
459.099	1105.06
459.472	1119.97
459.845	1133.08
460.218	1132.85
460.591	1153.42
460.964	1177.14
461.337	1181.21
461.71	1191.16
462.083	1202.68
462.456	1195.45
462.829	1209.91
463.201	1211.27
463.574	1232.96
463.947	1246.29
464.32	1274.99
464.692	1310.47
465.065	1343.24
465.438	1326.97
465.81	1364.26
466.183	1384.14
466.555	1382.56
466.928	1413.52
467.3	1423.69
467.672	1455.78
468.045	1511.37
468.417	1498.27
468.789	1516.12
469.161	1561.09
469.534	1538.72
469.906	1585.04
470.278	1625.27
470.65	1656.45
471.022	1662.78
471.394	1724.93
471.766	1706.85
472.138	1764.47
472.51	1824.81
472.882	1845.83
473.253	1879.72
473.625	1921.53
473.997	1954.98
474.369	2011.25
474.74	2022.32
475.112	2081.98
475.484	2119.27
475.855	2162.88
476.227	2218.7
476.598	2279.94
476.97	2292.82
477.341	2416.89
477.713	2450.11
478.084	2462.31
478.455	2600.84
478.827	2592.47
479.198	2731.45
479.569	2742.07
479.94	2842.86
480.311	2902.75
480.682	3027.04
481.053	3132.12
481.424	3218.67
481.795	3287.82
482.166	3355.39
482.537	3379.12
482.908	3544.54
483.279	3596.52
483.65	3719
484.021	3856.4
484.391	3903.17
484.762	4039.67
485.133	4141.81
485.503	4205.99
485.874	4375.93
486.244	4428.58
486.615	4617.05
486.985	4688.46
487.356	4839.19
487.726	4949.02
488.097	5072.63
488.467	5157.15
488.837	5341.78
489.207	5464.94
489.578	5586.52
489.948	5718.49
490.318	5875.33
490.688	5955.32
491.058	6131.14
491.428	6294.52
491.798	6437.12
492.168	6556.44
492.538	6747.39
492.908	6844.57
493.278	6977.44
493.648	7062.19
494.017	7251.56
494.387	7400.94
494.757	7543.3
495.126	7661.72
495.496	7777.42
495.866	7901.71
496.235	8080.01
496.605	8231.2
496.974	8367.01
497.344	8427.12
497.713	8569.94
498.082	8723.39
498.452	8863.72
498.821	8937.39
499.19	9077.5
499.559	9222.81
499.928	9361.34
500.298	9480.2
500.667	9598.62
501.036	9682.91
501.405	9847.42
501.774	9936.91
502.143	10096.46
502.512	10178.04
502.88	10343.68
503.249	10373.06
503.618	10547.29
503.987	10595.65
504.356	10754.97
504.724	10844.69
505.093	10838.59
505.462	10976.66
505.83	11168.52
506.199	11254.85
506.567	11371.23
506.936	11402.41
507.304	11555.85
507.672	11710.43
508.041	11748.62
508.409	11890.53
508.777	11959.91
509.145	12085.56
509.514	12117.2
509.882	12278.1
510.25	12306.8
510.618	12443.06
510.986	12535.04
511.354	12625.43
511.722	12693.68
512.09	12857.97
512.458	12876.72
512.826	13001.01
513.193	13099.77
513.561	13163.95
513.929	13228.13
514.297	13363.49
514.664	13414.11
515.032	13412.08
515.4	13602.13
515.767	13638.51
516.135	13673.54
516.502	13609.13
516.869	13904.04
517.237	13888
517.604	13931.39
517.972	14027.43
518.339	14140.65
518.706	14170.25
519.073	14155.11
519.44	14317.59
519.808	14414.08
520.175	14413.63
520.542	14595.55
520.909	14601.88
521.276	14678.71
521.643	14801.87
522.009	14869.67
522.376	14970.91
522.743	14957.8
523.11	15162.77
523.477	15201.63
523.843	15257
524.21	15337.9
524.577	15449.99
524.943	15382.19
525.31	15452.25
525.676	15715.52
526.043	15671.23
526.409	15728.17
526.776	15853.59
527.142	15902.86
527.508	15896.98
527.874	16046.13
528.241	16172.91
528.607	16110.08
528.973	16214.26
529.339	16072.35
529.705	16177.65
530.071	16335.84
530.437	16390.08
530.803	16341.04
531.169	16513.92
531.535	16415.84
531.901	16440.02
532.267	16452.9
532.632	16529.73
532.998	16520.47
533.364	16577.87
533.73	16615.61
534.095	16657.64
534.461	16708.71
534.826	16678.43
535.192	16700.58
535.557	16866.9
535.923	16694.48
536.288	16788.71
536.653	16758.88
537.019	16775.83
537.384	16850.63
537.749	16789.16
538.114	16755.94
538.479	16775.83
538.845	16880.46
539.21	16752.78
539.575	16845.88
539.94	16764.53
540.305	16934.47
540.67	16814.7
541.034	16766.34
541.399	16800.01
541.764	16793.46
542.129	16922.94
542.494	16771.08
542.858	16834.59
543.223	16780.8
543.587	16858.54
543.952	16699.67
544.316	16861.25
544.681	16755.04
545.045	16811.08
545.41	16838.2
545.774	16814.7
546.138	16785.77
546.503	16771.08
546.867	16771.76
547.231	16864.42
547.595	16730.18
547.959	16925.2
548.324	16857.64
548.688	16831.42
549.052	16831.87
549.416	16719.11
549.779	16752.33
550.143	16696.96
550.507	16850.4
550.871	16771.31
551.235	16736.74
551.599	16874.58
551.962	16798.65
552.326	16733.8
552.689	16833.68
553.053	16715.04
553.417	16715.27
553.78	16893.34
554.143	16736.06
554.507	16747.58
554.87	16784.87
555.234	16874.81
555.597	16734.48
555.96	16743.51
556.323	16884.3
556.686	16847.69
557.05	16883.62
557.413	16861.03
557.776	16778.54
558.139	16963.17
558.502	16901.7
558.865	16901.02
559.228	16939.44
559.59	16969.05
559.953	16962.27
560.316	17143.5
560.679	17048.59
561.041	17116.61
561.404	17197.97
561.767	17280.68
562.129	17134.01
562.492	17171.07
562.854	17256.27
563.217	17159.55
563.579	17299.21
563.941	17393.44
564.304	17305.53
564.666	17508.24
565.028	17422.14
565.39	17498.3
565.753	17541.91
566.115	17570.39
566.477	17568.13
566.839	17608.35
567.201	17613.55
567.563	17625.98
567.925	17722.92
568.287	17637.95
568.648	17805.41
569.01	17734.22
569.372	17773.54
569.734	17744.62
570.095	17767.67
570.457	17815.12
570.819	17897.16
571.18	17885.63
571.542	18004.95
571.903	17907.78
572.265	18053.54
572.626	18046.98
572.987	18121.56
573.349	18069.58
573.71	18152.29
574.071	18133.53
574.432	18259.41
574.794	18300.31
575.155	18242.68
575.516	18122.69
575.877	18263.47
576.238	18294.89
576.599	18349.12
576.96	18303.02
577.32	18343.25
577.681	18411.72
578.042	18345.96
578.403	18447.2
578.763	18405.39
579.124	18355
579.485	18392.96
579.845	18437.03
580.206	18332.63
580.566	18416.46
580.927	18340.99
581.287	18507.54
581.648	18357.71
582.008	18577.59
582.368	18356.35
582.728	18511.15
583.089	18465.05
583.449	18393.19
583.809	18435.22
584.169	18489.46
584.529	18353.19
584.889	18555.44
585.249	18449.01
585.609	18490.81
585.969	18495.56
586.329	18369.01
586.688	18340.08
587.048	18412.4
587.408	18387.99
587.768	18386.18
588.127	18389.12
588.487	18332.85
588.846	18440.19
589.206	18264.15
589.565	18337.37
589.925	18332.63
590.284	18316.81
590.643	18360.2
591.003	18350.93
591.362	18404.94
591.721	18300.31
592.08	18360.42
592.44	18363.81
592.799	18229.35
593.158	18267.99
593.517	18295.11
593.876	18334.43
594.235	18338.27
594.593	18282.91
594.952	18320.2
595.311	18184.61
595.67	18295.79
596.029	18353.87
596.387	18272.74
596.746	18373.75
597.104	18292.4
597.463	18289.01
597.822	18309.8
598.18	18382.34
598.538	18213.31
598.897	18456.46
599.255	18152.52
599.613	18479.51
599.972	18274.55
600.33	18289.46
600.688	18233.42
601.046	18341.21
601.404	18387.09
601.762	18315
602.12	18414.88
602.478	18461.66
602.836	18343.92
603.194	18347.77
603.552	18286.52
603.91	18244.94
604.268	18449.91
604.625	18403.58
604.983	18380.76
605.341	18251.05
605.698	18389.12
606.056	18421.89
606.413	18396.35
606.771	18451.49
607.128	18351.16
607.485	18406.52
607.843	18393.64
608.2	18584.6
608.557	18544.15
608.914	18452.85
609.272	18588.66
609.629	18630.02
609.986	18639.74
610.343	18527.2
610.7	18597.25
611.057	18616.46
611.414	18536.46
611.771	18579.62
612.127	18696.68
612.484	18578.72
612.841	18703.69
613.198	18677.7
613.554	18681.77
613.911	18788.88
614.267	18800.41
614.624	18698.04
614.98	18810.35
615.337	18923.8
615.693	18869.79
616.05	18776
616.406	18912.05
616.762	18914.53
617.118	18877.92
617.475	18874.31
617.831	18937.81
618.187	18927.19
618.543	18840.18
618.899	19122.66
619.255	19037.69
619.611	19035.66
619.967	19118.59
620.323	19137.58
620.678	18998.37
621.034	18979.61
621.39	19020.29
621.746	18930.58
622.101	19182.77
622.457	19117.92
622.812	19121.76
623.168	19182.55
623.523	19135.99
623.879	19188.87
624.234	19007.18
624.589	19064.58
624.945	19037.69
625.3	19189.1
625.655	19030.46
626.01	19149.1
626.365	19183.68
626.72	19097.12
627.075	19077.92
627.43	19026.39
627.785	19106.62
628.14	19088.99
628.495	19093.74
628.85	19165.15
629.205	19056.22
629.559	19162.66
629.914	19101.42
630.269	19083.57
630.623	19052.83
630.978	18990.24
631.332	19067.3
631.687	19075.2
632.041	18967.86
632.396	18985.94
632.75	18928.77
633.104	18996.11
633.459	18891.25
633.813	18807.19
634.167	18873.4
634.521	18823.46
634.875	18869.56
635.229	18870.69
635.583	18767.19
635.937	18830.69
636.291	18774.87
636.645	18766.96
636.999	18632.28
637.352	18723.12
637.706	18689.9
638.06	18724.48
638.413	18718.83
638.767	18614.43
639.121	18645.16
639.474	18583.47
639.828	18587.53
640.181	18636.57
640.534	18632.05
640.888	18498.04
641.241	18486.29
641.594	18495.11
641.947	18476.8
642.301	18508.21
642.654	18475.67
643.007	18470.25
643.36	18452.4
643.713	18438.61
644.066	18477.03
644.419	18446.07
644.771	18290.82
645.124	18065.06
645.477	18061.9
645.83	18000.2
646.182	17872.52
646.535	17885.41
646.888	17901.45
647.24	17868.46
647.593	17871.62
647.945	17788.68
648.298	17752.3
648.65	17735.8
649.002	17702.59
649.355	17787.33
649.707	17783.26
650.059	17806.54
650.411	18136.25
650.763	18090.82
651.115	18268.45
651.467	18198.17
651.819	18122.69
652.171	18157.94
652.523	18095.57
652.875	18178.96
653.227	17983.03
653.578	18154.78
653.93	18161.1
654.282	18126.53
654.633	18042.01
654.985	18130.82
655.337	18085.4
655.688	18162.69
656.039	18167.88
656.391	17994.56
656.742	18201.56
657.094	18107.55
657.445	18169.24
657.796	18071.16
658.147	18088.79
658.498	18071.84
658.849	18149.35
659.2	18056.7
659.551	18036.14
659.902	18127.88
660.253	18097.38
660.604	18223.7
660.955	18106.87
661.306	18163.36
661.656	18171.27
662.007	18159.97
662.358	18140.54
662.708	18205.4
663.059	18185.96
663.409	18082.46
663.76	18175.12
664.11	18260.54
664.461	18165.17
664.811	18200.65
665.161	18128.79
665.511	18189.8
665.862	18145.96
666.212	18188
666.562	18200.43
666.912	18266.86
667.262	18168.79
667.612	18134.21
667.962	18190.48
668.312	18214.44
668.662	18232.29
669.011	18279.97
669.361	18199.97
669.711	18124.27
670.06	18142.35
670.41	18049.69
670.76	18143.7
671.109	18228.67
671.459	18169.24
671.808	18055.8
672.157	18164.72
672.507	17935.35
672.856	18054.67
673.205	17997.72
673.554	18101.9
673.904	18003.82
674.253	18123.82
674.602	17976.02
674.951	17778.52
675.3	17730.61
675.649	17986.19
675.998	17961.79
676.346	17944.16
676.695	17972.63
677.044	17855.58
677.393	17942.81
677.741	17968.34
678.09	17863.49
678.438	17776.48
678.787	17893.54
679.135	17802.92
679.484	17723.38
679.832	17746.43
680.181	17682.25
680.529	17709.82
680.877	17591.85
681.225	17592.76
681.573	17675.02
681.922	17605.19
682.27	17496.94
682.618	17494.68
682.966	17583.04
683.314	17515.02
683.661	17405.64
684.009	17388.92
684.357	17301.92
684.705	17225.99
685.053	17349.83
685.4	17259.66
685.748	17134.01
686.095	17229.6
686.443	17073.45
686.79	17065.99
687.138	17053.56
687.485	17109.15
687.832	17014.02
688.18	17048.82
688.527	16935.37
688.874	16947.58
689.221	16826
689.568	16836.62
689.915	16788.03
690.262	16729.73
690.609	16600.02
690.956	16623.52
691.303	16603.18
691.65	16549.17
691.997	16423.07
692.344	16457.87
692.69	16419.91
693.037	16490.87
693.383	16189.86
693.73	16248.39
694.077	16155.28
694.423	16131.1
694.769	16058.79
695.116	16123.19
695.462	15979.92
695.808	15882.07
696.155	15850.43
696.501	15842.07
696.847	15771.56
697.193	15700.83
697.539	15676.65
697.885	15665.8
698.231	15553.94
698.577	15620.15
698.923	15465.58
699.269	15449.09
699.614	15359.14
699.96	15328.41
700.306	15324.12
700.651	15115.76
700.997	15130.22
701.342	15180.62
701.688	15079.38
702.033	15011.81
702.379	15064.46
702.724	15002.77
703.069	14980.85
703.415	14812.94
703.76	14838.03
704.105	14787.18
704.45	14794.19
704.795	14642.1
705.14	14585.15
705.485	14544.02
705.83	14547.64
706.175	14566.62
706.52	14416.57
706.865	14401.66
707.209	14424.48
707.554	14288.44
707.899	14352.62
708.243	14205.73
708.588	14236.46
708.932	14137.93
709.277	14122.57
709.621	14086.18
709.966	14043.25
710.31	14037.6
710.654	13926.41
710.998	13891.16
711.342	13889.8
711.687	13848.22
712.031	13801.67
712.375	13792.18
712.719	13817.26
713.063	13761.9
713.407	13781.56
713.75	13767.1
714.094	13678.06
714.438	13589.93
714.782	13600.55
715.125	13530.49
715.469	13629.02
715.812	13534.79
716.156	13468.35
716.499	13512.19
716.843	13489.14
717.186	13471.28
717.53	13363.26
717.873	13418.18
718.216	13364.62
718.559	13273.78
718.902	13203.95
719.246	13308.8
719.589	13224.29
719.932	13216.15
720.275	13177.51
720.617	13200.78
720.96	13175.7
721.303	13110.39
721.646	13195.59
721.989	13038.08
722.331	13212.31
722.674	13095.7
723.016	13044.18
723.359	13041.01
723.701	13052.76
724.044	13016.15
724.386	12954.91
724.729	12998.98
725.071	12897.74
725.413	13011.41
725.755	13032.2
726.097	12925.99
726.439	12840.57
726.782	12892.32
727.124	12924.86
727.465	12886.67
727.807	12851.19
728.149	12878.98
728.491	12745.43
728.833	12831.75
729.175	12837.63
729.516	12793.34
729.858	12834.92
730.199	12831.53
730.541	12730.51
730.882	12733.45
731.224	12770.06
731.565	12720.8
731.906	12732.32
732.248	12744.3
732.589	12695.94
732.93	12728.93
733.271	12685.32
733.612	12712.89
733.953	12702.26
734.294	12719.21
734.635	12660.46
734.976	12721.7
735.317	12685.99
735.658	12655.94
735.999	12652.77
736.339	12658.42
736.68	12626.11
737.021	12670.63
737.361	12706.78
737.702	12728.7
738.042	12624.07
738.383	12724.19
738.723	12663.85
739.063	12713.79
739.404	12715.15
739.744	12707.24
740.084	12719.44
740.424	12721.93
740.764	12715.6
741.104	12708.37
741.444	12710.85
741.784	12722.15
742.124	12777.29
742.464	12845.09
742.804	12763.96
743.143	12833.33
743.483	12807.8
743.823	12762.83
744.162	12850.06
744.502	12925.31
744.841	12897.97
745.181	12950.39
745.52	12980.68
745.86	13081.69
746.199	13074.91
746.538	13061.35
746.877	13127.11
747.216	13090.5
747.556	13120.56
747.895	13223.83
748.234	13211.86
748.573	13301.35
748.911	13306.32
749.25	13414.34
749.589	13450.95
749.928	13453.88
750.267	13579.3
750.605	13704.72
750.944	13695.01
751.283	13689.58
751.621	13931.16
751.96	13838.96
752.298	13991.27
752.636	14062.68
752.975	14084.15
753.313	14202.56
753.651	14370.24
753.989	14438.94
754.327	14504.48
754.666	14527.98
755.004	14673.29
755.342	14782.21
755.679	14930.68
756.017	14902.88
756.355	15095.2
756.693	15081.86
