Data from hue_220_FLMS001491_00098.txt Node
Date: Tue Feb 07 16:40:12 GMT 2017
User: dcchb
Spectrometer: FLMS00149
Trigger mode: 0
Integration Time (sec): 2.000000E-2
Scans to average: 10
Electric dark correction enabled: true
Nonlinearity correction enabled: false
Boxcar width: 0
XAxis mode: Wavelengths
Number of Pixels in Spectrum: 2048
>>>>>Begin Spectral Data<<<<<
341.393	-24.02
341.776	-24.02
342.16	-24.02
342.543	-63.12
342.927	-89.33
343.31	-52.95
343.693	-72.61
344.077	-80.97
344.46	-70.58
344.843	-57.7
345.226	-21.76
345.61	-39.17
345.993	-30.8
346.376	-7.53
346.759	13.26
347.142	28.18
347.525	41.96
347.908	55.75
348.291	83.54
348.674	95.75
349.057	115.63
349.44	120.83
349.823	151.56
350.206	170.77
350.588	204.67
350.971	219.81
351.354	209.64
351.737	236.76
352.119	244.44
352.502	246.02
352.884	274.27
353.267	264.78
353.65	282.86
354.032	284.89
354.414	290.77
354.797	310.66
355.179	314.05
355.562	314.72
355.944	323.76
356.326	325.8
356.709	340.49
357.091	334.38
357.473	310.66
357.855	338.68
358.238	353.59
358.62	326.25
359.002	330.54
359.384	328.06
359.766	328.06
360.148	333.93
360.53	339.13
360.912	322.86
361.294	330.32
361.676	328.06
362.057	320.15
362.439	340.49
362.821	317.44
363.203	326.93
363.584	318.34
363.966	323.54
364.348	334.38
364.729	324.89
365.111	320.82
365.493	317.44
365.874	312.01
366.256	319.02
366.637	313.82
367.019	304.78
367.4	297.77
367.781	311.11
368.163	316.31
368.544	301.16
368.925	301.62
369.306	310.66
369.688	305.46
370.069	323.31
370.45	320.82
370.831	330.54
371.212	305.23
371.593	307.72
371.974	323.08
372.355	325.12
372.736	321.05
373.117	314.72
373.498	322.18
373.879	310.2
374.26	327.83
374.641	328.06
375.021	311.79
375.402	325.34
375.783	330.32
376.163	319.47
376.544	324.21
376.925	304.78
377.305	322.63
377.686	321.05
378.066	314.27
378.447	351.11
378.827	319.24
379.208	320.15
379.588	319.92
379.968	319.47
380.349	344.1
380.729	337.55
381.109	334.16
381.489	334.16
381.87	339.13
382.25	342.97
382.63	317.66
383.01	317.66
383.39	337.77
383.77	346.81
384.15	339.36
384.53	336.64
384.91	345.91
385.29	351.78
385.67	316.76
386.049	359.24
386.429	357.43
386.809	357.43
387.189	339.36
387.568	367.38
387.948	369.19
388.328	371.22
388.707	376.42
389.087	355.63
389.466	354.04
389.846	374.16
390.225	347.72
390.605	356.76
390.984	376.64
391.363	357.21
391.743	354.04
392.122	368.51
392.501	360.6
392.881	375.29
393.26	378.22
393.639	376.64
394.018	374.61
394.397	395.17
394.776	392.91
395.155	383.2
395.534	402.63
395.913	389.07
396.292	381.39
396.671	363.08
397.05	396.76
397.429	405.34
397.808	398.56
398.186	394.5
398.565	398.79
398.944	390.88
399.323	387.94
399.701	388.62
400.08	403.53
400.458	415.29
400.837	393.82
401.215	412.12
401.594	399.24
401.972	397.43
402.351	421.84
402.729	413.25
403.107	427.94
403.486	427.49
403.864	433.14
404.242	429.97
404.62	439.69
404.999	445.79
405.377	438.34
405.755	465.91
406.133	432.69
406.511	458.22
406.889	451.67
407.267	441.95
407.645	460.26
408.023	448.96
408.401	499.35
408.779	465.23
409.156	494.15
409.534	489.41
409.912	507.71
410.29	488.05
410.667	521.72
411.045	526.92
411.422	537.09
411.8	555.17
412.178	526.02
412.555	555.17
412.933	533.25
413.31	583.87
413.687	585.45
414.065	585.68
414.442	583.87
414.819	594.72
415.197	619.35
415.574	599.46
415.951	627.48
416.328	611.89
416.705	634.49
417.082	637.65
417.46	643.08
417.837	644.88
418.214	650.31
418.591	664.09
418.967	670.42
419.344	693.47
419.721	694.83
420.098	677.88
420.475	726.69
420.852	728.5
421.228	731.44
421.605	742.96
421.982	730.31
422.358	779.57
422.735	805.33
423.111	781.15
423.488	806.91
423.864	839.46
424.241	839.46
424.617	853.01
424.994	868.38
425.37	858.89
425.746	882.62
426.123	909.28
426.499	874.93
426.875	914.93
427.251	915.39
427.627	952.45
428.003	937.31
428.379	950.64
428.756	940.24
429.132	999
429.507	1004.42
429.883	1021.37
430.259	1016.85
430.635	1034.7
431.011	1043.07
431.387	1055.95
431.763	1091.65
432.138	1080.8
432.514	1082.84
432.89	1125.32
433.265	1116.28
433.641	1160.12
434.016	1160.8
434.392	1182.95
434.767	1228.15
435.143	1243.06
435.518	1267.92
435.894	1257.52
436.269	1288.71
436.644	1295.71
437.02	1329.61
437.395	1351.53
437.77	1385.2
438.145	1395.37
438.52	1380.91
438.895	1440.34
439.271	1438.54
439.646	1462.72
440.021	1519.89
440.395	1525.54
440.77	1507.46
441.145	1523.28
441.52	1534.13
441.895	1579.1
442.27	1585.2
442.645	1596.95
443.019	1643.5
443.394	1646.89
443.769	1668.59
444.143	1654.12
444.518	1688.92
444.892	1691.41
445.267	1701.81
445.641	1738.64
446.016	1763.95
446.39	1761.01
446.764	1758.98
447.139	1750.84
447.513	1801.24
447.887	1803.27
448.262	1788.36
448.636	1812.99
449.01	1814.57
449.384	1875.81
449.758	1858.41
450.132	1916.49
450.506	1901.8
450.88	1908.13
451.254	1899.77
451.628	1920.56
452.002	1947.22
452.376	1965.3
452.75	1994.91
453.123	1997.39
453.497	2020.89
453.871	2062.25
454.244	2086.43
454.618	2070.38
454.992	2089.37
455.365	2100.67
455.739	2204.62
456.112	2164.84
456.486	2205.52
456.859	2201.91
457.232	2252.98
457.606	2241
457.979	2289.81
458.352	2311.51
458.725	2333.2
459.099	2357.38
459.472	2412.07
459.845	2412.75
460.218	2457.94
460.591	2459.07
460.964	2428.57
461.337	2513.31
461.71	2550.37
462.083	2557.15
462.456	2550.82
462.829	2577.71
463.201	2610.48
463.574	2637.83
463.947	2671.05
464.32	2726.64
464.692	2769.12
465.065	2733.87
465.438	2821.55
465.81	2829.01
466.183	2863.36
466.555	2880.53
466.928	2933.64
467.3	2968.21
467.672	2950.59
468.045	3070.13
468.417	3054.54
468.789	3069.23
469.161	3062.9
469.534	3146.74
469.906	3212.05
470.278	3255.66
470.65	3259.05
471.022	3309.9
471.394	3333.18
471.766	3381.76
472.138	3426.05
472.51	3479.61
472.882	3489.78
473.253	3560.51
473.625	3616.56
473.997	3661.98
474.369	3705.82
474.74	3725.71
475.112	3755.54
475.484	3822.65
475.855	3889.09
476.227	3910.34
476.598	4002.99
476.97	4000.05
477.341	4091.12
477.713	4169.31
478.084	4170.67
478.455	4210.21
478.827	4291.12
479.198	4383.32
479.569	4388.74
479.94	4496.31
480.311	4490.66
480.682	4563.88
481.053	4719.81
481.424	4786.02
481.795	4777.66
482.166	4847.71
482.537	4903.08
482.908	5028.72
483.279	5001.83
483.65	5154.82
484.021	5178.32
484.391	5236.63
484.762	5247.7
485.133	5302.16
485.503	5428.94
485.874	5489.05
486.244	5508.26
486.615	5601.36
486.985	5622.15
487.356	5733.79
487.726	5779.66
488.097	5851.07
488.467	5857.63
488.837	6004.07
489.207	6062.82
489.578	6061.46
489.948	6100.11
490.318	6218.97
490.688	6235.25
491.058	6310.05
491.428	6376.26
491.798	6435.01
492.168	6505.07
492.538	6550.94
492.908	6643.6
493.278	6635.69
493.648	6655.8
494.017	6705.74
494.387	6745.97
494.757	6815.8
495.126	6856.02
495.496	6901.44
495.866	6944.15
496.235	6976.24
496.605	7049.24
496.974	7099.18
497.344	7129.46
497.713	7096.24
498.082	7252.39
498.452	7193.19
498.821	7250.59
499.19	7302.11
499.559	7301.43
499.928	7393.63
500.298	7398.83
500.667	7430.47
501.036	7418.72
501.405	7434.76
501.774	7456
502.143	7470.69
502.512	7515.66
502.88	7558.6
503.249	7568.32
503.618	7585.27
503.987	7659.84
504.356	7694.19
504.724	7636.34
505.093	7699.16
505.462	7681.08
505.83	7733.51
506.199	7739.39
506.567	7885.37
506.936	7830.91
507.304	7897.12
507.672	7867.97
508.041	7919.04
508.409	7920.17
508.777	7946.61
509.145	8049.66
509.514	7984.58
509.882	8021.64
510.25	7981.19
510.618	8075.65
510.986	8022.77
511.354	8084.69
511.722	8095.54
512.09	8160.17
512.458	8125.59
512.826	8092.37
513.193	8220.28
513.561	8148.42
513.929	8190.9
514.297	8280.84
514.664	8236.55
515.032	8298.24
515.4	8263.67
515.767	8272.48
516.135	8342.31
516.502	8248.3
516.869	8326.94
517.237	8333.72
517.604	8324.91
517.972	8327.85
518.339	8380.95
518.706	8280.62
519.073	8360.16
519.44	8328.3
519.808	8392.48
520.175	8391.57
520.542	8414.85
520.909	8439.48
521.276	8378.01
521.643	8397.67
522.009	8481.51
522.376	8486.94
522.743	8462.53
523.11	8516.09
523.477	8556.99
523.843	8598.8
524.21	8568.97
524.577	8624.79
524.943	8614.62
525.31	8645.58
525.676	8662.98
526.043	8710.66
526.409	8670.66
526.776	8707.05
527.142	8700.04
527.508	8672.47
527.874	8696.42
528.241	8780.04
528.607	8741.17
528.973	8712.92
529.339	8650.55
529.705	8793.82
530.071	8755.86
530.437	8730.1
530.803	8780.49
531.169	8714.05
531.535	8643.32
531.901	8700.04
532.267	8738.23
532.632	8722.86
532.998	8659.59
533.364	8716.76
533.73	8710.43
534.095	8767.83
534.461	8725.35
534.826	8690.55
535.192	8685.58
535.557	8671.79
535.923	8676.09
536.288	8649.19
536.653	8708.4
537.019	8578.01
537.384	8646.26
537.749	8600.16
538.114	8617.1
538.479	8572.81
538.845	8558.57
539.21	8519.71
539.575	8528.97
539.94	8547.5
540.305	8466.83
540.67	8526.71
541.034	8499.37
541.399	8460.05
541.764	8444.23
542.129	8459.14
542.494	8410.1
542.858	8461.18
543.223	8446.71
543.587	8429.76
543.952	8410.56
544.316	8398.58
544.681	8344.57
545.045	8344.12
545.41	8347.96
545.774	8290.11
546.138	8352.03
546.503	8283.78
546.867	8234.29
547.231	8228.64
547.595	8239.26
547.959	8248.07
548.324	8186.83
548.688	8218.02
549.052	8175.31
549.416	8130.79
549.779	8125.59
550.143	8099.15
550.507	8161.3
550.871	8102.09
551.235	8090.34
551.599	8116.55
551.962	8091.02
552.326	8073.16
552.689	8040.17
553.053	8001.07
553.417	7988.42
553.78	8065.48
554.143	8036.55
554.507	7917.91
554.87	8035.2
555.234	8063.45
555.597	7939.83
555.96	7909.55
556.323	7899.16
556.686	8000.62
557.05	7920.17
557.413	7937.35
557.776	7910.46
558.139	7943
558.502	7933.96
558.865	7952.71
559.228	7878.37
559.59	7927.4
559.953	7968.31
560.316	8005.14
560.679	7954.52
561.041	7967.63
561.404	7982.77
561.767	7998.36
562.129	7928.99
562.492	8020.96
562.854	7992.94
563.217	7921.75
563.579	8002.2
563.941	7997.01
564.304	8073.16
564.666	8079.49
565.028	8063.67
565.39	8057.8
565.753	8059.15
566.115	8063.22
566.477	8070
566.839	8122.88
567.201	8112.71
567.563	8107.51
567.925	8092.15
568.287	8149.09
568.648	8157.46
569.01	8174.4
569.372	8158.13
569.734	8159.26
570.095	8187.51
570.457	8239.49
570.819	8296.66
571.18	8300.73
571.542	8232.71
571.903	8219.83
572.265	8274.51
572.626	8291.69
572.987	8296.89
573.349	8365.36
573.71	8354.96
574.071	8307.06
574.432	8358.58
574.794	8466.6
575.155	8420.72
575.516	8415.08
575.877	8420.5
576.238	8509.31
576.599	8486.71
576.96	8481.06
577.32	8532.59
577.681	8528.52
578.042	8557.9
578.403	8536.2
578.763	8519.03
579.124	8551.79
579.485	8573.26
579.845	8564.68
580.206	8573.72
580.566	8626.37
580.927	8653.04
581.287	8710.66
581.648	8677.22
582.008	8695.97
582.368	8674.05
582.728	8735.07
583.089	8744.78
583.449	8680.83
583.809	8734.61
584.169	8778.46
584.529	8680.15
584.889	8784.33
585.249	8781.85
585.609	8832.01
585.969	8850.77
586.329	8822.3
586.688	8862.97
587.048	8791.79
587.408	8830.43
587.768	8853.03
588.127	8845.57
588.487	8796.31
588.846	8981.61
589.206	8827.72
589.565	8939.13
589.925	8923.08
590.284	8856.19
590.643	8989.98
591.003	8999.92
591.362	8942.52
591.721	9008.51
592.08	9011.9
592.44	9045.79
592.799	9085.34
593.158	8988.39
593.517	9057.77
593.876	9022.97
594.235	9043.08
594.593	9140.71
594.952	9110.42
595.311	9094.83
595.67	9092.57
596.029	9159.46
596.387	9154.72
596.746	9198.11
597.104	9073.82
597.463	9153.14
597.822	9182.74
598.18	9079.92
598.538	9109.52
598.897	9173.47
599.255	9122.4
599.613	9196.98
599.972	9142.06
600.33	9161.95
600.688	9164.43
601.046	9186.13
601.404	9287.14
601.762	9225.9
602.12	9215.51
602.478	9259.57
602.836	9259.12
603.194	9199.91
603.552	9195.85
603.91	9194.49
604.268	9203.53
604.625	9237.88
604.983	9216.18
605.341	9207.6
605.698	9295.05
606.056	9340.02
606.413	9289.85
606.771	9255.96
607.128	9310.87
607.485	9254.15
607.843	9252.34
608.2	9301.15
608.557	9352.45
608.914	9306.58
609.272	9394.48
609.629	9388.16
609.986	9400.81
610.343	9333.47
610.7	9363.52
611.057	9368.5
611.414	9357.42
611.771	9424.77
612.127	9383.64
612.484	9363.3
612.841	9455.95
613.198	9383.64
613.554	9424.99
613.911	9448.72
614.267	9493.47
614.624	9524.88
614.98	9476.52
615.337	9513.8
615.693	9495.72
616.05	9524.88
616.406	9565.55
616.762	9516.06
617.118	9490.98
617.475	9497.08
617.831	9557.87
618.187	9567.59
618.543	9554.25
618.899	9595.38
619.255	9563.97
619.611	9560.58
619.967	9596.29
620.323	9596.06
620.678	9573.91
621.034	9601.03
621.39	9583.18
621.746	9572.11
622.101	9680.13
622.457	9555.84
622.812	9559.23
623.168	9597.87
623.523	9610.75
623.879	9615.04
624.234	9611.65
624.589	9548.6
624.945	9599.23
625.3	9585.89
625.655	9560.13
626.01	9603.97
626.365	9580.47
626.72	9586.57
627.075	9561.71
627.43	9566.23
627.785	9555.84
628.14	9581.6
628.495	9549.73
628.85	9550.64
629.205	9529.4
629.559	9547.25
629.914	9522.39
630.269	9532.11
630.623	9462.96
630.978	9504.76
631.332	9518.55
631.687	9531.66
632.041	9482.84
632.396	9533.01
632.75	9476.74
633.104	9476.74
633.459	9438.55
633.813	9490.08
634.167	9406.69
634.521	9429.96
634.875	9514.03
635.229	9344.99
635.583	9353.81
635.937	9311.32
636.291	9382.96
636.645	9366.24
636.999	9329.18
637.352	9333.24
637.706	9242.4
638.06	9314.94
638.413	9294.37
638.767	9272.45
639.121	9384.54
639.474	9279.23
639.828	9197.65
640.181	9226.35
640.534	9229.74
640.888	9175.06
641.241	9179.35
641.594	9227.03
641.947	9243.98
642.301	9218.22
642.654	9145.45
643.007	9211.66
643.36	9184.09
643.713	9094.61
644.066	9173.47
644.419	9141.16
644.771	9053.02
645.124	8974.16
645.477	9015.29
645.83	8953.14
646.182	8940.26
646.535	8885.8
646.888	8880.6
647.24	8884.44
647.593	8905.68
647.945	8859.81
648.298	8838.79
648.65	8846.25
649.002	8829.98
649.355	8829.98
649.707	8856.87
650.059	8884.67
650.411	9010.09
650.763	9035.4
651.115	9099.13
651.467	9119.46
651.819	9072.91
652.171	9087.15
652.523	9050.99
652.875	9047.83
653.227	9015.06
653.578	9097.54
653.93	9077.2
654.282	8966.7
654.633	8996.08
654.985	8992.91
655.337	8981.39
655.688	9069.52
656.039	9055.51
656.391	9036.3
656.742	8991.33
657.094	8992.91
657.445	9035.85
657.796	9109.29
658.147	8978
658.498	9069.97
658.849	8997.43
659.2	9057.77
659.551	9043.31
659.902	8992.91
660.253	9044.89
660.604	9044.89
660.955	9086.02
661.306	9080.82
661.656	9110.65
662.007	9007.15
662.358	9095.06
662.708	9081.95
663.059	9040.37
663.409	9016.87
663.76	9076.07
664.11	9036.75
664.461	9111.55
664.811	9147.49
665.161	9083.53
665.511	9061.84
665.862	9088.05
666.212	9118.11
666.562	9076.53
666.912	9084.21
667.262	9061.84
667.612	9095.28
667.962	9055.74
668.312	9045.79
668.662	9102.06
669.011	9053.48
669.361	9120.82
669.711	9062.52
670.06	9095.06
670.41	9053.93
670.76	9020.94
671.109	9047.38
671.459	9051.89
671.808	9075.4
672.157	9048.05
672.507	8944.78
672.856	8986.13
673.205	8998.56
673.554	9015.06
673.904	8986.13
674.253	9051.67
674.602	8971.67
674.951	8844.67
675.3	8785.46
675.649	9029.3
675.998	8986.59
676.346	8958.79
676.695	8946.59
677.044	8857.55
677.393	8916.98
677.741	8958.34
678.09	8896.42
678.438	8905.46
678.787	8878.11
679.135	8899.81
679.484	8757.89
679.832	8864.1
680.181	8797.89
680.529	8808.96
680.877	8795.4
681.225	8759.7
681.573	8817.32
681.922	8771.45
682.27	8748.63
682.618	8724.67
682.966	8684.45
683.314	8748.4
683.661	8692.58
684.009	8712.69
684.357	8613.94
684.705	8594.73
685.053	8642.19
685.4	8623.88
685.748	8554.28
686.095	8531.46
686.443	8540.04
686.79	8511.12
687.138	8473.15
687.485	8481.97
687.832	8499.37
688.18	8448.07
688.527	8360.84
688.874	8417.56
689.221	8363.33
689.568	8313.38
689.915	8304.12
690.262	8315.19
690.609	8316.77
690.956	8248.07
691.303	8247.4
691.65	8213.72
691.997	8178.92
692.344	8117.91
692.69	8171.47
693.037	8093.28
693.383	8067.29
693.73	8056.67
694.077	7958.36
694.423	7996.78
694.769	7957.69
695.116	7922.66
695.462	7887.18
695.808	7847.18
696.155	7889.44
696.501	7870.91
696.847	7786.17
697.193	7765.15
697.539	7747.07
697.885	7729.67
698.231	7693.96
698.577	7710.46
698.923	7681.54
699.269	7578.94
699.614	7571.26
699.96	7528.54
700.306	7543.01
700.651	7456.23
700.997	7441.99
701.342	7438.38
701.688	7397.47
702.033	7355.22
702.379	7369.23
702.724	7325.84
703.069	7368.55
703.415	7256.91
703.76	7258.27
704.105	7289.23
704.45	7292.84
704.795	7183.92
705.14	7154.09
705.485	7158.61
705.83	7140.76
706.175	7168.55
706.52	7108.67
706.865	7112.28
707.209	7095.79
707.554	7008.78
707.899	7039.97
708.243	7013.3
708.588	7008.78
708.932	6927.43
709.277	6935.79
709.621	6991.38
709.966	6891.95
710.31	6925.62
710.654	6867.32
710.998	6859.64
711.342	6828.45
711.687	6834.33
712.031	6738.51
712.375	6740.32
712.719	6803.82
713.063	6737.38
713.407	6748.45
713.75	6722.92
714.094	6745.74
714.438	6719.75
714.782	6717.49
715.125	6706.19
715.469	6656.93
715.812	6636.37
716.156	6603.6
716.499	6613.99
716.843	6655.35
717.186	6585.29
717.53	6628.68
717.873	6590.26
718.216	6597.95
718.559	6597.5
718.902	6512.3
719.246	6535.35
719.589	6574.67
719.932	6495.58
720.275	6498.52
720.617	6461
720.96	6549.81
721.303	6515.46
721.646	6469.14
721.989	6507.55
722.331	6523.6
722.674	6460.1
723.016	6529.02
723.359	6449.7
723.701	6420.1
724.044	6409.7
724.386	6392.53
724.729	6465.52
725.071	6449.7
725.413	6400.21
725.755	6385.3
726.097	6420.55
726.439	6334.45
726.782	6371.97
727.124	6344.85
727.465	6383.04
727.807	6318.18
728.149	6383.26
728.491	6370.84
728.833	6399.99
729.175	6270.5
729.516	6295.13
729.858	6313.89
730.199	6323.83
730.541	6284.28
730.882	6310.05
731.224	6409.93
731.565	6323.38
731.906	6302.36
732.248	6314.11
732.589	6271.63
732.93	6319.76
733.271	6284.28
733.612	6336.26
733.953	6302.36
734.294	6356.15
734.635	6301.01
734.976	6322.7
735.317	6308.46
735.658	6349.59
735.999	6272.31
736.339	6302.14
736.68	6265.75
737.021	6343.04
737.361	6357.5
737.702	6360.44
738.042	6334.68
738.383	6305.53
738.723	6373.32
739.063	6382.81
739.404	6362.25
739.744	6378.52
740.084	6360.21
740.424	6418.97
740.764	6413.32
741.104	6380.33
741.444	6446.54
741.784	6406.54
742.124	6430.95
742.464	6471.17
742.804	6493.09
743.143	6473.66
743.483	6487.67
743.823	6509.59
744.162	6533.32
744.502	6563.15
744.841	6556.82
745.181	6555.46
745.52	6659.42
745.86	6704.39
746.199	6689.7
746.538	6739.87
746.877	6750.71
747.216	6837.04
747.556	6868
747.895	6895.34
748.234	6907.32
748.573	6937.83
748.911	7023.47
749.25	7063.7
749.589	7101.21
749.928	7156.58
750.267	7230.7
750.605	7305.73
750.944	7306.63
751.283	7398.38
751.621	7494.87
751.96	7528.77
752.298	7664.13
752.636	7696
752.975	7797.69
753.313	7873.85
753.651	7941.87
753.989	8064.35
754.327	8196.1
754.666	8241.97
755.004	8336.66
755.342	8502.3
755.679	8537.78
756.017	8688.29
756.355	8851.45
756.693	8970.99
757.031	9086.02
757.368	9269.97
757.706	9312
758.044	9444.88
758.381	9569.85
758.719	9821.14
759.056	9892.78
759.394	10059.1
759.731	10108.59
760.068	10252.77
760.405	10458.86
760.743	10612.08
761.08	10819.08
761.417	10897.72
761.754	11119.64
762.091	11321.21
762.428	11379.29
762.765	11573.18
763.102	11814.99
763.438	11864.02
763.775	12054.98
764.112	12200.06
764.449	12409.09
764.785	12556.44
765.122	12606.38
765.458	12813.6
765.795	12982.86
766.131	13132.47
766.467	13300.37
766.804	13363.87
767.14	13520.93
767.476	13710.53
767.812	13873.24
768.148	13940.35
768.485	14071.88
