Data from hue_20_FLMS001491_37.txt Node
Date: Mon Feb 06 15:33:59 GMT 2017
User: dcchb
Spectrometer: FLMS00149
Trigger mode: 0
Integration Time (sec): 2.000000E-2
Scans to average: 10
Electric dark correction enabled: true
Nonlinearity correction enabled: false
Boxcar width: 0
XAxis mode: Wavelengths
Number of Pixels in Spectrum: 2048
>>>>>Begin Spectral Data<<<<<
341.393	-28.32
341.776	-28.32
342.16	-28.32
342.543	-46.17
342.927	-87.53
343.31	-64.02
343.693	-73.29
344.077	-55.89
344.46	-57.7
344.843	-51.82
345.226	-36.45
345.61	-21.99
345.993	-4.14
346.376	-2.56
346.759	-3.01
347.142	13.49
347.525	41.96
347.908	42.64
348.291	61.85
348.674	93.03
349.057	117.89
349.44	128.06
349.823	151.79
350.206	156.76
350.588	192.01
350.971	198.34
351.354	214.16
351.737	209.64
352.119	243.76
352.502	255.06
352.884	280.37
353.267	285.12
353.65	292.13
354.032	268.17
354.414	276.08
354.797	293.48
355.179	303.88
355.562	324.21
355.944	308.62
356.326	306.14
356.709	342.29
357.091	313.82
357.473	340.71
357.855	330.32
358.238	341.84
358.62	341.84
359.002	328.06
359.384	332.8
359.766	342.75
360.148	340.03
360.53	304.55
360.912	324.44
361.294	343.42
361.676	333.03
362.057	332.8
362.439	321.95
362.821	306.59
363.203	326.93
363.584	342.29
363.966	328.96
364.348	336.19
364.729	337.32
365.111	305.68
365.493	293.71
365.874	326.7
366.256	312.69
366.637	314.27
367.019	307.72
367.4	307.94
367.781	309.3
368.163	300.26
368.544	297.77
368.925	315.4
369.306	313.14
369.688	307.72
370.069	297.55
370.45	307.72
370.831	306.36
371.212	300.03
371.593	287.15
371.974	322.41
372.355	306.36
372.736	300.94
373.117	307.04
373.498	324.44
373.879	323.76
374.26	323.54
374.641	324.89
375.021	309.53
375.402	300.71
375.783	314.95
376.163	304.78
376.544	320.82
376.925	308.62
377.305	323.54
377.686	331.22
378.066	322.41
378.447	347.04
378.827	322.41
379.208	329.19
379.588	328.51
379.968	314.05
380.349	323.08
380.729	322.41
381.109	340.26
381.489	325.12
381.87	322.86
382.25	338.9
382.63	311.79
383.01	347.26
383.39	344.33
383.77	319.92
384.15	341.84
384.53	340.71
384.91	359.24
385.29	336.42
385.67	334.38
386.049	340.49
386.429	342.07
386.809	337.77
387.189	346.13
387.568	344.55
387.948	335.06
388.328	321.28
388.707	339.36
389.087	340.26
389.466	364.44
389.846	337.1
390.225	366.7
390.605	352.69
390.984	347.49
391.363	353.14
391.743	357.21
392.122	343.65
392.501	344.55
392.881	365.34
393.26	357.21
393.639	356.3
394.018	352.24
394.397	365.12
394.776	344.78
395.155	361.05
395.534	356.08
395.913	353.82
396.292	351.33
396.671	370.32
397.05	361.5
397.429	373.25
397.808	365.57
398.186	369.41
398.565	367.83
398.944	384.33
399.323	366.25
399.701	367.15
400.08	387.94
400.458	373.25
400.837	363.08
401.215	385.23
401.594	385.23
401.972	379.35
402.351	375.29
402.729	371.45
403.107	402.18
403.486	371.9
403.864	381.16
404.242	396.53
404.62	403.99
404.999	420.26
405.377	386.13
405.755	397.21
406.133	390.88
406.511	420.71
406.889	392.46
407.267	397.66
407.645	410.99
408.023	413.48
408.401	412.8
408.779	407.15
409.156	424.1
409.534	415.06
409.912	395.4
410.29	415.51
410.667	421.39
411.045	432.91
411.422	434.27
411.8	443.31
412.178	426.58
412.555	437.43
412.933	419.58
413.31	441.95
413.687	442.18
414.065	449.86
414.442	444.44
414.819	439.69
415.197	460.03
415.574	454.38
415.951	458.22
416.328	451.44
416.705	459.58
417.082	453.7
417.46	462.74
417.837	474.72
418.214	473.36
418.591	469.75
418.967	462.06
419.344	480.59
419.721	491.22
420.098	462.29
420.475	484.66
420.852	458.9
421.228	495.28
421.605	485.11
421.982	488.96
422.358	467.49
422.735	486.7
423.111	490.31
423.488	495.74
423.864	475.62
424.241	513.14
424.617	506.81
424.994	514.72
425.37	511.33
425.746	511.78
426.123	508.39
426.499	509.29
426.875	506.58
427.251	528.5
427.627	523.98
428.003	530.08
428.379	526.02
428.756	540.71
429.132	533.7
429.507	530.76
429.883	546.58
430.259	567.15
430.635	536.41
431.011	578.45
431.387	552.01
431.763	564.89
432.138	574.38
432.514	583.42
432.89	577.54
433.265	575.28
433.641	605.79
434.016	590.87
434.392	586.35
434.767	607.37
435.143	595.17
435.518	610.53
435.894	609.18
436.269	621.16
436.644	620.93
437.02	622.96
437.395	594.94
437.77	640.36
438.145	629.29
438.52	635.62
438.895	662.51
439.271	651.21
439.646	636.3
440.021	651.44
440.395	653.7
440.77	650.31
441.145	654.15
441.52	672.23
441.895	697.76
442.27	684.21
442.645	676.07
443.019	709.06
443.394	690.98
443.769	700.93
444.143	679.91
444.518	686.01
444.892	674.94
445.267	685.56
445.641	691.66
446.016	711.55
446.39	727.82
446.764	737.31
447.139	724.2
447.513	704.09
447.887	727.14
448.262	732.11
448.636	760.59
449.01	737.76
449.384	712.45
449.758	744.54
450.132	738.22
450.506	752
450.88	728.05
451.254	767.59
451.628	753.13
452.002	764.43
452.376	764.66
452.75	776.18
453.123	780.93
453.497	803.07
453.871	822.51
454.244	792.9
454.618	797.65
454.992	801.04
455.365	820.92
455.739	842.85
456.112	834.71
456.486	838.78
456.859	831.77
457.232	846.01
457.606	878.55
457.979	862.73
458.352	855.73
458.725	896.18
459.099	885.78
459.472	902.28
459.845	881.71
460.218	931.88
460.591	916.06
460.964	908.61
461.337	950.86
461.71	951.54
462.083	935.95
462.456	974.82
462.829	993.58
463.201	1000.13
463.574	1015.72
463.947	1005.33
464.32	1038.55
464.692	1054.82
465.065	1050.3
465.438	1053.69
465.81	1050.52
466.183	1053.91
466.555	1097.3
466.928	1081.26
467.3	1121.93
467.672	1104.31
468.045	1130.97
468.417	1128.26
468.789	1131.2
469.161	1180.46
469.534	1186.56
469.906	1203.97
470.278	1211.2
470.65	1221.82
471.022	1245.77
471.394	1259.33
471.766	1309.73
472.138	1274.25
472.51	1305.88
472.882	1298.88
473.253	1345.43
473.625	1380.68
473.997	1397.41
474.369	1390.85
474.74	1409.61
475.112	1422.49
475.484	1481.47
475.855	1470.63
476.227	1530.51
476.598	1533.67
476.97	1560.11
477.341	1602.15
477.713	1618.19
478.084	1619.55
478.455	1681.47
478.827	1696.38
479.198	1753.1
479.569	1732.77
479.94	1840.33
480.311	1809.83
480.682	1828.81
481.053	1870.39
481.424	1907.68
481.795	1925.3
482.166	2008.24
482.537	1996.71
482.908	2066.09
483.279	2050.04
483.65	2121
484.021	2169.14
484.391	2184.96
484.762	2227.22
485.133	2266.31
485.503	2286.87
485.874	2328.23
486.244	2330.26
486.615	2363.26
486.985	2452.07
487.356	2514.67
487.726	2529.58
488.097	2562.57
488.467	2557.6
488.837	2645.28
489.207	2663.81
489.578	2695.9
489.948	2737.94
490.318	2773.42
490.688	2793.3
491.058	2859.06
491.428	2888.44
491.798	2932.96
492.168	2965.95
492.538	2991.49
492.908	3026.06
493.278	3065.84
493.648	3080.98
494.017	3118.94
494.387	3157.36
494.757	3226.29
495.126	3211.37
495.496	3253.4
495.866	3269.22
496.235	3344.47
496.605	3358.71
496.974	3371.82
497.344	3369.11
497.713	3397.13
498.082	3445.94
498.452	3460.18
498.821	3508.09
499.19	3545.82
499.559	3541.53
499.928	3583.34
500.298	3592.15
500.667	3661.98
501.036	3629.89
501.405	3693.17
501.774	3633.05
502.143	3691.58
502.512	3744.46
502.88	3743.11
503.249	3768.42
503.618	3773.39
503.987	3803.9
504.356	3773.84
504.724	3887.51
505.093	3858.58
505.462	3864.23
505.83	3887.51
506.199	3929.09
506.567	3960.5
506.936	3932.03
507.304	3991.46
507.672	4000.5
508.041	4002.54
508.409	4042.76
508.777	4080.27
509.145	4078.69
509.514	4086.6
509.882	4127.05
510.25	4118.69
510.618	4158.46
510.986	4157.11
511.354	4232.36
511.722	4201.17
512.09	4285.01
512.458	4267.61
512.826	4275.98
513.193	4315.07
513.561	4308.74
513.929	4305.13
514.297	4357.1
514.664	4400.49
515.032	4411.56
515.4	4388.74
515.767	4427.84
516.135	4430.77
516.502	4433.71
516.869	4482.98
517.237	4501.05
517.604	4450.21
517.972	4562.52
518.339	4604.55
518.706	4544.67
519.073	4581.5
519.44	4586.02
519.808	4638.45
520.175	4583.54
520.542	4696.53
520.909	4675.96
521.276	4694.5
521.643	4708.73
522.009	4742.4
522.376	4730.88
522.743	4752.12
523.11	4763.65
523.477	4849.29
523.843	4861.72
524.21	4910.99
524.577	4912.34
524.943	4909.86
525.31	4928.16
525.676	5003.19
526.043	5004.77
526.409	5045.9
526.776	5111.89
527.142	5083.86
527.508	5132.68
527.874	5146.91
528.241	5147.82
528.607	5227.81
528.973	5233.92
529.339	5232.33
529.705	5267.81
530.071	5282.28
530.437	5302.84
530.803	5386.23
531.169	5387.58
531.535	5405.21
531.901	5402.73
532.267	5403.86
532.632	5495.83
532.998	5563.17
533.364	5518.2
533.73	5498.77
534.095	5593.68
534.461	5589.84
534.826	5547.81
535.192	5636.17
535.557	5679.55
535.923	5651.31
536.288	5732.66
536.653	5705.09
537.019	5685.2
537.384	5785.31
537.749	5785.09
538.114	5781.7
538.479	5810.17
538.845	5840.91
539.21	5860.34
539.575	5842.94
539.94	5873.22
540.305	5919.55
540.67	5925.2
541.034	5950.73
541.399	6011.3
541.764	6001.58
542.129	6007.46
542.494	6040
542.858	6144.85
543.223	6095.81
543.587	6178.3
543.952	6142.37
544.316	6181.91
544.681	6171.97
545.045	6210.61
545.41	6291.29
545.774	6282.02
546.138	6291.74
546.503	6269.37
546.867	6296.26
547.231	6358.41
547.595	6363.6
547.959	6397.05
548.324	6414.9
548.688	6404.96
549.052	6428.69
549.416	6446.09
549.779	6470.49
550.143	6519.53
550.507	6538.51
550.871	6585.74
551.235	6544.39
551.599	6597.5
551.962	6669.13
552.326	6645.63
552.689	6689.25
553.053	6657.61
553.417	6686.99
553.78	6787.1
554.143	6704.39
554.507	6788.45
554.87	6806.53
555.234	6883.82
555.597	6828.22
555.96	6877.26
556.323	6835.23
556.686	6869.81
557.05	6974.44
557.413	6918.39
557.776	6943.7
558.139	7006.52
558.502	7033.42
558.865	7031.38
559.228	7121.78
559.59	7066.41
559.953	7107.99
560.316	7182.79
560.679	7158.39
561.041	7161.77
561.404	7217.37
561.767	7307.31
562.129	7227.76
562.492	7287.42
562.854	7287.2
563.217	7270.92
563.579	7353.18
563.941	7400.41
564.304	7404.48
564.666	7444.48
565.028	7464.82
565.39	7473.41
565.753	7479.96
566.115	7522.22
566.477	7588.88
566.839	7616.23
567.201	7657.81
567.563	7620.75
567.925	7717.24
568.287	7710.24
568.648	7744.81
569.01	7796.11
569.372	7841.08
569.734	7863.68
570.095	7914.52
570.457	7933.05
570.819	7938.7
571.18	7977.57
571.542	8089.21
571.903	8007.85
572.265	8070.68
572.626	8140.96
572.987	8140.28
573.349	8217.57
573.71	8247.4
574.071	8304.57
574.432	8311.12
574.794	8367.17
575.155	8452.81
575.516	8434.51
575.877	8528.07
576.238	8529.2
576.599	8608.97
576.96	8700.27
577.32	8757.21
577.681	8774.61
578.042	8879.02
578.403	9015.29
578.763	9058
579.124	9097.54
579.485	9219.57
579.845	9355.39
580.206	9349.51
580.566	9530.53
580.927	9574.14
581.287	9669.05
581.648	9709.96
582.008	9847.81
582.368	9909.95
582.728	10184.29
583.089	10182.03
583.449	10382.26
583.809	10558.07
584.169	10628.58
584.529	10812.53
584.889	11016.81
585.249	11105.63
585.609	11332.51
585.969	11487.54
586.329	11620.19
586.688	11871.48
587.048	12020.86
587.408	12233.51
587.768	12438.25
588.127	12588.52
588.487	12836.43
588.846	13150.09
589.206	13235.97
589.565	13466.47
589.925	13727.48
590.284	13932.9
590.643	14166.79
591.003	14547.34
591.362	14781.24
591.721	14991.4
592.08	15306.42
592.44	15538.28
592.799	15778.72
593.158	16013.07
593.517	16320.86
593.876	16583.9
594.235	16868.64
594.593	17048.52
594.952	17509.75
595.311	17637.66
595.67	17994.26
596.029	18387.02
596.387	18654.13
596.746	18923.05
597.104	19051.18
597.463	19408.01
597.822	19823.59
598.18	19961.66
598.538	20313.07
598.897	20667.63
599.255	20666.28
599.613	21404.11
599.972	21478.23
600.33	21839.58
600.688	21980.14
601.046	22441.37
601.404	22762.72
601.762	23063.73
602.12	23436.38
602.478	23606.31
602.836	23933.31
603.194	23899.87
603.552	24296.24
603.91	24476.8
604.268	24834.76
604.625	25091.02
604.983	25390.45
605.341	25484.23
605.698	25939.59
606.056	26293.02
606.413	26386.58
606.771	26717.87
607.128	27016.39
607.485	27069.27
607.843	27376.38
608.2	27763.49
608.557	28020.89
608.914	27993.54
609.272	28444.38
609.629	28631.04
609.986	29045.49
610.343	28910.81
610.7	29448.87
611.057	29530.9
611.414	29612.26
611.771	29946.26
612.127	30226.93
612.484	30279.81
612.841	30627.82
613.198	30730.65
613.554	30884.54
613.911	31189.39
614.267	31358.65
614.624	31516.16
614.98	31738.3
615.337	32003.61
615.693	32198.63
616.05	32317.5
616.406	32491.73
616.762	32652.63
617.118	32773.76
617.475	32816.92
617.831	33115.89
618.187	33332.61
618.543	33473.85
618.899	33686.5
619.255	33753.39
619.611	33956.55
619.967	33974.86
620.323	34210.78
620.678	34202.19
621.034	34236.77
621.39	34538.46
621.746	34534.61
622.101	35168.27
622.457	34769.64
622.812	35011.44
623.168	35063.64
623.523	35276.52
623.879	35335.5
624.234	35144.99
624.589	35484.65
624.945	35602.16
625.3	35750.85
625.655	35666.56
626.01	35735.03
626.365	35891.87
626.72	36035.14
627.075	36088.7
627.43	36118.98
627.785	36068.36
628.14	36369.82
628.495	36341.57
628.85	36381.8
629.205	36293.89
629.559	36554
629.914	36373.89
630.269	36609.59
630.623	36562.36
630.978	36547.67
631.332	36706.76
631.687	36900.43
632.041	36681.68
632.396	36824.72
632.75	36758.06
633.104	36866.3
633.459	36678.29
633.813	36868.34
634.167	36688.46
634.521	36818.85
634.875	36856.81
635.229	36877.6
635.583	36674.67
635.937	36767.1
636.291	36782.69
636.645	36836.93
636.999	36864.27
637.352	36931.16
637.706	36672.86
638.06	37019.07
638.413	36895.23
638.767	36770.94
639.121	36941.56
639.474	36734.56
639.828	36817.49
640.181	36926.19
640.534	36888.22
640.888	36787.21
641.241	36680.77
641.594	36702.47
641.947	36786.76
642.301	36760.77
642.654	36812.07
643.007	36906.98
643.36	36749.47
643.713	36748.79
644.066	36838.06
644.419	36595.35
644.771	36503.15
645.124	36189.71
645.477	36117.17
645.83	35896.84
646.182	35765.32
646.535	35658.88
646.888	35762.6
647.24	35627.47
647.593	35785.43
647.945	35729.84
648.298	35676.51
648.65	35498.88
649.002	35463.63
649.355	35676.96
649.707	35490.75
650.059	35716.28
650.411	36074.91
650.763	36294.79
651.115	36581.79
651.467	36548.35
651.819	36566.2
652.171	36339.54
652.523	36396.26
652.875	36302.25
653.227	36138.87
653.578	36442.36
653.93	36491.4
654.282	36308.35
654.633	36166.44
654.985	36300.22
655.337	36319.2
655.688	36280.56
656.039	36350.61
656.391	36105.42
656.742	36109.49
657.094	36184.97
657.445	36197.62
657.796	36100.45
658.147	36200.11
658.498	36250.95
658.849	36211.18
659.2	36128.24
659.551	36116.49
659.902	36143.84
660.253	36159.43
660.604	36175.93
660.955	36021.36
661.306	36180.9
661.656	36108.36
662.007	36221.12
662.358	36162.59
662.708	36080.11
663.059	35959.44
663.409	35867.91
663.76	36149.04
664.11	36036.27
664.461	35970.06
664.811	36113.33
665.161	36034.91
665.511	36034.46
665.862	35977.29
666.212	36037.17
666.562	36069.72
666.912	36000.11
667.262	35927.57
667.612	35950.4
667.962	36038.98
668.312	36077.17
668.662	36153.78
669.011	36017.51
669.361	35863.85
669.711	35892.54
670.06	35871.98
670.41	35826.78
670.76	35801.25
671.109	35911.08
671.459	35834.47
671.808	35821.13
672.157	35964.86
672.507	35635.83
672.856	35698.65
673.205	35777.52
673.554	35875.82
673.904	35676.51
674.253	35808.03
674.602	35739.1
674.951	35194.48
675.3	35123.75
675.649	35624.98
675.998	35601.03
676.346	35660.69
676.695	35600.35
677.044	35458.21
677.393	35559.9
677.741	35617.75
678.09	35486.23
678.438	35518.77
678.787	35450.3
679.135	35418.43
679.484	35314.93
679.832	35380.02
680.181	35199.91
680.529	35430.18
680.877	35227.48
681.225	35191.09
681.573	35296.4
681.922	35026.81
682.27	35141.15
682.618	35070.19
682.966	34958.33
683.314	34984.32
683.661	34966.69
684.009	34890.09
684.357	34715.4
684.705	34643.31
685.053	34726.02
685.4	34675.18
685.748	34503.2
686.095	34409.19
686.443	34395.41
686.79	34407.84
687.138	34383.43
687.485	34294.62
687.832	34138.69
688.18	34256.43
688.527	34107.96
688.874	34051.46
689.221	33978.47
689.568	34000.17
689.915	33904.57
690.262	33865.71
690.609	33870.23
690.956	33718.59
691.303	33685.15
691.65	33561.76
691.997	33429.78
692.344	33270.47
692.69	33276.12
693.037	33383.68
693.383	33071.38
693.73	33197.47
694.077	33023.92
694.423	33037.93
694.769	32876.13
695.116	32774.43
695.462	32711.39
695.808	32682.69
696.155	32648.34
696.501	32563.82
696.847	32451.73
697.193	32399.53
697.539	32323.83
697.885	32184.85
698.231	32020.78
698.577	31957.51
698.923	31962.93
699.269	31867.57
699.614	31576.73
699.96	31656.05
700.306	31675.71
700.651	31456.5
700.997	31426.45
701.342	31292.89
701.688	31367.47
702.033	31267.13
702.379	31245.89
702.724	31070.98
703.069	31180.58
703.415	30675.51
703.76	30658.33
704.105	30819.46
704.45	30722.96
704.795	30557.32
705.14	30508.73
705.485	30361.62
705.83	30250.66
706.175	30451.56
706.52	30186.48
706.865	30197.78
707.209	30150.1
707.554	29983.1
707.899	30047.5
708.243	29994.39
708.588	29955.07
708.932	29683.89
709.277	29692.03
709.621	29721.63
709.966	29530.23
710.31	29569.55
710.654	29319.38
710.998	29402.32
711.342	29367.52
711.687	29335.43
712.031	29278.48
712.375	29137.24
712.719	29148.99
713.063	29156.22
713.407	29156.68
713.75	28968.66
714.094	28907.64
714.438	28835.56
714.782	28917.36
715.125	28623.13
715.469	28707.42
715.812	28620.19
716.156	28441.89
716.499	28464.72
716.843	28503.81
717.186	28338.17
717.53	28474.89
717.873	28389.01
718.216	28311.28
718.559	28246.19
718.902	28097.95
719.246	28069.7
719.589	27951.06
719.932	27987.44
720.275	27935.47
720.617	27929.59
720.96	27771.63
721.303	27865.19
721.646	27811.4
721.989	27665.64
722.331	27703.16
722.674	27718.52
723.016	27623.16
723.359	27643.04
723.701	27581.35
724.044	27377.97
724.386	27305.43
724.729	27455.48
725.071	27222.72
725.413	27326.89
725.755	27290.51
726.097	27244.18
726.439	27045.77
726.782	26932.55
727.124	27216.61
727.465	26888.71
727.807	27016.39
728.149	26872.44
728.491	26871.09
728.833	26933.91
729.175	26782.05
729.516	26827.25
729.858	26673.58
730.199	26758.55
730.541	26648.04
730.882	26599.23
731.224	26709.28
731.565	26330.54
731.906	26406.24
732.248	26425.9
732.589	26369.41
732.93	26460.25
733.271	26272.46
733.612	26287.6
733.953	26351.1
734.294	26248.5
734.635	26173.93
734.976	26235.17
735.317	26048.96
735.658	26030.88
735.999	26084.89
736.339	26001.51
736.68	26061.84
737.021	26054.16
737.361	25830.44
737.702	26016.19
738.042	25766.94
738.383	25793.15
738.723	25829.53
739.063	25654.4
739.404	25827.72
739.744	25636.09
740.084	25580.5
740.424	25655.3
740.764	25601.06
741.104	25665.92
741.444	25549.99
741.784	25350.45
742.124	25422.99
742.464	25432.48
742.804	25361.07
743.143	25309.55
743.483	25285.59
743.823	25187.29
744.162	25241.75
744.502	25227.06
744.841	25060.51
745.181	25127.18
745.52	25086.28
745.86	25082.66
746.199	24957.69
746.538	25030.01
746.877	25146.84
747.216	25017.8
747.556	24949.33
747.895	24955.66
748.234	24850.8
748.573	24851.93
748.911	24804.02
749.25	24770.35
749.589	24611.71
749.928	24705.04
750.267	24689.45
750.605	24556.35
750.944	24504.37
751.283	24364.03
751.621	24593.86
751.96	24367.2
752.298	24336.92
752.636	24408.78
752.975	24279.97
753.313	24165.4
753.651	24328.1
753.989	24185.96
754.327	24181.67
754.666	24013.08
755.004	24131.72
755.342	24014.44
755.679	24014.21
756.017	23905.29
756.355	23937.38
756.693	23785.29
757.031	23885.86
757.368	23622.59
757.706	23723.37
758.044	23584.39
758.381	23665.07
758.719	23533.1
759.056	23591.85
759.394	23447.45
759.731	23351.86
760.068	23367.45
760.405	23201.81
760.743	23114.8
