Data from hue_100_FLMS001491_00078.txt Node
Date: Tue Feb 07 17:03:38 GMT 2017
User: dcchb
Spectrometer: FLMS00149
Trigger mode: 0
Integration Time (sec): 2.000000E-2
Scans to average: 10
Electric dark correction enabled: true
Nonlinearity correction enabled: false
Boxcar width: 0
XAxis mode: Wavelengths
Number of Pixels in Spectrum: 2048
>>>>>Begin Spectral Data<<<<<
341.393	-15.44
341.776	-15.44
342.16	-15.44
342.543	-73.29
342.927	-63.57
343.31	-60.41
343.693	-65.38
344.077	-63.8
344.46	-67.19
344.843	-55.89
345.226	-38.26
345.61	-40.75
345.993	-26.51
346.376	-0.75
346.759	1.74
347.142	30.66
347.525	53.04
347.908	58.01
348.291	95.52
348.674	76.31
349.057	103.66
349.44	142.98
349.823	149.08
350.206	170.77
350.588	187.04
350.971	219.36
351.354	215.06
351.737	228.4
352.119	248.06
352.502	256.19
352.884	265.01
353.267	277.66
353.65	278.34
354.032	308.62
354.414	298
354.797	318.79
355.179	323.31
355.562	326.7
355.944	308.85
356.326	348.39
356.709	343.42
357.091	334.38
357.473	329.64
357.855	326.47
358.238	358.11
358.62	349.75
359.002	328.96
359.384	333.48
359.766	347.26
360.148	353.82
360.53	318.57
360.912	328.28
361.294	312.92
361.676	337.55
362.057	340.94
362.439	332.12
362.821	321.95
363.203	311.79
363.584	314.95
363.966	311.33
364.348	338.23
364.729	324.89
365.111	312.01
365.493	319.02
365.874	309.53
366.256	323.99
366.637	305.91
367.019	321.73
367.4	314.05
367.781	317.66
368.163	304.1
368.544	312.92
368.925	308.4
369.306	338.68
369.688	323.99
370.069	321.5
370.45	296.64
370.831	305.46
371.212	326.7
371.593	333.03
371.974	332.8
372.355	335.74
372.736	319.47
373.117	321.95
373.498	316.31
373.879	320.82
374.26	315.18
374.641	325.34
375.021	320.6
375.402	315.18
375.783	311.56
376.163	336.42
376.544	336.87
376.925	317.21
377.305	327.15
377.686	333.48
378.066	336.64
378.447	340.49
378.827	321.5
379.208	332.8
379.588	348.85
379.968	335.29
380.349	344.78
380.729	344.1
381.109	344.55
381.489	342.29
381.87	337.32
382.25	363.08
382.63	359.02
383.01	348.17
383.39	338
383.77	352.69
384.15	362.86
384.53	353.14
384.91	347.72
385.29	352.01
385.67	354.72
386.049	354.72
386.429	359.02
386.809	371.9
387.189	357.43
387.568	357.89
387.948	371.9
388.328	366.93
388.707	369.64
389.087	370.09
389.466	386.81
389.846	367.38
390.225	381.16
390.605	382.52
390.984	395.63
391.363	369.41
391.743	403.53
392.122	379.35
392.501	408.51
392.881	389.98
393.26	356.76
393.639	388.39
394.018	389.52
394.397	392.69
394.776	398.11
395.155	405.12
395.534	387.49
395.913	394.95
396.292	378.9
396.671	415.06
397.05	410.54
397.429	404.66
397.808	413.25
398.186	412.8
398.565	419.35
398.944	431.56
399.323	421.61
399.701	422.74
400.08	398.11
400.458	415.06
400.837	435.17
401.215	414.16
401.594	415.96
401.972	436.98
402.351	405.57
402.729	414.83
403.107	445.57
403.486	445.57
403.864	447.38
404.242	433.14
404.62	451.22
404.999	447.15
405.377	420.71
405.755	448.51
406.133	462.52
406.511	460.26
406.889	470.88
407.267	466.81
407.645	462.74
408.023	490.31
408.401	466.13
408.779	511.1
409.156	482.63
409.534	487.15
409.912	486.47
410.29	490.09
410.667	477.43
411.045	502.97
411.422	501.39
411.8	505.68
412.178	509.07
412.555	518.79
412.933	520.14
413.31	542.74
413.687	527.37
414.065	548.39
414.442	524.89
414.819	541.38
415.197	543.19
415.574	561.72
415.951	557.2
416.328	541.61
416.705	555.85
417.082	545.68
417.46	567.37
417.837	558.56
418.214	567.6
418.591	563.98
418.967	590.65
419.344	566.69
419.721	608.5
420.098	556.3
420.475	581.16
420.852	582.06
421.228	582.74
421.605	615.51
421.982	606.24
422.358	601.5
422.735	622.29
423.111	614.83
423.488	623.19
423.864	625.45
424.241	636.07
424.617	632.68
424.994	643.3
425.37	630.42
425.746	644.21
426.123	646.01
426.499	661.61
426.875	667.48
427.251	669.52
427.627	688.5
428.003	686.92
428.379	693.47
428.756	693.02
429.132	706.8
429.507	707.71
429.883	712.9
430.259	696.86
430.635	728.05
431.011	709.29
431.387	737.76
431.763	737.76
432.138	753.13
432.514	777.54
432.89	744.54
433.265	781.38
433.641	789.97
434.016	756.52
434.392	777.99
434.767	804.65
435.143	792.22
435.518	826.8
435.894	815.28
436.269	852.56
436.644	824.09
437.02	856.63
437.395	854.37
437.77	848.27
438.145	869.74
438.52	880.13
438.895	878.32
439.271	872.9
439.646	916.06
440.021	926.01
440.395	907.25
440.77	889.17
441.145	915.84
441.52	912
441.895	928.72
442.27	948.15
442.645	918.78
443.019	952.67
443.394	952.45
443.769	944.76
444.143	949.96
444.518	955.38
444.892	979.56
445.267	969.4
445.641	1016.17
446.016	971.66
446.39	984.99
446.764	1004.87
447.139	1010.07
447.513	1022.05
447.887	1050.3
448.262	1038.09
448.636	1035.16
449.01	1043.97
449.384	1060.24
449.758	1047.13
450.132	1056.62
450.506	1081.93
450.88	1075.83
451.254	1082.16
451.628	1122.61
452.002	1114.93
452.376	1126.91
452.75	1146.57
453.123	1157.64
453.497	1159.9
453.871	1133.91
454.244	1194.93
454.618	1213.91
454.992	1230.86
455.365	1225.89
455.739	1251.2
456.112	1269.5
456.486	1284.19
456.859	1279.22
457.232	1316.73
457.606	1309.95
457.979	1338.2
458.352	1345.66
458.725	1365.54
459.099	1377.52
459.472	1392.89
459.845	1415.71
460.218	1436.28
460.591	1425.65
460.964	1437.86
461.337	1482.38
461.71	1495.26
462.083	1516.5
462.456	1550.62
462.829	1539.32
463.201	1573.22
463.574	1598.08
463.947	1592.2
464.32	1655.48
464.692	1624.52
465.065	1662.03
465.438	1725.08
465.81	1722.14
466.183	1732.31
466.555	1766.44
466.928	1784.06
467.3	1791.29
467.672	1850.28
468.045	1882.14
468.417	1907
468.789	1927.11
469.161	1936.83
469.534	2010.05
469.906	2046.2
470.278	2058.41
470.65	2104.05
471.022	2134.11
471.394	2172.08
471.766	2202.13
472.138	2213.43
472.51	2301.56
472.882	2346.53
473.253	2370.94
473.625	2429.92
473.997	2511.73
474.369	2530.48
474.74	2576.58
475.112	2645.51
475.484	2697.71
475.855	2762.34
476.227	2784.71
476.598	2901.77
476.97	2935.22
477.341	3011.15
477.713	3106.97
478.084	3179.51
478.455	3302.67
478.827	3311.25
479.198	3459.27
479.569	3511.7
479.94	3617.24
480.311	3699.27
480.682	3780.62
481.053	3899.94
481.424	4000.73
481.795	4094.06
482.166	4166.6
482.537	4269.42
482.908	4451.79
483.279	4526.14
483.65	4613.82
484.021	4783.31
484.391	4920.7
484.762	5015.84
485.133	5116.63
485.503	5238.89
485.874	5382.16
486.244	5482.27
486.615	5665.54
486.985	5757.29
487.356	5957.96
487.726	6075.25
488.097	6240.44
488.467	6319.09
488.837	6525.63
489.207	6671.39
489.578	6850.6
489.948	6911.39
490.318	7120.87
490.688	7210.14
491.058	7407.64
491.428	7545.49
491.798	7691.7
492.168	7960.4
492.538	8088.08
492.908	8175.99
493.278	8358.58
493.648	8412.59
494.017	8626.6
494.387	8763.31
494.757	8898.45
495.126	9019.13
495.496	9126.47
495.866	9290.53
496.235	9418.66
496.605	9566.91
496.974	9667.02
497.344	9825.21
497.713	9991.76
498.082	10064.75
498.452	10247.34
498.821	10414.57
499.19	10394.46
499.559	10609.37
499.928	10716.48
500.298	10830.61
500.667	10998.06
501.036	11076.7
501.405	11250.48
501.774	11251.84
502.143	11423.13
502.512	11468.55
502.88	11576.35
503.249	11638.04
503.618	11726.17
503.987	11775.89
504.356	12025.6
504.724	12069.22
505.093	12233.05
505.462	12250.45
505.83	12352.82
506.199	12439.6
506.567	12661.97
506.936	12596.21
507.304	12824.9
507.672	12845.92
508.041	13015.86
508.409	13036.2
508.777	13185.8
509.145	13172.24
509.514	13262.18
509.882	13405.23
510.25	13417.43
510.618	13420.14
510.986	13461.95
511.354	13658.78
511.722	13767.03
512.09	13822.84
512.458	13814.26
512.826	13927.92
513.193	14069.62
513.561	14066.9
513.929	14192.1
514.297	14213.11
514.664	14334.02
515.032	14357.52
515.4	14474.13
515.767	14491.53
516.135	14561.35
516.502	14492.2
516.869	14721.12
517.237	14735.14
517.604	14639.77
517.972	14756.6
518.339	14890.39
518.706	14857.39
519.073	14908.46
519.44	14977.84
519.808	15064.84
520.175	14972.64
520.542	15159.53
520.909	15188.91
521.276	15230.49
521.643	15295.57
522.009	15396.13
522.376	15432.74
522.743	15431.16
523.11	15588.9
523.477	15672.74
523.843	15791.15
524.21	15776.46
524.577	15845.16
524.943	15941.88
525.31	15971.49
525.676	16037.47
526.043	16127.87
526.409	16061.43
526.776	16208.32
527.142	16171.48
527.508	16140.07
527.874	16265.49
528.241	16304.81
528.607	16298.03
528.973	16333.51
529.339	16346.17
529.705	16500.06
530.071	16475.43
530.437	16507.97
530.803	16577.8
531.169	16553.62
531.535	16432.72
531.901	16440.63
532.267	16450.34
532.632	16570.34
532.998	16585.26
533.364	16606.05
533.73	16493.51
534.095	16595.2
534.461	16635.65
534.826	16618.02
535.192	16675.65
535.557	16663.67
535.923	16594.75
536.288	16698.93
536.653	16584.35
537.019	16554.07
537.384	16571.7
537.749	16599.49
538.114	16556.1
538.479	16434.07
538.845	16606.72
539.21	16493.28
539.575	16477.69
539.94	16387.3
540.305	16592.04
540.67	16404.02
541.034	16427.29
541.399	16494.41
541.764	16420.51
542.129	16398.37
542.494	16313.17
542.858	16398.14
543.223	16318.82
543.587	16256.9
543.952	16247.19
544.316	16179.39
544.681	16223.23
545.045	16248.77
545.41	16219.16
545.774	16238.15
546.138	16072.73
546.503	16168.54
546.867	16106.4
547.231	16182.78
547.595	16066.85
547.959	16151.37
548.324	15989.11
548.688	16029.56
549.052	15987.31
549.416	15856.01
549.779	15892.39
550.143	15896.69
550.507	15898.04
550.871	15882
551.235	15775.56
551.599	15921.77
551.962	15766.97
552.326	15774.43
552.689	15873.86
553.053	15744.6
553.417	15726.75
553.78	15845.16
554.143	15720.65
554.507	15813.98
554.87	15729.23
555.234	15782.11
555.597	15709.12
555.96	15802.45
556.323	15694.43
556.686	15713.87
557.05	15754.77
557.413	15713.87
557.776	15705.28
558.139	15723.81
558.502	15837.48
558.865	15715
559.228	15791.83
559.59	15752.28
559.953	15777.59
560.316	15944.37
560.679	15739.4
561.041	15859.85
561.404	15897.36
561.767	15955.22
562.129	15851.04
562.492	15952.73
562.854	15850.81
563.217	15890.81
563.579	15846.52
563.941	15938.72
564.304	15973.97
564.666	16026.63
565.028	16019.4
565.39	16005.16
565.753	16090.13
566.115	16134.19
566.477	16179.84
566.839	16161.76
567.201	16143.69
567.563	16194.76
567.925	16282.44
568.287	16270.24
568.648	16178.94
569.01	16232.95
569.372	16267.75
569.734	16170.35
570.095	16272.04
570.457	16388.65
570.819	16397.46
571.18	16316.11
571.542	16506.39
571.903	16410.35
572.265	16446.28
572.626	16479.95
572.987	16509.33
573.349	16522.66
573.71	16565.37
574.071	16565.14
574.432	16520.62
574.794	16641.3
575.155	16620.28
575.516	16571.92
575.877	16670.45
576.238	16649.66
576.599	16631.13
576.96	16627.29
577.32	16649.44
577.681	16717.46
578.042	16721.3
578.403	16646.72
578.763	16615.54
579.124	16661.19
579.485	16761.07
579.845	16747.51
580.206	16768.53
580.566	16659.38
580.927	16643.33
581.287	16740.05
581.648	16692.6
582.008	16727.17
582.368	16728.08
582.728	16754.52
583.089	16726.04
583.449	16731.69
583.809	16663.45
584.169	16693.95
584.529	16670.45
584.889	16821.63
585.249	16583.9
585.609	16539.38
585.969	16709.77
586.329	16561.53
586.688	16634.52
587.048	16609.44
587.408	16507.74
587.768	16496.44
588.127	16566.27
588.487	16569.66
588.846	16664.35
589.206	16453.51
589.565	16623.67
589.925	16595.2
590.284	16527.86
590.643	16528.99
591.003	16563.11
591.362	16530.34
591.721	16472.72
592.08	16451.25
592.44	16574.86
592.799	16466.62
593.158	16476.78
593.517	16543.9
593.876	16470.46
594.235	16429.33
594.593	16404.47
594.952	16457.12
595.311	16322.44
595.67	16436.11
596.029	16527.4
596.387	16594.97
596.746	16510.23
597.104	16450.12
597.463	16455.54
597.822	16531.7
598.18	16413.51
598.538	16445.15
598.897	16549.78
599.255	16332.16
599.613	16544.58
599.972	16425.71
600.33	16519.72
600.688	16458.71
601.046	16522.88
601.404	16553.62
601.762	16451.93
602.12	16557.01
602.478	16468.2
602.836	16487.18
603.194	16484.92
603.552	16446.28
603.91	16459.61
604.268	16570.57
604.625	16488.76
604.983	16562.43
605.341	16372.83
605.698	16448.76
606.056	16579.61
606.413	16402.89
606.771	16440.85
607.128	16557.01
607.485	16542.09
607.843	16537.35
608.2	16587.29
608.557	16669.55
608.914	16505.03
609.272	16674.07
609.629	16670.9
609.986	16743.44
610.343	16605.37
610.7	16671.81
611.057	16696.44
611.414	16631.36
611.771	16806.95
612.127	16771.92
612.484	16793.39
612.841	16761.07
613.198	16797.68
613.554	16708.19
613.911	16768.98
614.267	16735.31
614.624	16750.22
614.98	16841.29
615.337	16919.03
615.693	16836.1
616.05	16780.73
616.406	16936.21
616.762	16943.66
617.118	16836.32
617.475	16844.01
617.831	16912.48
618.187	16909.09
618.543	16860.73
618.899	16950.22
619.255	16936.89
619.611	16973.72
619.967	17056.43
620.323	17077.45
620.678	16925.59
621.034	16971.01
621.39	17086.49
621.746	16942.31
622.101	17093.49
622.457	17018.92
622.812	17103.43
623.168	17013.72
623.523	17022.53
623.879	17111.57
624.234	17018.92
624.589	17067.28
624.945	17011.69
625.3	17074.06
625.655	17105.69
626.01	16982.31
626.365	16938.47
626.72	16957.68
627.075	17034.06
627.43	16878.81
627.785	16942.08
628.14	16986.83
628.495	17000.16
628.85	16931.69
629.205	16953.83
629.559	17011.69
629.914	16924
630.269	16923.33
630.623	16910.22
630.978	16824.35
631.332	16954.29
631.687	16865.25
632.041	16823.44
632.396	16854.85
632.75	16722.88
633.104	16818.7
633.459	16714.29
633.813	16691.69
634.167	16697.57
634.521	16799.94
634.875	16705.48
635.229	16769.88
635.583	16647.18
635.937	16603.33
636.291	16609.66
636.645	16618.48
636.999	16547.52
637.352	16555.88
637.706	16486.05
638.06	16547.74
638.413	16499.38
638.767	16378.26
639.121	16542.77
639.474	16408.09
639.828	16426.84
640.181	16375.32
640.534	16334.19
640.888	16266.17
641.241	16336.45
641.594	16392.94
641.947	16388.88
642.301	16319.5
642.654	16323.12
643.007	16308.88
643.36	16331.48
643.713	16213.06
644.066	16226.85
644.419	16222.78
644.771	16121.09
645.124	16016.46
645.477	15945.5
645.83	15853.98
646.182	15822.56
646.535	15858.04
646.888	15791.38
647.24	15643.13
647.593	15709.35
647.945	15744.6
648.298	15676.35
648.65	15661.44
649.002	15553.19
649.355	15712.28
649.707	15668.67
650.059	15792.06
650.411	15984.14
650.763	16040.86
651.115	16067.76
651.467	15986.4
651.819	16052.39
652.171	16026.63
652.523	16014.88
652.875	16005.38
653.227	16034.76
653.578	16061.65
653.93	16055.33
654.282	15985.5
654.633	15942.56
654.985	15988.44
655.337	15962.22
655.688	16047.87
656.039	16087.64
656.391	15919.74
656.742	15917.7
657.094	16006.29
657.445	16086.96
657.796	16023.01
658.147	15933.07
658.498	15940.3
658.849	16096
659.2	16054.42
659.551	15990.92
659.902	16035.89
660.253	16061.65
660.604	16110.92
660.955	16023.24
661.306	16060.98
661.656	16122.44
662.007	16041.77
662.358	16086.74
662.708	15969
663.059	16035.67
663.409	15891.71
663.76	16098.94
664.11	16046.29
664.461	16066.63
664.811	16110.01
665.161	16015.55
665.511	16037.7
665.862	16137.13
666.212	16107.08
666.562	16027.98
666.912	16054.2
667.262	16082.9
667.612	16143.91
667.962	16081.99
668.312	15990.02
668.662	16054.87
669.011	16015.33
669.361	16039.28
669.711	16073.86
670.06	15997.47
670.41	15935.78
670.76	15974.65
671.109	15998.15
671.459	16041.99
671.808	16004.03
672.157	15971.26
672.507	15886.52
672.856	15936.01
673.205	15931.04
673.554	15975.33
673.904	15869.34
674.253	16013.52
674.602	15863.47
674.951	15706.18
675.3	15609.01
675.649	15857.59
675.998	15793.86
676.346	15828.89
676.695	15881.55
677.044	15738.95
677.393	15804.94
677.741	15767.2
678.09	15730.82
678.438	15717.93
678.787	15788.44
679.135	15772.85
679.484	15653.08
679.832	15634.77
680.181	15619.18
680.529	15658.27
680.877	15507.54
681.225	15527.66
681.573	15572.85
681.922	15451.73
682.27	15354.55
682.618	15391.84
682.966	15440.65
683.314	15337.15
683.661	15272.52
684.009	15258.74
684.357	15218.29
684.705	15210.83
685.053	15216.48
685.4	15163.6
685.748	15191.17
686.095	15186.87
686.443	15081.79
686.79	15021.23
687.138	15019.2
687.485	15032.98
687.832	15023.49
688.18	15024.62
688.527	14956.82
688.874	14943.27
689.221	14867.11
689.568	14809.48
689.915	14728.36
690.262	14803.16
690.609	14662.14
690.956	14716.38
691.303	14588.25
691.65	14539.21
691.997	14533.56
692.344	14486.78
692.69	14342.15
693.037	14412.88
693.383	14278.42
693.73	14268.48
694.077	14162.49
694.423	14195.94
694.769	14159.33
695.116	14133.57
695.462	14071.2
695.808	14067.13
696.155	14014.48
696.501	13896.97
696.847	13902.84
697.193	13791.88
697.539	13858.55
697.885	13747.36
698.231	13618.78
698.577	13642.51
698.923	13630.76
699.269	13552.34
699.614	13469.86
699.96	13453.13
700.306	13346.25
700.651	13292.01
700.997	13383.31
701.342	13253.59
701.688	13310.99
702.033	13206.36
702.379	13170.2
702.724	13154.16
703.069	13108.06
703.415	13004.11
703.76	13031.9
704.105	12944.67
704.45	12883.66
704.795	12836.65
705.14	12819.71
705.485	12715.3
705.83	12768.18
706.175	12714.4
706.52	12695.87
706.865	12591.46
707.209	12634.85
707.554	12567.51
707.899	12548.07
708.243	12443.9
708.588	12428.08
708.932	12360.06
709.277	12343.33
709.621	12321.41
709.966	12297.46
710.31	12311.24
710.654	12187.18
710.998	12206.61
711.342	12085.04
711.687	12205.26
712.031	12045.71
712.375	12015.66
712.719	12099.5
713.063	12059.27
713.407	12024.47
713.75	11898.6
714.094	11899.96
714.438	11954.19
714.782	11856.57
715.125	11779.28
715.469	11861.99
715.812	11843.69
716.156	11685.5
716.499	11779.28
716.843	11741.09
717.186	11687.53
717.53	11737.93
717.873	11772.5
718.216	11689.79
718.559	11637.36
718.902	11544.03
719.246	11609.34
719.589	11602.11
719.932	11479.4
720.275	11597.59
720.617	11499.51
720.96	11502.45
721.303	11553.07
721.646	11551.26
721.989	11436.46
722.331	11506.29
722.674	11414.54
723.016	11519.85
723.359	11445.5
723.701	11481.21
724.044	11362.12
724.386	11260.88
724.729	11395.79
725.071	11285.96
725.413	11370.93
725.755	11330.03
726.097	11281.44
726.439	11215
726.782	11296.13
727.124	11282.12
727.465	11268.11
727.807	11195.79
728.149	11202.12
728.491	11191.73
728.833	11237.6
729.175	11148.11
729.516	11179.52
729.858	11158.51
730.199	11150.37
730.541	11166.64
730.882	11136.36
731.224	11177.94
731.565	11142.01
731.906	11164.38
732.248	11190.82
732.589	11048.23
732.93	11064.5
733.271	11140.43
733.612	11126.64
733.953	11093.65
734.294	11077.38
734.635	11122.8
734.976	11026.53
735.317	11073.31
735.658	11097.26
735.999	11148.34
736.339	11055.01
736.68	11210.48
737.021	11132.97
737.361	11070.6
737.702	11194.44
738.042	11053.2
738.383	11125.29
738.723	11189.92
739.063	11117.83
739.404	11138.39
739.744	11159.86
740.084	11168
740.424	11222.01
740.764	11226.3
741.104	11130.03
741.444	11181.56
741.784	11275.57
742.124	11238.96
742.464	11230.37
742.804	11312.4
743.143	11232.63
743.483	11312.17
743.823	11191.95
744.162	11272.85
744.502	11320.54
744.841	11351.95
745.181	11350.59
745.52	11408.89
745.86	11388.33
746.199	11485.5
746.538	11504.94
746.877	11693.86
747.216	11678.27
747.556	11704.71
747.895	11793.29
748.234	11762.11
748.573	11764.82
748.911	11885.72
749.25	11868.77
749.589	11891.37
749.928	12055.43
750.267	12174.52
750.605	12174.3
750.944	12286.39
751.283	12342.66
751.621	12393.95
751.96	12456.55
752.298	12604.12
752.636	12737
752.975	12792.81
753.313	12829.87
753.651	13025.58
753.989	13038.23
754.327	13110.32
754.666	13225.34
755.004	13367.04
755.342	13509.86
755.679	13731.09
756.017	13687.48
