Data from hue_70_FLMS001491_73.txt Node
Date: Mon Feb 06 15:21:24 GMT 2017
User: dcchb
Spectrometer: FLMS00149
Trigger mode: 0
Integration Time (sec): 2.000000E-2
Scans to average: 10
Electric dark correction enabled: true
Nonlinearity correction enabled: false
Boxcar width: 0
XAxis mode: Wavelengths
Number of Pixels in Spectrum: 2048
>>>>>Begin Spectral Data<<<<<
341.393	-37.39
341.776	-37.39
342.16	-37.39
342.543	-45.75
342.927	-88.91
343.31	-68.35
343.693	-95.24
344.077	-52.75
344.46	-64.05
344.843	-56.59
345.226	-40.78
345.61	-24.73
345.993	-20.89
346.376	-1.91
346.759	16.17
347.142	8.04
347.525	51.88
347.908	62.95
348.291	83.74
348.674	94.81
349.057	107.69
349.44	102.95
349.823	108.82
350.206	153.12
350.588	179.33
350.971	197.64
351.354	223.85
351.737	230.63
352.119	260.91
352.502	248.93
352.884	253.68
353.267	276.28
353.65	278.54
354.032	316.73
354.414	301.81
354.797	304.07
355.179	301.59
355.562	307.24
355.944	331.64
356.326	314.7
356.709	340.91
357.091	320.34
357.473	349.27
357.855	321.47
358.238	337.07
358.62	347.69
359.002	341.14
359.384	347.69
359.766	312.44
360.148	334.58
360.53	329.38
360.912	336.84
361.294	311.76
361.676	306.79
362.057	339.55
362.439	335.94
362.821	319.21
363.203	307.01
363.584	317.86
363.966	328.48
364.348	318.08
364.729	317.18
365.111	327.35
365.493	308.59
365.874	316.05
366.256	304.07
366.637	323.51
367.019	286.67
367.4	308.82
367.781	319.21
368.163	318.99
368.544	301.14
368.925	286.67
369.306	337.07
369.688	305.2
370.069	286
370.45	286
370.831	306.11
371.212	301.59
371.593	314.02
371.974	310.85
372.355	297.52
372.736	292.55
373.117	328.71
373.498	295.26
373.879	302.27
374.26	304.3
374.641	322.83
375.021	300.01
375.402	304.07
375.783	329.16
376.163	307.92
376.544	325.99
376.925	308.59
377.305	323.96
377.686	315.83
378.066	308.14
378.447	307.01
378.827	304.07
379.208	325.77
379.588	324.64
379.968	326.67
380.349	330.97
380.729	339.78
381.109	310.63
381.489	321.93
381.87	327.12
382.25	310.63
382.63	341.14
383.01	321.25
383.39	329.38
383.77	305.66
384.15	349.72
384.53	323.73
384.91	345.43
385.29	337.29
385.67	363.06
386.049	353.11
386.429	323.51
386.809	353.56
387.189	340.23
387.568	337.07
387.948	327.58
388.328	338.88
388.707	345.43
389.087	354.92
389.466	358.54
389.846	348.82
390.225	358.76
390.605	361.02
390.984	337.75
391.363	366.45
391.743	359.89
392.122	354.92
392.501	378.2
392.881	364.41
393.26	360.57
393.639	350.85
394.018	360.57
394.397	370.51
394.776	373
395.155	365.09
395.534	371.19
395.913	394.92
396.292	387.46
396.671	358.76
397.05	354.47
397.429	368.48
397.808	369.38
398.186	363.51
398.565	386.56
398.944	367.12
399.323	361.25
399.701	391.76
400.08	377.97
400.458	376.39
400.837	375.03
401.215	386.33
401.594	385.2
401.972	381.13
402.351	400.57
402.729	377.29
403.107	390.85
403.486	403.96
403.864	375.71
404.242	401.02
404.62	390.63
404.999	396.05
405.377	392.43
405.755	394.02
406.133	407.35
406.511	401.7
406.889	418.42
407.267	417.97
407.645	427.01
408.023	427.69
408.401	438.31
408.779	410.06
409.156	416.16
409.534	433.56
409.912	421.36
410.29	410.96
410.667	433.56
411.045	433.11
411.422	411.87
411.8	435.37
412.178	436.27
412.555	450.74
412.933	454.8
413.31	460.91
413.687	450.96
414.065	437.63
414.442	453.22
414.819	468.82
415.197	455.48
415.574	462.49
415.951	464.52
416.328	467.01
416.705	451.41
417.082	483.28
417.46	454.35
417.837	476.95
418.214	466.33
418.591	492.77
418.967	501.13
419.344	485.76
419.721	493.45
420.098	473.56
420.475	492.09
420.852	506.55
421.228	500.23
421.605	509.49
421.982	534.35
422.358	514.24
422.735	508.81
423.111	518.53
423.488	524.41
423.864	519.89
424.241	523.05
424.617	539.32
424.994	523.5
425.37	521.7
425.746	521.02
426.123	516.72
426.499	552.88
426.875	530.51
427.251	538.42
427.627	554.46
428.003	551.07
428.379	540.45
428.756	568.02
429.132	594.24
429.507	580.22
429.883	575.03
430.259	597.17
430.635	587.91
431.011	581.81
431.387	594.69
431.763	619.32
432.138	586.33
432.514	591.98
432.89	597.4
433.265	632.2
433.641	638.08
434.016	597.17
434.392	626.78
434.767	630.84
435.143	651.64
435.518	641.69
435.894	627.46
436.269	621.13
436.644	634.69
437.02	661.13
437.395	630.62
437.77	683.27
438.145	664.06
438.52	666.32
438.895	677.85
439.271	675.14
439.646	685.31
440.021	672.65
440.395	725.31
440.77	700
441.145	683.05
441.52	701.58
441.895	751.97
442.27	705.19
442.645	721.69
443.019	729.83
443.394	721.01
443.769	708.13
444.143	746.77
444.518	743.61
444.892	714.23
445.267	754.46
445.641	765.98
446.016	765.76
446.39	775.25
446.764	731.63
447.139	757.85
447.513	766.66
447.887	761.91
448.262	760.79
448.636	805.3
449.01	772.08
449.384	794
449.758	791.52
450.132	808.47
450.506	814.79
450.88	793.78
451.254	851.86
451.628	847.34
452.002	818.41
452.376	815.92
452.75	863.16
453.123	847.56
453.497	848.69
453.871	849.82
454.244	853.66
454.618	909.71
454.992	878.97
455.365	882.36
455.739	901.12
456.112	901.57
456.486	907.67
456.859	945.64
457.232	926.66
457.606	935.7
457.979	965.98
458.352	956.03
458.725	962.14
459.099	993.32
459.472	1001.91
459.845	994.23
460.218	1009.82
460.591	1022.02
460.964	1066.09
461.337	1039.2
461.71	1072.19
462.083	1087.1
462.456	1091.17
462.829	1102.25
463.201	1109.7
463.574	1105.63
463.947	1136.59
464.32	1149.7
464.692	1168.23
465.065	1172.07
465.438	1173.43
465.81	1181.79
466.183	1198.51
466.555	1220.21
466.928	1260.21
467.3	1265.18
467.672	1285.97
468.045	1330.04
468.417	1345.63
468.789	1341.56
469.161	1347.66
469.534	1395.57
469.906	1427.66
470.278	1441.45
470.65	1459.3
471.022	1494.33
471.394	1527.09
471.766	1553.31
472.138	1568.22
472.51	1583.81
472.882	1626.3
473.253	1648.9
473.625	1683.25
473.997	1752.62
474.369	1777.26
474.74	1789.01
475.112	1846.86
475.484	1881.66
475.855	1945.84
476.227	1951.71
476.598	2042.79
476.97	2072.61
477.341	2103.35
477.713	2179.96
478.084	2224.25
478.455	2308.77
478.827	2323.91
479.198	2463.79
479.569	2466.5
479.94	2582.43
480.311	2607.97
480.682	2713.28
481.053	2756.21
481.424	2862.88
481.795	2946.26
482.166	3012.48
482.537	3080.5
482.908	3222.87
483.279	3305.8
483.65	3364.78
484.021	3455.18
484.391	3568.17
484.762	3646.13
485.133	3733.36
485.503	3854.49
485.874	3959.35
486.244	4010.87
486.615	4175.84
486.985	4301.93
487.356	4399.79
487.726	4472.1
488.097	4664.64
488.467	4790.74
488.837	4907.79
489.207	5035.02
489.578	5129.71
489.948	5262.81
490.318	5418.97
490.688	5569.25
491.058	5669.81
491.428	5782.8
491.798	5958.16
492.168	6093.3
492.538	6239.96
492.908	6311.83
493.278	6550.92
493.648	6643.12
494.017	6744.13
494.387	6884.69
494.757	7080.39
495.126	7217.34
495.496	7321.52
495.866	7451.68
496.235	7580.94
496.605	7742.07
496.974	7841.95
497.344	7964.66
497.713	8128.05
498.082	8244.88
498.452	8420.7
498.821	8536.4
499.19	8612.33
499.559	8791.53
499.928	8852.32
500.298	9031.53
500.667	9202.15
501.036	9175.93
501.405	9396.04
501.774	9500.22
502.143	9603.04
502.512	9742.24
502.88	9801
503.249	10024.95
503.618	10157.15
503.987	10224.49
504.356	10305.39
504.724	10399.85
505.093	10597.36
505.462	10673.07
505.83	10815.44
506.199	10949.44
506.567	11049.55
506.936	11130.68
507.304	11327.96
507.672	11418.58
508.041	11515.98
508.409	11607.96
508.777	11758.91
509.145	11825.13
509.514	11894.05
509.882	12017.89
510.25	12124.78
510.618	12288.84
510.986	12341.5
511.354	12501.95
511.722	12543.3
512.09	12669.4
512.458	12726.12
512.826	12889.05
513.193	12908.49
513.561	13047.02
513.929	13122.49
514.297	13242.49
514.664	13364.07
515.032	13431.19
515.4	13562.26
515.767	13643.61
516.135	13732.65
516.502	13705.53
516.869	13957.95
517.237	13994.56
517.604	13943.94
517.972	14152.3
518.339	14198.4
518.706	14307.55
519.073	14287.44
519.44	14471.61
519.808	14593.42
520.175	14590.03
520.542	14789.57
520.909	14862.79
521.276	14849.68
521.643	15051.71
522.009	15145.04
522.376	15220.74
522.743	15369.67
523.11	15495.09
523.477	15548.19
523.843	15630.9
524.21	15813.27
524.577	15872.03
524.943	15900.73
525.31	16005.58
525.676	16098.69
526.043	16245.8
526.409	16285.57
526.776	16444.44
527.142	16488.51
527.508	16599.46
527.874	16680.82
528.241	16668.16
528.607	16794.71
528.973	16901.6
529.339	16904.54
529.705	17105.89
530.071	17121.48
530.437	17196.74
530.803	17287.36
531.169	17428.37
531.535	17369.16
531.901	17359.44
532.267	17399.22
532.632	17507.46
532.998	17549.72
533.364	17549.04
533.73	17584.3
534.095	17790.39
534.461	17763.28
534.826	17904.52
535.192	17929.37
535.557	18046.21
535.923	17861.58
536.288	17943.61
536.653	18165.75
537.019	17983.38
537.384	18118.29
537.749	18061.57
538.114	18131.63
538.479	18247.78
538.845	18243.72
539.21	18117.84
539.575	18223.38
539.94	18243.72
540.305	18318.29
540.67	18306.31
541.034	18399.42
541.399	18498.17
541.764	18425.63
542.129	18417.27
542.494	18443.26
542.858	18481.45
543.223	18467.89
543.587	18516.93
543.952	18512.41
544.316	18516.7
544.681	18528.91
545.045	18562.35
545.41	18629.24
545.774	18688.9
546.138	18646.19
546.503	18821.33
546.867	18655.68
547.231	18874.66
547.595	18793.08
547.959	18846.41
548.324	18866.52
548.688	18823.59
549.052	18832.63
549.416	18865.39
549.779	18866.75
550.143	18871.5
550.507	18942.91
550.871	18979.06
551.235	19001.89
551.599	19043.02
551.962	19029.23
552.326	19147.87
552.689	19191.94
553.053	19097.03
553.417	19089.57
553.78	19381.54
554.143	19165.72
554.507	19183.13
554.87	19237.59
555.234	19420.63
555.597	19201.43
555.96	19423.12
556.323	19427.19
556.686	19320.3
557.05	19498.37
557.413	19558.48
557.776	19521.42
558.139	19723.68
558.502	19712.6
558.865	19727.52
559.228	19886.61
559.59	19805.71
559.953	19842.54
560.316	20015.19
560.679	19982.43
561.041	20080.73
561.404	20058.58
561.767	20256.77
562.129	20074.4
562.492	20360.95
562.854	20314.17
563.217	20319.37
563.579	20368.86
563.941	20412.7
564.304	20508.51
564.666	20584.67
565.028	20657.21
565.39	20631.9
565.753	20678.68
566.115	20786.47
566.477	20755.51
566.839	20858.56
567.201	20954.6
567.563	20926.81
567.925	21090.19
568.287	21069.4
568.648	21208.83
569.01	21342.16
569.372	21361.6
569.734	21215.61
570.095	21397.76
570.457	21401.37
570.819	21455.16
571.18	21417.19
571.542	21577.86
571.903	21620.12
572.265	21708.03
572.626	21723.85
572.987	21745.77
573.349	21728.14
573.71	21883.17
574.071	21914.35
574.432	21942.6
574.794	22060.34
575.155	22132.65
575.516	21966.78
575.877	22046.1
576.238	22014.24
576.599	22165.65
576.96	22214.23
577.32	22107.12
577.681	22237.51
578.042	22258.3
578.403	22310.27
578.763	22326.09
579.124	22311.18
579.485	22423.49
579.845	22446.32
580.206	22442.47
580.566	22386.66
580.927	22397.05
581.287	22573.54
581.648	22403.61
582.008	22619.87
582.368	22457.84
582.728	22532.19
583.089	22486.54
583.449	22545.52
583.809	22587.56
584.169	22526.77
584.529	22571.51
584.889	22546.65
585.249	22515.24
585.609	22461.68
585.969	22594.79
586.329	22400.44
586.688	22581.91
587.048	22497.84
587.408	22482.7
587.768	22621.23
588.127	22499.87
588.487	22416.26
588.846	22679.53
589.206	22443.15
589.565	22496.71
589.925	22670.49
590.284	22538.97
590.643	22563.6
591.003	22521.79
591.362	22584.62
591.721	22646.31
592.08	22576.93
592.44	22505.3
592.799	22556.37
593.158	22569.03
593.517	22630.72
593.876	22591.62
594.235	22579.65
594.593	22564.28
594.952	22699.19
595.311	22656.48
595.67	22579.19
596.029	22746.65
596.387	22685.41
596.746	22677.72
597.104	22642.24
597.463	22642.92
597.822	22657.38
598.18	22609.93
598.538	22576.03
598.897	22729.25
599.255	22450.38
599.613	22823.71
599.972	22768.57
600.33	22835.68
600.688	22646.99
601.046	22778.74
601.404	22854.22
601.762	22891.05
602.12	22992.06
602.478	22876.59
602.836	22903.25
603.194	22791.62
603.552	22869.81
603.91	22692.19
604.268	22907.77
604.625	22829.13
604.983	22942.12
605.341	22836.36
605.698	22960.2
606.056	22900.77
606.413	23024.83
606.771	22990.03
607.128	23077.26
607.485	23039.75
607.843	22994.1
608.2	23113.19
608.557	23131.04
608.914	23082.91
609.272	23196.13
609.629	23305.95
609.986	23299.18
610.343	23217.6
610.7	23392.28
611.057	23326.52
611.414	23324.49
611.771	23329.46
612.127	23431.15
612.484	23339.85
612.841	23527.87
613.198	23516.57
613.554	23449.23
613.911	23598.6
614.267	23612.84
614.624	23596.12
614.98	23669.56
615.337	23821.65
615.693	23644.03
616.05	23609
616.406	23709.56
616.762	23749.11
617.118	23748.2
617.475	23814.42
617.831	23894.19
618.187	23851.7
618.543	23862.78
618.899	23941.64
619.255	23914.07
619.611	23871.82
619.967	24065.48
620.323	24056.22
620.678	23970.34
621.034	23939.16
621.39	23991.59
621.746	23931.25
622.101	24316.55
622.457	23992.04
622.812	24103.22
623.168	24143.9
623.523	24161.98
623.879	24257.34
624.234	24151.58
624.589	24324.46
624.945	24177.8
625.3	24275.42
625.655	24197.23
626.01	24192.71
626.365	24217.57
626.72	24252.82
627.075	24257.79
627.43	24176.44
627.785	24149.32
628.14	24203.33
628.495	24207.17
628.85	24196.1
629.205	24012.38
629.559	24168.08
629.914	24114.07
630.269	24040.85
630.623	24093.05
630.978	24049.89
631.332	24128.08
631.687	24221.19
632.041	24042.21
632.396	24038.37
632.75	23977.12
633.104	24124.46
633.459	23859.84
633.813	23985.71
634.167	23983.45
634.521	23913.4
634.875	23940.97
635.229	23889.44
635.583	23867.3
635.937	23849.44
636.291	23709.56
636.645	23781.65
636.999	23795.66
637.352	23780.74
637.706	23645.61
638.06	23915.66
638.413	23709.56
638.767	23643.57
639.121	23693.74
639.474	23454.88
639.828	23613.74
640.181	23617.59
640.534	23611.03
640.888	23521.54
641.241	23479.51
641.594	23454.65
641.947	23539.17
642.301	23497.36
642.654	23415.33
643.007	23528.32
643.36	23510.7
643.713	23414.2
644.066	23536.91
644.419	23430.92
644.771	23114.77
645.124	23027.32
645.477	23053.76
645.83	22866.87
646.182	22754.78
646.535	22693.77
646.888	22795.69
647.24	22610.61
647.593	22703.03
647.945	22682.92
648.298	22591.62
648.65	22494.22
649.002	22547.33
649.355	22573.77
649.707	22615.8
650.059	22649.02
650.411	22935.34
650.763	23071.84
651.115	23211.27
651.467	23165.62
651.819	23103.47
652.171	23170.14
652.523	23133.08
652.875	23021.89
653.227	22937.38
653.578	23092.85
653.93	23074.55
654.282	22998.84
654.633	22979.41
654.985	23017.6
655.337	22983.03
655.688	23082.46
656.039	23197.03
656.391	23016.7
656.742	22985.96
657.094	23030.48
657.445	23064.15
657.796	23004.49
658.147	22859.87
658.498	22877.49
658.849	22982.8
659.2	23005.62
659.551	22955.23
659.902	22999.07
660.253	22952.07
660.604	22901.22
660.955	22944.83
661.306	23081.33
661.656	22826.65
662.007	22939.86
662.358	22966.98
662.708	23007.66
663.059	22978.28
663.409	22778.06
663.76	22964.27
664.11	22927.43
664.461	22964.04
664.811	22991.16
665.161	22939.41
665.511	22938.96
665.862	23011.5
666.212	23014.44
666.562	23018.05
666.912	22896.7
667.262	22952.97
667.612	23028.9
667.962	23046.75
668.312	22886.76
668.662	23075
669.011	22990.48
669.361	22968.34
669.711	22936.25
670.06	22877.49
670.41	22843.37
670.76	22837.27
671.109	23007.66
671.459	22814.22
671.808	22746.65
672.157	22851.05
672.507	22661.23
672.856	22734.44
673.205	22755.69
673.554	22859.41
673.904	22739.19
674.253	22840.88
674.602	22770.83
674.951	22492.42
675.3	22422.36
675.649	22776.25
675.998	22592.53
676.346	22688.12
676.695	22834.33
677.044	22671.17
677.393	22637.5
677.741	22666.88
678.09	22697.84
678.438	22547.1
678.787	22633.43
679.135	22641.34
679.484	22440.67
679.832	22505.3
680.181	22350.27
680.529	22434.11
680.877	22320.22
681.225	22357.05
681.573	22456.94
681.922	22249.49
682.27	22144.86
682.618	22239.32
682.966	22136.27
683.314	22289.48
683.661	22183.5
684.009	21969.94
684.357	21976.05
684.705	21929.72
685.053	21909.38
685.4	21882.94
685.748	21863.28
686.095	21709.16
686.443	21673.91
686.79	21653.57
687.138	21678.2
687.485	21689.95
687.832	21557.75
688.18	21578.32
688.527	21512.78
688.874	21485.89
689.221	21402.05
689.568	21379
689.915	21280.47
690.262	21310.3
690.609	21185.56
690.956	21108.95
691.303	21133.58
691.65	21056.52
691.997	20987.15
692.344	20882.74
692.69	20856.3
693.037	20841.84
693.383	20685.01
693.73	20791.67
694.077	20573.6
694.423	20600.49
694.769	20585.35
695.116	20488.63
695.462	20436.88
695.808	20408.86
696.155	20436.88
696.501	20245.7
696.847	20276.88
697.193	20042.76
697.539	20108.52
697.885	19909.43
698.231	19923.45
698.577	19957.57
698.923	19911.24
699.269	19777.69
699.614	19699.04
699.96	19668.08
700.306	19631.48
700.651	19453.63
700.997	19465.38
701.342	19460.18
701.688	19341.99
702.033	19301.99
702.379	19235.78
702.724	19275.78
703.069	19254.99
703.415	18939.29
703.76	19096.12
704.105	18957.14
704.45	18973.87
704.795	18784.49
705.14	18712.4
705.485	18717.6
705.83	18737.94
706.175	18728
706.52	18514.22
706.865	18572.75
707.209	18507.89
707.554	18328.01
707.899	18435.35
708.243	18410.72
708.588	18335.92
708.932	18243.94
709.277	18151.74
709.621	18124.85
709.966	18091.85
710.31	18114
710.654	17932.08
710.998	17905.87
711.342	17907.9
711.687	17835.36
712.031	17838.75
712.375	17777.29
712.719	17782.26
713.063	17731.41
713.407	17768.47
713.75	17685.54
714.094	17631.53
714.438	17617.29
714.782	17672.2
715.125	17473.79
715.469	17523.06
715.812	17399.67
716.156	17417.52
716.499	17330.29
716.843	17422.72
717.186	17232.89
717.53	17331.2
717.873	17312.67
718.216	17255.72
718.559	17244.42
718.902	17018.21
719.246	17116.29
719.589	17054.14
719.932	16987.93
720.275	17094.82
720.617	16985.9
720.96	17037.87
721.303	16912
721.646	16954.94
721.989	16929.4
722.331	16967.82
722.674	16906.58
723.016	16958.78
723.359	16820.7
723.701	16943.41
724.044	16700.7
724.386	16691.44
724.729	16693.47
725.071	16667.49
725.413	16716.52
725.755	16761.27
726.097	16592.91
726.439	16555.17
726.782	16629.29
727.124	16560.82
727.465	16509.75
727.807	16536.64
728.149	16508.85
728.491	16548.39
728.833	16486.93
729.175	16471.11
729.516	16450.54
729.858	16415.97
730.199	16432.01
730.541	16424.78
730.882	16414.61
731.224	16460.71
731.565	16343.43
731.906	16352.92
732.248	16351.11
732.589	16255.07
732.93	16187.72
733.271	16285.57
733.612	16252.58
733.953	16270.66
734.294	16291.45
734.635	16313.14
734.976	16273.6
735.317	16214.16
735.658	16214.62
735.999	16205.8
736.339	16182.98
736.68	16204.9
737.021	16173.71
737.361	16147.27
737.702	16191.79
738.042	16183.88
738.383	16070.44
738.723	16136.65
739.063	16121.96
739.404	16166.03
739.744	16120.83
740.084	16059.82
740.424	16185.46
740.764	16092.13
741.104	16170.1
741.444	16049.87
741.784	16032.93
742.124	16171.68
742.464	16111.34
742.804	16091.23
743.143	16128.74
743.483	16169.87
743.823	16107.95
744.162	16140.27
744.502	16218.68
744.841	16095.75
745.181	16282.86
745.52	16218.91
745.86	16315.86
746.199	16237.67
746.538	16245.8
746.877	16327.83
747.216	16390.88
747.556	16332.35
747.895	16348.85
748.234	16405.12
748.573	16305.46
748.911	16468.62
749.25	16555.4
749.589	16467.49
749.928	16620.48
750.267	16613.25
750.605	16648.95
750.944	16614.38
751.283	16686.92
751.621	16779.8
751.96	16713.59
752.298	16809.4
752.636	16904.09
752.975	16848.05
753.313	16981.15
753.651	17076.06
753.989	17076.74
754.327	17071.77
754.666	17147.02
755.004	17204.65
755.342	17446
755.679	17337.07
756.017	17437.41
756.355	17387.92
756.693	17529.16
757.031	17645.31
