Data from hue_300_FLMS001491_00068.txt Node
Date: Tue Feb 07 15:51:04 GMT 2017
User: dcchb
Spectrometer: FLMS00149
Trigger mode: 0
Integration Time (sec): 2.000000E-2
Scans to average: 10
Electric dark correction enabled: true
Nonlinearity correction enabled: false
Boxcar width: 0
XAxis mode: Wavelengths
Number of Pixels in Spectrum: 2048
>>>>>Begin Spectral Data<<<<<
341.393	-11.29
341.776	-11.29
342.16	-11.29
342.543	-55.58
342.927	-44.05
343.31	-60.32
343.693	-65.97
344.077	-72.53
344.46	-58.74
344.843	-62.13
345.226	-30.72
345.61	-24.39
345.993	-19.19
346.376	-25.07
346.759	15.15
347.142	38.88
347.525	46.34
347.908	65.78
348.291	64.65
348.674	99.22
349.057	89.05
349.44	136.96
349.823	161.14
350.206	176.96
350.588	199.78
350.971	224.87
351.354	228.71
351.737	221.03
352.119	238.43
352.502	255.6
352.884	283.4
353.267	270.29
353.65	291.53
354.032	313.9
354.414	338.76
354.797	308.25
355.179	330.4
355.562	326.33
355.944	329.27
356.326	324.3
356.709	322.49
357.091	317.52
357.473	336.28
357.855	357.74
358.238	327.46
358.62	331.76
359.002	328.37
359.384	313.45
359.766	335.82
360.148	338.76
360.53	340.12
360.912	321.36
361.294	327.92
361.676	329.95
362.057	315.49
362.439	327.69
362.821	328.14
363.203	335.6
363.584	343.51
363.966	329.05
364.348	329.05
364.729	327.69
365.111	339.44
365.493	324.75
365.874	321.36
366.256	321.14
366.637	331.98
367.019	320.23
367.4	309.38
367.781	329.72
368.163	313.45
368.544	294.02
368.925	300.35
369.306	323.4
369.688	316.62
370.069	312.77
370.45	303.06
370.831	314.13
371.212	300.8
371.593	312.32
371.974	303.06
372.355	317.07
372.736	319.1
373.117	306.22
373.498	328.37
373.879	335.82
374.26	321.14
374.641	323.62
375.021	299.44
375.402	326.79
375.783	314.81
376.163	332.43
376.544	338.76
376.925	336.95
377.305	333.79
377.686	318.42
378.066	344.19
378.447	347.12
378.827	351.42
379.208	335.37
379.588	321.81
379.968	330.4
380.349	355.71
380.729	348.71
381.109	325.2
381.489	360.91
381.87	345.54
382.25	328.37
382.63	336.05
383.01	361.59
383.39	351.64
383.77	358.87
384.15	343.96
384.53	343.28
384.91	362.94
385.29	345.54
385.67	345.99
386.049	359.55
386.429	349.61
386.809	356.16
387.189	358.65
387.568	348.93
387.948	384.86
388.328	388.7
388.707	350.51
389.087	371.98
389.466	369.27
389.846	364.75
390.225	376.73
390.605	361.36
390.984	380.8
391.363	376.05
391.743	366.11
392.122	392.32
392.501	370.85
392.881	403.17
393.26	366.78
393.639	374.24
394.018	376.28
394.397	404.52
394.776	415.6
395.155	403.62
395.534	412.88
395.913	417.63
396.292	409.04
396.671	397.74
397.05	403.17
397.429	411.75
397.808	410.62
398.186	389.16
398.565	429.38
398.944	394.13
399.323	430.74
399.701	411.75
400.08	404.52
400.458	410.4
400.837	435.26
401.215	429.61
401.594	414.92
401.972	437.52
402.351	449.72
402.729	454.69
403.107	424.41
403.486	430.74
403.864	448.36
404.242	447.46
404.62	471.19
404.999	454.24
405.377	476.61
405.755	468.02
406.133	450.62
406.511	487.91
406.889	493.79
407.267	492.2
407.645	491.98
408.023	489.72
408.401	496.05
408.779	479.78
409.156	514.58
409.534	517.97
409.912	528.14
410.29	524.97
410.667	538.31
411.045	543.95
411.422	552.99
411.8	555.71
412.178	569.26
412.555	567.91
412.933	594.8
413.31	591.41
413.687	583.05
414.065	574.69
414.442	621.24
414.819	629.38
415.197	627.12
415.574	640.22
415.951	649.71
416.328	675.93
416.705	660.34
417.082	661.92
417.46	667.79
417.837	681.13
418.214	703.95
418.591	694.01
418.967	698.98
419.344	725.19
419.721	732.42
420.098	766.1
420.475	751.41
420.852	735.14
421.228	751.63
421.605	762.25
421.982	780.11
422.358	790.5
422.735	792.99
423.111	785.08
423.488	819.65
423.864	839.54
424.241	856.26
424.617	838.64
424.994	858.75
425.37	844.96
425.746	864.85
426.123	873.44
426.499	875.25
426.875	902.82
427.251	924.74
427.627	915.47
428.003	917.73
428.379	917.5
428.756	956.6
429.132	945.3
429.507	970.61
429.883	990.95
430.259	980.78
430.635	1017.16
431.011	1045.64
431.387	1037.05
431.763	1031.4
432.138	1041.57
432.514	1050.38
432.89	1082.7
433.265	1098.74
433.641	1104.84
434.016	1126.09
434.392	1135.8
434.767	1130.61
435.143	1138.74
435.518	1146.65
435.894	1188.46
436.269	1188.91
436.644	1206.99
437.02	1173.54
437.395	1209.7
437.77	1235.69
438.145	1223.26
438.52	1259.19
438.895	1248.57
439.271	1274.33
439.646	1277.72
440.021	1269.59
440.395	1315.01
440.77	1315.23
441.145	1304.39
441.52	1322.92
441.895	1331.5
442.27	1346.65
442.645	1339.87
443.019	1344.84
443.394	1335.8
443.769	1400.88
444.143	1360.2
444.518	1376.48
444.892	1357.27
445.267	1378.73
445.641	1401.33
446.016	1385.29
446.39	1425.74
446.764	1399.3
447.139	1416.02
447.513	1449.24
447.887	1412.63
448.262	1415.12
448.636	1415.34
449.01	1442.01
449.384	1451.95
449.758	1480.65
450.132	1471.39
450.506	1475.23
450.88	1486.53
451.254	1491.05
451.628	1499.41
452.002	1508.45
452.376	1540.99
452.75	1523.36
453.123	1537.6
453.497	1523.82
453.871	1550.03
454.244	1580.76
454.618	1578.5
454.992	1604.94
455.365	1619.63
455.739	1636.81
456.112	1639.75
456.486	1620.54
456.859	1655.79
457.232	1690.59
457.606	1667.77
457.979	1679.52
458.352	1707.31
458.725	1728.33
459.099	1761.1
459.472	1731.95
459.845	1771.27
460.218	1784.83
460.591	1792.06
460.964	1766.07
461.337	1816.92
461.71	1823.02
462.083	1854.65
462.456	1832.73
462.829	1828.89
463.201	1877.03
463.574	1864.6
463.947	1910.7
464.32	1933.75
464.692	1945.05
465.065	1947.76
465.438	1977.82
465.81	1958.83
466.183	2005.84
466.555	2035.89
466.928	2058.94
467.3	2025.27
467.672	2040.64
468.045	2088.77
468.417	2123.35
468.789	2115.44
469.161	2137.36
469.534	2163.35
469.906	2205.61
470.278	2164.25
470.65	2231.59
471.022	2229.33
471.394	2241.76
471.766	2291.93
472.138	2291.71
472.51	2364.7
472.882	2353.62
473.253	2383.91
473.625	2431.59
473.997	2432.94
474.369	2410.8
474.74	2468.2
475.112	2473.62
475.484	2508.65
475.855	2547.29
476.227	2522.21
476.598	2625.71
476.97	2625.93
477.341	2658.02
477.713	2694.63
478.084	2690.56
478.455	2764.69
478.827	2746.83
479.198	2864.12
479.569	2824.35
479.94	2893.5
480.311	2909.09
480.682	2939.82
481.053	2990.22
481.424	3041.97
481.795	3057.79
482.166	3084.23
482.537	3075.64
482.908	3145.02
483.279	3149.54
483.65	3225.69
484.021	3214.17
484.391	3248.29
484.762	3309.53
485.133	3323.09
485.503	3346.82
485.874	3381.62
486.244	3420.26
486.615	3425.69
486.985	3496.42
487.356	3529.64
487.726	3565.8
488.097	3626.59
488.467	3594.5
488.837	3653.7
489.207	3677.43
489.578	3733.02
489.948	3703.19
490.318	3809.41
490.688	3761.27
491.058	3830.65
491.428	3875.17
491.798	3902.06
492.168	3977.08
492.538	3925.79
492.908	4002.17
493.278	4055.73
493.648	4065.67
494.017	4077.2
494.387	4144.31
494.757	4142.28
495.126	4163.29
495.496	4173.69
495.866	4177.31
496.235	4214.82
496.605	4262.05
496.974	4295.04
497.344	4321.26
497.713	4275.61
498.082	4354.7
498.452	4359.45
498.821	4397.19
499.19	4407.81
499.559	4403.06
499.928	4405.32
500.298	4462.5
500.667	4458.88
501.036	4474.47
501.405	4518.09
501.774	4521.48
502.143	4557.86
502.512	4574.13
502.88	4620.46
503.249	4604.19
503.618	4608.93
503.987	4644.41
504.356	4680.34
504.724	4676.05
505.093	4704.07
505.462	4694.13
505.83	4757.63
506.199	4716.05
506.567	4861.36
506.936	4805.54
507.304	4821.58
507.672	4845.08
508.041	4880.56
508.409	4886.44
508.777	4888.47
509.145	4915.37
509.514	4963.73
509.882	4945.87
510.25	4986.1
510.618	5002.14
510.986	5024.29
511.354	5058.86
511.722	5005.31
512.09	5116.94
512.458	5065.64
512.826	5085.08
513.193	5088.92
513.561	5109.94
513.929	5149.71
514.297	5212.53
514.664	5161.69
515.032	5205.53
515.4	5189.48
515.767	5263.38
516.135	5319.42
516.502	5211.18
516.869	5290.04
517.237	5290.04
517.604	5296.37
517.972	5362.81
518.339	5355.81
518.706	5285.52
519.073	5366.2
519.44	5401.23
519.808	5471.28
520.175	5379.53
520.542	5482.58
520.909	5483.26
521.276	5469.02
521.643	5523.71
522.009	5553.54
522.376	5524.84
522.743	5601.67
523.11	5646.87
523.477	5645.74
523.843	5703.14
524.21	5698.62
524.577	5758.28
524.943	5820.65
525.31	5808.45
525.676	5782.91
526.043	5849.58
526.409	5880.54
526.776	5933.19
527.142	5945.62
527.508	5996.69
527.874	6007.77
528.241	6050.93
528.607	6050.25
528.973	6095.67
529.339	6078.27
529.705	6130.7
530.071	6142.23
530.437	6219.96
530.803	6244.37
531.169	6288.66
531.535	6265.16
531.901	6241.21
532.267	6344.25
532.632	6316.46
532.998	6371.15
533.364	6369.34
533.73	6427.87
534.095	6503.12
534.461	6484.82
534.826	6509.22
535.192	6570.69
535.557	6583.57
535.923	6543.34
536.288	6560.07
536.653	6624.47
537.019	6611.37
537.384	6640.74
537.749	6800.06
538.114	6712.83
538.479	6760.51
538.845	6760.06
539.21	6734.53
539.575	6770.68
539.94	6856.11
540.305	6847.52
540.67	6873.96
541.034	6888.87
541.399	6948.08
541.764	6967.97
542.129	6949.66
542.494	6993.28
542.858	7037.8
543.223	7044.8
543.587	7103.1
543.952	7148.75
544.316	7123.89
544.681	7127.96
545.045	7189.88
545.41	7284.79
545.774	7245.47
546.138	7319.6
546.503	7295.87
546.867	7398.69
547.231	7402.98
547.595	7515.3
547.959	7342.19
548.324	7388.97
548.688	7424.45
549.052	7471.46
549.416	7470.1
549.779	7486.6
550.143	7551.45
550.507	7587.39
550.871	7584.9
551.235	7578.57
551.599	7678.23
551.962	7647.72
552.326	7647.95
552.689	7746.48
553.053	7754.61
553.417	7716.2
553.78	7841.84
554.143	7764.1
554.507	7796.87
554.87	7829.64
555.234	7943.76
555.597	7926.13
555.96	7914.61
556.323	8037.09
556.686	7926.36
557.05	8016.3
557.413	7999.8
557.776	8002.97
558.139	8093.59
558.502	8087.49
558.865	8113.7
559.228	8159.12
559.59	8225.56
559.953	8166.81
560.316	8242.96
560.679	8273.47
561.041	8320.25
561.404	8324.54
561.767	8336.74
562.129	8324.54
562.492	8398.89
562.854	8391.43
563.217	8460.81
563.579	8437.08
563.941	8492.22
564.304	8537.19
564.666	8531.77
565.028	8568.15
565.39	8617.19
565.753	8604.08
566.115	8704.19
566.477	8651.31
566.839	8741.25
567.201	8728.6
567.563	8695.38
567.925	8814.25
568.287	8816.51
568.648	8788.71
569.01	8883.4
569.372	8878.42
569.734	9023.28
570.095	8979.67
570.457	9107.57
570.819	9071.19
571.18	9079.55
571.542	9143.73
571.903	9142.15
572.265	9294.91
572.626	9285.19
572.987	9290.39
573.349	9392.99
573.71	9405.64
574.071	9502.82
574.432	9525.64
574.794	9564.51
575.155	9713.88
575.516	9642.25
575.877	9723.6
576.238	9825.74
576.599	9925.18
576.96	9963.82
577.32	10112.06
577.681	10109.8
578.042	10270.25
578.403	10339.86
578.763	10462.34
579.124	10497.59
579.485	10598.83
579.845	10792.27
580.206	10783.46
580.566	10885.83
580.927	11108.2
581.287	11295.76
581.648	11373.27
582.008	11466.61
582.368	11679.71
582.728	11750.21
583.089	11913.6
583.449	12182.97
583.809	12311.33
584.169	12465.68
584.529	12637.65
584.889	12888.71
585.249	13062.72
585.609	13156.73
585.969	13464.74
586.329	13639.66
586.688	13859.76
587.048	14134.11
587.408	14285.97
587.768	14526.86
588.127	14696.58
588.487	15054.31
588.846	15389.21
589.206	15563.9
589.565	15707.17
589.925	16006.6
590.284	16244.56
590.643	16613.14
591.003	16912.34
591.362	17246.11
591.721	17420.12
592.08	17703.5
592.44	18088.35
592.799	18374.22
593.158	18569.7
593.517	18900.31
593.876	19214.42
594.235	19451.25
594.593	19820.96
594.952	20026.83
595.311	20258.24
595.67	20700.71
596.029	21071.55
596.387	21410.75
596.746	21667.92
597.104	21811.64
597.463	22116.49
597.822	22556.94
598.18	22613.88
598.538	22969.81
598.897	23385.39
599.255	23448.66
599.613	24115.09
599.972	24155.76
600.33	24586.03
600.688	24644.56
601.046	25141.95
601.404	25351.21
601.762	25670.98
602.12	26014.7
602.478	26275.71
602.836	26673.66
603.194	26706.2
603.552	26982.81
603.91	27030.26
604.268	27353.65
604.625	27532.17
604.983	28095.55
605.341	28152.04
605.698	28551.35
606.056	28768.75
606.413	28972.13
606.771	29197.66
607.128	29517.2
607.485	29617.54
607.843	29768.27
608.2	30250.52
608.557	30515.82
608.914	30579.78
609.272	30905.64
609.629	31183.15
609.986	31378.4
610.343	31475.8
610.7	31863.13
611.057	31905.39
611.414	32158.72
611.771	32308.54
612.127	32607.97
612.484	32808.19
612.841	32963.89
613.198	33166.6
613.554	33145.58
613.911	33530.43
614.267	33707.6
614.624	33873.7
614.98	33974.94
615.337	34341.03
615.693	34291.09
616.05	34500.8
616.406	34704.19
616.762	34822.6
617.118	34860.11
617.475	35026.89
617.831	35223.72
618.187	35353.66
618.543	35491.51
618.899	35751.62
619.255	35906.19
619.611	35830.48
619.967	36033.87
620.323	36481.54
620.678	36238.38
621.034	36331.94
621.39	36348.89
621.746	36547.3
622.101	36999.49
622.457	36751.36
622.812	36938.25
623.168	36998.82
623.523	37219.83
623.879	37465.24
624.234	37202.65
624.589	37421.63
624.945	37422.08
625.3	37560.38
625.655	37667.72
626.01	37753.82
626.365	37768.29
626.72	37792.69
627.075	37912.24
627.43	37889.87
627.785	37849.87
628.14	38137.54
628.495	38143.19
628.85	38154.49
629.205	38184.77
629.559	38347.03
629.914	38152.91
630.269	38360.14
630.623	38328.72
630.978	38262.51
631.332	38444.2
631.687	38589.51
632.041	38422.28
632.396	38474.93
632.75	38514.26
633.104	38471.32
633.459	38324.43
633.813	38398.33
634.167	38401.04
634.521	38426.12
634.875	38505.22
635.229	38459.34
635.583	38397.65
635.937	38388.16
636.291	38288.27
636.645	38477.42
636.999	38432.9
637.352	38588.6
637.706	38377.31
638.06	38608.49
638.413	38498.89
638.767	38384.09
639.121	38545.22
639.474	38214.38
639.828	38371.89
640.181	38330.08
640.534	38464.09
640.888	38353.36
641.241	38198.56
641.594	38312.68
641.947	38400.36
642.301	38326.46
642.654	38324.43
643.007	38313.81
643.36	38258.22
643.713	38210.31
644.066	38412.11
644.419	38221.38
644.771	37967.6
645.124	37656.43
645.477	37586.37
645.83	37414.17
646.182	37180.05
646.535	37176.21
646.888	37229.54
647.24	37154.29
647.593	37437
647.945	37222.76
648.298	37090.11
648.65	37057.8
649.002	37015.76
649.355	37218.7
649.707	37167.17
650.059	37141.41
650.411	37697.78
650.763	37750.89
651.115	38133.47
651.467	37881.5
651.819	38079.01
652.171	38032.46
652.523	37958.11
652.875	37780.49
653.227	37773.71
653.578	37938.9
653.93	37870.88
654.282	37584.56
654.633	37663.66
654.985	37819.36
655.337	37688.74
655.688	37907.04
656.039	38013.25
656.391	37704.11
656.742	37692.36
657.094	37712.02
657.445	37837.89
657.796	37734.84
658.147	37772.35
658.498	37725.12
658.849	37855.06
659.2	37596.31
659.551	37619.59
659.902	37822.3
660.253	37694.39
660.604	37770.77
660.955	37503.21
661.306	37660.04
661.656	37605.58
662.007	37712.47
662.358	37508.86
662.708	37676.09
663.059	37652.81
663.409	37498.69
663.76	37673.83
664.11	37588.4
664.461	37675.18
664.811	37583.66
665.161	37745.24
665.511	37564.9
665.862	37451.23
666.212	37716.54
666.562	37802.64
666.912	37652.36
667.262	37595.41
667.612	37427.28
667.962	37630.44
668.312	37461.63
668.662	37747.5
669.011	37629.99
669.361	37477.9
669.711	37596.09
670.06	37491.01
670.41	37404
670.76	37582.08
671.109	37569.2
671.459	37374.17
671.808	37459.37
672.157	37404.23
672.507	37250.11
672.856	37245.81
673.205	37292.37
673.554	37410.78
673.904	37424.11
674.253	37427.05
674.602	37349.77
674.951	36840.85
675.3	36708.2
675.649	37248.3
675.998	37144.12
676.346	37139.83
676.695	37382.76
677.044	37065.48
677.393	37210.56
677.741	37200.84
678.09	37074.75
678.438	37035.2
678.787	37107.06
679.135	37046.5
679.484	37006.05
679.832	36999.04
680.181	36695.09
680.529	36888.99
680.877	36818.03
681.225	36705.94
681.573	36893.51
681.922	36794.3
682.27	36433.18
682.618	36505.27
682.966	36445.61
683.314	36626.4
683.661	36383.92
684.009	36180.53
684.357	36357.02
684.705	36281.32
685.053	36230.02
685.4	36177.14
685.748	35878.39
686.095	36000.2
686.443	35834.1
686.79	35828.22
687.138	35839.52
687.485	35789.13
687.832	35618.51
688.18	35668.45
688.527	35487.89
688.874	35468.23
689.221	35364.28
689.568	35419.2
689.915	35203.16
690.262	35192.99
690.609	35172.87
690.956	35065.76
691.303	35021.01
691.65	34837.06
691.997	34849.95
692.344	34628.93
692.69	34693.79
693.037	34683.62
693.383	34243.63
693.73	34583.06
694.077	34383.97
694.423	34424.65
694.769	34180.36
695.116	34169.96
695.462	34185.56
695.808	33925.45
696.155	33937.65
696.501	33796.19
696.847	33830.31
697.193	33580.83
697.539	33575.18
697.885	33445.69
698.231	33301.06
698.577	33431.68
698.923	33341.06
699.269	33078.24
699.614	32961.41
699.96	32929.77
700.306	32980.16
700.651	32780.85
700.997	32739.94
701.342	32666.5
701.688	32722.54
702.033	32550.12
702.379	32478.03
702.724	32340.86
703.069	32368.2
703.415	32054.54
703.76	32007.99
704.105	32170.47
704.45	32112.16
704.795	31807.54
705.14	31671.27
705.485	31689.35
705.83	31611.61
706.175	31599.64
706.52	31585.62
706.865	31410.04
707.209	31507.89
707.554	31229.7
707.899	31350.83
708.243	31096.15
708.588	31095.02
708.932	30947.22
709.277	30899.77
709.621	30968.47
709.966	30798.07
710.31	30702.48
710.654	30429.04
710.998	30629.94
711.342	30547.01
711.687	30514.47
712.031	30370.29
712.375	30178.2
712.719	30389.27
713.063	30327.35
713.407	30321.02
713.75	30202.16
714.094	30086
714.438	30057.3
714.782	30026.57
715.125	29881.26
715.469	29898.66
715.812	29842.17
716.156	29570.99
716.499	29655.96
716.843	29633.59
717.186	29490.09
717.53	29787.03
717.873	29631.78
718.216	29425.23
718.559	29349.07
718.902	29235.18
719.246	29300.26
719.589	29268.85
719.932	29153.37
720.275	29085.13
720.617	29124.45
720.96	28963.09
721.303	29023.21
721.646	29119.93
721.989	28841.74
722.331	28904.56
722.674	28664.8
723.016	28953.15
723.359	28688.75
723.701	28707.96
724.044	28624.12
724.386	28482.43
724.729	28579.38
725.071	28409.89
725.413	28454.63
725.755	28392.94
726.097	28242.66
726.439	28090.57
726.782	28170.57
727.124	28241.98
727.465	28160.4
727.807	28179.84
728.149	28034.08
728.491	27902.78
728.833	28008.54
729.175	27978.26
729.516	27900.75
729.858	27880.41
730.199	28002.67
730.541	27857.81
730.882	27793.18
731.224	27808.1
731.565	27669.12
731.906	27743.47
732.248	27642.23
732.589	27467.09
732.93	27506.18
733.271	27469.12
733.612	27584.15
733.953	27400.88
734.294	27376.7
734.635	27370.14
734.976	27477.71
735.317	27237.26
735.658	27308.45
735.999	27261.9
736.339	27183.71
736.68	27171.28
737.021	27009.02
737.361	27044.27
737.702	27181.45
738.042	27058.51
738.383	26983.03
738.723	27013.54
739.063	26910.94
739.404	27035.01
739.744	26936.93
740.084	26842.02
740.424	26795.92
740.764	26729.03
741.104	26817.16
741.444	26635.92
741.784	26605.42
742.124	26589.15
742.464	26691.97
742.804	26619.88
743.143	26531.29
743.483	26646.09
743.823	26380.34
744.162	26406.1
744.502	26429.15
744.841	26280.45
745.181	26445.42
745.52	26368.59
745.86	26401.13
746.199	26214.92
746.538	26265.99
746.877	26284.75
747.216	26278.19
747.556	26161.59
747.895	26242.26
748.234	26225.09
748.573	26001.36
748.911	26097.63
749.25	26079.78
749.589	25985.32
749.928	26160.91
750.267	26164.98
750.605	25949.39
750.944	25868.71
751.283	25871.65
751.621	25947.13
751.96	25838.2
752.298	25779.45
752.636	25718.43
752.975	25640.7
753.313	25550.75
753.651	25666.91
753.989	25655.61
754.327	25553.24
754.666	25331.55
755.004	25427.82
755.342	25561.6
755.679	25410.42
756.017	25361.16
756.355	25459.46
756.693	25273.47
757.031	25492.23
757.368	25286.81
757.706	25208.39
758.044	25175.85
758.381	25117.09
758.719	24974.5
759.056	25033.71
