Data from hue_200_FLMS001491_00033.txt Node
Date: Tue Feb 07 16:43:11 GMT 2017
User: dcchb
Spectrometer: FLMS00149
Trigger mode: 0
Integration Time (sec): 2.000000E-2
Scans to average: 10
Electric dark correction enabled: true
Nonlinearity correction enabled: false
Boxcar width: 0
XAxis mode: Wavelengths
Number of Pixels in Spectrum: 2048
>>>>>Begin Spectral Data<<<<<
341.393	-20.88
341.776	-20.88
342.16	-20.88
342.543	-57.71
342.927	-67.2
343.31	-67.65
343.693	-76.47
344.077	-62.68
344.46	-62.68
344.843	-69.01
345.226	-39.86
345.61	-31.27
345.993	-23.13
346.376	-17.49
346.759	18.67
347.142	37.88
347.525	47.15
347.908	41.04
348.291	76.98
348.674	104.77
349.057	123.75
349.44	111.55
349.823	144.32
350.206	149.97
350.588	187.71
350.971	195.39
351.354	238.1
351.737	239.23
352.119	259.12
352.502	265.22
352.884	301.83
353.267	297.99
353.65	282.62
354.032	293.92
354.414	312
354.797	310.19
355.179	319.23
355.562	331.21
355.944	329.4
356.326	333.24
356.709	333.24
357.091	328.72
357.473	338.44
357.855	324.65
358.238	349.06
358.62	337.08
359.002	349.96
359.384	337.53
359.766	348.83
360.148	338.89
360.53	343.41
360.912	334.37
361.294	335.95
361.676	345.67
362.057	354.03
362.439	338.66
362.821	319
363.203	319
363.584	334.82
363.966	341.38
364.348	317.87
364.729	323.52
365.111	315.61
365.493	341.83
365.874	310.64
366.256	305.44
366.637	307.25
367.019	310.87
367.4	316.29
367.781	312.45
368.163	330.3
368.544	330.53
368.925	303.64
369.306	325.78
369.688	322.39
370.069	317.65
370.45	308.83
370.831	319
371.212	314.94
371.593	324.2
371.974	318.32
372.355	323.3
372.736	326.46
373.117	323.52
373.498	332.56
373.879	316.74
374.26	315.61
374.641	302.51
375.021	311.09
375.402	310.19
375.783	342.96
376.163	340.02
376.544	351.54
376.925	317.87
377.305	344.54
377.686	334.37
378.066	316.74
378.447	331.66
378.827	345.44
379.208	326.91
379.588	336.63
379.968	345.67
380.349	332.34
380.729	343.18
381.109	352.9
381.489	336.86
381.87	353.13
382.25	343.64
382.63	349.96
383.01	348.15
383.39	345.44
383.77	346.57
384.15	349.06
384.53	357.42
384.91	348.61
385.29	371.2
385.67	375.05
386.049	359.23
386.429	359.91
386.809	363.07
387.189	376.63
387.568	360.36
387.948	368.27
388.328	356.74
388.707	366.46
389.087	353.58
389.466	389.06
389.846	375.95
390.225	383.18
390.605	369.4
390.984	378.21
391.363	372.33
391.743	369.62
392.122	386.57
392.501	365.56
392.881	398.77
393.26	401.94
393.639	385.44
394.018	368.27
394.397	387.48
394.776	395.84
395.155	393.35
395.534	405.55
395.913	415.27
396.292	410.07
396.671	416.63
397.05	417.76
397.429	405.1
397.808	425.89
398.186	437.42
398.565	407.36
398.944	431.32
399.323	416.18
399.701	425.67
400.08	438.1
400.458	439
400.837	451.88
401.215	442.62
401.594	441.94
401.972	414.82
402.351	454.37
402.729	459.11
403.107	443.29
403.486	464.31
403.864	475.38
404.242	460.47
404.62	472.67
404.999	468.83
405.377	460.24
405.755	488.04
406.133	499.56
406.511	502.73
406.889	494.37
407.267	507.92
407.645	536.4
408.023	504.08
408.401	531.43
408.779	533.91
409.156	534.14
409.534	531.88
409.912	551.54
410.29	567.58
410.667	575.27
411.045	587.92
411.422	591.54
411.8	603.29
412.178	600.58
412.555	627.7
412.933	639.22
413.31	635.6
413.687	658.65
414.065	660.24
414.442	696.85
414.819	688.71
415.197	685.55
415.574	715.15
415.951	726
416.328	748.6
416.705	735.72
417.082	722.38
417.46	756.73
417.837	775.94
418.214	784.08
418.591	770.52
418.967	773.23
419.344	795.15
419.721	831.53
420.098	806.67
420.475	833.34
420.852	857.75
421.228	885.09
421.605	902.26
421.982	894.58
422.358	907.24
422.735	934.81
423.111	942.94
423.488	963.05
423.864	972.32
424.241	981.36
424.617	1059.55
424.994	1033.33
425.37	1031.75
425.746	1042.6
426.123	1061.58
426.499	1087.57
426.875	1116.04
427.251	1150.17
427.627	1134.57
428.003	1163.27
428.379	1153.78
428.756	1201.01
429.132	1223.84
429.507	1232.2
429.883	1224.97
430.259	1260.67
430.635	1243.27
431.011	1282.59
431.387	1318.75
431.763	1323.04
432.138	1349.94
432.514	1357.17
432.89	1366.88
433.265	1391.07
433.641	1451.4
434.016	1464.06
434.392	1511.51
434.767	1529.59
435.143	1522.81
435.518	1563.26
435.894	1582.7
436.269	1633.09
436.644	1655.46
437.02	1669.93
437.395	1685.29
437.77	1741.11
438.145	1776.59
438.52	1807.55
438.895	1843.71
439.271	1830.15
439.646	1913.76
440.021	1921.45
440.395	1919.86
440.77	1964.61
441.145	1963.25
441.52	2039.64
441.895	2042.57
442.27	2053.19
442.645	2100.88
443.019	2102.01
443.394	2116.02
443.769	2146.53
444.143	2121.22
444.518	2175.68
444.892	2200.08
445.267	2224.49
445.641	2244.6
446.016	2264.49
446.39	2280.08
446.764	2300.19
447.139	2319.85
447.513	2327.76
447.887	2362.34
448.262	2353.3
448.636	2389.23
449.01	2426.74
449.384	2438.04
449.758	2452.73
450.132	2485.95
450.506	2497.48
450.88	2519.4
451.254	2534.76
451.628	2588.32
452.002	2608.66
452.376	2615.21
452.75	2659.73
453.123	2683.46
453.497	2717.36
453.871	2758.94
454.244	2778.83
454.618	2808.43
454.992	2877.58
455.365	2849.78
455.739	2915.32
456.112	2969.1
456.486	2935.43
456.859	3010.91
457.232	3060.4
457.606	3042.77
457.979	3095.2
458.352	3124.8
458.725	3174.75
459.099	3219.49
459.472	3276.21
459.845	3311.01
460.218	3350.11
460.591	3375.19
460.964	3348.08
461.337	3449.09
461.71	3535.19
462.083	3587.39
462.456	3551.46
462.829	3568.86
463.201	3675.07
463.574	3660.38
463.947	3710.33
464.32	3775.41
464.692	3811.57
465.065	3861.73
465.438	3901.73
465.81	3916.42
466.183	3954.84
466.555	4079.13
466.928	4077.1
467.3	4125.46
467.672	4165.68
468.045	4299.24
468.417	4287.71
468.789	4299.01
469.161	4340.59
469.534	4425.11
469.906	4511.89
470.278	4550.98
470.65	4610.19
471.022	4682.96
471.394	4780.81
471.766	4804.76
472.138	4901.93
472.51	4950.75
472.882	4997.52
473.253	5094.92
473.625	5128.14
473.997	5225.99
474.369	5268.93
474.74	5349.61
475.112	5495.59
475.484	5504.18
475.855	5563.84
476.227	5597.73
476.598	5764.28
476.97	5798.18
477.341	5982.36
477.713	6006.09
478.084	6041.34
478.455	6210.15
478.827	6320.88
479.198	6433.42
479.569	6465.96
479.94	6625.05
480.311	6646.75
480.682	6801.09
481.053	6899.85
481.424	7031.14
481.795	7110.91
482.166	7197.69
482.537	7276.56
482.908	7408.53
483.279	7529.43
483.65	7560.17
484.021	7771.01
484.391	7816.21
484.762	7944.79
485.133	7929.88
485.503	8048.97
485.874	8176.42
486.244	8323.31
486.615	8440.82
486.985	8507.94
487.356	8612.8
487.726	8688.95
488.097	8844.88
488.467	8870.19
488.837	9095.04
489.207	9172.1
489.578	9309.73
489.948	9289.39
490.318	9464.07
490.688	9448.25
491.058	9617.97
491.428	9705.42
491.798	9835.81
492.168	9996.49
492.538	10003.04
492.908	10095.47
493.278	10139.08
493.648	10204.84
494.017	10316.25
494.387	10398.96
494.757	10524.84
495.126	10585.63
495.496	10560.32
495.866	10616.13
496.235	10740.65
496.605	10811.16
496.974	10844.6
497.344	11010.7
497.713	10985.62
498.082	11067.65
498.452	11149
498.821	11156.01
499.19	11208.66
499.559	11309
499.928	11363.91
500.298	11395.1
500.667	11407.75
501.036	11363.91
501.405	11527.52
501.774	11514.87
502.143	11641.42
502.512	11617.69
502.88	11694.52
503.249	11706.73
503.618	11777.68
503.987	11727.06
504.356	11898.81
504.724	11867.17
505.093	11827.17
505.462	11878.25
505.83	11930.9
506.199	11992.59
506.567	12051.58
506.936	12099.48
507.304	12185.81
507.672	12199.37
508.041	12193.04
508.409	12284.56
508.777	12332.92
509.145	12374.28
509.514	12380.15
509.882	12451.57
510.25	12442.07
510.618	12515.52
510.986	12461.73
511.354	12562.07
511.722	12580.38
512.09	12645.91
512.458	12555.52
512.826	12700.6
513.193	12721.16
513.561	12698.11
513.929	12668.06
514.297	12745.79
514.664	12849.07
515.032	12817.66
515.4	12851.33
515.767	12922.06
516.135	12818.56
516.502	12884.32
516.869	12906.47
517.237	12967.71
517.604	12835.51
517.972	13032.11
518.339	13034.15
518.706	12999.57
519.073	12962.51
519.44	13047.93
519.808	13129.74
520.175	13118.44
520.542	13219.68
520.909	13229.85
521.276	13204.77
521.643	13265.33
522.009	13267.36
522.376	13274.37
522.743	13225.78
523.11	13252.9
523.477	13320.02
523.843	13447.92
524.21	13466.68
524.577	13427.81
524.943	13486.34
525.31	13488.83
525.676	13531.76
526.043	13491.54
526.409	13475.27
526.776	13541.71
527.142	13537.19
527.508	13534.7
527.874	13590.52
528.241	13651.99
528.607	13531.76
528.973	13728.59
529.339	13573.34
529.705	13626.68
530.071	13679.1
530.437	13625.77
530.803	13649.05
531.169	13537.64
531.535	13548.49
531.901	13534.7
532.267	13567.02
532.632	13556.85
532.998	13505.1
533.364	13562.95
533.73	13518.2
534.095	13472.78
534.461	13478.88
534.826	13477.53
535.192	13372.22
535.557	13486.34
535.923	13319.34
536.288	13349.62
536.653	13360.24
537.019	13290.64
537.384	13228.04
537.749	13306.68
538.114	13202.51
538.479	13082.51
538.845	13133.81
539.21	13012.45
539.575	13128.16
539.94	12999.35
540.305	13077.99
540.67	13009.06
541.034	12957.09
541.399	12799.58
541.764	12879.8
542.129	12811.1
542.494	12695.17
542.858	12703.76
543.223	12676.42
543.587	12740.6
543.952	12675.74
544.316	12607.04
544.681	12507.16
545.045	12529.08
545.41	12520.72
545.774	12460.83
546.138	12427.16
546.503	12411.79
546.867	12316.2
547.231	12275.52
547.595	12269.88
547.959	12224.45
548.324	12121.63
548.688	12064.91
549.052	12090.22
549.416	12080.95
549.779	12019.03
550.143	11993.72
550.507	12009.99
550.871	11955.08
551.235	11919.15
551.599	11863.33
551.962	11859.49
552.326	11759.83
552.689	11755.76
553.053	11663.11
553.417	11675.99
553.78	11782.88
554.143	11634.19
554.507	11697.23
554.87	11624.02
555.234	11686.16
555.597	11558.03
555.96	11607.75
556.323	11536.56
556.686	11457.47
557.05	11467.64
557.413	11523.68
557.776	11402.78
558.139	11517.58
558.502	11444.13
558.865	11422.67
559.228	11445.49
559.59	11400.52
559.953	11283.91
560.316	11395.55
560.679	11383.12
561.041	11412.27
561.404	11383.8
561.767	11390.35
562.129	11312.61
562.492	11472.16
562.854	11420.41
563.217	11294.08
563.579	11391.71
563.941	11405.27
564.304	11416.56
564.666	11439.39
565.028	11374.98
565.39	11363.01
565.753	11369.56
566.115	11450.24
566.477	11403.91
566.839	11398.94
567.201	11469.67
567.563	11414.53
567.925	11473.51
568.287	11525.71
568.648	11459.73
569.01	11503.79
569.372	11483
569.734	11398.49
570.095	11497.24
570.457	11488.65
570.819	11489.1
571.18	11490.23
571.542	11488.88
571.903	11567.75
572.265	11572.49
572.626	11510.35
572.987	11552.15
573.349	11539.72
573.71	11602.55
574.071	11537.46
574.432	11580.85
574.794	11665.15
575.155	11596.45
575.516	11602.55
575.877	11685.48
576.238	11708.08
576.599	11559.84
576.96	11628.08
577.32	11650
577.681	11659.5
578.042	11628.31
578.403	11697.01
578.763	11650.46
579.124	11714.18
579.485	11696.1
579.845	11727.97
580.206	11702.66
580.566	11678.93
580.927	11712.38
581.287	11678.03
581.648	11636.22
582.008	11774.29
582.368	11666.95
582.728	11733.17
583.089	11636.45
583.449	11638.48
583.809	11704.47
584.169	11668.31
584.529	11649.1
584.889	11791.24
585.249	11630.57
585.609	11590.8
585.969	11727.74
586.329	11617.24
586.688	11642.55
587.048	11663.34
587.408	11638.48
587.768	11601.19
588.127	11614.75
588.487	11505.6
588.846	11580.4
589.206	11574.98
589.565	11528.43
589.925	11692.72
590.284	11524.36
590.643	11594.41
591.003	11594.64
591.362	11593.73
591.721	11588.99
592.08	11522.1
592.44	11608.88
592.799	11609.55
593.158	11559.61
593.517	11483.46
593.876	11531.59
594.235	11551.02
594.593	11458.82
594.952	11541.53
595.311	11494.75
595.67	11478.71
596.029	11531.14
596.387	11507.86
596.746	11565.71
597.104	11437.35
597.463	11458.82
597.822	11538.82
598.18	11497.92
598.538	11478.03
598.897	11535.43
599.255	11387.86
599.613	11600.06
599.972	11405.04
600.33	11555.09
600.688	11410.91
601.046	11485.71
601.404	11532.95
601.762	11538.82
602.12	11607.75
602.478	11546.5
602.836	11561.19
603.194	11485.04
603.552	11417.92
603.91	11393.97
604.268	11438.26
604.625	11448.88
604.983	11504.47
605.341	11383.34
605.698	11523.45
606.056	11531.82
606.413	11449.78
606.771	11514.41
607.128	11575.88
607.485	11448.2
607.843	11443.46
608.2	11538.14
608.557	11541.53
608.914	11493.17
609.272	11558.03
609.629	11528.65
609.986	11535.43
610.343	11580.18
610.7	11639.16
611.057	11678.93
611.414	11555.54
611.771	11638.03
612.127	11673.05
612.484	11621.53
612.841	11613.4
613.198	11597.58
613.554	11610.01
613.911	11693.39
614.267	11685.94
614.624	11700.85
614.98	11624.24
615.337	11698.36
615.693	11684.13
616.05	11650.46
616.406	11742.21
616.762	11671.02
617.118	11727.06
617.475	11697.01
617.831	11687.97
618.187	11710.79
618.543	11757.57
618.899	11781.98
619.255	11841.64
619.611	11776.1
619.967	11757.8
620.323	11852.71
620.678	11671.25
621.034	11764.58
621.39	11742.21
621.746	11680.96
622.101	11842.09
622.457	11740.17
622.812	11715.31
623.168	11780.17
623.523	11729.78
623.879	11743.34
624.234	11696.33
624.589	11803.9
624.945	11747.63
625.3	11793.96
625.655	11740.85
626.01	11786.72
626.365	11704.92
626.72	11704.01
627.075	11743.11
627.43	11692.72
627.785	11675.77
628.14	11710.57
628.495	11712.6
628.85	11739.72
629.205	11670.79
629.559	11739.49
629.914	11648.2
630.269	11646.39
630.623	11628.99
630.978	11580.63
631.332	11649.78
631.687	11678.25
632.041	11619.72
632.396	11604.13
632.75	11557.35
633.104	11565.71
633.459	11490.91
633.813	11490.01
634.167	11430.12
634.521	11527.52
634.875	11517.13
635.229	11401.65
635.583	11417.69
635.937	11412.5
636.291	11412.5
636.645	11349
636.999	11340.63
637.352	11425.38
637.706	11298.38
638.06	11355.55
638.413	11345.83
638.767	11305.61
639.121	11352.16
639.474	11235.33
639.828	11254.08
640.181	11250.69
640.534	11287.53
640.888	11213.41
641.241	11121.66
641.594	11174.31
641.947	11202.33
642.301	11176.57
642.654	11230.81
643.007	11149
643.36	11196.46
643.713	11164.14
644.066	11222.22
644.419	11109.68
644.771	11055.44
645.124	10988.78
645.477	10995.78
645.83	10920.76
646.182	10895.45
646.535	10860.65
646.888	10801.67
647.24	10783.13
647.593	10787.88
647.945	10755.56
648.298	10681.89
648.65	10671.27
649.002	10765.06
649.355	10830.14
649.707	10749.24
650.059	10822.46
650.411	10907.65
650.763	10946.52
651.115	11033.75
651.467	10990.13
651.819	11055.9
652.171	10978.61
652.523	11008.67
652.875	10927.31
653.227	10937.48
653.578	11024.26
653.93	10986.07
654.282	10948.33
654.633	10967.54
654.985	10938.16
655.337	10944.26
655.688	11025.16
656.039	10998.95
656.391	11006.63
656.742	11043.24
657.094	10945.62
657.445	10948.1
657.796	10958.72
658.147	10988.33
658.498	10932.74
658.849	11040.3
659.2	11061.55
659.551	10916.24
659.902	10989
660.253	11044.6
660.604	11019.51
660.955	10888.67
661.306	11019.06
661.656	11005.28
662.007	10994.88
662.358	10969.8
662.708	11051.83
663.059	11006.63
663.409	10909.23
663.76	11001.89
664.11	11025.16
664.461	11010.25
664.811	11140.87
665.161	11028.55
665.511	10986.75
665.862	11024.03
666.212	11063.58
666.562	11059.29
666.912	11065.39
667.262	11066.97
667.612	11062.45
667.962	11020.42
668.312	11027.2
668.662	11059.06
669.011	10986.07
669.361	10976.58
669.711	11048.21
670.06	10961.89
670.41	11017.93
670.76	11021.09
671.109	10989.91
671.459	11069.68
671.808	10934.32
672.157	10920.08
672.507	10919.18
672.856	10926.41
673.205	10918.05
673.554	10950.81
673.904	10889.8
674.253	11003.69
674.602	10928.22
674.951	10711.72
675.3	10732.74
675.649	10868.56
675.998	10847.09
676.346	10818.39
676.695	10850.25
677.044	10769.8
677.393	10855.22
677.741	10841.44
678.09	10793.53
678.438	10748.11
678.787	10758.5
679.135	10685.51
679.484	10738.16
679.832	10699.97
680.181	10622.01
680.529	10665.62
680.877	10692.74
681.225	10618.39
681.573	10669.47
681.922	10645.74
682.27	10528.9
682.618	10573.2
682.966	10526.87
683.314	10551.95
683.661	10501.11
684.009	10494.33
684.357	10409.36
684.705	10383.82
685.053	10393.09
685.4	10422.92
685.748	10355.58
686.095	10313.77
686.443	10291.85
686.79	10265.86
687.138	10256.82
687.485	10287.33
687.832	10222.7
688.18	10183.83
688.527	10081.91
688.874	10195.35
689.221	10131.85
689.568	10076.94
689.915	10117.62
690.262	10092.76
690.609	10010.5
690.956	9935.02
691.303	10004.85
691.65	9876.72
691.997	9907.68
692.344	9826.32
692.69	9771.86
693.037	9819.32
693.383	9744.52
693.73	9722.37
694.077	9698.64
694.423	9655.03
694.769	9589.27
695.116	9559.89
695.462	9642.83
695.808	9530.74
696.155	9535.26
696.501	9424.98
696.847	9451.42
697.193	9321.25
697.539	9380.91
697.885	9321.93
698.231	9324.87
698.577	9284.64
698.923	9250.52
699.269	9154.02
699.614	9179.11
699.96	9121.03
700.306	9140.01
700.651	9067.02
700.997	8987.25
701.342	8996.06
701.688	8964.65
702.033	9008.94
702.379	8906.12
702.724	8890.53
703.069	8925.78
703.415	8834.26
703.76	8893.01
704.105	8751.78
704.45	8784.99
704.795	8699.12
705.14	8717.65
705.485	8711.78
705.83	8650.54
706.175	8591.33
706.52	8651.44
706.865	8581.38
707.209	8536.41
707.554	8455.51
707.899	8511.78
708.243	8449.41
708.588	8434.04
708.932	8398.11
709.277	8383.65
709.621	8373.03
709.966	8317.89
710.31	8380.26
710.654	8231.56
710.998	8259.59
711.342	8310.88
711.687	8227.04
712.031	8231.56
712.375	8185.46
712.719	8185.24
713.063	8097.33
713.407	8176.65
713.75	8116.99
714.094	8134.16
714.438	8087.39
714.782	8105.69
715.125	8039.25
715.469	8035.41
715.812	8003.09
716.156	8026.14
716.499	7968.29
716.843	7996.32
717.186	7957.67
717.53	7992.7
717.873	7934.85
718.216	8002.42
718.559	7920.61
718.902	7861.18
719.246	7870.89
719.589	7860.05
719.932	7841.74
720.275	7872.02
720.617	7785.47
720.96	7833.61
721.303	7815.75
721.646	7844.91
721.989	7811.01
722.331	7856.88
722.674	7777.34
723.016	7809.43
723.359	7740.73
723.701	7769.2
724.044	7719.71
724.386	7726.27
724.729	7694.85
725.071	7747.06
725.413	7710.45
725.755	7690.11
726.097	7667.74
726.439	7636.78
726.782	7665.7
727.124	7716.32
727.465	7625.93
727.807	7699.83
728.149	7709.09
728.491	7639.04
728.833	7623.9
729.175	7645.14
729.516	7622.31
729.858	7671.13
730.199	7702.54
730.541	7652.82
730.882	7640.84
731.224	7634.06
731.565	7586.38
731.906	7630
732.248	7646.04
732.589	7607.62
732.93	7594.29
733.271	7555.65
733.612	7617.57
733.953	7618.25
734.294	7598.81
734.635	7516.33
734.976	7663.89
735.317	7534.86
735.658	7585.25
735.999	7550.9
736.339	7602.88
736.68	7646.04
737.021	7589.77
737.361	7570.11
737.702	7637.68
738.042	7598.13
738.383	7570.34
738.723	7569.21
739.063	7623.67
739.404	7584.35
739.744	7685.81
740.084	7589.77
740.424	7626.83
740.764	7637.23
741.104	7681.52
741.444	7668.87
741.784	7716.55
742.124	7694.18
742.464	7760.62
742.804	7723.33
743.143	7800.61
743.483	7747.06
743.823	7773.95
744.162	7828.64
744.502	7877.22
744.841	7841.29
745.181	7989.08
745.52	7923.55
745.86	7982.3
746.199	7982.3
746.538	8079.48
746.877	8126.71
747.216	8161.51
747.556	8197.21
747.895	8261.84
748.234	8253.03
748.573	8395.63
748.911	8404.67
749.25	8421.61
749.589	8523.53
749.928	8620.71
750.267	8697.09
750.605	8694.15
750.944	8754.04
751.283	8779.35
751.621	8992.22
751.96	9041.49
752.298	9134.59
752.636	9234.47
752.975	9239.67
753.313	9378.65
753.651	9472.21
753.989	9618.65
754.327	9709.26
754.666	9767.57
755.004	9899.54
755.342	10076.94
755.679	10155.35
756.017	10289.81
756.355	10475.57
756.693	10563.25
757.031	10747.2
757.368	10833.98
757.706	10977.93
