Data from hue_120_FLMS001491_00013.txt Node
Date: Tue Feb 07 16:58:59 GMT 2017
User: dcchb
Spectrometer: FLMS00149
Trigger mode: 0
Integration Time (sec): 2.000000E-2
Scans to average: 10
Electric dark correction enabled: true
Nonlinearity correction enabled: false
Boxcar width: 0
XAxis mode: Wavelengths
Number of Pixels in Spectrum: 2048
>>>>>Begin Spectral Data<<<<<
341.393	-19.24
341.776	-19.24
342.16	-19.24
342.543	-66.69
342.927	-63.53
343.31	-80.93
343.693	-78.22
344.077	-75.73
344.46	-60.59
344.843	-34.6
345.226	-30.54
345.61	-37.54
345.993	-3.19
346.376	-11.55
346.759	4.27
347.142	18.28
347.525	38.84
347.908	74.32
348.291	74.09
348.674	81.33
349.057	121.78
349.44	130.82
349.823	147.76
350.206	186.18
350.588	217.82
350.971	215.33
351.354	229.8
351.737	214.43
352.119	247.65
352.502	276.8
352.884	274.09
353.267	293.75
353.65	288.1
354.032	307.99
354.414	320.87
354.797	310.7
355.179	322.22
355.562	324.03
355.944	340.3
356.326	349.57
356.709	341.66
357.091	317.93
357.473	347.76
357.855	329
358.238	370.81
358.62	352.05
359.002	335.78
359.384	346.18
359.766	358.38
360.148	344.82
360.53	323.13
360.912	328.78
361.294	342.79
361.676	360.41
362.057	326.52
362.439	341.88
362.821	319.29
363.203	319.29
363.584	316.8
363.966	340.53
364.348	319.96
364.729	330.81
365.111	334.2
365.493	330.36
365.874	329.68
366.256	337.82
366.637	316.57
367.019	318.16
367.4	319.29
367.781	293.75
368.163	321.55
368.544	302.56
368.925	328.78
369.306	318.61
369.688	324.93
370.069	317.25
370.45	309.34
370.831	310.7
371.212	330.58
371.593	315.22
371.974	315.9
372.355	310.25
372.736	299.62
373.117	320.64
373.498	308.44
373.879	325.16
374.26	312.28
374.641	306.18
375.021	314.09
375.402	323.58
375.783	319.74
376.163	312.28
376.544	319.96
376.925	332.39
377.305	311.83
377.686	325.39
378.066	308.21
378.447	336.69
378.827	328.55
379.208	347.99
379.588	347.53
379.968	331.04
380.349	331.71
380.729	341.88
381.109	347.08
381.489	359.74
381.87	350.92
382.25	346.18
382.63	351.6
383.01	340.98
383.39	337.14
383.77	370.81
384.15	336.46
384.53	346.86
384.91	333.3
385.29	370.36
385.67	354.09
386.049	340.98
386.429	361.54
386.809	365.39
387.189	368.55
387.568	342.79
387.948	381.2
388.328	378.72
388.707	337.82
389.087	371.49
389.466	375.1
389.846	366.29
390.225	387.98
390.605	380.3
390.984	364.03
391.363	387.53
391.743	376.23
392.122	375.1
392.501	373.52
392.881	377.36
393.26	385.72
393.639	386.18
394.018	409.68
394.397	382.56
394.776	375.56
395.155	400.64
395.534	403.35
395.913	401.32
396.292	388.44
396.671	407.19
397.05	422.79
397.429	416.68
397.808	384.37
398.186	403.35
398.565	413.52
398.944	408.1
399.323	406.51
399.701	408.32
400.08	424.59
400.458	433.41
400.837	424.59
401.215	437.93
401.594	434.76
401.972	435.44
402.351	399.96
402.729	419.62
403.107	439.28
403.486	445.38
403.864	438.6
404.242	444.03
404.62	437.25
404.999	446.97
405.377	442.9
405.755	425.72
406.133	451.03
406.511	435.89
406.889	443.58
407.267	458.72
407.645	453.52
408.023	500.75
408.401	466.85
408.779	479.51
409.156	460.75
409.534	471.37
409.912	477.02
410.29	483.8
410.667	510.92
411.045	481.32
411.422	480.86
411.8	505.72
412.178	507.3
412.555	521.99
412.933	496.91
413.31	528.77
413.687	510.69
414.065	534.19
414.442	530.81
414.819	523.8
415.197	527.42
415.574	541.2
415.951	519.05
416.328	540.97
416.705	513.63
417.082	528.77
417.46	550.01
417.837	537.58
418.214	550.47
418.591	580.97
418.967	551.82
419.344	544.14
419.721	531.94
420.098	557.25
420.475	563.12
420.852	585.95
421.228	570.8
421.605	589.33
421.982	596.79
422.358	585.27
422.735	583.91
423.111	608.09
423.488	591.37
423.864	617.58
424.241	617.36
424.617	615.32
424.994	613.51
425.37	634.53
425.746	638.83
426.123	628.43
426.499	638.83
426.875	639.5
427.251	640.41
427.627	674.53
428.003	659.39
428.379	670.01
428.756	667.3
429.132	685.15
429.507	707.98
429.883	702.1
430.259	706.62
430.635	705.26
431.011	692.16
431.387	726.05
431.763	734.87
432.138	731.25
432.514	738.94
432.89	748.2
433.265	721.53
433.641	764.47
434.016	767.18
434.392	779.84
434.767	790.01
435.143	777.8
435.518	803.11
435.894	809.22
436.269	797.92
436.644	799.95
437.02	820.97
437.395	829.1
437.77	831.81
438.145	830.46
438.52	868.2
438.895	845.83
439.271	860.29
439.646	857.12
440.021	889.89
440.395	880.4
440.77	873.62
441.145	893.06
441.52	889.44
441.895	913.39
442.27	907.29
442.645	919.04
443.019	918.82
443.394	930.57
443.769	929.21
444.143	920.17
444.518	942.32
444.892	961.98
445.267	962.88
445.641	982.32
446.016	966.73
446.39	988.65
446.764	996.1
447.139	982.32
447.513	995.43
447.887	980.28
448.262	1012.83
448.636	1000.62
449.01	1048.08
449.384	1033.84
449.758	1025.26
450.132	1048.31
450.506	1065.25
450.88	1072.94
451.254	1080.4
451.628	1065.71
452.002	1057.12
452.376	1079.49
452.75	1104.8
453.123	1106.84
453.497	1130.79
453.871	1127.63
454.244	1133.95
454.618	1168.98
454.992	1164.23
455.365	1179.6
455.739	1198.36
456.112	1216.89
456.486	1228.41
456.859	1257.34
457.232	1260.28
457.606	1265.93
457.979	1279.03
458.352	1307.06
458.725	1306.15
459.099	1300.28
459.472	1352.93
459.845	1342.08
460.218	1363.33
460.591	1384.12
460.964	1409.2
461.337	1441.52
461.71	1427.73
462.083	1444
462.456	1480.84
462.829	1478.35
463.201	1545.92
463.574	1500.27
463.947	1529.65
464.32	1579.14
464.692	1597.44
465.065	1622.08
465.438	1636.31
465.81	1671.57
466.183	1667.05
466.555	1731.9
466.928	1726.25
467.3	1738.46
467.672	1793.82
468.045	1790.21
468.417	1841.73
468.789	1845.57
469.161	1905.91
469.534	1870.88
469.906	1958.34
470.278	1978.9
470.65	2011.9
471.022	2053.03
471.394	2100.26
471.766	2141.16
472.138	2170.76
472.51	2220.03
472.882	2292.11
473.253	2286.92
473.625	2340.25
473.997	2419.57
474.369	2483.07
474.74	2516.97
475.112	2581.37
475.484	2648.26
475.855	2660.01
476.227	2690.52
476.598	2825.21
476.97	2852.33
477.341	2897.75
477.713	2992.44
478.084	3037.63
478.455	3154.24
478.827	3215.03
479.198	3355.82
479.569	3342.71
479.94	3493.89
480.311	3590.39
480.682	3646.66
481.053	3755.13
481.424	3868.12
481.795	3974.78
482.166	4077.83
482.537	4159.64
482.908	4277.6
483.279	4378.39
483.65	4510.14
484.021	4648.89
484.391	4713.52
484.762	4870.35
485.133	4945.83
485.503	5052.04
485.874	5215.88
486.244	5340.17
486.615	5466.49
486.985	5544.68
487.356	5745.13
487.726	5872.13
488.097	6041.62
488.467	6148.28
488.837	6336.08
489.207	6416.3
489.578	6585.56
489.948	6729.96
490.318	6837.53
490.688	6957.75
491.058	7132.67
491.428	7306.22
491.798	7435.26
492.168	7624.63
492.538	7740.33
492.908	7893.78
493.278	8078.63
493.648	8139.19
494.017	8364.95
494.387	8398.39
494.757	8636.81
495.126	8727.43
495.496	8823.02
495.866	8942.11
496.235	9166.28
496.605	9312.5
496.974	9405.37
497.344	9524.92
497.713	9571.25
498.082	9735.76
498.452	9897.34
498.821	10023.66
499.19	10101.63
499.559	10219.59
499.928	10299.81
500.298	10448.51
500.667	10525.34
501.036	10614.83
501.405	10769.41
501.774	10791.1
502.143	10981.83
502.512	11037.42
502.88	11199.9
503.249	11234.25
503.618	11310.86
503.987	11405.32
504.356	11497.75
504.724	11588.59
505.093	11632.89
505.462	11643.51
505.83	11878.08
506.199	11949.26
506.567	12059.99
506.936	12068.58
507.304	12241.01
507.672	12257.5
508.041	12340.21
508.409	12496.37
508.777	12609.36
509.145	12568.45
509.514	12664.72
509.882	12765.51
510.25	12825.17
510.618	12851.39
510.986	12887.77
511.354	13071.27
511.722	13084.15
512.09	13183.35
512.458	13189.46
512.826	13271.94
513.193	13332.5
513.561	13382.67
513.929	13451.37
514.297	13579.05
514.664	13630.35
515.032	13651.59
515.4	13753.28
515.767	13780.63
516.135	13838.93
516.502	13758.93
516.869	13993.28
517.237	14008.87
517.604	13982.43
517.972	14141.07
518.339	14123.22
518.706	14128.64
519.073	14092.71
519.44	14168.64
519.808	14215.42
520.175	14235.3
520.542	14369.31
520.909	14497.22
521.276	14374.96
521.643	14474.62
522.009	14490.66
522.376	14545.13
522.743	14556.2
523.11	14779.47
523.477	14805.46
523.843	14875.51
524.21	14908.51
524.577	14988.5
524.943	14996.19
525.31	15038.9
525.676	15082.51
526.043	15145.56
526.409	15117.99
526.776	15237.99
527.142	15215.16
527.508	15203.19
527.874	15349.85
528.241	15299
528.607	15286.12
528.973	15323.86
529.339	15334.48
529.705	15424.88
530.071	15500.58
530.437	15421.49
530.803	15494.71
531.169	15482.28
531.535	15362.96
531.901	15474.82
532.267	15525.89
532.632	15521.15
532.998	15463.75
533.364	15566.57
533.73	15546.91
534.095	15639.33
534.461	15541.03
534.826	15508.94
535.192	15571.77
535.557	15709.84
535.923	15534.03
536.288	15576.96
536.653	15557.98
537.019	15432.79
537.384	15393.01
537.749	15406.35
538.114	15370.64
538.479	15347.82
538.845	15454.03
539.21	15349.62
539.575	15356.4
539.94	15314.6
540.305	15346.91
540.67	15316.41
541.034	15276.41
541.399	15297.42
541.764	15185.79
542.129	15240.25
542.494	15151.21
542.858	15139.69
543.223	15096.98
543.587	15172.45
543.952	15127.71
544.316	15093.36
544.681	14990.99
545.045	15052.46
545.41	15050.65
545.774	15005.68
546.138	14944.66
546.503	14922.74
546.867	14867.38
547.231	14917.09
547.595	14851.78
547.959	14814.95
548.324	14818.34
548.688	14805.46
549.052	14735.4
549.416	14697.44
549.779	14739.25
550.143	14622.19
550.507	14712.81
550.871	14613.15
551.235	14558.46
551.599	14656.54
551.962	14625.58
552.326	14482.98
552.689	14624.67
553.053	14511.23
553.417	14495.41
553.78	14610.66
554.143	14516.2
554.507	14456.77
554.87	14588.29
555.234	14580.61
555.597	14443.21
555.96	14511.45
556.323	14470.1
556.686	14409.99
557.05	14511.45
557.413	14438.01
557.776	14415.41
558.139	14569.53
558.502	14426.03
558.865	14399.37
559.228	14475.3
559.59	14515.3
559.953	14463.32
560.316	14483.88
560.679	14467.84
561.041	14540.38
561.404	14583.54
561.767	14586.93
562.129	14501.51
562.492	14605.69
562.854	14513.49
563.217	14528.86
563.579	14574.73
563.941	14579.7
564.304	14667.61
564.666	14590.32
565.028	14609.08
565.39	14540.83
565.753	14649.76
566.115	14633.26
566.477	14628.29
566.839	14715.07
567.201	14909.41
567.563	14724.56
567.925	14864.67
568.287	14827.83
568.648	14722.52
569.01	14845.23
569.372	15018.79
569.734	14816.31
570.095	14937.21
570.457	14930.43
570.819	14993.02
571.18	15005.68
571.542	14993.93
571.903	14988.05
572.265	15121.16
572.626	15125.9
572.987	15072.34
573.349	15077.99
573.71	15010.2
574.071	15132.68
574.432	15059.91
574.794	15255.16
575.155	15184.43
575.516	15136.97
575.877	15183.98
576.238	15161.16
576.599	15128.61
576.96	15176.75
577.32	15189.63
577.681	15162.51
578.042	15284.09
578.403	15191.89
578.763	15161.83
579.124	15256.97
579.485	15312.11
579.845	15371.54
580.206	15270.98
580.566	15124.32
580.927	15336.07
581.287	15201.83
581.648	15132.46
582.008	15266.01
582.368	15216.07
582.728	15269.85
583.089	15258.33
583.449	15261.94
583.809	15199.12
584.169	15312.56
584.529	15195.5
584.889	15260.81
585.249	15185.79
585.609	15179.46
585.969	15230.76
586.329	15127.94
586.688	15193.7
587.048	15141.04
587.408	15116.64
587.768	15070.99
588.127	15118.9
588.487	15104.66
588.846	15117.77
589.206	15083.64
589.565	15080.03
589.925	15130.2
590.284	15051.78
590.643	15053.81
591.003	15144.66
591.362	15102.85
591.721	15045.9
592.08	15065.11
592.44	15077.77
592.799	14973.14
593.158	15043.19
593.517	15007.03
593.876	15018.79
594.235	15029.41
594.593	14918.45
594.952	15106.92
595.311	14969.3
595.67	14964.1
596.029	15063.76
596.387	15045
596.746	15090.65
597.104	14892.01
597.463	14965
597.822	15109.63
598.18	14927.94
598.538	14986.92
598.897	15053.36
599.255	14840.49
599.613	15090.65
599.972	14980.59
600.33	15038.22
600.688	14979.24
601.046	14980.82
601.404	15014.27
601.762	14966.58
602.12	15018.33
602.478	15019.92
602.836	15042.06
603.194	14994.15
603.552	15058.78
603.91	15009.75
604.268	15017.43
604.625	14981.5
604.983	15096.75
605.341	14943.99
605.698	15014.04
606.056	15048.16
606.413	15021.05
606.771	15025.57
607.128	15025.57
607.485	14959.13
607.843	15000.03
608.2	15111.44
608.557	15168.84
608.914	15021.05
609.272	15184.43
609.629	15155.05
609.986	15176.75
610.343	15115.51
610.7	15141.95
611.057	15155.28
611.414	15158.22
611.771	15128.61
612.127	15210.42
612.484	15123.42
612.841	15272.34
613.198	15169.74
613.554	15180.82
613.911	15263.3
614.267	15361.38
614.624	15187.37
614.98	15251.32
615.337	15248.16
615.693	15362.28
616.05	15289.29
616.406	15377.42
616.762	15296.29
617.118	15341.49
617.475	15376.74
617.831	15396.63
618.187	15419.23
618.543	15403.18
618.899	15449.51
619.255	15462.62
619.611	15433.69
619.967	15489.06
620.323	15504.42
620.678	15398.21
621.034	15392.34
621.39	15441.15
621.746	15393.69
622.101	15532.44
622.457	15423.75
622.812	15333.35
623.168	15450.41
623.523	15474.59
623.879	15524.31
624.234	15396.4
624.589	15452.9
624.945	15443.63
625.3	15491.99
625.655	15517.08
626.01	15437.98
626.365	15449.06
626.72	15409.06
627.075	15488.6
627.43	15404.76
627.785	15361.83
628.14	15448.61
628.495	15374.93
628.85	15394.6
629.205	15408.61
629.559	15482.28
629.914	15370.64
630.269	15362.28
630.623	15361.38
630.978	15317.54
631.332	15294.48
631.687	15345.56
632.041	15360.02
632.396	15343.07
632.75	15308.5
633.104	15290.87
633.459	15218.33
633.813	15266.01
634.167	15267.59
634.521	15188.05
634.875	15257.65
635.229	15239.12
635.583	15133.59
635.937	15097.43
636.291	15122.96
636.645	15102.85
636.999	15142.62
637.352	15128.16
637.706	15076.41
638.06	15158.44
638.413	15012.01
638.767	14962.29
639.121	15009.52
639.474	14956.19
639.828	14922.74
640.181	14966.36
640.534	14949.41
640.888	14862.18
641.241	14793.93
641.594	14830.09
641.947	14862.86
642.301	14812.01
642.654	14834.84
643.007	14940.82
643.36	14777.89
643.713	14771.11
644.066	14874.83
644.419	14770.88
644.771	14732.01
645.124	14620.15
645.477	14489.99
645.83	14468.97
646.182	14388.07
646.535	14323.66
646.888	14392.81
647.24	14274.4
647.593	14381.51
647.945	14251.35
648.298	14180.62
648.65	14349.2
649.002	14126.15
649.355	14315.75
649.707	14255.87
650.059	14316.21
650.411	14490.44
650.763	14492.25
651.115	14621.06
651.467	14576.54
651.819	14583.77
652.171	14555.97
652.523	14548.29
652.875	14500.83
653.227	14456.09
653.578	14595.07
653.93	14650.89
654.282	14606.82
654.633	14513.49
654.985	14567.72
655.337	14536.31
655.688	14593.71
656.039	14649.53
656.391	14523.43
656.742	14581.96
657.094	14546.71
657.445	14595.29
657.796	14565.92
658.147	14536.09
658.498	14552.13
658.849	14551
659.2	14633.71
659.551	14544.67
659.902	14629.42
660.253	14589.42
660.604	14584.45
660.955	14562.53
661.306	14607.95
661.656	14563.43
662.007	14575.41
662.358	14609.76
662.708	14598.68
663.059	14564.33
663.409	14538.35
663.76	14579.7
664.11	14602.98
664.461	14674.16
664.811	14673.03
665.161	14696.31
665.511	14549.65
665.862	14562.75
666.212	14596.2
666.562	14653.82
666.912	14677.33
667.262	14532.02
667.612	14626.93
667.962	14602.3
668.312	14620.83
668.662	14666.93
669.011	14576.09
669.361	14548.74
669.711	14575.86
670.06	14523.66
670.41	14570.21
670.76	14480.49
671.109	14576.54
671.459	14560.27
671.808	14551
672.157	14645.46
672.507	14444.79
672.856	14546.48
673.205	14540.15
673.554	14463.55
673.904	14482.75
674.253	14465.58
674.602	14452.93
674.951	14315.3
675.3	14251.8
675.649	14477.11
675.998	14427.16
676.346	14458.8
676.695	14372.7
677.044	14355.75
677.393	14298.35
677.741	14308.97
678.09	14300.61
678.438	14254.29
678.787	14228.98
679.135	14265.59
679.484	14165.25
679.832	14248.64
680.181	14210.22
680.529	14218.13
680.877	14138.58
681.225	14120.73
681.573	14229.88
681.922	14117.34
682.27	13966.16
682.618	14065.59
682.966	13994.41
683.314	14022.2
683.661	13980.62
684.009	13873.28
684.357	13840.74
684.705	13877.8
685.053	13882.77
685.4	13819.04
685.748	13753.96
686.095	13699.95
686.443	13670.8
686.79	13664.7
687.138	13679.39
687.485	13640.74
687.832	13578.37
688.18	13607.98
688.527	13502.44
688.874	13381.09
689.221	13518.94
689.568	13382.9
689.915	13443.91
690.262	13396.23
690.609	13363.01
690.956	13330.92
691.303	13303.8
691.65	13196.23
691.997	13221.77
692.344	13080.76
692.69	13076.92
693.037	13083.24
693.383	12964.83
693.73	13043.7
694.077	12924.15
694.423	12912.63
694.769	12887.32
695.116	12826.75
695.462	12845.96
695.808	12731.61
696.155	12674.21
696.501	12602.13
696.847	12650.71
697.193	12568.68
697.539	12577.49
697.885	12482.36
698.231	12485.75
698.577	12455.46
698.923	12391.06
699.269	12345.18
699.614	12286.65
699.96	12241.01
700.306	12174.34
700.651	12101.8
700.997	12082.82
701.342	12021.8
701.688	12012.09
702.033	11927.34
702.379	11962.82
702.724	11877.17
703.069	11968.47
703.415	11839.66
703.76	11833.78
704.105	11824.75
704.45	11742.26
704.795	11662.04
705.14	11652.09
705.485	11635.82
705.83	11559.44
706.175	11640.57
706.52	11566.45
706.865	11467.01
707.209	11426.56
707.554	11382.05
707.899	11400.58
708.243	11359.45
708.588	11297.53
708.932	11216.85
709.277	11198.32
709.621	11174.59
709.966	11149.06
710.31	11205.1
710.654	11077.42
710.998	11040.59
711.342	11143.41
711.687	11054.82
712.031	11040.59
712.375	10997.42
712.719	10926.01
713.063	10943.41
713.407	10940.48
713.75	10933.92
714.094	10931.21
714.438	10832.68
714.782	10871.1
715.125	10758.78
715.469	10823.42
715.812	10781.16
716.156	10703.65
716.499	10668.17
716.843	10726.47
717.186	10664.78
717.53	10730.76
717.873	10700.48
718.216	10693.25
718.559	10640.37
718.902	10551.56
719.246	10619.13
719.589	10483.99
719.932	10484.89
720.275	10568.96
720.617	10524.21
720.96	10462.75
721.303	10475.18
721.646	10451.45
721.989	10437.21
722.331	10497.1
722.674	10372.13
723.016	10535.29
723.359	10424.78
723.701	10412.58
724.044	10381.17
724.386	10375.52
724.729	10408.51
725.071	10319.25
725.413	10406.48
725.755	10265.69
726.097	10292.81
726.439	10255.07
726.782	10342.98
727.124	10348.85
727.465	10227.5
727.807	10228.18
728.149	10296.88
728.491	10256.65
728.833	10252.81
729.175	10179.82
729.516	10228.4
729.858	10223.43
730.199	10251.91
730.541	10165.81
730.882	10151.8
731.224	10218.91
731.565	10162.19
731.906	10211.45
732.248	10144.11
732.589	10107.05
732.93	10067.05
733.271	10089.42
733.612	10185.01
733.953	10136.43
734.294	10135.98
734.635	10079.03
734.976	10189.76
735.317	10104.79
735.658	10163.09
735.999	10148.41
736.339	10154.73
736.68	10123.32
737.021	10113.15
737.361	10104.79
737.702	10134.39
738.042	10156.99
738.383	10092.81
738.723	10168.07
739.063	10125.13
739.404	10121.51
739.744	10229.76
740.084	10092.14
740.424	10231.12
740.764	10121.97
741.104	10234.28
741.444	10085.13
741.784	10229.53
742.124	10233.37
742.464	10244.45
742.804	10227.27
743.143	10261.17
743.483	10331.9
743.823	10269.98
744.162	10325.8
744.502	10429.75
744.841	10263.66
745.181	10462.52
745.52	10432.47
745.86	10491.45
746.199	10537.1
746.538	10622.07
746.877	10650.99
747.216	10667.26
747.556	10713.14
747.895	10761.72
748.234	10854.38
748.573	10776.19
748.911	10884.88
749.25	10903.41
749.589	10963.53
749.928	11073.13
750.267	11111.32
750.605	11196.97
750.944	11251.65
751.283	11238.55
751.621	11414.59
751.96	11427.02
752.298	11595.83
752.636	11638.08
752.975	11716.95
753.313	11800.57
753.651	11926.21
753.989	12006.89
754.327	12060.45
754.666	12155.81
755.004	12305.18
755.342	12459.53
755.679	12593.31
