Data from hue_20_FLMS001491_68.txt Node
Date: Mon Feb 06 15:34:28 GMT 2017
User: dcchb
Spectrometer: FLMS00149
Trigger mode: 0
Integration Time (sec): 2.000000E-2
Scans to average: 10
Electric dark correction enabled: true
Nonlinearity correction enabled: false
Boxcar width: 0
XAxis mode: Wavelengths
Number of Pixels in Spectrum: 2048
>>>>>Begin Spectral Data<<<<<
341.393	-3.5
341.776	-3.5
342.16	-3.5
342.543	-44.63
342.927	-67.23
343.31	-65.42
343.693	-70.17
344.077	-65.2
344.46	-62.71
344.843	-45.76
345.226	-54.35
345.61	-31.3
345.993	-21.13
346.376	2.6
346.759	-8.02
347.142	29.04
347.525	43.5
347.908	60.68
348.291	82.14
348.674	93.67
349.057	112.43
349.44	128.7
349.823	132.54
350.206	166.44
350.588	202.59
350.971	212.08
351.354	223.61
351.737	234.91
352.119	259.32
352.502	275.13
352.884	283.04
353.267	284.4
353.65	294.34
354.032	290.95
354.414	309.94
354.797	320.56
355.179	318.07
355.562	315.13
355.944	333.44
356.326	335.47
356.709	334.34
357.091	370.27
357.473	323.95
357.855	343.15
358.238	342.7
358.62	332.99
359.002	337.05
359.384	356.26
359.766	337.96
360.148	327.56
360.53	341.57
360.912	329.14
361.294	342.93
361.676	320.33
362.057	328.47
362.439	350.16
362.821	335.7
363.203	325.53
363.584	318.75
363.966	331.18
364.348	315.81
364.729	328.01
365.111	318.97
365.493	301.8
365.874	327.56
366.256	337.05
366.637	304.74
367.019	316.49
367.4	306.32
367.781	332.76
368.163	323.27
368.544	289.37
368.925	305.87
369.306	308.13
369.688	315.13
370.069	319.65
370.45	310.84
370.831	321.91
371.212	307.45
371.593	327.11
371.974	333.89
372.355	330.05
372.736	336.6
373.117	301.8
373.498	336.38
373.879	290.27
374.26	325.53
374.641	316.04
375.021	309.94
375.402	315.81
375.783	317.84
376.163	329.6
376.544	318.3
376.925	327.56
377.305	333.89
377.686	343.83
378.066	316.04
378.447	331.18
378.827	339.09
379.208	340.89
379.588	316.49
379.968	342.7
380.349	336.6
380.729	340.44
381.109	345.41
381.489	364.85
381.87	333.66
382.25	333.44
382.63	343.38
383.01	340.44
383.39	352.87
383.77	328.01
384.15	346.32
384.53	352.42
384.91	351.06
385.29	351.97
385.67	340.22
386.049	353.32
386.429	355.13
386.809	363.49
387.189	352.87
387.568	352.65
387.948	352.87
388.328	352.19
388.707	357.84
389.087	348.13
389.466	361.23
389.846	356.49
390.225	361.23
390.605	361.46
390.984	369.14
391.363	343.61
391.743	353.1
392.122	365.75
392.501	379.31
392.881	353.1
393.26	376.15
393.639	370.95
394.018	382.93
394.397	366.21
394.776	377.5
395.155	357.84
395.534	390.16
395.913	386.77
396.292	388.13
396.671	370.05
397.05	383.61
397.429	372.31
397.808	375.24
398.186	384.74
398.565	387
398.944	375.02
399.323	392.42
399.701	378.86
400.08	406.2
400.458	408.01
400.837	418.63
401.215	402.36
401.594	396.49
401.972	409.82
402.351	413.66
402.729	401.91
403.107	395.81
403.486	398.52
403.864	398.29
404.242	394.9
404.62	398.29
404.999	417.05
405.377	441.68
405.755	399.65
406.133	416.15
406.511	425.64
406.889	422.93
407.267	418.86
407.645	416.83
408.023	417.73
408.401	414.11
408.779	432.42
409.156	419.99
409.534	425.19
409.912	438.75
410.29	425.19
410.667	444.4
411.045	458.86
411.422	446.65
411.8	450.04
412.178	445.3
412.555	444.4
412.933	456.82
413.31	464.51
413.687	470.38
414.065	467.9
414.442	459.31
414.819	464.96
415.197	480.78
415.574	488.24
415.951	455.92
416.328	497.5
416.705	481.23
417.082	498.4
417.46	484.17
417.837	469.93
418.214	477.84
418.591	490.72
418.967	497.95
419.344	498.4
419.721	489.82
420.098	485.75
420.475	526.65
420.852	521.23
421.228	493.66
421.605	478.52
421.982	503.83
422.358	514.22
422.735	522.81
423.111	514.9
423.488	516.03
423.864	527.56
424.241	521.23
424.617	520.78
424.994	522.36
425.37	521.68
425.746	532.3
426.123	538.86
426.499	559.87
426.875	539.53
427.251	541.12
427.627	549.03
428.003	551.96
428.379	575.47
428.756	552.64
429.132	566.65
429.507	573.88
429.883	565.3
430.259	576.14
430.635	589.7
431.011	589.93
431.387	605.52
431.763	611.17
432.138	600.55
432.514	594.9
432.89	601.45
433.265	646.65
433.641	617.95
434.016	618.18
434.392	641.23
434.767	613.2
435.143	629.7
435.518	646.88
435.894	648.23
436.269	675.58
436.644	674.45
437.02	652.3
437.395	646.2
437.77	657.95
438.145	679.42
438.52	660.43
438.895	694.78
439.271	683.26
439.646	693.43
440.021	688.23
440.395	690.04
440.77	704.95
441.145	718.06
441.52	729.13
441.895	690.72
442.27	695.69
442.645	729.59
443.019	734.78
443.394	721.22
443.769	742.47
444.143	748.79
444.518	737.04
444.892	734.56
445.267	751.28
445.641	751.73
446.016	745.18
446.39	735.46
446.764	750.15
447.139	745.63
447.513	758.74
447.887	762.13
448.262	776.82
448.636	783.37
449.01	793.54
449.384	796.48
449.758	789.92
450.132	782.24
450.506	780.43
450.88	805.52
451.254	810.71
451.628	808.91
452.002	826.98
452.376	821.79
452.75	819.98
453.123	828.34
453.497	857.27
453.871	851.84
454.244	856.81
454.618	872.41
454.992	883.93
455.365	876.47
455.739	887.1
456.112	861.33
456.486	899.52
456.859	910.15
457.232	911.05
457.606	911.95
457.979	925.06
458.352	928.9
458.725	960.31
459.099	976.13
459.472	959.64
459.845	980.88
460.218	978.84
460.591	993.31
460.964	982.91
461.337	1021.56
461.71	1031.72
462.083	1005.06
462.456	1044.15
462.829	1049.8
463.201	1040.99
463.574	1080.54
463.947	1084.6
464.32	1081.21
464.692	1080.76
465.065	1084.38
465.438	1120.99
465.81	1124.83
466.183	1150.37
466.555	1164.6
466.928	1184.71
467.3	1165.73
467.672	1184.26
468.045	1199.86
468.417	1214.09
468.789	1240.98
469.161	1238.72
469.534	1257.26
469.906	1285.5
470.278	1301.32
470.65	1332.96
471.022	1332.96
471.394	1339.06
471.766	1362.11
472.138	1378.16
472.51	1375.44
472.882	1424.93
473.253	1436.69
473.625	1454.99
473.997	1480.07
474.369	1516.01
474.74	1499.06
475.112	1530.69
475.484	1551.71
475.855	1592.61
476.227	1593.97
476.598	1638.94
476.97	1686.62
477.341	1697.7
477.713	1733.63
478.084	1715.55
478.455	1800.97
478.827	1819.05
479.198	1852.72
479.569	1882.32
479.94	1899.5
480.311	1948.99
480.682	1955.54
481.053	1999.61
481.424	2066.27
481.795	2068.76
482.166	2086.39
482.537	2133.62
482.908	2183.78
483.279	2205.7
483.65	2259.49
484.021	2307.85
484.391	2335.42
484.762	2365.25
485.133	2381.97
485.503	2443.21
485.874	2461.74
486.244	2520.27
486.615	2557.11
486.985	2562.31
487.356	2648.4
487.726	2669.42
488.097	2715.52
488.467	2694.73
488.837	2776.99
489.207	2842.75
489.578	2893.82
489.948	2918.23
490.318	2974.05
490.688	3000.26
491.058	3043.87
491.428	3059.02
491.798	3063.76
492.168	3173.59
492.538	3162.52
492.908	3237.09
493.278	3306.24
493.648	3269.41
494.017	3311.89
494.387	3374.94
494.757	3366.8
495.126	3432.11
495.496	3433.92
495.866	3491.77
496.235	3504.2
496.605	3536.97
496.974	3594.14
497.344	3582.17
497.713	3662.62
498.082	3655.84
498.452	3728.6
498.821	3704.2
499.19	3731.09
499.559	3776.74
499.928	3827.13
500.298	3794.82
500.667	3818.77
501.036	3839.79
501.405	3871.42
501.774	3940.12
502.143	3946.45
502.512	3958.43
502.88	4015.15
503.249	4046.11
503.618	4060.8
503.987	4091.08
504.356	4073.45
504.724	4130.63
505.093	4149.83
505.462	4144.41
505.83	4162.72
506.199	4200.91
506.567	4250.85
506.936	4233.67
507.304	4285.88
507.672	4276.84
508.041	4323.16
508.409	4342.15
508.777	4416.72
509.145	4375.14
509.514	4400.68
509.882	4471.18
510.25	4457.4
510.618	4502.37
510.986	4490.84
511.354	4537.62
511.722	4557.96
512.09	4559.09
512.458	4566.55
512.826	4607.22
513.193	4666.66
513.561	4654.91
513.929	4685.64
514.297	4721.8
514.664	4716.15
515.032	4711.4
515.4	4771.51
515.767	4784.39
516.135	4814.9
516.502	4783.04
516.869	4872.53
517.237	4884.05
517.604	4867.56
517.972	4932.64
518.339	4957.72
518.706	4881.79
519.073	4924.05
519.44	4965.63
519.808	5019.64
520.175	4976.25
520.542	5039.53
520.909	5062.13
521.276	5076.14
521.643	5093.54
522.009	5130.15
522.376	5132.18
522.743	5169.47
523.11	5231.16
523.477	5258.73
523.843	5284.95
524.21	5314.32
524.577	5335.79
524.943	5374.89
525.31	5401.55
525.676	5463.02
526.043	5489.23
526.409	5492.85
526.776	5532.4
527.142	5548.44
527.508	5621.43
527.874	5632.06
528.241	5620.98
528.607	5649.91
528.973	5714.31
529.339	5778.04
529.705	5749.34
530.071	5809.45
530.437	5858.49
530.803	5848.09
531.169	5884.93
531.535	5907.75
531.901	5926.06
532.267	5856.23
532.632	5970.35
532.998	6004.02
533.364	6062.78
533.73	6067.07
534.095	6053.29
534.461	6046.96
534.826	6193.62
535.192	6132.38
535.557	6220.29
535.923	6174.19
536.288	6209.44
536.653	6229.55
537.019	6267.97
537.384	6282.66
537.749	6295.09
538.114	6299.38
538.479	6332.15
538.845	6378.93
539.21	6394.97
539.575	6394.52
539.94	6462.54
540.305	6472.49
540.67	6516.78
541.034	6467.51
541.399	6541.41
541.764	6559.94
542.129	6591.13
542.494	6629.54
542.858	6651.69
543.223	6657.11
543.587	6718.81
543.952	6708.64
544.316	6745.92
544.681	6715.64
545.045	6773.04
545.41	6835.64
545.774	6887.62
546.138	6853.04
546.503	6919.03
546.867	6924
547.231	6926.26
547.595	7005.58
547.959	7031.79
548.324	7004.45
548.688	7017.1
549.052	7073.37
549.416	7104.33
549.779	7097.1
550.143	7129.19
550.507	7166.93
550.871	7218.91
551.235	7156.99
551.599	7281.05
551.962	7247.83
552.326	7263.88
552.689	7350.88
553.053	7298.23
553.417	7300.94
553.78	7416.64
554.143	7382.52
554.507	7470.88
554.87	7429.3
555.234	7519.01
555.597	7478.56
555.96	7517.88
556.323	7523.98
556.686	7546.81
557.05	7617.54
557.413	7575.51
557.776	7666.35
558.139	7707.71
558.502	7687.37
558.865	7707.25
559.228	7779.12
559.59	7805.33
559.953	7825.9
560.316	7924.65
560.679	7850.08
561.041	7882.17
561.404	7920.36
561.767	8004.2
562.129	7937.76
562.492	8031.09
562.854	8126.45
563.217	8019.34
563.579	8050.52
563.941	8098.43
564.304	8131.88
564.666	8238.54
565.028	8222.95
565.39	8231.76
565.753	8293.45
566.115	8326.45
566.477	8354.02
566.839	8385.66
567.201	8450.06
567.563	8409.38
567.925	8467.01
568.287	8492.09
568.648	8533.67
569.01	8558.76
569.372	8607.57
569.734	8662.48
570.095	8675.14
570.457	8718.53
570.819	8704.29
571.18	8747.68
571.542	8763.27
571.903	8858.64
572.265	8864.06
572.626	8904.74
572.987	8903.61
573.349	8974.79
573.71	9017.5
574.071	9069.71
574.432	9182.02
574.794	9219.76
575.155	9224.05
575.516	9316.25
575.877	9273.54
576.238	9395.12
576.599	9479.19
576.96	9539.75
577.32	9573.42
577.681	9612.97
578.042	9727.54
578.403	9702.68
578.763	9875.79
579.124	9878.05
579.485	10022
579.845	10137.02
580.206	10184.03
580.566	10194.65
580.927	10367.52
581.287	10457.24
581.648	10554.64
582.008	10688.42
582.368	10795.08
582.728	10965.47
583.089	11062.65
583.449	11198.91
583.809	11334.5
584.169	11462.64
584.529	11573.82
584.889	11828.5
585.249	11915.51
585.609	12078.44
585.969	12367.02
586.329	12452.67
586.688	12642.72
587.048	12848.14
587.408	13007.45
587.768	13267.11
588.127	13442.47
588.487	13662.58
588.846	14030.03
589.206	14065.05
589.565	14282.9
589.925	14554.76
590.284	14761.08
590.643	14957.01
591.003	15162.2
591.362	15497.33
591.721	15669.53
592.08	15973.03
592.44	16315.84
592.799	16508.15
593.158	16709.28
593.517	17018.65
593.876	17273.11
594.235	17590.84
594.593	17847.1
594.952	18103.37
595.311	18322.12
595.67	18676.46
596.029	19066.28
596.387	19339.94
596.746	19695.87
597.104	19835.75
597.463	20128.62
597.822	20441.16
598.18	20532
598.538	20793.01
598.897	21370.85
599.255	21478.42
599.613	22046.31
599.972	22108.46
600.33	22460.09
600.688	22656.01
601.046	23014.65
601.404	23307.07
601.762	23643.11
602.12	23974.4
602.478	24170.78
602.836	24548.62
603.194	24608.28
603.552	24956.29
603.91	25130.98
604.268	25444.87
604.625	25668.36
604.983	26017.73
605.341	26125.53
605.698	26502.92
606.056	26808.22
606.413	27034.43
606.771	27276.68
607.128	27470.13
607.485	27758.48
607.843	27919.38
608.2	28280.05
608.557	28530.89
608.914	28614.5
609.272	28979.24
609.629	29269.85
609.986	29553.46
610.343	29534.7
610.7	29869.38
611.057	30103.5
611.414	30225.31
611.771	30451.06
612.127	30767.67
612.484	31059.41
612.841	31198.84
613.198	31243.13
613.554	31312.51
613.911	31862.78
614.267	31966.73
614.624	32056.67
614.98	32329.88
615.337	32444.91
615.693	32587.73
616.05	32570.56
616.406	33098.9
616.762	32846.25
617.118	33248.96
617.475	33290.54
617.831	33533.92
618.187	33664.76
618.543	33957.41
618.899	34183.62
619.255	34178.2
619.611	34221.13
619.967	34485.31
620.323	34701.8
620.678	34637.62
621.034	34757.17
621.39	34786.54
621.746	34794.23
622.101	35522.79
622.457	35267.66
622.812	35449.8
623.168	35577.93
623.523	35577.48
623.879	35890.47
624.234	35687.31
624.589	35904.25
624.945	36002.78
625.3	36123.91
625.655	36181.53
626.01	36332.72
626.365	36374.07
626.72	36377.24
627.075	36472.83
627.43	36435.09
627.785	36417.46
628.14	36454.07
628.495	36791.69
628.85	36732.03
629.205	36737
629.559	37005.47
629.914	36901.74
630.269	36929.09
630.623	36884.79
630.978	36920.27
631.332	37062.87
631.687	37092.02
632.041	37059.48
632.396	36988.07
632.75	36945.81
633.104	37102.87
633.459	37104.9
633.813	36998.01
634.167	37075.52
634.521	37126.37
634.875	37223.09
635.229	37128.18
635.583	37040.95
635.937	37107.16
636.291	37081.17
636.645	37183.77
636.999	37190.1
637.352	37312.58
637.706	37108.52
638.06	37234.39
638.413	37129.08
638.767	37068.97
639.121	37293.6
639.474	36986.94
639.828	36785.13
640.181	37113.94
640.534	37212.47
640.888	36999.82
641.241	36847.73
641.594	37027.16
641.947	37238.68
642.301	37031.68
642.654	37148.06
643.007	36929.99
643.36	36984.45
643.713	36915.53
644.066	36988.97
644.419	36823.55
644.771	36685.93
645.124	36414.52
645.477	36339.72
645.83	36124.81
646.182	36138.37
646.535	35859.28
646.888	36027.19
647.24	35814.99
647.593	35980.64
647.945	35965.04
648.298	35773.18
648.65	35854.54
649.002	35739.74
649.355	35870.36
649.707	35844.37
650.059	35825.61
650.411	36342.89
650.763	36398.7
651.115	36804.79
651.467	36598.7
651.819	36649.77
652.171	36565.93
652.523	36529.77
652.875	36609.77
653.227	36329.33
653.578	36747.4
653.93	36682.99
654.282	36368.42
654.633	36353.06
654.985	36447.29
655.337	36454.52
655.688	36517.34
656.039	36561.64
656.391	36301.53
656.742	36399.38
657.094	36343.11
657.445	36403
657.796	36386.05
658.147	36354.19
658.498	36355.99
658.849	36406.16
659.2	36317.35
659.551	36196.9
659.902	36261.98
660.253	36407.52
660.604	36190.12
660.955	36227.18
661.306	36334.3
661.656	36188.09
662.007	36258.82
662.358	36147.19
662.708	36252.04
663.059	36353.73
663.409	36011.14
663.76	36227.86
664.11	36243
664.461	36209.78
664.811	36243.91
665.161	36209.56
665.511	36062.67
665.862	36292.27
666.212	36367.07
666.562	36341.98
666.912	36294.53
667.262	36130.24
667.612	36127.98
667.962	36208.2
668.312	36100.86
668.662	36360.29
669.011	36151.03
669.361	36118.26
669.711	36074.19
670.06	36084.14
670.41	36050.01
670.76	35962.11
671.109	36153.29
671.459	36059.96
671.808	35965.72
672.157	36038.71
672.507	35695.67
672.856	35950.81
673.205	35970.01
673.554	36048.43
673.904	35858.83
674.253	36137.47
674.602	35905.61
674.951	35468.11
675.3	35268.11
675.649	35878.04
675.998	35824.26
676.346	35700.42
676.695	35980.41
677.044	35616.58
677.393	35859.96
677.741	35949.45
678.09	35710.81
678.438	35614.09
678.787	35719.4
679.135	35596.01
679.484	35469.01
679.832	35570.48
680.181	35417.94
680.529	35586.07
680.877	35314.44
681.225	35350.82
681.573	35510.37
681.922	35245.51
682.27	35174.33
682.618	35229.7
682.966	35184.05
683.314	35205.51
683.661	35151.73
684.009	34964.84
684.357	34823.38
684.705	34791.29
685.053	34771.18
685.4	34761.01
685.748	34646.66
686.095	34698.41
686.443	34517.17
686.79	34533.44
687.138	34639.2
687.485	34528.24
687.832	34421.81
688.18	34293
688.527	34314.46
688.874	34224.07
689.221	34295.93
689.568	34034.7
689.915	33923.51
690.262	34011.87
690.609	33966.68
690.956	33841.94
691.303	33785.21
691.65	33659.79
691.997	33642.84
692.344	33451.66
692.69	33358.56
693.037	33369.63
693.383	33095.74
693.73	33267.03
694.077	33115.85
694.423	32996.08
694.769	32938.91
695.116	32891.68
695.462	32637.9
695.808	32571.91
696.155	32806.03
696.501	32453.72
696.847	32538.69
697.193	32329.21
697.539	32485.13
697.885	32241.75
698.231	32097.12
698.577	32109.78
698.923	31981.42
699.269	31948.2
699.614	31721.09
699.96	31729
700.306	31708.43
700.651	31578.72
700.997	31490.58
701.342	31433.18
701.688	31476.57
702.033	31200.42
702.379	31315.9
702.724	31126.53
703.069	31315.22
703.415	31016.25
703.76	30945.51
704.105	30925.63
704.45	30941.45
704.795	30717.95
705.14	30630.49
705.485	30621.23
705.83	30414.45
706.175	30404.51
706.52	30359.99
706.865	30294.23
707.209	30248.81
707.554	30119.77
707.899	30239.09
708.243	30038.19
708.588	29958.87
708.932	29818.99
709.277	29783.28
709.621	29747.13
709.966	29471.2
710.31	29619.9
710.654	29399.11
710.998	29531.09
711.342	29575.61
711.687	29257.65
712.031	29233.47
712.375	29225.33
712.719	29179.91
713.063	29232.11
713.407	29217.65
713.75	29034.38
714.094	29028.05
714.438	28871.67
714.782	28873.25
715.125	28816.76
715.469	28905.12
715.812	28610.89
716.156	28517.78
716.499	28520.27
716.843	28615.41
717.186	28372.47
717.53	28552.81
717.873	28572.7
718.216	28388.07
718.559	28384.68
718.902	28117.34
719.246	28279.14
719.589	28069.66
719.932	28068.08
720.275	27940.17
720.617	27972.71
720.96	27881.41
721.303	27818.14
721.646	27977
721.989	27675.54
722.331	27760.51
722.674	27542.21
723.016	27750.8
723.359	27694.07
723.701	27726.62
724.044	27482.1
724.386	27310.58
724.729	27524.14
725.071	27489.11
725.413	27426.06
725.755	27360.07
726.097	27376.57
726.439	27119.17
726.782	27140.64
727.124	27129.34
727.465	27054.77
727.807	27036.69
728.149	26964.15
728.491	26948.56
728.833	27019.06
729.175	26927.99
729.516	26831.27
729.858	26768
730.199	26835.11
730.541	26729.13
730.882	26708.11
731.224	26761.9
731.565	26590.83
731.906	26579.98
732.248	26570.71
732.589	26390.61
732.93	26402.81
733.271	26339.76
733.612	26423.82
733.953	26410.27
734.294	26400.55
734.635	26275.58
734.976	26298.4
735.317	26111.06
735.658	26179.09
735.999	26098.86
736.339	26126.88
736.68	26244.39
737.021	25996.04
737.361	25893.9
737.702	26081.01
738.042	25984.97
738.383	25904.74
738.723	25908.13
739.063	25826.78
739.404	25968.92
739.744	25804.63
740.084	25666.78
740.424	25751.75
740.764	25625.2
741.104	25646.22
741.444	25501.14
741.784	25447.35
742.124	25594.02
742.464	25431.53
742.804	25391.31
743.143	25390.41
743.483	25472.66
743.823	25261.82
744.162	25267.02
744.502	25333.91
744.841	25226.79
745.181	25300.92
745.52	25131.88
745.86	25225.66
746.199	25220.92
746.538	25171.43
746.877	25159.68
747.216	25149.73
747.556	25019.12
747.895	25004.43
748.234	24957.2
748.573	24905.9
748.911	24898.67
749.25	24809.63
749.589	24728.73
749.928	24788.16
750.267	24840.14
750.605	24732.34
750.944	24671.55
751.283	24525.34
751.621	24646.7
751.96	24407.61
752.298	24411
752.636	24447.38
752.975	24222.3
753.313	24278.12
753.651	24374.61
753.989	24353.6
754.327	24261.17
754.666	24078.8
755.004	24189.31
755.342	24085.13
755.679	24089.42
756.017	23883.55
756.355	23934.85
756.693	23912.93
757.031	23955.64
757.368	23855.08
757.706	23748.42
758.044	23768.98
758.381	23738.7
758.719	23560.4
759.056	23568.08
759.394	23491.92
759.731	23411.02
760.068	23462.09
760.405	23290.35
760.743	23129.9
761.08	23260.07
