Data from hue_28_FLMS001491_00079.txt Node
Date: Tue Feb 07 17:17:48 GMT 2017
User: dcchb
Spectrometer: FLMS00149
Trigger mode: 0
Integration Time (sec): 2.000000E-2
Scans to average: 10
Electric dark correction enabled: true
Nonlinearity correction enabled: false
Boxcar width: 0
XAxis mode: Wavelengths
Number of Pixels in Spectrum: 2048
>>>>>Begin Spectral Data<<<<<
341.393	-7.08
341.776	-7.08
342.16	-7.08
342.543	-54.08
342.927	-61.76
343.31	-68.77
343.693	-55.89
344.077	-66.51
344.46	-72.16
344.843	-50.24
345.226	-45.27
345.61	-28.54
345.993	-16.12
346.376	-14.99
346.759	8.74
347.142	41.74
347.525	33.6
347.908	57.33
348.291	71.79
348.674	88.97
349.057	116.31
349.44	154.73
349.823	157.67
350.206	195.4
350.588	225.46
350.971	224.56
351.354	226.36
351.737	229.08
352.119	259.81
352.502	265.01
352.884	299.81
353.267	289.41
353.65	310.88
354.032	309.75
354.414	324.21
354.797	322.63
355.179	330.09
355.562	325.8
355.944	350.88
356.326	326.47
356.709	346.36
357.091	357.66
357.473	357.66
357.855	344.55
358.238	378.68
358.62	349.75
359.002	341.39
359.384	346.59
359.766	342.75
360.148	321.28
360.53	342.07
360.912	347.72
361.294	338.68
361.676	333.25
362.057	340.03
362.439	327.15
362.821	335.74
363.203	337.55
363.584	333.93
363.966	336.87
364.348	310.66
364.729	342.07
365.111	329.64
365.493	309.98
365.874	318.57
366.256	313.59
366.637	333.71
367.019	326.93
367.4	308.17
367.781	318.57
368.163	314.27
368.544	331.9
368.925	340.26
369.306	324.89
369.688	326.93
370.069	331.45
370.45	318.11
370.831	307.94
371.212	329.64
371.593	312.01
371.974	327.15
372.355	317.89
372.736	319.69
373.117	337.1
373.498	330.32
373.879	306.14
374.26	326.7
374.641	329.64
375.021	305.23
375.402	332.8
375.783	320.37
376.163	333.71
376.544	333.93
376.925	320.6
377.305	315.4
377.686	335.06
378.066	343.88
378.447	335.97
378.827	333.03
379.208	340.26
379.588	334.84
379.968	321.95
380.349	346.36
380.729	359.69
381.109	368.73
381.489	344.33
381.87	345.01
382.25	340.71
382.63	338
383.01	357.21
383.39	333.93
383.77	348.62
384.15	345.46
384.53	354.27
384.91	365.34
385.29	362.63
385.67	334.61
386.049	348.62
386.429	354.04
386.809	371.67
387.189	341.84
387.568	364.21
387.948	362.18
388.328	361.28
388.707	365.34
389.087	371.45
389.466	350.43
389.846	369.41
390.225	392.46
390.605	384.55
390.984	366.47
391.363	368.28
391.743	365.57
392.122	383.42
392.501	370.99
392.881	378.68
393.26	381.84
393.639	391.78
394.018	401.95
394.397	393.14
394.776	386.36
395.155	368.73
395.534	383.65
395.913	357.66
396.292	389.07
396.671	371.9
397.05	394.27
397.429	397.43
397.808	402.63
398.186	376.42
398.565	373.03
398.944	403.31
399.323	397.43
399.701	415.51
400.08	414.38
400.458	405.12
400.837	387.72
401.215	410.77
401.594	410.54
401.972	420.71
402.351	427.26
402.729	398.11
403.107	428.84
403.486	419.13
403.864	408.96
404.242	414.61
404.62	417.55
404.999	419.81
405.377	427.94
405.755	422.74
406.133	438.34
406.511	427.26
406.889	451.44
407.267	432.23
407.645	418.22
408.023	439.24
408.401	443.99
408.779	458.22
409.156	452.57
409.534	460.48
409.912	442.86
410.29	475.4
410.667	463.87
411.045	467.04
411.422	483.08
411.8	473.14
412.178	481.72
412.555	475.62
412.933	471.56
413.31	475.4
413.687	487.37
414.065	484.21
414.442	505.68
414.819	509.97
415.197	490.99
415.574	499.58
415.951	486.7
416.328	503.42
416.705	473.59
417.082	486.92
417.46	501.39
417.837	517.2
418.214	524.66
418.591	514.49
418.967	520.82
419.344	525.34
419.721	524.66
420.098	538.9
420.475	536.19
420.852	519.92
421.228	514.04
421.605	533.7
421.982	535.06
422.358	562.17
422.735	552.23
423.111	560.37
423.488	535.96
423.864	549.29
424.241	586.81
424.617	558.78
424.994	560.14
425.37	555.62
425.746	570.54
426.123	578.22
426.499	566.47
426.875	577.99
427.251	611.44
427.627	601.72
428.003	589.97
428.379	613.7
428.756	608.27
429.132	602.63
429.507	616.86
429.883	617.09
430.259	617.54
430.635	632
431.011	644.88
431.387	623.64
431.763	633.59
432.138	634.71
432.514	652.79
432.89	665.9
433.265	660.7
433.641	676.07
434.016	683.3
434.392	672.91
434.767	682.85
435.143	688.95
435.518	703.87
435.894	718.55
436.269	703.87
436.644	720.36
437.02	735.05
437.395	718.1
437.77	735.28
438.145	728.72
438.52	752.9
438.895	757.2
439.271	742.73
439.646	759.01
440.021	772.11
440.395	751.32
440.77	772.56
441.145	757.65
441.52	767.14
441.895	768.5
442.27	792.45
442.645	796.29
443.019	800.81
443.394	788.84
443.769	785.67
444.143	788.61
444.518	787.71
444.892	812.79
445.267	827.25
445.641	833.58
446.016	833.81
446.39	833.81
446.764	822.05
447.139	834.94
447.513	834.26
447.887	886.01
448.262	821.6
448.636	869.96
449.01	852.34
449.384	875.39
449.758	860.92
450.132	871.77
450.506	890.75
450.88	908.61
451.254	868.83
451.628	908.83
452.002	919.91
452.376	932.79
452.75	899.57
453.123	916.97
453.497	939.79
453.871	935.27
454.244	955.16
454.618	970.98
454.992	959.68
455.365	944.76
455.739	981.6
456.112	975.95
456.486	1000.36
456.859	1015.04
457.232	1041.48
457.606	1034.93
457.979	1048.04
458.352	1047.59
458.725	1048.49
459.099	1067.7
459.472	1090.75
459.845	1078.32
460.218	1105.89
460.591	1129.62
460.964	1137.3
461.337	1140.46
461.71	1118.32
462.083	1170.52
462.456	1187.02
462.829	1180.46
463.201	1184.08
463.574	1205.77
463.947	1235.83
464.32	1231.08
464.692	1267.69
465.065	1271.76
465.438	1288.48
465.81	1269.73
466.183	1289.84
466.555	1320.35
466.928	1372.1
467.3	1340.69
467.672	1358.31
468.045	1379.78
468.417	1404.41
468.789	1413.68
469.161	1414.81
469.534	1438.31
469.906	1487.8
470.278	1480.34
470.65	1530.28
471.022	1531.87
471.394	1571.87
471.766	1567.57
472.138	1599.21
472.51	1621.13
472.882	1686.66
473.253	1687.34
473.625	1714.69
473.997	1721.24
474.369	1767.57
474.74	1745.19
475.112	1816.15
475.484	1845.98
475.855	1883.27
476.227	1898.64
476.598	1935.7
476.97	1979.31
477.341	2001.46
477.713	2051.85
478.084	2061.34
478.455	2125.98
478.827	2172.75
479.198	2200.32
479.569	2217.5
479.94	2264.5
480.311	2344.73
480.682	2398.06
481.053	2450.71
481.424	2494.78
481.795	2527.77
482.166	2568.22
482.537	2597.15
482.908	2716.92
483.279	2733.87
483.65	2770.7
484.021	2795.56
484.391	2847.54
484.762	2882.34
485.133	2954.2
485.503	3052.28
485.874	3076.91
486.244	3134.99
486.615	3183.8
486.985	3248.88
487.356	3276.91
487.726	3310.8
488.097	3445.71
488.467	3491.59
488.837	3515.54
489.207	3577.69
489.578	3617.91
489.948	3690.23
490.318	3799.6
490.688	3804.8
491.058	3895.19
491.428	3880.28
491.798	3996.21
492.168	4061.29
492.538	4089.09
492.908	4174.73
493.278	4245.69
493.648	4230.33
494.017	4299.7
494.387	4322.98
494.757	4456.31
495.126	4462.86
495.496	4479.81
495.866	4576.53
496.235	4610.2
496.605	4681.39
496.974	4688.62
497.344	4723.42
497.713	4830.31
498.082	4818.11
498.452	4901.95
498.821	4946.01
499.19	4898.56
499.559	4969.06
499.928	5035.96
500.298	5033.7
500.667	5103.52
501.036	5121.6
501.405	5187.14
501.774	5209.96
502.143	5290.86
502.512	5282.05
502.88	5331.77
503.249	5366.57
503.618	5448.37
503.987	5368.38
504.356	5410.86
504.724	5452.89
505.093	5479.11
505.462	5612.66
505.83	5621.25
506.199	5653.34
506.567	5700.57
506.936	5695.15
507.304	5752.09
507.672	5779.89
508.041	5777.86
508.409	5851.07
508.777	5939.43
509.145	5948.93
509.514	5915.93
509.882	6000.9
510.25	6022.14
510.618	6019.21
510.986	6044.29
511.354	6093.1
511.722	6094.23
512.09	6183.27
512.458	6183.72
512.826	6269.6
513.193	6271.85
513.561	6247.67
513.929	6336.26
514.297	6376.48
514.664	6419.42
515.032	6434.79
515.4	6428.46
515.767	6483.15
516.135	6524.96
516.502	6498.74
516.869	6610.83
517.237	6592.07
517.604	6550.04
517.972	6675.01
518.339	6685.86
518.706	6638.62
519.073	6694.89
519.44	6766.31
519.808	6743.25
520.175	6798.62
520.542	6923.82
520.909	6881.56
521.276	6933.98
521.643	6950.03
522.009	6977.15
522.376	7039.52
522.743	7067.77
523.11	7046.07
523.477	7186.63
523.843	7141.89
524.21	7251.49
524.577	7269.57
524.943	7324.71
525.31	7379.4
525.676	7415.55
526.043	7429.34
526.409	7489.22
526.776	7559.5
527.142	7552.73
527.508	7652.16
527.874	7650.12
528.241	7758.14
528.607	7713.4
528.973	7802.66
529.339	7761.31
529.705	7882.21
530.071	7883.34
530.437	7990.91
530.803	7952.94
531.169	8050.11
531.535	8029.32
531.901	8018.25
532.267	8092.15
532.632	8147.74
532.998	8226.38
533.364	8212.59
533.73	8289.43
534.095	8315.87
534.461	8350.44
534.826	8441.52
535.192	8457.56
535.557	8472.7
535.923	8509.76
536.288	8516.09
536.653	8516.54
537.019	8525.13
537.384	8614.39
537.749	8625.01
538.114	8681.06
538.479	8685.35
538.845	8756.54
539.21	8765.35
539.575	8807.38
539.94	8810.77
540.305	8908.17
540.67	8961.95
541.034	8899.36
541.399	8944.55
541.764	8958.11
542.129	8963.76
542.494	9071.33
542.858	9085.11
543.223	9094.61
543.587	9238.78
543.952	9172.57
544.316	9193.59
544.681	9236.3
545.045	9315.39
545.41	9413.24
545.774	9388.61
546.138	9434.26
546.503	9433.81
546.867	9505.67
547.231	9515.84
547.595	9593.35
547.959	9661.14
548.324	9631.77
548.688	9639.9
549.052	9661.6
549.416	9663.63
549.779	9745.44
550.143	9737.75
550.507	9815.04
550.871	9904.3
551.235	9881.48
551.599	9935.71
551.962	9961.02
552.326	9967.58
552.689	10014.81
553.053	9999.67
553.417	10088.7
553.78	10193.11
554.143	10115.37
554.507	10155.82
554.87	10136.61
555.234	10295.93
555.597	10248.25
555.96	10313.33
556.323	10391.75
556.686	10321.92
557.05	10398.75
557.413	10371.41
557.776	10477.17
558.139	10539.99
558.502	10577.73
558.865	10492.08
559.228	10636.03
559.59	10695.24
559.953	10720.78
560.316	10813.43
560.679	10782.02
561.041	10845.07
561.404	10837.16
561.767	10895.24
562.129	10890.49
562.492	11009.58
562.854	10967.32
563.217	10966.19
563.579	10999.64
563.941	11082.12
564.304	11064.5
564.666	11172.52
565.028	11214.1
565.39	11235.34
565.753	11336.35
566.115	11400.99
566.477	11378.84
566.839	11408.44
567.201	11542
567.563	11512.85
567.925	11501.1
568.287	11531.6
568.648	11578.83
569.01	11752.39
569.372	11746.29
569.734	11756.23
570.095	11864.7
570.457	11880.07
570.819	11844.82
571.18	12021.99
571.542	12036.22
571.903	11999.61
572.265	12120.97
572.626	12157.12
572.987	12232.38
573.349	12273.05
573.71	12345.59
574.071	12401.19
574.432	12468.98
574.794	12635.76
575.155	12568.64
575.516	12647.05
575.877	12717.79
576.238	12837.56
576.599	12937.44
576.96	13011.56
577.32	13089.3
577.681	13189.41
578.042	13295.17
578.403	13378.11
578.763	13546.69
579.124	13595.5
579.485	13746.69
579.845	13908.49
580.206	13946.68
580.566	14087.47
580.927	14280.68
581.287	14410.62
581.648	14456.95
582.008	14736.94
582.368	14828.69
582.728	15093.77
583.089	15167.21
583.449	15285.4
583.809	15501.67
584.169	15674.55
584.529	15936.46
584.889	16169.9
585.249	16239.5
585.609	16397.46
585.969	16673.16
586.329	16851.01
586.688	17164.9
587.048	17248.97
587.408	17559.02
587.768	17770.08
588.127	18030.64
588.487	18290.97
588.846	18680.34
589.206	18773.9
589.565	19012.08
589.925	19366.43
590.284	19544.73
590.643	19850.25
591.003	20156.24
591.362	20518.94
591.721	20682.55
592.08	21068.08
592.44	21301.29
592.799	21702.18
593.158	21875.96
593.517	22136.75
593.876	22567.25
594.235	22755.04
594.593	22983.28
594.952	23390.95
595.311	23609.93
595.67	23956.36
596.029	24294.21
596.387	24512.05
596.746	24743.23
597.104	24994.75
597.463	25267.74
597.822	25715.86
598.18	25784.79
598.538	26103.42
598.897	26664.76
599.255	26658.44
599.613	27381.13
599.972	27393.79
600.33	27765.98
600.688	27838.75
601.046	28309.47
601.404	28655.22
601.762	28892.73
602.12	29264.7
602.478	29670.56
602.836	29869.2
603.194	29981.74
603.552	30216.08
603.91	30406.14
604.268	30769.74
604.625	30914.82
604.983	31322.5
605.341	31272.78
605.698	31706.67
606.056	31936.72
606.413	32244.96
606.771	32456.25
607.128	32901.21
607.485	32952.28
607.843	33127.19
608.2	33439.73
608.557	33642.21
608.914	33789.78
609.272	34126.26
609.629	34282.42
609.986	34665.91
610.343	34725.57
610.7	35155.84
611.057	35170.76
611.414	35369.39
611.771	35550.63
612.127	35937.74
612.484	35934.35
612.841	36397.84
613.198	36328.92
613.554	36622.7
613.911	36756.03
614.267	36945.4
614.624	37200.99
614.98	37276.24
615.337	37598.49
615.693	37662.89
616.05	37880.74
616.406	38111.7
616.762	37997.12
617.118	38233.05
617.475	38379.26
617.831	38597.11
618.187	38706.71
618.543	38754.84
618.899	39174.04
619.255	39040.03
619.611	39074.83
619.967	39576.74
620.323	39552.79
620.678	39651.99
621.034	39635.27
621.39	39721.82
621.746	39692.67
622.101	40212.66
622.457	39977.41
622.812	40132.21
623.168	40416.49
623.523	40423.27
623.879	40598.86
624.234	40467.34
624.589	40654
624.945	40805.41
625.3	40938.06
625.655	40882.7
626.01	41047.89
626.365	41034.33
626.72	41101.9
627.075	41035.46
627.43	41104.39
627.785	41166.76
628.14	41313.87
628.495	41342.57
628.85	41427.77
629.205	41247.66
629.559	41631.38
629.914	41308.9
630.269	41527.65
630.623	41480.65
630.978	41530.14
631.332	41638.38
631.687	41844.48
632.041	41566.52
632.396	41818.72
632.75	41623.24
633.104	41711.6
633.459	41596.58
633.813	41694.43
634.167	41724.48
634.521	41750.24
634.875	41905.49
635.229	41757.02
635.583	41546.63
635.937	41608.33
636.291	41693.3
636.645	41830.92
636.999	41664.14
637.352	41718.15
637.706	41552.28
638.06	41821.88
638.413	41687.65
638.767	41794.31
639.121	41821.2
639.474	41494.43
639.828	41509.57
640.181	41584.37
640.534	41620.76
640.888	41509.8
641.241	41330.59
641.594	41495.11
641.947	41676.8
642.301	41573.07
642.654	41560.87
643.007	41632.73
643.36	41547.09
643.713	41416.47
644.066	41619.63
644.419	41391.38
644.771	41226.64
645.124	40857.16
645.477	40770.61
645.83	40539.43
646.182	40514.34
646.535	40381.92
646.888	40459.66
647.24	40202.04
647.593	40472.99
647.945	40352.31
648.298	40128.82
648.65	40158.2
649.002	40072.77
649.355	40293.56
649.707	40170.85
650.059	40264.41
650.411	40762.47
650.763	40889.48
651.115	41162.91
651.467	41167.43
651.819	41010.38
652.171	41074.78
652.523	41041.11
652.875	40956.59
653.227	40647.67
653.578	41176.02
653.93	40997.95
654.282	40882.92
654.633	40700.1
654.985	40882.47
655.337	40862.81
655.688	40898.97
656.039	40949.81
656.391	40664.4
656.742	40870.95
657.094	40926.99
657.445	41051.96
657.796	40805.18
658.147	40820.32
658.498	40781.68
658.849	40894.22
659.2	40747.78
659.551	40772.87
659.902	40851.74
660.253	40806.77
660.604	40902.81
660.955	40527.23
661.306	40847.89
661.656	40665.75
662.007	40799.08
662.358	40741.46
662.708	40802.25
663.059	40601.12
663.409	40464.85
663.76	40834.11
664.11	40767.67
664.461	40646.54
664.811	40657.62
665.161	40823.04
665.511	40509.37
665.862	40560.67
666.212	40691.29
666.562	40654.23
666.912	40697.84
667.262	40494.91
667.612	40548.47
667.962	40642.25
668.312	40601.12
668.662	40876.59
669.011	40633.89
669.361	40521.58
669.711	40640.44
670.06	40555.47
670.41	40626.66
670.76	40444.06
671.109	40573.33
671.459	40457.85
671.808	40445.65
672.157	40479.77
672.507	40329.49
672.856	40341.24
673.205	40393.67
673.554	40447.91
673.904	40358.42
674.253	40494.01
674.602	40415.36
674.951	39808.37
675.3	39549.62
675.649	40344.63
675.998	40248.81
676.346	40345.99
676.695	40387.34
677.044	40039.55
677.393	40110.29
677.741	40167.69
678.09	40029.39
678.438	39888.37
678.787	40141.47
679.135	40088.59
679.484	39936.28
679.832	40093.34
680.181	39859.67
680.529	39880.46
680.877	39779.9
681.225	39761.6
681.573	39862.38
681.922	39665.78
682.27	39609.28
682.618	39536.06
682.966	39410.64
683.314	39668.72
683.661	39516.86
684.009	39119.35
684.357	39235.28
684.705	39228.28
685.053	39243.87
685.4	39138.79
685.748	39025.12
686.095	39043.42
686.443	38963.88
686.79	39019.02
687.138	38896.08
687.485	38888.17
687.832	38695.64
688.18	38856.08
688.527	38520.27
688.874	38508.3
689.221	38570.67
689.568	38520.72
689.915	38264.69
690.262	38267.4
690.609	38172.26
690.956	38096.78
691.303	37969.33
691.65	37942.66
691.997	37847.07
692.344	37646.62
692.69	37721.65
693.037	37577.47
693.383	37267.88
693.73	37468.1
694.077	37263.13
694.423	37252.51
694.769	37191.72
695.116	37028.33
695.462	36938.39
695.808	36836.25
696.155	36920.09
696.501	36654.56
696.847	36620.21
697.193	36507.44
697.539	36592.87
697.885	36419.31
698.231	36191.07
698.577	36165.98
698.923	36175.93
699.269	36040.11
699.614	35868.14
699.96	35812.32
700.306	35908.14
700.651	35768.25
700.997	35499.11
701.342	35512.22
701.688	35278.32
702.033	35366.68
702.379	35337.53
702.724	35240.36
703.069	35256.4
703.415	34867.94
703.76	34828.62
704.105	34972.12
704.45	34836.08
704.795	34635.85
705.14	34584.56
705.485	34481.51
705.83	34412.58
706.175	34362.19
706.52	34420.49
706.865	34291.91
707.209	34144.12
707.554	34031.35
707.899	34051.01
708.243	33884.69
708.588	33939.38
708.932	33676.33
709.277	33635.2
709.621	33709.33
709.966	33486.28
710.31	33514.98
710.654	33149.79
710.998	33403.8
711.342	33402.89
711.687	33196.34
712.031	33109.79
712.375	33017.14
712.719	33095.33
713.063	32907.76
713.407	33000.64
713.75	32991.6
714.094	32802.68
714.438	32635.91
714.782	32603.14
715.125	32486.31
715.469	32598.85
715.812	32582.12
716.156	32442.69
716.499	32393.65
716.843	32468.68
717.186	32078.18
717.53	32392.07
717.873	32104.4
718.216	32168.12
718.559	32028.24
718.902	31787.57
719.246	31879.77
719.589	31800.45
719.932	31754.35
720.275	31837.06
720.617	31614.47
720.96	31517.52
721.303	31489.95
721.646	31498.08
721.989	31382.16
722.331	31391.42
722.674	31322.5
723.016	31363.62
723.359	31290.63
723.701	31275.27
724.044	31046.8
724.386	31049.06
724.729	31192.1
725.071	31009.96
725.413	31072.56
725.755	30896.29
726.097	30858.33
726.439	30714.15
726.782	30753.92
727.124	30779.69
727.465	30689.97
727.807	30523.19
728.149	30534.95
728.491	30484.55
728.833	30615.62
729.175	30469.41
729.516	30334.72
729.858	30363.88
730.199	30463.54
730.541	30360.26
730.882	30273.03
731.224	30400.26
731.565	30220.6
731.906	30114.17
732.248	30218.34
732.589	30088.86
732.93	29959.37
733.271	30036.43
733.612	30023.32
733.953	29998.24
734.294	29862.2
734.635	29608.19
734.976	29805.93
735.317	29640.96
735.658	29577.23
735.999	29627.85
736.339	29557.34
736.68	29647.06
737.021	29528.42
737.361	29369.55
737.702	29523.22
738.042	29321.42
738.383	29362.32
738.723	29368.2
739.063	29210.01
739.404	29242.78
739.744	29328.2
740.084	29111.71
740.424	29155.09
740.764	29005.49
741.104	29173.4
741.444	28906.74
741.784	28914.65
742.124	29057.92
742.464	28881.2
742.804	28790.81
743.143	28646.18
743.483	28675.79
743.823	28551.95
744.162	28598.73
744.502	28702
744.841	28591.04
745.181	28653.19
745.52	28517.6
745.86	28562.34
746.199	28480.99
746.538	28444.61
746.877	28395.34
747.216	28427.43
747.556	28395.34
747.895	28294.78
748.234	28218.85
748.573	28219.07
748.911	28111.96
749.25	28262.69
749.589	28005.29
749.928	27996.26
750.267	28185.85
750.605	27972.08
750.944	27871.96
751.283	27827.22
751.621	27917.84
751.96	27766.43
752.298	27782.93
752.636	27636.94
752.975	27623.16
753.313	27600.33
753.651	27670.61
753.989	27470.17
754.327	27475.59
754.666	27220.23
755.004	27316.27
755.342	27273.56
755.679	27248.25
756.017	27106.56
756.355	27241.92
756.693	27011.65
757.031	27139.1
757.368	26834.93
757.706	26862.95
758.044	26813.46
758.381	26824.53
758.719	26673.8
759.056	26715.16
