Data from hue_200_FLMS001491_00002.txt Node
Date: Tue Feb 07 16:42:43 GMT 2017
User: dcchb
Spectrometer: FLMS00149
Trigger mode: 0
Integration Time (sec): 2.000000E-2
Scans to average: 10
Electric dark correction enabled: true
Nonlinearity correction enabled: false
Boxcar width: 0
XAxis mode: Wavelengths
Number of Pixels in Spectrum: 2048
>>>>>Begin Spectral Data<<<<<
341.393	-26.2
341.776	-26.2
342.16	-26.2
342.543	-79.08
342.927	-66.88
343.31	-59.65
343.693	-55.13
344.077	-67.1
344.46	-75.46
344.843	-57.16
345.226	-59.42
345.61	-39.31
345.993	-5.86
346.376	-23.49
346.759	9.73
347.142	27.81
347.525	41.14
347.908	65.1
348.291	89.28
348.674	105.77
349.057	103.74
349.44	120.91
349.823	162.27
350.206	174.92
350.588	211.08
350.971	218.31
351.354	235.94
351.737	223.29
352.119	252.21
352.502	267.8
352.884	275.26
353.267	273.68
353.65	287.01
354.032	297.41
354.414	294.92
354.797	306.22
355.179	305.32
355.562	330.17
355.944	340.8
356.326	320.68
356.709	340.34
357.091	334.92
357.473	353.23
357.855	339.44
358.238	336.73
358.62	350.06
359.002	335.6
359.384	344.86
359.766	354.81
360.148	337.18
360.53	321.36
360.912	336.05
361.294	337.63
361.676	341.47
362.057	330.17
362.439	320.91
362.821	310.51
363.203	345.99
363.584	322.94
363.966	344.41
364.348	337.86
364.729	321.36
365.111	317.97
365.493	301.02
365.874	324.98
366.256	311.42
366.637	335.37
367.019	320.91
367.4	301.7
367.781	337.18
368.163	317.52
368.544	320.23
368.925	304.19
369.306	325.66
369.688	315.49
370.069	315.26
370.45	306.9
370.831	310.97
371.212	303.96
371.593	314.58
371.974	308.48
372.355	348.48
372.736	310.06
373.117	337.86
373.498	336.95
373.879	313
374.26	309.61
374.641	309.38
375.021	310.06
375.402	334.47
375.783	309.84
376.163	338.99
376.544	330.17
376.925	336.73
377.305	354.36
377.686	329.95
378.066	308.03
378.447	331.53
378.827	344.19
379.208	329.05
379.588	334.47
379.968	320.01
380.349	339.21
380.729	322.04
381.109	352.1
381.489	331.76
381.87	350.06
382.25	323.85
382.63	346.45
383.01	345.32
383.39	345.54
383.77	345.77
384.15	337.18
384.53	346.67
384.91	366.78
385.29	358.2
385.67	367.91
386.049	372.66
386.429	366.78
386.809	347.35
387.189	380.34
387.568	369.95
387.948	374.02
388.328	368.14
388.707	371.76
389.087	372.66
389.466	371.98
389.846	365.88
390.225	382.38
390.605	346.9
390.984	395.26
391.363	376.73
391.743	390.06
392.122	386.67
392.501	415.82
392.881	398.42
393.26	390.74
393.639	413.34
394.018	371.98
394.397	385.99
394.776	400.91
395.155	388.48
395.534	402.26
395.913	410.4
396.292	417.18
396.671	398.2
397.05	388.25
397.429	437.97
397.808	421.02
398.186	417.63
398.565	397.97
398.944	446.78
399.323	434.8
399.701	426.9
400.08	428.7
400.458	431.19
400.837	436.84
401.215	431.87
401.594	430.29
401.972	419.21
402.351	442.26
402.729	454.92
403.107	450.4
403.486	467.57
403.864	454.69
404.242	447.91
404.62	470.74
404.999	478.65
405.377	465.09
405.755	480.91
406.133	497.4
406.511	503.05
406.889	501.02
407.267	520.23
407.645	510.28
408.023	538.31
408.401	521.13
408.779	522.49
409.156	525.65
409.534	550.96
409.912	562.26
410.29	575.82
410.667	556.84
411.045	594.57
411.422	589.38
411.8	602.03
412.178	598.64
412.555	604.52
412.933	644.52
413.31	653.56
413.687	646.32
414.065	642.03
414.442	674.12
414.819	684.29
415.197	693.56
415.574	704.85
415.951	704.18
416.328	739.2
416.705	752.54
417.082	754.34
417.46	728.13
417.837	742.59
418.214	749.37
418.591	784.63
418.967	795.47
419.344	821.46
419.721	800.45
420.098	814.91
420.475	816.72
420.852	847.68
421.228	886.77
421.605	858.07
421.982	906.43
422.358	914.11
422.735	920.44
423.111	920.22
423.488	969.03
423.864	995.69
424.241	1005.64
424.617	996.15
424.994	976.94
425.37	1035.92
425.746	1056.03
426.123	1077.95
426.499	1077.5
426.875	1096.03
427.251	1146.65
427.627	1159.53
428.003	1138.97
428.379	1162.02
428.756	1178.97
429.132	1207.89
429.507	1206.31
429.883	1220.55
430.259	1205.86
430.635	1249.02
431.011	1270.04
431.387	1300.09
431.763	1327.21
432.138	1342.58
432.514	1360.88
432.89	1359.98
433.265	1393.65
433.641	1421.45
434.016	1439.3
434.392	1470.48
434.767	1519.52
435.143	1539.18
435.518	1558.39
435.894	1568.56
436.269	1614.89
436.644	1658.28
437.02	1678.61
437.395	1702.79
437.77	1731.95
438.145	1742.79
438.52	1811.27
438.895	1817.59
439.271	1855.11
439.646	1876.35
440.021	1917.25
440.395	1965.39
440.77	1936.91
441.145	1942.79
441.52	1980.53
441.895	2030.7
442.27	2043.12
442.645	2072.73
443.019	2116.57
443.394	2112.05
443.769	2162.44
444.143	2124.93
444.518	2185.04
444.892	2213.29
445.267	2239.28
445.641	2244.7
446.016	2278.37
446.39	2294.64
446.764	2315.43
447.139	2293.97
447.513	2347.3
447.887	2354.3
448.262	2360.4
448.636	2405.37
449.01	2409.44
449.384	2461.19
449.758	2443.11
450.132	2463
450.506	2487.63
450.88	2527.86
451.254	2520.17
451.628	2553.39
452.002	2571.47
452.376	2610.79
452.75	2674.07
453.123	2650.57
453.497	2710.45
453.871	2744.8
454.244	2790
454.618	2792.48
454.992	2857.11
455.365	2849.88
455.739	2924.01
456.112	2921.07
456.486	2946.38
456.859	2995.87
457.232	3053.95
457.606	3068.41
457.979	3091.68
458.352	3136.43
458.725	3202.42
459.099	3181.63
459.472	3277.89
459.845	3277.89
460.218	3305.92
460.591	3347.95
460.964	3376.2
461.337	3435.86
461.71	3465.91
462.083	3573.93
462.456	3548.17
462.829	3584.78
463.201	3648.51
463.574	3631.78
463.947	3706.13
464.32	3747.03
464.692	3822.51
465.065	3878.78
465.438	3905.45
465.81	3936.63
466.183	3986.8
466.555	4114.93
466.928	4084.2
467.3	4108.83
467.672	4170.75
468.045	4293.23
468.417	4281.94
468.789	4349.73
469.161	4364.42
469.534	4425.43
469.906	4526.45
470.278	4550.63
470.65	4598.99
471.022	4700.91
471.394	4781.36
471.766	4775.03
472.138	4848.93
472.51	4949.49
472.882	5003.27
473.253	5081.46
473.625	5134.57
473.997	5225.87
474.369	5252.76
474.74	5345.18
475.112	5420.21
475.484	5516.25
475.855	5592.41
476.227	5606.42
476.598	5819.52
476.97	5813.19
477.341	5911.5
477.713	6017.26
478.084	6066.75
478.455	6194.2
478.827	6297.25
479.198	6453.18
479.569	6385.16
479.94	6593.97
480.311	6671.7
480.682	6774.53
481.053	6906.05
481.424	6962.77
481.795	7019.72
482.166	7164.8
482.537	7272.59
482.908	7363.89
483.279	7496.77
483.65	7539.7
484.021	7642.3
484.391	7769.3
484.762	7874.61
485.133	7844.1
485.503	7961.39
485.874	8187.14
486.244	8172.91
486.615	8402.73
486.985	8435.72
487.356	8634.82
487.726	8657.19
488.097	8798.65
488.467	8741.25
488.837	8969.04
489.207	9154.35
489.578	9134.24
489.948	9290.39
490.318	9323.38
490.688	9375.36
491.058	9498.75
491.428	9591.85
491.798	9724.5
492.168	9830.72
492.538	9926.08
492.908	9984.38
493.278	10102.57
493.648	10109.13
494.017	10237.26
494.387	10302.79
494.757	10356.58
495.126	10461.66
495.496	10446.29
495.866	10548.89
496.235	10604.03
496.605	10740.3
496.974	10717.92
497.344	10883.8
497.713	10894.42
498.082	10908.65
498.452	11017.58
498.821	11100.51
499.19	11059.16
499.559	11124.24
499.928	11216.22
500.298	11280.4
500.667	11257.35
501.036	11271.58
501.405	11326.04
501.774	11352.03
502.143	11364.91
502.512	11453.72
502.88	11551.12
503.249	11534.4
503.618	11576.88
503.987	11580.95
504.356	11668.41
504.724	11742.76
505.093	11717.67
505.462	11665.24
505.83	11781.4
506.199	11857.78
506.567	11929.64
506.936	12014.61
507.304	12010.55
507.672	11945.01
508.041	11986.59
508.409	12107.94
508.777	12156.76
509.145	12226.36
509.514	12144.33
509.882	12266.13
510.25	12238.56
510.618	12360.59
510.986	12273.82
511.354	12306.58
511.722	12370.99
512.09	12526.69
512.458	12419.8
512.826	12584.54
513.193	12536.41
513.561	12535.73
513.929	12518.33
514.297	12685.78
514.664	12666.35
515.032	12678.1
515.4	12725.1
515.767	12712
516.135	12793.8
516.502	12732.56
516.869	12850.52
517.237	12763.29
517.604	12754.26
517.972	12867.47
518.339	12829.96
518.706	12792.22
519.073	12849.85
519.44	12870.86
519.808	12941.14
520.175	12872.22
520.542	12977.98
520.909	13020.46
521.276	12973.91
521.643	13018.2
522.009	13155.15
522.376	13109.5
522.743	13098.88
523.11	13152.44
523.477	13144.53
523.843	13138.65
524.21	13268.37
524.577	13262.26
524.943	13210.29
525.31	13289.38
525.676	13342.04
526.043	13306.56
526.409	13375.26
526.776	13401.7
527.142	13357.4
527.508	13386.1
527.874	13302.49
528.241	13424.97
528.607	13420.68
528.973	13397.4
529.339	13385.88
529.705	13472.65
530.071	13449.6
530.437	13423.39
530.803	13435.37
531.169	13437.85
531.535	13446.67
531.901	13403.96
532.267	13403.28
532.632	13325.99
532.998	13387.91
533.364	13259.1
533.73	13340.91
534.095	13408.93
534.461	13288.7
534.826	13302.26
535.192	13266.78
535.557	13289.61
535.923	13227.01
536.288	13203.06
536.653	13198.54
537.019	13130.52
537.384	13091.42
537.749	13037.41
538.114	13011.88
538.479	12906.79
538.845	13007.81
539.21	12886.45
539.575	12888.49
539.94	12891.65
540.305	12789.96
540.67	12792.45
541.034	12724.43
541.399	12805.1
541.764	12627.48
542.129	12666.12
542.494	12561.27
542.858	12572.11
543.223	12557.65
543.587	12514.49
543.952	12426.13
544.316	12365.79
544.681	12369.63
545.045	12415.28
545.41	12374.38
545.774	12296.87
546.138	12313.14
546.503	12262.06
546.867	12134.16
547.231	12074.95
547.595	12118.79
547.959	12060.26
548.324	12014.39
548.688	11916.31
549.052	11963.99
549.416	11860.72
549.779	11841.96
550.143	11785.92
550.507	11803.32
550.871	11751.8
551.235	11654.4
551.599	11764.45
551.962	11646.71
552.326	11595.42
552.689	11646.49
553.053	11555.87
553.417	11506.6
553.78	11583.89
554.143	11469.54
554.507	11487.4
554.87	11408.98
555.234	11477.68
555.597	11380.96
555.96	11398.36
556.323	11418.47
556.686	11298.25
557.05	11289.66
557.413	11252.15
557.776	11270
558.139	11168.53
558.502	11273.39
558.865	11230.23
559.228	11224.13
559.59	11223.67
559.953	11161.98
560.316	11255.09
560.679	11202.43
561.041	11214.63
561.404	11172.83
561.767	11224.8
562.129	11150.46
562.492	11221.19
562.854	11134.18
563.217	11144.13
563.579	11077.01
563.941	11167.4
564.304	11149.55
564.666	11163.11
565.028	11229.32
565.39	11174.41
565.753	11190.91
566.115	11160.4
566.477	11164.92
566.839	11163.56
567.201	11193.39
567.563	11148.65
567.925	11278.81
568.287	11286.72
568.648	11272.03
569.01	11204.47
569.372	11273.39
569.734	11204.01
570.095	11219.15
570.457	11380.51
570.819	11263.22
571.18	11210.57
571.542	11330.34
571.903	11359.94
572.265	11315.42
572.626	11330.11
572.987	11333.05
573.349	11342.09
573.71	11374.4
574.071	11421.86
574.432	11384.57
574.794	11406.49
575.155	11387.74
575.516	11315.42
575.877	11385.03
576.238	11362.2
576.599	11386.38
576.96	11331.47
577.32	11408.75
577.681	11461.63
578.042	11364.01
578.403	11437.91
578.763	11426.61
579.124	11469.54
579.485	11447.4
579.845	11456.44
580.206	11348.42
580.566	11431.8
580.927	11420.05
581.287	11413.5
581.648	11333.05
582.008	11481.97
582.368	11394.97
582.728	11509.77
583.089	11432.26
583.449	11463.22
583.809	11449.88
584.169	11403.78
584.529	11383.67
584.889	11409.66
585.249	11445.14
585.609	11411.01
585.969	11437.91
586.329	11383.9
586.688	11464.35
587.048	11379.38
587.408	11411.69
587.768	11373.73
588.127	11329.43
588.487	11300.28
588.846	11411.47
589.206	11280.17
589.565	11326.04
589.925	11440.62
590.284	11337.12
590.643	11356.1
591.003	11347.06
591.362	11380.96
591.721	11306.16
592.08	11328.53
592.44	11314.52
592.799	11353.84
593.158	11298.02
593.517	11304.35
593.876	11286.72
594.235	11309.32
594.593	11324.91
594.952	11288.98
595.311	11259.61
595.67	11273.16
596.029	11308.87
596.387	11215.31
596.746	11326.95
597.104	11239.04
597.463	11333.05
597.822	11255.99
598.18	11185.26
598.538	11127.18
598.897	11265.71
599.255	11171.7
599.613	11316.1
599.972	11289.66
600.33	11300.51
600.688	11252.83
601.046	11264.58
601.404	11291.69
601.762	11215.31
602.12	11319.04
602.478	11369.88
602.836	11271.58
603.194	11245.82
603.552	11231.13
603.91	11190.23
604.268	11277.01
604.625	11195.2
604.983	11253.28
605.341	11213.96
605.698	11209.66
606.056	11234.97
606.413	11277.23
606.771	11322.43
607.128	11307.29
607.485	11163.11
607.843	11218.7
608.2	11303.22
608.557	11262.99
608.914	11231.58
609.272	11213.05
609.629	11319.04
609.986	11325.59
610.343	11315.42
610.7	11397
611.057	11298.25
611.414	11210.11
611.771	11329.43
612.127	11408.53
612.484	11398.81
612.841	11364.46
613.198	11340.96
613.554	11353.39
613.911	11461.18
614.267	11393.61
614.624	11359.04
614.98	11352.03
615.337	11448.07
615.693	11443.56
616.05	11451.92
616.406	11503.44
616.762	11439.94
617.118	11437.68
617.475	11386.83
617.831	11490.33
618.187	11465.7
618.543	11468.87
618.899	11527.62
619.255	11509.32
619.611	11416.89
619.967	11522.87
620.323	11448.07
620.678	11491.46
621.034	11441.75
621.39	11462.54
621.746	11526.94
622.101	11598.58
622.457	11519.49
622.812	11478.36
623.168	11505.93
623.523	11449.66
623.879	11551.8
624.234	11452.59
624.589	11541.41
624.945	11574.63
625.3	11533.27
625.655	11489.66
626.01	11561.74
626.365	11555.64
626.72	11477.45
627.075	11501.41
627.43	11454.63
627.785	11423.67
628.14	11519.03
628.495	11501.63
628.85	11472.93
629.205	11390
629.559	11471.58
629.914	11344.8
630.269	11361.07
630.623	11405.59
630.978	11324.01
631.332	11344.57
631.687	11408.75
632.041	11412.14
632.396	11357.46
632.75	11298.93
633.104	11363.11
633.459	11240.62
633.813	11270.45
634.167	11237.01
634.521	11306.84
634.875	11275.42
635.229	11194.52
635.583	11233.17
635.937	11154.52
636.291	11153.17
636.645	11136.44
636.999	11172.83
637.352	11131.25
637.706	11218.02
638.06	11095.32
638.413	11113.39
638.767	11099.84
639.121	11077.46
639.474	11025.71
639.828	11005.83
640.181	11066.62
640.534	11056.45
640.888	10972.61
641.241	10926.51
641.594	10948.88
641.947	10955.66
642.301	10953.62
642.654	11004.47
643.007	10940.29
643.36	10947.52
643.713	10915.66
644.066	10937.81
644.419	10967.41
644.771	10792.27
645.124	10806.28
645.477	10733.52
645.83	10691.03
646.182	10586.18
646.535	10539.17
646.888	10612.84
647.24	10552.05
647.593	10581.43
647.945	10534.43
648.298	10494.65
648.65	10521.55
649.002	10486.07
649.355	10461.21
649.707	10544.6
650.059	10616.68
650.411	10747.75
650.763	10688.09
651.115	10791.82
651.467	10770.58
651.819	10796.79
652.171	10784.36
652.523	10779.84
652.875	10759.51
653.227	10758.38
653.578	10767.64
653.93	10783.01
654.282	10728.77
654.633	10674.54
654.985	10711.37
655.337	10648.1
655.688	10714.08
656.039	10786.62
656.391	10727.64
656.742	10732.84
657.094	10708.43
657.445	10798.83
657.796	10733.74
658.147	10740.07
658.498	10707.3
658.849	10768.32
659.2	10756.12
659.551	10752.5
659.902	10757.92
660.253	10752.5
660.604	10790.92
660.955	10733.97
661.306	10758.15
661.656	10786.62
662.007	10790.46
662.358	10783.01
662.708	10843.8
663.059	10774.19
663.409	10720.86
663.76	10819.84
664.11	10749.56
664.461	10804.93
664.811	10851.25
665.161	10768.77
665.511	10769.45
665.862	10792.95
666.212	10854.19
666.562	10833.4
666.912	10843.8
667.262	10760.86
667.612	10756.34
667.962	10821.88
668.312	10751.82
668.662	10842.21
669.011	10778.26
669.361	10723.12
669.711	10773.52
670.06	10752.27
670.41	10783.23
670.76	10690.81
671.109	10782.78
671.459	10784.36
671.808	10777.81
672.157	10778.94
672.507	10664.82
672.856	10673.41
673.205	10671.15
673.554	10723.8
673.904	10688.55
674.253	10725.38
674.602	10653.52
674.951	10612.39
675.3	10483.13
675.649	10640.86
675.998	10602.22
676.346	10615.78
676.695	10702.78
677.044	10493.98
677.393	10535.33
677.741	10570.36
678.09	10565.16
678.438	10538.49
678.787	10591.6
679.135	10573.97
679.484	10448.78
679.832	10464.6
680.181	10436.58
680.529	10427.31
680.877	10415.79
681.225	10405.84
681.573	10516.57
681.922	10394.32
682.27	10351.61
682.618	10347.09
682.966	10331.95
683.314	10259.18
683.661	10284.26
684.009	10184.83
684.357	10169.69
684.705	10220.99
685.053	10119.52
685.4	10187.77
685.748	10108
686.095	10143.93
686.443	10077.49
686.79	10095.79
687.138	10091.73
687.485	10072.07
687.832	9975.35
688.18	9994.55
688.527	9936.02
688.874	9935.57
689.221	9929.47
689.568	9896.93
689.915	9786.88
690.262	9795.91
690.609	9766.99
690.956	9797.04
691.303	9715.46
691.65	9720.66
691.997	9683.38
692.344	9630.04
692.69	9615.81
693.037	9624.62
693.383	9514.79
693.73	9582.14
694.077	9485.87
694.423	9484.51
694.769	9391.63
695.116	9359.77
695.462	9390.28
695.808	9337.17
696.155	9340.33
696.501	9292.88
696.847	9253.1
697.193	9131.3
697.539	9169.49
697.885	9108.25
698.231	9105.54
698.577	9026.9
698.923	9061.02
699.269	9042.71
699.614	8909.84
699.96	8910.51
700.306	8891.98
700.651	8897.41
700.997	8840.01
701.342	8770.18
701.688	8739.67
702.033	8846.79
702.379	8731.76
702.724	8694.47
703.069	8686.11
703.415	8570.86
703.76	8603.63
704.105	8627.81
704.45	8663.74
704.795	8501.26
705.14	8442.28
705.485	8579.45
705.83	8439.57
706.175	8494.93
706.52	8389.62
706.865	8382.17
707.209	8372.68
707.554	8269.18
707.899	8324.09
708.243	8249.97
708.588	8322.06
708.932	8213.81
709.277	8189.18
709.621	8244.77
709.966	8186.47
710.31	8162.51
710.654	8078.22
710.998	8051.33
711.342	8096.52
711.687	8023.76
712.031	8021.27
712.375	8063.3
712.719	7986.92
713.063	7954.83
713.407	7988.73
713.75	7976.08
714.094	7958.22
714.438	7961.84
714.782	7967.04
715.125	7868.96
715.469	7875.74
715.812	7851.79
716.156	7849.3
716.499	7784.22
716.843	7848.17
717.186	7775.63
717.53	7842.75
717.873	7799.13
718.216	7798.45
718.559	7732.24
718.902	7648.63
719.246	7713.48
719.589	7685.91
719.932	7635.75
720.275	7715.29
720.617	7712.35
720.96	7624.67
721.303	7649.53
721.646	7679.59
721.989	7588.29
722.331	7626.03
722.674	7631.23
723.016	7611.34
723.359	7579.02
723.701	7610.89
724.044	7522.75
724.386	7520.72
724.729	7585.8
725.071	7594.16
725.413	7570.66
725.755	7542.64
726.097	7494.73
726.439	7483.21
726.782	7475.07
727.124	7573.83
727.465	7466.26
727.807	7468.29
728.149	7451.8
728.491	7437.78
728.833	7540.83
729.175	7420.16
729.516	7509.2
729.858	7492.25
730.199	7467.39
730.541	7367.05
730.882	7493.6
731.224	7443.89
731.565	7461.51
731.906	7460.61
732.248	7457.67
732.589	7404.11
732.93	7461.29
733.271	7444.56
733.612	7441.63
733.953	7435.52
734.294	7398.46
734.635	7436.65
734.976	7462.64
735.317	7448.86
735.658	7456.99
735.999	7477.33
736.339	7461.29
736.68	7517.56
737.021	7438.01
737.361	7430.55
737.702	7513.71
738.042	7488.86
738.383	7429.88
738.723	7507.16
739.063	7479.59
739.404	7522.08
739.744	7511.46
740.084	7564.56
740.424	7525.01
740.764	7605.69
741.104	7643.65
741.444	7523.43
741.784	7528.4
742.124	7555.07
742.464	7639.14
742.804	7642.98
743.143	7633.71
743.483	7655.63
743.823	7671
744.162	7681.62
744.502	7776.53
744.841	7742.18
745.181	7846.36
745.52	7777.66
745.86	7831.45
746.199	7886.13
746.538	7992.35
746.877	7940.14
747.216	8014.04
747.556	8033.7
747.895	8143.75
748.234	8107.15
748.573	8195.5
748.911	8199.8
749.25	8252.9
749.589	8350.98
749.928	8451.32
750.267	8498.55
750.605	8576.06
750.944	8635.49
751.283	8719.78
751.621	8849.5
751.96	8864.19
752.298	8964.07
752.636	9065.76
752.975	9137.18
753.313	9185.08
753.651	9412.65
753.989	9450.61
754.327	9535.81
754.666	9632.3
755.004	9783.49
755.342	9935.8
755.679	10000.66
756.017	10112.74
756.355	10379.85
756.693	10419.4
757.031	10627.98
757.368	10751.14
757.706	10877.24
758.044	11037.46
758.381	11245.59
