Data from hue_34_FLMS001491_00042.txt Node
Date: Tue Feb 07 17:25:40 GMT 2017
User: dcchb
Spectrometer: FLMS00149
Trigger mode: 0
Integration Time (sec): 2.000000E-2
Scans to average: 10
Electric dark correction enabled: true
Nonlinearity correction enabled: false
Boxcar width: 0
XAxis mode: Wavelengths
Number of Pixels in Spectrum: 2048
>>>>>Begin Spectral Data<<<<<
341.393	-12.1
341.776	-12.1
342.16	-12.1
342.543	-60.01
342.927	-57.3
343.31	-65.66
343.693	-76.28
344.077	-56.17
344.46	-63.85
344.843	-41.93
345.226	-48.94
345.61	-31.31
345.993	-22.27
346.376	-1.03
346.759	10.49
347.142	10.27
347.525	30.61
347.908	53.2
348.291	85.97
348.674	105.41
349.057	111.51
349.44	135.24
349.823	133.65
350.206	151.96
350.588	181.34
350.971	237.15
351.354	228.79
351.737	238.74
352.119	247.55
352.502	275.8
352.884	292.75
353.267	281.9
353.65	320.77
354.032	295.46
354.414	332.75
354.797	331.62
355.179	334.1
355.562	355.12
355.944	326.64
356.326	331.39
356.709	352.63
357.091	346.76
357.473	351.95
357.855	361.9
358.238	336.36
358.62	344.95
359.002	358.28
359.384	363.71
359.766	335.68
360.148	352.86
360.53	350.6
360.912	338.4
361.294	352.18
361.676	342.91
362.057	343.14
362.439	336.14
362.821	339.98
363.203	337.94
363.584	318.28
363.966	349.92
364.348	357.38
364.729	338.4
365.111	329.58
365.493	324.16
365.874	339.07
366.256	338.17
366.637	326.19
367.019	323.71
367.4	322.58
367.781	321.45
368.163	313.31
368.544	300.88
368.925	303.14
369.306	329.36
369.688	315.57
370.069	334.78
370.45	298.85
370.831	315.12
371.212	322.8
371.593	301.56
371.974	326.87
372.355	321.67
372.736	337.94
373.117	334.1
373.498	308.11
373.879	320.99
374.26	325.06
374.641	315.34
375.021	302.46
375.402	322.12
375.783	315.12
376.163	326.87
376.544	334.78
376.925	351.95
377.305	353.08
377.686	335.91
378.066	328.23
378.447	354.21
378.827	366.64
379.208	332.97
379.588	334.1
379.968	320.32
380.349	357.83
380.729	339.07
381.109	372.07
381.489	336.14
381.87	367.77
382.25	351.28
382.63	345.17
383.01	377.26
383.39	370.03
383.77	340.88
384.15	344.04
384.53	354.67
384.91	348.79
385.29	358.96
385.67	344.27
386.049	356.7
386.429	369.81
386.809	336.36
387.189	370.03
387.568	371.16
387.948	351.73
388.328	372.07
388.707	379.98
389.087	377.72
389.466	375.23
389.846	367.77
390.225	378.39
390.605	398.51
390.984	368.68
391.363	366.87
391.743	379.3
392.122	391.95
392.501	398.73
392.881	385.85
393.26	397.38
393.639	403.03
394.018	382.69
394.397	374.33
394.776	396.25
395.155	388.34
395.534	389.24
395.913	417.49
396.292	419.75
396.671	410.94
397.05	405.06
397.429	407.77
397.808	405.74
398.186	404.38
398.565	410.48
398.944	401.9
399.323	412.07
399.701	399.64
400.08	416.36
400.458	413.2
400.837	423.14
401.215	407.77
401.594	387.66
401.972	399.64
402.351	411.61
402.729	406.64
403.107	423.82
403.486	435.34
403.864	409.81
404.242	408.45
404.62	424.95
404.999	426.98
405.377	438.05
405.755	430.37
406.133	433.08
406.511	453.87
406.889	437.83
407.267	441.22
407.645	442.35
408.023	431.05
408.401	463.59
408.779	461.56
409.156	452.29
409.534	460.43
409.912	451.16
410.29	469.47
410.667	477.37
411.045	456.36
411.422	477.83
411.8	476.02
412.178	478.96
412.555	476.7
412.933	496.58
413.31	500.2
413.687	493.19
414.065	490.71
414.442	498.62
414.819	519.18
415.197	511.72
415.574	506.98
415.951	515.34
416.328	501.1
416.705	530.25
417.082	518.05
417.46	525.51
417.837	511.5
418.214	525.96
418.591	518.28
418.967	543.81
419.344	519.86
419.721	535.68
420.098	549.91
420.475	533.19
420.852	550.59
421.228	532.06
421.605	554.89
421.982	547.43
422.358	563.47
422.735	571.84
423.111	561.44
423.488	570.93
423.864	584.04
424.241	588.11
424.617	572.74
424.994	577.71
425.37	592.4
425.746	575.22
426.123	598.05
426.499	590.82
426.875	612.29
427.251	601.21
427.627	624.72
428.003	606.18
428.379	620.2
428.756	631.49
429.132	640.31
429.507	622
429.883	644.38
430.259	646.18
430.635	638.73
431.011	648.22
431.387	665.17
431.763	677.14
432.138	664.26
432.514	702.23
432.89	687.31
433.265	678.27
433.641	696.13
434.016	702.45
434.392	707.2
434.767	718.72
435.143	708.55
435.518	699.06
435.894	721.66
436.269	746.75
436.644	764.6
437.02	749.23
437.395	712.4
437.77	735.67
438.145	752.17
438.52	770.93
438.895	755.11
439.271	763.47
439.646	759.63
440.021	785.84
440.395	794.65
440.77	807.08
441.145	806.86
441.52	815.22
441.895	802.34
442.27	804.6
442.645	819.29
443.019	822
443.394	822.22
443.769	817.03
444.143	845.73
444.518	839.85
444.892	841.88
445.267	827.42
445.641	850.02
446.016	826.07
446.39	862.45
446.764	880.08
447.139	864.48
447.513	881.21
447.887	859.51
448.262	883.92
448.636	878.49
449.01	897.48
449.384	902.67
449.758	887.31
450.132	899.06
450.506	922.33
450.88	934.09
451.254	909.45
451.628	926.4
452.002	953.52
452.376	944.25
452.75	953.07
453.123	953.52
453.497	954.65
453.871	963.24
454.244	996
454.618	978.15
454.992	989.45
455.365	1004.14
455.739	1030.58
456.112	1044.59
456.486	1048.43
456.859	1047.98
457.232	1070.13
457.606	1067.64
457.979	1078.94
458.352	1103.35
458.725	1112.84
459.099	1124.14
459.472	1130.69
459.845	1135.66
460.218	1144.7
460.591	1135.66
460.964	1170.46
461.337	1202.55
461.71	1208.88
462.083	1225.83
462.456	1227.86
462.829	1246.39
463.201	1231.48
463.574	1249.11
463.947	1265.38
464.32	1292.04
464.692	1312.83
465.065	1308.99
465.438	1346.96
465.81	1349.22
466.183	1353.28
466.555	1395.32
466.928	1404.58
467.3	1433.51
467.672	1420.17
468.045	1492.49
468.417	1478.03
468.789	1488.65
469.161	1524.35
469.534	1535.65
469.906	1559.61
470.278	1558.93
470.65	1600.73
471.022	1661.75
471.394	1706.27
471.766	1669.43
472.138	1711.92
472.51	1786.04
472.882	1775.65
473.253	1798.02
473.625	1825.14
473.997	1891.12
474.369	1885.92
474.74	1907.62
475.112	1958.47
475.484	2021.29
475.855	2064.9
476.227	2057.45
476.598	2145.58
476.97	2167.73
477.341	2216.99
477.713	2265.35
478.084	2298.57
478.455	2337.66
478.827	2409.75
479.198	2499.69
479.569	2501.5
479.94	2588.73
480.311	2613.14
480.682	2724.1
481.053	2772.23
481.424	2822.17
481.795	2867.82
482.166	2967.25
482.537	3034.6
482.908	3111.43
483.279	3177.64
483.65	3286.34
484.021	3313.23
484.391	3384.64
484.762	3506.22
485.133	3571.98
485.503	3586.67
485.874	3701.47
486.244	3781.69
486.615	3891.3
486.985	3952.54
487.356	4088.35
487.726	4099.43
488.097	4228.91
488.467	4313.43
488.837	4424.39
489.207	4479.3
489.578	4598.4
489.948	4648.79
490.318	4732.18
490.688	4793.42
491.058	4879.29
491.428	5042.23
491.798	5123.81
492.168	5272.28
492.538	5341.65
492.908	5413.74
493.278	5517.69
493.648	5577.58
494.017	5644.47
494.387	5766.95
494.757	5865.03
495.126	5936.67
495.496	5923.56
495.866	6066.38
496.235	6163.55
496.605	6190.44
496.974	6298.01
497.344	6379.82
497.713	6454.62
498.082	6533.26
498.452	6607.83
498.821	6643.09
499.19	6740.03
499.559	6816.87
499.928	6893.25
500.298	6982.51
500.667	7056.64
501.036	7015.96
501.405	7158.1
501.774	7216.41
502.143	7243.75
502.512	7316.06
502.88	7474.03
503.249	7443.52
503.618	7474.25
503.987	7584.08
504.356	7668.82
504.724	7685.77
505.093	7780.23
505.462	7820.91
505.83	7861.14
506.199	7974.58
506.567	8070.4
506.936	8114.01
507.304	8172.09
507.672	8221.35
508.041	8288.24
508.409	8338.86
508.777	8446.88
509.145	8577.95
509.514	8460.44
509.882	8545.86
510.25	8574.11
510.618	8670.61
510.986	8728.68
511.354	8824.05
511.722	8859.75
512.09	8978.85
512.458	8986.98
512.826	9003.48
513.193	9097.49
513.561	9131.61
513.929	9186.98
514.297	9288.22
514.664	9323.47
515.032	9355.79
515.4	9456.8
515.767	9481.66
516.135	9483.69
516.502	9505.61
516.869	9618.6
517.237	9670.13
517.604	9636.23
517.972	9792.16
518.339	9857.01
518.706	9812.5
519.073	9886.84
519.44	9982.89
519.808	10017.91
520.175	10011.59
520.542	10111.47
520.909	10188.98
521.276	10167.52
521.643	10230.56
522.009	10357.57
522.376	10455.64
522.743	10465.81
523.11	10592.36
523.477	10675.3
523.843	10774.73
524.21	10857.89
524.577	10939.7
524.943	10934.27
525.31	11005.46
525.676	11104.21
526.043	11086.14
526.409	11203.87
526.776	11223.08
527.142	11372.46
527.508	11396.86
527.874	11408.16
528.241	11492
528.607	11511.21
528.973	11646.35
529.339	11652.9
529.705	11745.78
530.071	11871.65
530.437	11940.58
530.803	11948.71
531.169	12019.67
531.535	12024.42
531.901	12016.96
532.267	12074.81
532.632	12196.16
532.998	12322.26
533.364	12368.14
533.73	12359.77
534.095	12552.31
534.461	12532.42
534.826	12549.15
535.192	12657.39
535.557	12724.51
535.923	12622.14
536.288	12755.92
536.653	12775.58
537.019	12804.96
537.384	12884.51
537.749	12947.33
538.114	12945.3
538.479	12980.1
538.845	13111.84
539.21	13084.5
539.575	13166.31
539.94	13200.88
540.305	13263.7
540.67	13279.98
541.034	13353.87
541.399	13473.87
541.764	13459.86
542.129	13503.7
542.494	13530.59
542.858	13636.58
543.223	13668.89
543.587	13678.16
543.952	13690.59
544.316	13837.7
544.681	13885.61
545.045	13863.69
545.41	13990.69
545.774	13927.64
546.138	14025.49
546.503	14053.97
546.867	14153.17
547.231	14195.66
547.595	14173.96
547.959	14341.64
548.324	14373.96
548.688	14440.4
549.052	14487.85
549.416	14507.97
549.779	14487.63
550.143	14613.05
550.507	14685.81
550.871	14720.84
551.235	14729.66
551.599	14799.71
551.962	14779.82
552.326	14834.51
552.689	14980.27
553.053	14947.73
553.417	15006.71
553.78	15256.42
554.143	15119.48
554.507	15165.58
554.87	15204.9
555.234	15316.31
555.597	15307.27
555.96	15367.6
556.323	15615.51
556.686	15414.38
557.05	15545
557.413	15563.53
557.776	15632.23
558.139	15793.81
558.502	15700.03
558.865	15772.57
559.228	15859.34
559.59	15905.9
559.953	15932.34
560.316	16095.27
560.679	16101.37
561.041	16197.64
561.404	16261.59
561.767	16338.43
562.129	16216.4
562.492	16462.04
562.854	16538.2
563.217	16473.79
563.579	16593.11
563.941	16742.94
564.304	16742.48
564.666	16834.23
565.028	16800.11
565.39	16899.32
565.753	17001.46
566.115	16976.38
566.477	17149.7
566.839	17238.97
567.201	17333.65
567.563	17305.41
567.925	17451.84
568.287	17453.88
568.648	17522.35
569.01	17513.08
569.372	17644.15
569.734	17550.37
570.095	17763.7
570.457	17838.73
570.819	17868.33
571.18	17937.71
571.542	18021.09
571.903	18067.65
572.265	18140.19
572.626	18182.22
572.987	18327.75
573.349	18424.25
573.71	18454.53
574.071	18498.37
574.432	18655.65
574.794	18850.22
575.155	18847.51
575.516	18855.2
575.877	18938.58
576.238	19062.42
576.599	19189.88
576.96	19262.42
577.32	19317.78
577.681	19620.15
578.042	19611.79
578.403	19823.76
578.763	19841.84
579.124	20049.52
579.485	20129.74
579.845	20364.99
580.206	20363.18
580.566	20637.75
580.927	20630.06
581.287	20954.12
581.648	20984.86
582.008	21173.78
582.368	21417.16
582.728	21600.43
583.089	21729.7
583.449	21825.06
583.809	21951.16
584.169	22243.13
584.529	22314.09
584.889	22744.36
585.249	22854.41
585.609	22886.05
585.969	23481.29
586.329	23446.71
586.688	23722.41
587.048	23925.8
587.408	24166.92
587.768	24273.81
588.127	24621.15
588.487	24706.57
588.846	25170.06
589.206	25198.08
589.565	25417.06
589.925	25798.97
590.284	25984.95
590.643	26328.22
591.003	26485.05
591.362	26795.78
591.721	26989.45
592.08	27268.76
592.44	27418.81
592.799	27732.93
593.158	27891.34
593.517	28160.26
593.876	28457.66
594.235	28701.27
594.593	28906.46
594.952	29207.47
595.311	29391.87
595.67	29554.8
596.029	29960.44
596.387	30327.21
596.746	30503.48
597.104	30605.4
597.463	30767.88
597.822	31189.79
598.18	31237.47
598.538	31526.73
598.897	31923.1
599.255	31783.9
599.613	32652.57
599.972	32486.25
600.33	32861.61
600.688	32870.42
601.046	33126.01
601.404	33511.08
601.762	33525.09
602.12	33980.45
602.478	34119.2
602.836	34246.66
603.194	34356.94
603.552	34608.91
603.91	34669.7
604.268	35061.32
604.625	35076.92
604.983	35322.33
605.341	35444.82
605.698	35746.5
606.056	35944.01
606.413	36034.18
606.771	36332.7
607.128	36592.81
607.485	36465.81
607.843	36614.05
608.2	37042.29
608.557	37232.34
608.914	37129.07
609.272	37637.3
609.629	37622.16
609.986	37924.53
610.343	37873
610.7	38347.57
611.057	38251.07
611.414	38448.35
611.771	38577.84
612.127	38888.57
612.484	38857.38
612.841	39219.63
613.198	39191.84
613.554	39260.99
613.911	39575.56
614.267	39671.6
614.624	39635.44
614.98	39931.25
615.337	40115.43
615.693	40172.6
616.05	40219.61
616.406	40512.71
616.762	40456.89
617.118	40585.25
617.475	40669.31
617.831	40843.54
618.187	40909.76
618.543	41020.26
618.899	41228.85
619.255	41290.09
619.611	41387.03
619.967	41496.41
620.323	41513.81
620.678	41596.97
621.034	41635.39
621.39	41608.72
621.746	41671.32
622.101	42134.13
622.457	41894.59
622.812	41990.63
623.168	42201.7
623.523	42156.28
623.879	42337.74
624.234	42155.15
624.589	42236.05
624.945	42463.39
625.3	42531.41
625.655	42494.8
626.01	42579.54
626.365	42580.67
626.72	42738.86
627.075	42499.77
627.43	42714.46
627.785	42525.76
628.14	42724.17
628.495	42930.04
628.85	42884.4
629.205	42694.34
629.559	43107.21
629.914	42833.77
630.269	42881.23
630.623	42886.2
630.978	42687.79
631.332	43031.51
631.687	43037.84
632.041	42988.57
632.396	43060.21
632.75	42871.97
633.104	42936.37
633.459	42785.41
633.813	42908.58
634.167	42698.41
634.521	42872.42
634.875	42949.48
635.229	42945.18
635.583	42778.64
635.937	42853.66
636.291	42847.11
636.645	42892.98
636.999	42806.43
637.352	42931.17
637.706	42761.23
638.06	42873.55
638.413	42751.74
638.767	42540.68
639.121	42657.96
639.474	42542.71
639.828	42598.3
640.181	42685.08
640.534	42584.52
640.888	42538.64
641.241	42396.95
641.594	42465.65
641.947	42558.98
642.301	42451.41
642.654	42581.58
643.007	42495.48
643.36	42522.82
643.713	42537.96
644.066	42512.65
644.419	42307.46
644.771	42127.8
645.124	41690.98
645.477	41758.1
645.83	41433.13
646.182	41352.01
646.535	41309.52
646.888	41362.4
647.24	41141.16
647.593	41370.31
647.945	41247.15
648.298	41048.51
648.65	40994.05
649.002	40848.74
649.355	41137.32
649.707	41229.07
650.059	41364.89
650.411	41790.64
650.763	41725.1
651.115	42094.59
651.467	42054.13
651.819	42011.42
652.171	41949.28
652.523	41876.06
652.875	41934.59
653.227	41713.35
653.578	42039.9
653.93	41718.1
654.282	41877.42
654.633	41605.33
654.985	41750.41
655.337	41644.2
655.688	41690.98
656.039	41943.18
656.391	41410.54
656.742	41556.07
657.094	41751.32
657.445	41729.85
657.796	41787.7
658.147	41602.62
658.498	41545.67
658.849	41799.68
659.2	41568.5
659.551	41453.02
659.902	41628.83
660.253	41568.5
660.604	41640.36
660.955	41270.2
661.306	41599.01
661.656	41440.14
662.007	41468.16
662.358	41476.52
662.708	41487.37
663.059	41405.79
663.409	41212.12
663.76	41442.17
664.11	41408.05
664.461	41547.03
664.811	41432.68
665.161	41480.14
665.511	41201.73
665.862	41253.48
666.212	41425
666.562	41394.72
666.912	41189.98
667.262	41281.5
667.612	41167.15
667.962	41324.44
668.312	41272.23
668.662	41488.27
669.011	41245.57
669.361	41288.73
669.711	41223.2
670.06	41309.07
670.41	41236.98
670.76	41228.62
671.109	41263.87
671.459	41300.93
671.808	41115.63
672.157	41225
672.507	41006.25
672.856	41106.36
673.205	41161.28
673.554	41139.81
673.904	41133.25
674.253	41328.96
674.602	41248.28
674.951	40505.7
675.3	40365.59
675.649	40989.76
675.998	40916.99
676.346	40949.08
676.695	41130.77
677.044	40738.01
677.393	40903.43
677.741	41010.55
678.09	40831.57
678.438	40767.16
678.787	40849.87
679.135	40875.41
679.484	40526.26
679.832	40774.85
680.181	40426.38
680.529	40653.95
680.877	40426.83
681.225	40498.47
681.573	40535.98
681.922	40452.14
682.27	40178.25
682.618	40235.88
682.966	40074.98
683.314	40273.16
683.661	40168.31
684.009	39989.78
684.357	39834.31
684.705	39802.22
685.053	39936
685.4	39685.16
685.748	39557.25
686.095	39612.62
686.443	39502.79
686.79	39447.88
687.138	39496.24
687.485	39439.74
687.832	39346.86
688.18	39496.46
688.527	39190.71
688.874	39307.99
689.221	39076.36
689.568	39056.02
689.915	38831.17
690.262	38951.17
690.609	38875.91
690.956	38763.15
691.303	38798.17
691.65	38536.49
691.997	38657.84
692.344	38330.16
692.69	38151.64
693.037	38302.59
693.383	38066.22
693.73	38139.21
694.077	37886.56
694.423	37918.88
694.769	37736.51
695.116	37652.89
695.462	37642.95
695.808	37474.82
696.155	37614.25
696.501	37300.14
696.847	37291.77
697.193	37079.58
697.539	37086.36
697.885	36990.54
698.231	36915.74
698.577	36839.36
698.923	36810.88
699.269	36690.43
699.614	36525.92
699.96	36372.93
700.306	36376.09
700.651	36346.49
700.997	36177
701.342	36072.82
701.688	35935.43
702.033	35865.6
702.379	35836.67
702.724	35812.26
703.069	35774.98
703.415	35402.78
703.76	35411.15
704.105	35425.16
704.45	35366.17
704.795	35187.2
705.14	35152.85
705.485	34942.91
705.83	34960.99
706.175	34953.76
706.52	34861.1
706.865	34781.11
707.209	34639.64
707.554	34435.58
707.899	34676.25
708.243	34421.57
708.588	34502.24
708.932	34180.67
709.277	34022.26
709.621	34208.69
709.966	33895.25
710.31	34055.25
710.654	33708.14
710.998	33908.59
711.342	33917.4
711.687	33806.44
712.031	33566.9
712.375	33648.48
712.719	33529.16
713.063	33467.69
713.407	33592.44
713.75	33227.25
714.094	33269.51
714.438	33019.57
714.782	33100.47
715.125	33075.39
715.469	33109.51
715.812	32901.38
716.156	32768.95
716.499	32823.64
716.843	32747.71
717.186	32589.52
717.53	32705.68
717.873	32638.11
718.216	32557.43
718.559	32398.34
718.902	32343.43
719.246	32289.42
719.589	32152.25
719.932	32114.73
720.275	32171.91
720.617	32067.5
720.96	32061.4
721.303	31967.39
721.646	31968.98
721.989	31804.46
722.331	31968.07
722.674	31781.41
723.016	31799.26
723.359	31725.37
723.701	31757.68
724.044	31601.53
724.386	31430.91
724.729	31585.94
725.071	31475.2
725.413	31415.77
725.755	31423.68
726.097	31262.78
726.439	31131.26
726.782	31158.83
727.124	31257.58
727.465	31070.69
727.807	31114.53
728.149	30953.86
728.491	30992.5
728.833	30944.37
729.175	30867.76
729.516	30804.26
729.858	30773.08
730.199	30767.88
730.541	30679.07
730.882	30611.5
731.224	30739.18
731.565	30528.56
731.906	30426.42
732.248	30549.58
732.589	30300.32
732.93	30279.08
733.271	30360.2
733.612	30361.11
733.953	30359.53
734.294	30223.71
734.635	30088.8
734.976	30238.17
735.317	29988.24
735.658	30100.78
735.999	30061.91
736.339	30026.88
736.68	30086.09
737.021	29846.55
737.361	29776.72
737.702	29945.3
738.042	29882.93
738.383	29694.69
738.723	29757.96
739.063	29675.93
739.404	29723.61
739.744	29540.57
740.084	29483.84
740.424	29467.12
740.764	29393.45
741.104	29542.82
741.444	29388.93
741.784	29384.41
742.124	29306.9
742.464	29296.96
742.804	29134.02
743.143	29146.9
743.483	29228.48
743.823	28986.91
744.162	29058.77
744.502	29122.05
744.841	28885.67
745.181	29066.91
745.52	28920.02
745.86	29024.42
746.199	28903.75
746.538	28775.16
746.877	28889.06
747.216	28805.9
747.556	28599.35
747.895	28675.96
748.234	28537.65
748.573	28466.7
748.911	28570.87
749.25	28491.78
749.589	28286.59
749.928	28361.84
750.267	28436.64
750.605	28365.23
750.944	28266.47
751.283	28132.24
751.621	28119.36
751.96	28153.48
752.298	27979.25
752.636	27945.35
752.975	27870.78
753.313	27823.77
753.651	27901.06
753.989	27777.45
754.327	27826.26
754.666	27606.6
755.004	27706.71
755.342	27581.75
755.679	27555.98
756.017	27381.98
756.355	27543.78
756.693	27278.93
757.031	27355.76
757.368	27241.42
