Data from hue_36_FLMS001491_00007.txt Node
Date: Tue Feb 07 17:29:19 GMT 2017
User: dcchb
Spectrometer: FLMS00149
Trigger mode: 0
Integration Time (sec): 2.000000E-2
Scans to average: 10
Electric dark correction enabled: true
Nonlinearity correction enabled: false
Boxcar width: 0
XAxis mode: Wavelengths
Number of Pixels in Spectrum: 2048
>>>>>Begin Spectral Data<<<<<
341.393	-3.35
341.776	-3.35
342.16	-3.35
342.543	-78.6
342.927	-67.3
343.31	-60.75
343.693	-57.36
344.077	-78.83
344.46	-56
344.843	-37.24
345.226	-34.76
345.61	-48.32
345.993	-15.55
346.376	-10.8
346.759	15.18
347.142	36.43
347.525	39.59
347.908	65.13
348.291	44.11
348.674	88.63
349.057	110.55
349.44	121.85
349.823	127.72
350.206	176.76
350.588	209.75
350.971	205.91
351.354	219.47
351.737	229.41
352.119	249.53
352.502	271
352.884	291.33
353.267	294.5
353.65	304.44
354.032	320.49
354.414	302.41
354.797	322.75
355.179	322.07
355.562	341.28
355.944	324.78
356.326	329.3
356.709	331.33
357.091	353.25
357.473	353.25
357.855	358.45
358.238	337.89
358.62	360.48
359.002	335.17
359.384	329.98
359.766	332.91
360.148	336.98
360.53	365.46
360.912	338.11
361.294	329.53
361.676	325.68
362.057	339.02
362.439	315.74
362.821	331.56
363.203	342.86
363.584	331.56
363.966	337.66
364.348	310.32
364.729	334.04
365.111	331.33
365.493	326.36
365.874	327.72
366.256	307.83
366.637	314.16
367.019	313.25
367.4	320.71
367.781	303.54
368.163	319.58
368.544	317.77
368.925	328.85
369.306	310.32
369.688	310.77
370.069	324.55
370.45	294.72
370.831	318.9
371.212	311.9
371.593	338.79
371.974	320.49
372.355	318.45
372.736	306.93
373.117	325.23
373.498	317.32
373.879	315.29
374.26	315.97
374.641	319.58
375.021	315.97
375.402	304.22
375.783	325.23
376.163	323.42
376.544	334.04
376.925	329.75
377.305	340.82
377.686	344.67
378.066	319.81
378.447	321.62
378.827	312.58
379.208	329.07
379.588	338.56
379.968	337.43
380.349	346.93
380.729	339.69
381.109	336.98
381.489	332.01
381.87	327.04
382.25	328.85
382.63	334.27
383.01	334.95
383.39	357.32
383.77	348.06
384.15	335.63
384.53	330.2
384.91	351.22
385.29	336.76
385.67	347.38
386.049	342.41
386.429	344.44
386.809	345.57
387.189	348.06
387.568	325.68
387.948	352.8
388.328	341.28
388.707	354.61
389.087	343.76
389.466	358.45
389.846	374.27
390.225	364.78
390.605	367.04
390.984	362.07
391.363	382.18
391.743	364.78
392.122	377.66
392.501	372.24
392.881	378.34
393.26	374.27
393.639	360.48
394.018	366.59
394.397	368.17
394.776	369.75
395.155	386.02
395.534	369.52
395.913	383.08
396.292	394.16
396.671	372.01
397.05	382.41
397.429	395.06
397.808	389.64
398.186	397.55
398.565	379.47
398.944	392.8
399.323	398.22
399.701	406.13
400.08	391.9
400.458	388.96
400.837	405.46
401.215	411.78
401.594	389.41
401.972	406.36
402.351	409.52
402.729	385.79
403.107	421.05
403.486	404.1
403.864	409.98
404.242	400.71
404.62	440.26
404.999	410.2
405.377	404.33
405.755	421.73
406.133	420.82
406.511	432.35
406.889	421.95
407.267	449.3
407.645	431.44
408.023	439.35
408.401	442.52
408.779	434.16
409.156	424.21
409.534	460.6
409.912	449.3
410.29	436.19
410.667	447.94
411.045	441.61
411.422	448.17
411.8	442.97
412.178	469.86
412.555	454.72
412.933	450.2
413.31	485.68
413.687	491.33
414.065	474.15
414.442	498.79
414.819	470.99
415.197	495.17
415.574	466.92
415.951	488.17
416.328	488.84
416.705	484.1
417.082	499.92
417.46	503.76
417.837	526.13
418.214	495.17
418.591	496.07
418.967	502.18
419.344	512.57
419.721	504.66
420.098	524.32
420.475	529.52
420.852	497.43
421.228	526.13
421.605	530.2
421.982	507.15
422.358	531.55
422.735	528.39
423.111	536.98
423.488	542.63
423.864	540.37
424.241	568.61
424.617	563.64
424.994	541.05
425.37	545.11
425.746	570.42
426.123	560.48
426.499	568.84
426.875	575.85
427.251	549.18
427.627	582.85
428.003	572.68
428.379	576.3
428.756	572.46
429.132	588.5
429.507	608.84
429.883	616.75
430.259	623.08
430.635	639.12
431.011	622.85
431.387	629.63
431.763	620.82
432.138	643.87
432.514	640.93
432.89	638.44
433.265	641.16
433.641	644.55
434.016	668.5
434.392	648.61
434.767	671.44
435.143	668.95
435.518	682.06
435.894	681.15
436.269	684.32
436.644	685.22
437.02	693.36
437.395	692.91
437.77	711.44
438.145	704.66
438.52	724.77
438.895	712.79
439.271	709.4
439.646	752.34
440.021	723.41
440.395	734.71
440.77	750.31
441.145	742.62
441.52	767.93
441.895	767.93
442.27	776.29
442.645	754.15
443.019	768.61
443.394	781.49
443.769	775.16
444.143	739.23
444.518	787.82
444.892	793.69
445.267	781.04
445.641	786.91
446.016	786.01
446.39	801.38
446.764	810.19
447.139	809.06
447.513	819.68
447.887	823.52
448.262	808.83
448.636	801.83
449.01	843.18
449.384	837.31
449.758	831.88
450.132	852.45
450.506	836.4
450.88	845.44
451.254	863.07
451.628	869.85
452.002	876.18
452.376	882.73
452.75	904.88
453.123	899
453.497	909.62
453.871	906.23
454.244	914.82
454.618	928.38
454.992	964.76
455.365	930.19
455.739	959.34
456.112	987.81
456.486	981.49
456.859	971.09
457.232	984.2
457.606	983.97
457.979	1014.03
458.352	1000.92
458.725	1042.73
459.099	1012.9
459.472	1041.6
459.845	1052.22
460.218	1084.76
460.591	1064.2
460.964	1074.14
461.337	1085.44
461.71	1119.79
462.083	1101.03
462.456	1132.22
462.829	1140.58
463.201	1168.15
463.574	1155.27
463.947	1167.24
464.32	1190.07
464.692	1213.34
465.065	1202.72
465.438	1217.19
465.81	1250.86
466.183	1241.14
466.555	1285.88
466.928	1256.96
467.3	1309.16
467.672	1320.69
468.045	1351.42
468.417	1382.15
468.789	1401.14
469.161	1395.49
469.534	1420.8
469.906	1458.54
470.278	1447.46
470.65	1486.33
471.022	1516.84
471.394	1564.52
471.766	1586.44
472.138	1604.97
472.51	1606.55
472.882	1628.7
473.253	1671.64
473.625	1728.81
473.997	1741.92
474.369	1747.34
474.74	1800.67
475.112	1834.8
475.484	1865.08
475.855	1914.57
476.227	1921.8
476.598	2001.57
476.97	2042.93
477.341	2067.56
477.713	2135.35
478.084	2158.18
478.455	2217.84
478.827	2270.72
479.198	2336.25
479.569	2371.96
479.94	2413.76
480.311	2503.93
480.682	2558.62
481.053	2625.28
481.424	2687.2
481.795	2739.63
482.166	2810.59
482.537	2868.89
482.908	2929.68
483.279	3026.63
483.65	3150.02
484.021	3173.29
484.391	3279.73
484.762	3315.66
485.133	3387.52
485.503	3395.43
485.874	3571.47
486.244	3620.74
486.615	3730.79
486.985	3825.7
487.356	3900.96
487.726	3929.43
488.097	4084.23
488.467	4134.17
488.837	4255.75
489.207	4351.57
489.578	4435.86
489.948	4546.59
490.318	4626.36
490.688	4696.42
491.058	4816.86
491.428	4858.22
491.798	4953.13
492.168	5144.31
492.538	5207.14
492.908	5267.47
493.278	5426.34
493.648	5429.5
494.017	5567.81
494.387	5661.36
494.757	5738.65
495.126	5812.54
495.496	5917.63
495.866	6012.31
496.235	6095.7
496.605	6175.7
496.974	6235.81
497.344	6378.86
497.713	6461.12
498.082	6528.46
498.452	6580.21
498.821	6703.82
499.19	6706.31
499.559	6856.36
499.928	6967.54
500.298	6959.18
500.667	7090.03
501.036	7111.95
501.405	7207.08
501.774	7252.73
502.143	7393.07
502.512	7380.19
502.88	7538.38
503.249	7574.76
503.618	7667.64
503.987	7715.77
504.356	7798.48
504.724	7871.02
505.093	7907.41
505.462	8011.81
505.83	8114.41
506.199	8155.53
506.567	8304.23
506.936	8277.79
507.304	8388.3
507.672	8474.85
508.041	8482.31
508.409	8602.08
508.777	8646.14
509.145	8727.27
509.514	8735.41
509.882	8783.99
510.25	8899.24
510.618	8997.77
510.986	9076.87
511.354	9107.6
511.722	9171.33
512.09	9222.62
512.458	9298.33
512.826	9396.86
513.193	9381.94
513.561	9439.79
513.929	9572.45
514.297	9621.48
514.664	9671.2
515.032	9731.09
515.4	9774.7
515.767	9840.91
516.135	9875.26
516.502	9878.65
516.869	10053.56
517.237	10085.65
517.604	10095.6
517.972	10223.5
518.339	10318.19
518.706	10296.49
519.073	10401.12
519.44	10380.33
519.808	10538.52
520.175	10485.87
520.542	10600.44
520.909	10685.41
521.276	10698.74
521.643	10800.21
522.009	10909.81
522.376	10920.43
522.743	11007.21
523.11	11082.69
523.477	11223.25
523.843	11250.59
524.21	11412.62
524.577	11424.83
524.943	11543.02
525.31	11566.97
525.676	11645.84
526.043	11734.88
526.409	11760.86
526.776	11829.56
527.142	11856.91
527.508	11940.29
527.874	12045.6
528.241	12120.63
528.607	12148.42
528.973	12313.39
529.339	12279.04
529.705	12318.81
530.071	12442.88
530.437	12493.5
530.803	12623.44
531.169	12717.67
531.535	12698.01
531.901	12714.51
532.267	12825.02
532.632	12913.6
532.998	12937.1
533.364	13038.57
533.73	13090.77
534.095	13148.85
534.461	13142.3
534.826	13319.69
535.192	13309.52
535.557	13488.5
535.923	13449.63
536.288	13458.45
536.653	13557.88
537.019	13536.18
537.384	13629.29
537.749	13691.43
538.114	13686.24
538.479	13658.67
538.845	13832.45
539.21	13801.71
539.575	13868.83
539.94	13910.86
540.305	14015.27
540.67	14069.73
541.034	14116.51
541.399	14191.53
541.764	14185.88
542.129	14301.36
542.494	14291.42
542.858	14414.35
543.223	14365.99
543.587	14500.9
543.952	14550.85
544.316	14635.36
544.681	14622.26
545.045	14732.99
545.41	14778.41
545.774	14740.67
546.138	14777.51
546.503	14882.81
546.867	14895.02
547.231	14947.22
547.595	15111.06
547.959	15018.18
548.324	15196.7
548.688	15226.99
549.052	15313.99
549.416	15319.41
549.779	15362.35
550.143	15346.53
550.507	15441.44
550.871	15492.74
551.235	15531.84
551.599	15665.85
551.962	15630.82
552.326	15676.47
552.689	15804.6
553.053	15765.05
553.417	15753.98
553.78	15998.72
554.143	15949.23
554.507	16027.19
554.87	16108.32
555.234	16217.24
555.597	16137.02
555.96	16298.6
556.323	16318.71
556.686	16335.66
557.05	16535.88
557.413	16472.6
557.776	16573.39
558.139	16610.23
558.502	16734.52
558.865	16661.98
559.228	16820.39
559.59	16835.53
559.953	16883.44
560.316	16997.11
560.679	17040.95
561.041	17160.27
561.404	17234.17
561.767	17391.45
562.129	17224.67
562.492	17499.92
562.854	17377.89
563.217	17471.67
563.579	17544.89
563.941	17718.45
564.304	17720.03
564.666	17853.36
565.028	17765
565.39	17786.92
565.753	18023.98
566.115	18081.6
566.477	18060.36
566.839	18116.63
567.201	18224.2
567.563	18372.67
567.925	18390.07
568.287	18410.86
568.648	18463.96
569.01	18612.66
569.372	18682.71
569.734	18745.99
570.095	18708.03
570.457	18835.71
570.819	18973.1
571.18	18952.09
571.542	19069.6
571.903	19079.54
572.265	19248.12
572.626	19243.6
572.987	19332.87
573.349	19449.93
573.71	19556.36
574.071	19637.72
574.432	19852.18
574.794	19909.58
575.155	19951.38
575.516	19930.37
575.877	20074.54
576.238	20209.23
576.599	20390.92
576.96	20479.28
577.32	20481.54
577.681	20675.66
578.042	20783.68
578.403	20907.29
578.763	21014.41
579.124	21173.27
579.485	21274.74
579.845	21531.91
580.206	21447.16
580.566	21662.75
580.927	21812.58
581.287	22020.93
581.648	22089.86
582.008	22319.23
582.368	22402.62
582.728	22652.78
583.089	22829.72
583.449	22905.2
583.809	23200.79
584.169	23320.79
584.529	23468.8
584.889	23906.08
585.249	23794.44
585.609	23912.18
585.969	24282.12
586.329	24483.01
586.688	24691.14
587.048	24835.55
587.408	25026.28
587.768	25247.29
588.127	25475.53
588.487	25478.92
588.846	25963.2
589.206	26092.69
589.565	26287.71
589.925	26532.68
590.284	26856.51
590.643	27128.59
591.003	27235.71
591.362	27603.38
591.721	27659.65
592.08	27938.52
592.44	28232.07
592.799	28520.2
593.158	28504.6
593.517	28833.18
593.876	28996.34
594.235	29283.11
594.593	29475.65
594.952	29765.81
595.311	29960.38
595.67	30238.57
596.029	30599.46
596.387	30722.62
596.746	30940.7
597.104	30997.87
597.463	31207.58
597.822	31407.13
598.18	31703.16
598.538	31727.34
598.897	32248.01
599.255	32036.49
599.613	32735.45
599.972	32746.75
600.33	32978.16
600.688	33004.82
601.046	33230.58
601.404	33569.33
601.762	33704.69
602.12	34123.66
602.478	34233.94
602.836	34402.08
603.194	34366.82
603.552	34682.97
603.91	34623.09
604.268	35160.47
604.625	35096.29
604.983	35370.64
605.341	35323.41
605.698	35678.65
606.056	35859.66
606.413	35871.64
606.771	36124.52
607.128	36215.81
607.485	36254.68
607.843	36516.37
608.2	36747.32
608.557	36847.89
608.914	36929.92
609.272	37245.62
609.629	37477.25
609.986	37686.28
610.343	37558.15
610.7	37980.06
611.057	37963.79
611.414	38031.36
611.771	38205.14
612.127	38455.08
612.484	38382.99
612.841	38736.65
613.198	38567.39
613.554	38744.56
613.911	39093.25
614.267	39105
614.624	39155.85
614.98	39289.86
615.337	39611.43
615.693	39579.11
616.05	39726.91
616.406	39913.8
616.762	39810.97
617.118	40023.62
617.475	40104.07
617.831	40274.46
618.187	40278.98
618.543	40456.61
618.899	40644.85
619.255	40695.02
619.611	40556.26
619.967	40816.6
620.323	40960.77
620.678	40816.6
621.034	40936.14
621.39	41001.45
621.746	41092.3
622.101	41477.6
622.457	41117.61
622.812	41348.56
623.168	41444.6
623.523	41534.09
623.879	41534.32
624.234	41392.4
624.589	41578.61
624.945	41728.89
625.3	41787.87
625.655	41821.09
626.01	41895.44
626.365	42045.94
626.72	41910.58
627.075	41969.33
627.43	41948.09
627.785	41803.69
628.14	42005.72
628.495	42126.84
628.85	41972.5
629.205	41913.06
629.559	42257.91
629.914	42150.8
630.269	42012.5
630.623	42138.6
630.978	42063.12
631.332	42229.21
631.687	42485.7
632.041	42130.23
632.396	42297.46
632.75	42153.28
633.104	42313.05
633.459	42087.75
633.813	42125.71
634.167	42112.38
634.521	42116.9
634.875	42252.26
635.229	42141.08
635.583	41826.06
635.937	42028.99
636.291	42043.91
636.645	42126.17
636.999	42060.41
637.352	42153.06
637.706	41876.23
638.06	42201.87
638.413	41954.19
638.767	41816.34
639.121	42099.05
639.474	41832.61
639.828	41817.47
640.181	42017.47
640.534	41899.73
640.888	41724.37
641.241	41653.64
641.594	41682.56
641.947	41926.17
642.301	41692.28
642.654	41699.28
643.007	41855.44
643.36	41788.1
643.713	41717.36
644.066	41855.21
644.419	41482.34
644.771	41320.31
645.124	40961
645.477	40810.72
645.83	40670.16
646.182	40533.67
646.535	40469.26
646.888	40573.66
647.24	40209.61
647.593	40604.4
647.945	40494.12
648.298	40396.04
648.65	40359.66
649.002	40348.81
649.355	40580.44
649.707	40379.32
650.059	40556.49
650.411	40951.73
650.763	41106.98
651.115	41344.94
651.467	41232.86
651.819	41306.75
652.171	41178.39
652.523	41208.22
652.875	41022.01
653.227	40792.19
653.578	41266.08
653.93	41118.28
654.282	40808.69
654.633	40871.96
654.985	40843.71
655.337	40930.04
655.688	40973.88
656.039	41065.4
656.391	40838.97
656.742	40870.61
657.094	40970.72
657.445	41073.09
657.796	40957.38
658.147	40885.52
658.498	40878.97
658.849	40932.53
659.2	40830.16
659.551	40732.53
659.902	40916.71
660.253	40666.77
660.604	40899.31
660.955	40709.25
661.306	40876.26
661.656	40878.52
662.007	40695.24
662.358	40752.42
662.708	40795.13
663.059	40716.03
663.409	40473.78
663.76	40828.12
664.11	40688.46
664.461	40714.68
664.811	40882.81
665.161	40597.84
665.511	40557.62
665.862	40640.56
666.212	40871.96
666.562	40770.5
666.912	40555.13
667.262	40618.18
667.612	40669.26
667.962	40669.03
668.312	40677.84
668.662	40845.97
669.011	40631.52
669.361	40713.1
669.711	40606.43
670.06	40498.41
670.41	40544.74
670.76	40411.64
671.109	40658.18
671.459	40424.74
671.808	40520.11
672.157	40595.59
672.507	40227.69
672.856	40236.05
673.205	40367.12
673.554	40440.11
673.904	40215.26
674.253	40542.71
674.602	40371.86
674.951	39865.89
675.3	39648.72
675.649	40440.11
675.998	40253
676.346	40365.53
676.695	40290.96
677.044	39903.63
677.393	40174.35
677.741	40212.09
678.09	40146.56
678.438	40076.28
678.787	40095.49
679.135	40194.47
679.484	39965.09
679.832	40104.52
680.181	39899.56
680.529	39961.25
680.877	39936.85
681.225	39806.45
681.573	40101.13
681.922	39642.16
682.27	39576.4
682.618	39628.83
682.966	39470.64
683.314	39658.21
683.661	39380.48
684.009	39368.05
684.357	39126.25
684.705	39146.13
685.053	39259.12
685.4	39144.1
685.748	38959.7
686.095	38870.88
686.443	38877.66
686.79	38731.23
687.138	38846.93
687.485	38815.29
687.832	38729.19
688.18	38777.55
688.527	38632.7
688.874	38445.59
689.221	38487.84
689.568	38479.03
689.915	38259.83
690.262	38386.38
690.609	38181.86
690.956	38000.85
691.303	38066.61
691.65	37854.87
691.997	38081.3
692.344	37730.8
692.69	37641.99
693.037	37590.69
693.383	37465.5
693.73	37419.62
694.077	37338.95
694.423	37303.69
694.769	37136.69
695.116	37090.59
695.462	37106.19
695.808	36995.45
696.155	37126.75
696.501	36819.19
696.847	36695.57
697.193	36486.31
697.539	36722.69
697.885	36390.72
698.231	36287.22
698.577	36274.79
698.923	36252.87
699.269	36044.97
699.614	35824.64
699.96	35778.54
700.306	35898.31
700.651	35691.99
700.997	35581.48
701.342	35592.78
701.688	35521.82
702.033	35310.3
702.379	35335.16
702.724	35336.74
703.069	35299
703.415	34894.27
703.76	35050.42
704.105	34912.12
704.45	34826.02
704.795	34693.37
705.14	34435.52
705.485	34614.95
705.83	34394.84
706.175	34364.34
706.52	34366.14
706.865	34230.1
707.209	34136.09
707.554	34056.32
707.899	34151.23
708.243	34004.35
708.588	33961.64
708.932	33709.89
709.277	33686.61
709.621	33724.35
709.966	33458.15
710.31	33510.35
710.654	33250.69
710.998	33295.66
711.342	33513.51
711.687	33272.84
712.031	33197.81
712.375	33169.79
712.719	33103.58
713.063	33035.11
713.407	33102.67
713.75	32953.53
714.094	32770.93
714.438	32688.22
714.782	32698.84
715.125	32655.68
715.469	32687.77
715.812	32463.14
716.156	32469.92
716.499	32334.33
716.843	32278.52
717.186	32201.68
717.53	32387.89
717.873	32390.6
718.216	32212.98
718.559	32029.71
718.902	31974.79
719.246	31797.62
719.589	31792.43
719.932	31703.84
720.275	31645.54
720.617	31674.24
720.96	31561.47
721.303	31533.22
721.646	31521.25
721.989	31470.85
722.331	31436.28
722.674	31329.84
723.016	31415.71
723.359	31247.81
723.701	31299.56
724.044	31168.49
724.386	30985.22
724.729	31144.31
725.071	31108.15
725.413	31032.45
725.755	30926.23
726.097	30865.45
726.439	30727.82
726.782	30749.52
727.124	30849.4
727.465	30575.28
727.807	30717.2
728.149	30515.62
728.491	30508.17
728.833	30630.42
729.175	30573.02
729.516	30418
729.858	30402.63
730.199	30347.94
730.541	30312.92
730.882	30348.62
731.224	30278.12
731.565	29991.12
731.906	30141.62
732.248	29980.95
732.589	29815.53
732.93	29820.95
733.271	29885.58
733.612	29912.93
733.953	29940.95
734.294	29783.67
734.635	29702.54
734.976	29757.23
735.317	29598.13
735.658	29618.92
735.999	29627.51
736.339	29528.76
736.68	29628.19
737.021	29391.13
737.361	29375.09
737.702	29475.43
738.042	29415.09
738.383	29331.93
738.723	29377.58
739.063	29293.74
739.404	29285.15
739.744	29164.25
740.084	29141.65
740.424	29132.16
740.764	29065.49
741.104	29198.6
741.444	28988.88
741.784	28896.68
742.124	28887.19
742.464	28890.36
742.804	28772.39
743.143	28658.72
743.483	28767.2
743.823	28591.61
744.162	28569.46
744.502	28589.57
744.841	28492.4
745.181	28649.68
745.52	28454.44
745.86	28479.97
746.199	28390.93
746.538	28505.28
746.877	28424.83
747.216	28495.56
747.556	28326.3
747.895	28322.69
748.234	28093.54
748.573	28077.04
748.911	28113.2
749.25	28133.31
749.589	27861.46
749.928	27889.48
750.267	27984.39
750.605	27975.58
750.944	27919.53
751.283	27653.55
751.621	27853.1
751.96	27705.53
752.298	27753.66
752.636	27574.23
752.975	27552.31
753.313	27314.35
753.651	27443.16
753.989	27357.29
754.327	27320
754.666	27188.25
755.004	27266.22
755.342	27237.74
755.679	27237.52
756.017	27078.43
756.355	27148.93
756.693	26868.49
757.031	26993.68
757.368	26707.59
