Data from hue_110_FLMS001491_00086.txt Node
Date: Tue Feb 07 17:01:56 GMT 2017
User: dcchb
Spectrometer: FLMS00149
Trigger mode: 0
Integration Time (sec): 2.000000E-2
Scans to average: 10
Electric dark correction enabled: true
Nonlinearity correction enabled: false
Boxcar width: 0
XAxis mode: Wavelengths
Number of Pixels in Spectrum: 2048
>>>>>Begin Spectral Data<<<<<
341.393	-21.19
341.776	-21.19
342.16	-21.19
342.543	-62.31
342.927	-67.51
343.31	-63.67
343.693	-66.16
344.077	-64.35
344.46	-67.29
344.843	-66.61
345.226	-43.56
345.61	-47.85
345.993	-31.58
346.376	8.64
346.759	34.86
347.142	24.91
347.525	35.76
347.908	47.51
348.291	100.84
348.674	92.71
349.057	105.82
349.44	126.83
349.823	131.35
350.206	182.88
350.588	192.59
350.971	210.45
351.354	233.5
351.737	220.62
352.119	250.9
352.502	232.14
352.884	306.26
353.267	285.02
353.65	290.44
354.032	295.87
354.414	311.46
354.797	321.4
355.179	319.37
355.562	310.78
355.944	317.56
356.326	340.16
356.709	322.53
357.091	346.94
357.473	359.6
357.855	349.88
358.238	334.06
358.62	346.71
359.002	336.32
359.384	319.82
359.766	357.79
360.148	334.74
360.53	332.7
360.912	316.21
361.294	326.83
361.676	337.67
362.057	322.08
362.439	312.14
362.821	324.57
363.203	314.62
363.584	313.95
363.966	329.54
364.348	309.65
364.729	287.28
365.111	293.61
365.493	319.82
365.874	324.79
366.256	329.99
366.637	323.21
367.019	314.17
367.4	317.11
367.781	326.38
368.163	308.3
368.544	303.78
368.925	329.09
369.306	315.3
369.688	309.65
370.069	317.56
370.45	296.77
370.831	315.53
371.212	337.9
371.593	314.62
371.974	333.38
372.355	323.44
372.736	305.36
373.117	323.89
373.498	324.12
373.879	302.87
374.26	313.95
374.641	303.33
375.021	312.82
375.402	312.82
375.783	299.71
376.163	327.51
376.544	321.18
376.925	323.66
377.305	312.59
377.686	323.21
378.066	319.37
378.447	317.34
378.827	308.07
379.208	337.45
379.588	319.82
379.968	334.51
380.349	346.71
380.729	322.08
381.109	328.18
381.489	323.44
381.87	347.17
382.25	348.97
382.63	341.97
383.01	322.53
383.39	322.08
383.77	344.45
384.15	340.16
384.53	342.65
384.91	354.85
385.29	334.74
385.67	352.82
386.049	373.83
386.429	352.14
386.809	325.02
387.189	359.82
387.568	372.7
387.948	357.11
388.328	356.66
388.707	362.08
389.087	369.09
389.466	359.14
389.846	360.27
390.225	375.19
390.605	362.31
390.984	379.03
391.363	367.05
391.743	351.69
392.122	367.96
392.501	369.09
392.881	377.45
393.26	356.43
393.639	374.51
394.018	374.28
394.397	380.84
394.776	394.17
395.155	371.12
395.534	383.55
395.913	374.74
396.292	366.37
396.671	373.61
397.05	374.74
397.429	384.23
397.808	382.42
398.186	391.23
398.565	395.98
398.944	368.18
399.323	396.88
399.701	395.3
400.08	386.49
400.458	391.46
400.837	404.11
401.215	395.3
401.594	430.33
401.972	393.04
402.351	407.96
402.729	416.54
403.107	407.73
403.486	400.72
403.864	426.49
404.242	421.97
404.62	413.15
404.999	437.33
405.377	431.01
405.755	432.59
406.133	431.23
406.511	427.16
406.889	417.9
407.267	421.74
407.645	428.07
408.023	430.33
408.401	451.12
408.779	437.33
409.156	441.63
409.534	447.05
409.912	439.59
410.29	421.29
410.667	449.08
411.045	462.87
411.422	446.6
411.8	446.82
412.178	460.84
412.555	482.76
412.933	480.95
413.31	478.91
413.687	481.17
414.065	497.44
414.442	471.91
414.819	484.11
415.197	518.46
415.574	498.35
415.951	473.49
416.328	485.92
416.705	492.92
417.082	494.51
417.46	484.79
417.837	515.52
418.214	496.54
418.591	515.98
418.967	481.85
419.344	511.68
419.721	534.96
420.098	519.14
420.475	538.35
420.852	508.29
421.228	530.66
421.605	526.82
421.982	536.54
422.358	539.7
422.735	551.45
423.111	559.59
423.488	542.87
423.864	552.81
424.241	553.26
424.617	559.36
424.994	585.58
425.37	580.38
425.746	583.09
426.123	562.08
426.499	586.26
426.875	570.66
427.251	596.2
427.627	573.15
428.003	582.87
428.379	585.35
428.756	605.01
429.132	629.42
429.507	629.19
429.883	621.51
430.259	610.66
430.635	639.81
431.011	614.28
431.387	642.07
431.763	651.56
432.138	664.22
432.514	662.41
432.89	673.49
433.265	661.73
433.641	693.6
434.016	681.62
434.392	689.53
434.767	687.27
435.143	711.45
435.518	697.89
435.894	742.41
436.269	725.24
436.644	743.31
437.02	721.85
437.395	725.24
437.77	745.57
438.145	732.24
438.52	753.48
438.895	768.85
439.271	762.3
439.646	782.86
440.021	798.45
440.395	796.42
440.77	775.4
441.145	808.17
441.52	796.42
441.895	799.36
442.27	788.06
442.645	811.33
443.019	805.23
443.394	821.96
443.769	822.63
444.143	812.01
444.518	847.04
444.892	835.74
445.267	847.49
445.641	832.35
446.016	851.33
446.39	844.1
446.764	866.02
447.139	835.29
447.513	868.73
447.887	858.56
448.262	870.09
448.636	882.29
449.01	893.59
449.384	884.1
449.758	901.05
450.132	912.8
450.506	935.63
450.88	912.35
451.254	921.84
451.628	928.17
452.002	949.41
452.376	949.86
452.75	975.4
453.123	975.17
453.497	984.89
453.871	1000.71
454.244	994.38
454.618	998
454.992	997.09
455.365	1020.59
455.739	1061.72
456.112	1054.04
456.486	1063.76
456.859	1063.31
457.232	1096.07
457.606	1056.53
457.979	1120.93
458.352	1123.64
458.725	1134.26
459.099	1138.33
459.472	1155.05
459.845	1157.99
460.218	1177.65
460.591	1204.77
460.964	1222.62
461.337	1249.97
461.71	1239.35
462.083	1244.54
462.456	1271.89
462.829	1272.57
463.201	1318.67
463.574	1318.67
463.947	1315.05
464.32	1338.55
464.692	1336.07
465.065	1378.55
465.438	1409.06
465.81	1435.27
466.183	1409.74
466.555	1452.45
466.928	1470.98
467.3	1493.8
467.672	1538.1
468.045	1584.2
468.417	1564.08
468.789	1573.57
469.161	1630.07
469.534	1654.93
469.906	1684.98
470.278	1703.06
470.65	1731.99
471.022	1756.85
471.394	1766.11
471.766	1802.49
472.138	1827.58
472.51	1931.08
472.882	1910.97
473.253	1993.68
473.625	2020.12
473.997	2092.66
474.369	2098.31
474.74	2157.97
475.112	2191.41
475.484	2235.7
475.855	2285.19
476.227	2334.01
476.598	2373.78
476.97	2431.63
477.341	2476.83
477.713	2562.02
478.084	2653.55
478.455	2725.86
478.827	2762.47
479.198	2898.74
479.569	2906.65
479.94	3028.9
480.311	3068.45
480.682	3167.2
481.053	3287.88
481.424	3364.04
481.795	3449.68
482.166	3512.51
482.537	3566.97
482.908	3738.94
483.279	3826.4
483.65	3907.52
484.021	4062.77
484.391	4138.7
484.762	4227.29
485.133	4274.07
485.503	4405.14
485.874	4555.87
486.244	4663.66
486.615	4758.12
486.985	4920.61
487.356	5031.34
487.726	5151.33
488.097	5311.56
488.467	5398.33
488.837	5597.65
489.207	5664.31
489.578	5858.66
489.948	5951.31
490.318	6079.22
490.688	6219.78
491.058	6327.8
491.428	6468.14
491.798	6621.8
492.168	6776.83
492.538	6871.51
492.908	7062.02
493.278	7148.8
493.648	7276.25
494.017	7457.26
494.387	7497.49
494.757	7710.81
495.126	7825.61
495.496	7940.19
495.866	8077.36
496.235	8138.37
496.605	8372.94
496.974	8405.26
497.344	8589.66
497.713	8644.8
498.082	8786.27
498.452	8955.08
498.821	9044.11
499.19	9092.92
499.559	9194.39
499.928	9334.95
500.298	9464.67
500.667	9572.69
501.036	9626.7
501.405	9710.31
501.774	9805
502.143	9927.03
502.512	10023.75
502.88	10166.57
503.249	10221.48
503.618	10333.34
503.987	10400.91
504.356	10419.9
504.724	10518.65
505.093	10644.3
505.462	10661.02
505.83	10882.48
506.199	10859.66
506.567	10970.16
506.936	11066.43
507.304	11175.36
507.672	11186.66
508.041	11352.53
508.409	11403.15
508.777	11528.57
509.145	11593.88
509.514	11549.58
509.882	11697.6
510.25	11696.02
510.618	11767.88
510.986	11812.4
511.354	11828.45
511.722	12021.66
512.09	12030.93
512.458	12057.82
512.826	12211.03
513.193	12233.86
513.561	12235.67
513.929	12289.22
514.297	12370.8
514.664	12519.28
515.032	12479.5
515.4	12547.52
515.767	12719.5
516.135	12620.97
516.502	12592.04
516.869	12868.87
517.237	12837.91
517.604	12760.17
517.972	12846.95
518.339	12994.74
518.706	12943.22
519.073	13053.05
519.44	13079.26
519.808	13102.54
520.175	13059.6
520.542	13161.74
520.909	13311.12
521.276	13218.01
521.643	13361.97
522.009	13418.69
522.376	13414.17
522.743	13427.95
523.11	13449.87
523.477	13550.66
523.843	13621.17
524.21	13694.39
524.577	13743.42
524.943	13739.81
525.31	13764.44
525.676	13765.34
526.043	13861.84
526.409	13921.72
526.776	13993.59
527.142	13966.47
527.508	13947.94
527.874	14069.29
528.241	14048.95
528.607	14070.2
528.973	14161.04
529.339	14020.93
529.705	14181.6
530.071	14130.53
530.437	14140.48
530.803	14160.36
531.169	14237.65
531.535	14146.35
531.901	14161.49
532.267	14153.13
532.632	14141.15
532.998	14166.01
533.364	14194.26
533.73	14111.78
534.095	14237.65
534.461	14304.09
534.826	14242.62
535.192	14276.74
535.557	14252.56
535.923	14169.18
536.288	14228.83
536.653	14138.89
537.019	14066.35
537.384	14090.31
537.749	14081.49
538.114	14183.64
538.479	14068.39
538.845	14103.87
539.21	13872.46
539.575	13993.59
539.94	13914.72
540.305	13994.04
540.67	13845.12
541.034	13953.81
541.399	13886.92
541.764	13955.62
542.129	13832.46
542.494	13806.47
542.858	13799.92
543.223	13791.78
543.587	13760.37
543.952	13643.99
544.316	13689.87
544.681	13628.62
545.045	13666.59
545.41	13678.79
545.774	13649.19
546.138	13532.81
546.503	13542.3
546.867	13493.94
547.231	13555.86
547.595	13487.61
547.959	13507.05
548.324	13389.31
548.688	13384.56
549.052	13272.48
549.416	13357.22
549.779	13319.03
550.143	13295.07
550.507	13322.42
550.871	13316.77
551.235	13252.36
551.599	13180.05
551.962	13132.59
552.326	13212.36
552.689	13272.93
553.053	13106.38
553.417	13136.89
553.78	13178.47
554.143	13105.93
554.507	13119.49
554.87	13162.65
555.234	13169.65
555.597	13068.87
555.96	13091.01
556.323	13120.16
556.686	12996.55
557.05	13042.2
557.413	13018.25
557.776	13035.87
558.139	13123.1
558.502	12997.91
558.865	12961.75
559.228	13040.62
559.59	13020.51
559.953	12988.64
560.316	13069.09
560.679	13042.43
561.041	13086.94
561.404	13096.44
561.767	13085.14
562.129	13145.7
562.492	13095.31
562.854	13088.3
563.217	12965.82
563.579	13059.83
563.941	13135.53
564.304	13046.49
564.666	13161.52
565.028	13175.98
565.39	13140.95
565.753	13241.06
566.115	13267.28
566.477	13233.38
566.839	13277.67
567.201	13308.63
567.563	13246.04
567.925	13346.6
568.287	13347.73
568.648	13235.87
569.01	13416.65
569.372	13419.36
569.734	13239.48
570.095	13309.76
570.457	13321.74
570.819	13383.89
571.18	13326.49
571.542	13410.33
571.903	13428.86
572.265	13441.51
572.626	13502.3
572.987	13449.19
573.349	13498.23
573.71	13493.26
574.071	13519.02
574.432	13517.89
574.794	13575.97
575.155	13557.21
575.516	13436.77
575.877	13537.33
576.238	13531.9
576.599	13614.16
576.96	13552.47
577.32	13525.12
577.681	13538.01
578.042	13678.34
578.403	13577.78
578.763	13573.03
579.124	13641.51
579.485	13648.29
579.845	13652.58
580.206	13583.43
580.566	13634.5
580.927	13629.3
581.287	13646.25
581.648	13636.53
582.008	13752.92
582.368	13646.25
582.728	13600.38
583.089	13605.57
583.449	13627.27
583.809	13632.69
584.169	13606.7
584.529	13601.51
584.889	13672.01
585.249	13558.34
585.609	13514.73
585.969	13588.4
586.329	13521.51
586.688	13574.84
587.048	13516.99
587.408	13482.87
587.768	13524.45
588.127	13376.88
588.487	13451.45
588.846	13578.91
589.206	13367.61
589.565	13448.74
589.925	13498.01
590.284	13401.06
590.643	13509.53
591.003	13521.73
591.362	13482.41
591.721	13459.59
592.08	13443.77
592.44	13484.22
592.799	13441.74
593.158	13335.98
593.517	13475.18
593.876	13421.4
594.235	13315.86
594.593	13352.25
594.952	13407.39
595.311	13264.79
595.67	13304.11
596.029	13467.95
596.387	13343.89
596.746	13445.13
597.104	13394.05
597.463	13363.55
597.822	13349.54
598.18	13309.31
598.538	13278.8
598.897	13404.45
599.255	13279.48
599.613	13442.87
599.972	13298.69
600.33	13436.77
600.688	13400.83
601.046	13378.24
601.404	13372.59
601.762	13390.66
602.12	13433.38
602.478	13432.25
602.836	13386.15
603.194	13314.73
603.552	13322.19
603.91	13348.18
604.268	13316.09
604.625	13324.68
604.983	13411.23
605.341	13275.19
605.698	13373.26
606.056	13460.95
606.413	13335.3
606.771	13399.03
607.128	13440.83
607.485	13355.86
607.843	13333.72
608.2	13386.15
608.557	13472.47
608.914	13466.6
609.272	13481.06
609.629	13480.83
609.986	13496.42
610.343	13439.93
610.7	13421.4
611.057	13502.98
611.414	13433.38
611.771	13529.42
612.127	13497.78
612.484	13474.5
612.841	13591.11
613.198	13520.6
613.554	13553.6
613.911	13631.11
614.267	13676.76
614.624	13589.08
614.98	13587.04
615.337	13648.96
615.693	13607.38
616.05	13569.19
616.406	13691.22
616.762	13675.86
617.118	13646.03
617.475	13673.37
617.831	13672.69
618.187	13735.06
618.543	13759.24
618.899	13772.35
619.255	13750.2
619.611	13773.03
619.967	13767.83
620.323	13845.34
620.678	13813.48
621.034	13740.71
621.39	13707.49
621.746	13749.75
622.101	13907.49
622.457	13816.64
622.812	13774.61
623.168	13884.89
623.523	13839.69
623.879	13860.03
624.234	13708.62
624.589	13818
624.945	13789.75
625.3	13853.25
625.655	13878.34
626.01	13774.84
626.365	13857.55
626.72	13807.6
627.075	13789.07
627.43	13704.1
627.785	13698.45
628.14	13738.9
628.495	13707.72
628.85	13793.82
629.205	13674.5
629.559	13797.43
629.914	13688.96
630.269	13747.94
630.623	13651.45
630.978	13678.57
631.332	13683.54
631.687	13693.48
632.041	13584.56
632.396	13706.14
632.75	13540.04
633.104	13627.95
633.459	13628.17
633.813	13584.56
634.167	13593.37
634.521	13590.21
634.875	13552.24
635.229	13614.61
635.583	13474.5
635.937	13518.12
636.291	13496.42
636.645	13547.95
636.999	13402.19
637.352	13532.36
637.706	13343.66
638.06	13427.05
638.413	13468.85
638.767	13354.06
639.121	13422.08
639.474	13280.39
639.828	13271.8
640.181	13313.38
640.534	13370.55
640.888	13298.92
641.241	13170.78
641.594	13244
641.947	13268.86
642.301	13266.83
642.654	13316.77
643.007	13317.9
643.36	13202.2
643.713	13258.92
644.066	13244.45
644.419	13180.73
644.771	13128.3
645.124	13025.7
645.477	12973.05
645.83	12846.05
646.182	12896.44
646.535	12755.65
646.888	12841.07
647.24	12705.03
647.593	12863.67
647.945	12824.13
648.298	12770.34
648.65	12638.59
649.002	12674.07
649.355	12764.24
649.707	12759.04
650.059	12757.24
650.411	12965.37
650.763	12895.08
651.115	13105.02
651.467	12992.94
651.819	13009.43
652.171	13042.88
652.523	12920.17
652.875	13031.8
653.227	12951.13
653.578	13004.46
653.93	13020.51
654.282	12925.14
654.633	12965.37
654.985	13004.91
655.337	13053.5
655.688	12962.43
656.039	13075.42
656.391	13000.62
656.742	13001.07
657.094	13009.43
657.445	13085.36
657.796	13050.33
658.147	13116.77
658.498	13055.76
658.849	13074.51
659.2	13057.11
659.551	13016.44
659.902	13118.81
660.253	13084.23
660.604	13036.1
660.955	13031.35
661.306	13126.04
661.656	13080.16
662.007	13089.43
662.358	13084.46
662.708	13035.65
663.059	13103.21
663.409	13039.26
663.76	13104.57
664.11	13117.68
664.461	13115.19
664.811	13146.15
665.161	13071.8
665.511	13024.57
665.862	13156.32
666.212	13156.32
666.562	13092.14
666.912	13116.32
667.262	13127.62
667.612	13174.17
667.962	13095.53
668.312	13142.31
668.662	13208.75
669.011	13059.15
669.361	13097.11
669.711	13139.15
670.06	13056.21
670.41	13022.54
670.76	13092.14
671.109	13100.95
671.459	12988.19
671.808	12950.45
672.157	13122.2
672.507	13020.96
672.856	12971.92
673.205	13014.4
673.554	13077.23
673.904	12943.22
674.253	13060.05
674.602	12933.95
674.951	12804.24
675.3	12754.07
675.649	12929.66
675.998	12928.98
676.346	12929.43
676.695	12922.65
677.044	12849.21
677.393	12824.35
677.741	12869.77
678.09	12882.66
678.438	12791.36
678.787	12846.5
679.135	12810.79
679.484	12712.49
679.832	12711.81
680.181	12744.58
680.529	12769.89
680.877	12810.12
681.225	12735.09
681.573	12854.41
681.922	12658.03
682.27	12682.89
682.618	12545.72
682.966	12628.65
683.314	12626.62
683.661	12576.67
684.009	12541.42
684.357	12422.78
684.705	12439.5
685.053	12445.38
685.4	12481.76
685.748	12333.07
686.095	12418.94
686.443	12353.63
686.79	12321.31
687.138	12299.39
687.485	12376
687.832	12182.34
688.18	12223.69
688.527	12133.52
688.874	12127.87
689.221	12164.03
689.568	12084.26
689.915	12060.3
690.262	11959.29
690.609	11988.67
690.956	11960.42
691.303	11952.28
691.65	11933.98
691.997	11818.73
692.344	11782.8
692.69	11769.24
693.037	11800.88
693.383	11649.92
693.73	11660.31
694.077	11552.75
694.423	11529.47
694.769	11511.62
695.116	11545.06
695.462	11439.3
695.808	11416.71
696.155	11493.99
696.501	11291.51
696.847	11420.55
697.193	11249.25
697.539	11333.09
697.885	11157.5
698.231	11152.31
698.577	11147.56
698.923	11110.27
699.269	11076.15
699.614	10990.95
699.96	10973.1
700.306	11043.83
700.651	10947.11
700.997	10894.01
701.342	10842.03
701.688	10787.34
702.033	10768.13
702.379	10767.01
702.724	10611.08
703.069	10670.51
703.415	10607.91
703.76	10532.89
704.105	10566.33
704.45	10562.04
704.795	10418.77
705.14	10462.83
705.485	10375.15
705.83	10373.12
706.175	10301.25
706.52	10317.07
706.865	10293.57
707.209	10315.72
707.554	10255.61
707.899	10259.67
708.243	10140.58
708.588	10141.03
708.932	10065.33
709.277	10085.67
709.621	10088.38
709.966	10003.64
710.31	10021.26
710.654	9972.45
710.998	9941.26
711.342	9941.26
711.687	9947.37
712.031	9915.73
712.375	9822.17
712.719	9799.8
713.063	9852.9
713.407	9826.01
713.75	9734.94
714.094	9798.67
714.438	9775.39
714.782	9731.55
715.125	9666.02
715.469	9764.09
715.812	9645
716.156	9590.76
716.499	9607.26
716.843	9705.56
717.186	9543.31
717.53	9619.69
717.873	9582.18
718.216	9576.3
718.559	9487.04
718.902	9501.95
719.246	9474.61
719.589	9444.33
719.932	9465.57
720.275	9425.35
720.617	9449.07
720.96	9467.83
721.303	9425.35
721.646	9446.36
721.989	9323.43
722.331	9381.5
722.674	9318.23
723.016	9375.86
723.359	9314.16
723.701	9365.23
724.044	9305.8
724.386	9277.78
724.729	9285.01
725.071	9306.48
725.413	9294.05
725.755	9322.52
726.097	9229.64
726.439	9160.95
726.782	9234.39
727.124	9306.48
727.465	9211.11
727.807	9242.98
728.149	9160.49
728.491	9172.47
728.833	9233.03
729.175	9216.76
729.516	9206.14
729.858	9139.48
730.199	9168.18
730.541	9201.85
730.882	9192.81
731.224	9216.31
731.565	9120.04
731.906	9144.67
732.248	9200.27
732.589	9147.84
732.93	9103.32
733.271	9153.49
733.612	9172.02
733.953	9094.05
734.294	9078.46
734.635	9108.29
734.976	9172.92
735.317	9119.14
735.658	9158.46
735.999	9138.35
736.339	9062.19
736.68	9097.67
737.021	9133.83
737.361	9139.93
737.702	9112.13
738.042	9142.87
738.383	9101.06
738.723	9142.41
739.063	9194.62
739.404	9254.05
739.744	9213.37
740.084	9241.85
740.424	9176.76
740.764	9259.02
741.104	9263.99
741.444	9223.32
741.784	9211.34
742.124	9261.51
742.464	9277.55
742.804	9301.28
743.143	9275.97
743.483	9377.44
743.823	9329.3
744.162	9327.72
744.502	9452.24
744.841	9395.29
745.181	9499.24
745.52	9523.2
745.86	9505.57
746.199	9561.16
746.538	9529.75
746.877	9643.64
747.216	9654.27
747.556	9742.63
747.895	9787.6
748.234	9769.52
748.573	9810.65
748.911	9830.53
749.25	9931.09
749.589	9955.95
749.928	10040.7
750.267	10187.13
750.605	10216.06
750.944	10267.58
751.283	10342.16
751.621	10453.57
751.96	10482.04
752.298	10562.72
752.636	10682.26
752.975	10769.72
753.313	10850.62
753.651	11030.5
753.989	10978.75
754.327	11150.05
754.666	11175.58
755.004	11469.36
755.342	11439.76
755.679	11642.46
756.017	11759.3
756.355	11900.08
756.693	11998.39
757.031	12140.75
757.368	12227.76
757.706	12383.91
758.044	12499.16
758.381	12624.13
