Data from hue_90_FLMS001491_75.txt Node
Date: Mon Feb 06 15:25:38 GMT 2017
User: dcchb
Spectrometer: FLMS00149
Trigger mode: 0
Integration Time (sec): 2.000000E-2
Scans to average: 10
Electric dark correction enabled: true
Nonlinearity correction enabled: false
Boxcar width: 0
XAxis mode: Wavelengths
Number of Pixels in Spectrum: 2048
>>>>>Begin Spectral Data<<<<<
341.393	-13.11
341.776	-13.11
342.16	-13.11
342.543	-52.88
342.927	-52.43
343.31	-52.65
343.693	-50.85
344.077	-55.59
344.46	-79.09
344.843	-56.27
345.226	-50.85
345.61	-29.38
345.993	-34.35
346.376	3.39
346.759	7.91
347.142	23.73
347.525	40
347.908	57.63
348.291	87.91
348.674	88.81
349.057	99.66
349.44	123.84
349.823	146.89
350.206	159.77
350.588	201.35
350.971	204.51
351.354	215.81
351.737	230.5
352.119	231.41
352.502	265.53
352.884	274.8
353.267	276.38
353.65	295.13
354.032	271.41
354.414	310.05
354.797	322.93
355.179	334.45
355.562	305.08
355.944	320.22
356.326	323.83
356.709	343.27
357.091	354.57
357.473	331.06
357.855	344.85
358.238	340.33
358.62	347.34
359.002	348.01
359.384	347.11
359.766	334.68
360.148	342.59
360.53	336.26
360.912	329.26
361.294	342.36
361.676	335.81
362.057	371.06
362.439	319.54
362.821	328.13
363.203	340.78
363.584	328.58
363.966	322.93
364.348	331.06
364.729	317.73
365.111	315.92
365.493	318.86
365.874	323.83
366.256	303.27
366.637	315.47
367.019	317.96
367.4	334.23
367.781	326.09
368.163	304.4
368.544	305.75
368.925	307.56
369.306	320.67
369.688	308.69
370.069	307.56
370.45	314.12
370.831	305.53
371.212	322.48
371.593	312.53
371.974	308.01
372.355	297.85
372.736	342.59
373.117	309.37
373.498	318.18
373.879	311.63
374.26	322.25
374.641	335.58
375.021	314.57
375.402	325.64
375.783	319.99
376.163	326.77
376.544	320.67
376.925	329.71
377.305	313.89
377.686	320.67
378.066	334
378.447	330.16
378.827	317.73
379.208	322.03
379.588	317.05
379.968	345.3
380.349	343.04
380.729	324.96
381.109	334.91
381.489	339.65
381.87	339.2
382.25	341.69
382.63	314.57
383.01	350.73
383.39	332.65
383.77	356.15
384.15	343.49
384.53	374
384.91	360.44
385.29	354.34
385.67	350.27
386.049	351.86
386.429	335.81
386.809	360.89
387.189	357.05
387.568	352.99
387.948	359.54
388.328	369.93
388.707	374.68
389.087	361.12
389.466	347.79
389.846	364.74
390.225	363.83
390.605	350.95
390.984	372.42
391.363	382.36
391.743	365.87
392.122	354.57
392.501	362.25
392.881	369.26
393.26	359.31
393.639	382.59
394.018	381.01
394.397	391.63
394.776	376.26
395.155	374.23
395.534	384.62
395.913	385.75
396.292	381.23
396.671	383.27
397.05	379.88
397.429	380.55
397.808	407.45
398.186	386.66
398.565	379.43
398.944	387.11
399.323	408.35
399.701	391.63
400.08	390.72
400.458	404.06
400.837	409.48
401.215	401.35
401.594	387.33
401.972	409.71
402.351	401.57
402.729	408.12
403.107	416.49
403.486	411.06
403.864	418.97
404.242	425.07
404.62	418.97
404.999	412.87
405.377	423.72
405.755	405.41
406.133	422.59
406.511	419.2
406.889	428.92
407.267	439.99
407.645	413.77
408.023	431.4
408.401	442.7
408.779	447.9
409.156	444.28
409.534	444.73
409.912	444.06
410.29	454.68
410.667	432.98
411.045	454.45
411.422	477.95
411.8	451.74
412.178	474.34
412.555	492.87
412.933	479.99
413.31	470.95
413.687	480.67
414.065	484.28
414.442	481.8
414.819	494.22
415.197	473.89
415.574	503.94
415.951	512.3
416.328	470.95
416.705	495.13
417.082	507.56
417.46	508.91
417.837	522.47
418.214	517.05
418.591	540.32
418.967	508.24
419.344	507.33
419.721	514.79
420.098	522.02
420.475	526.31
420.852	538.97
421.228	547.78
421.605	528.35
421.982	550.72
422.358	547.33
422.735	543.94
423.111	535.35
423.488	556.6
423.864	545.75
424.241	534.45
424.617	545.97
424.994	565.86
425.37	559.99
425.746	571.51
426.123	560.44
426.499	594.56
426.875	592.07
427.251	599.76
427.627	587.1
428.003	568.12
428.379	605.18
428.756	596.82
429.132	602.02
429.507	627.55
429.883	620.55
430.259	605.41
430.635	637.05
431.011	633.2
431.387	628.46
431.763	667.55
432.138	634.33
432.514	655.58
432.89	626.42
433.265	660.32
433.641	661.23
434.016	663.94
434.392	682.69
434.767	691.06
435.143	674.33
435.518	712.07
435.894	707.78
436.269	704.84
436.644	723.82
437.02	750.26
437.395	731.51
437.77	729.47
438.145	716.82
438.52	741.68
438.895	749.13
439.271	763.6
439.646	756.36
440.021	776.93
440.395	774.67
440.77	795.69
441.145	781.67
441.52	796.36
441.895	784.61
442.27	773.99
442.645	792.75
443.019	791.62
443.394	774.44
443.769	800.2
444.143	816.93
444.518	823.03
444.892	829.13
445.267	837.27
445.641	852.63
446.016	841.11
446.39	839.07
446.764	848.79
447.139	840.66
447.513	866.42
447.887	870.94
448.262	852.41
448.636	878.17
449.01	850.37
449.384	873.2
449.758	882.01
450.132	898.96
450.506	896.02
450.88	914.55
451.254	928.34
451.628	932.63
452.002	922.46
452.376	949.81
452.75	954.55
453.123	963.36
453.497	965.17
453.871	954.1
454.244	999.3
454.618	980.99
454.992	1014.66
455.365	1019.86
455.739	1003.82
456.112	1026.64
456.486	1056.47
456.859	1058.28
457.232	1065.73
457.606	1064.15
457.979	1076.58
458.352	1121.33
458.725	1119.07
459.099	1126.98
459.472	1159.97
459.845	1164.94
460.218	1183.25
460.591	1201.78
460.964	1196.8
461.337	1200.42
461.71	1216.92
462.083	1252.62
462.456	1272.28
462.829	1243.58
463.201	1274.77
463.574	1289.01
463.947	1290.81
464.32	1339.17
464.692	1320.42
465.065	1328.33
465.438	1360.42
465.81	1362.45
466.183	1406.52
466.555	1442.9
466.928	1466.63
467.3	1459.85
467.672	1469.34
468.045	1487.42
468.417	1511.37
468.789	1546.17
469.161	1584.14
469.534	1604.25
469.906	1640.18
470.278	1627.98
470.65	1705.04
471.022	1743.01
471.394	1735.77
471.766	1779.16
472.138	1764.93
472.51	1821.87
472.882	1900.52
473.253	1922.89
473.625	1961.3
473.997	1987.97
474.369	2031.81
474.74	2042.88
475.112	2117.01
475.484	2160.62
475.855	2205.14
476.227	2242.43
476.598	2265.48
476.97	2349.99
477.341	2408.75
477.713	2511.57
478.084	2521.74
478.455	2615.3
478.827	2658.69
479.198	2716.76
479.569	2782.3
479.94	2863.88
480.311	2911.56
480.682	2993.37
481.053	3114.95
481.424	3208.5
481.795	3242.85
482.166	3328.27
482.537	3414.37
482.908	3530.3
483.279	3577.76
483.65	3713.57
484.021	3803.97
484.391	3905.89
484.762	3954.47
485.133	4048.26
485.503	4174.13
485.874	4268.81
486.244	4355.82
486.615	4489.15
486.985	4566.66
487.356	4726.66
487.726	4777.28
488.097	4933.43
488.467	5039.64
488.837	5163.48
489.207	5310.59
489.578	5396.69
489.948	5505.62
490.318	5642.11
490.688	5746.29
491.058	5859.51
491.428	5984.7
491.798	6115.32
492.168	6289.1
492.538	6379.72
492.908	6530.22
493.278	6659.71
493.648	6722.54
494.017	6851.35
494.387	6936.31
494.757	7037.78
495.126	7190.55
495.496	7275.29
495.866	7367.94
496.235	7496.75
496.605	7485.45
496.974	7693.36
497.344	7838.44
497.713	7900.58
498.082	7953.01
498.452	8160.69
498.821	8267.35
499.19	8255.38
499.559	8457.4
499.928	8515.03
500.298	8616.72
500.667	8775.59
501.036	8794.57
501.405	8919.77
501.774	8948.92
502.143	9064.17
502.512	9086.09
502.88	9254.9
503.249	9324.5
503.618	9341
503.987	9413.09
504.356	9537.38
504.724	9623.48
505.093	9654.21
505.462	9699.86
505.83	9820.76
506.199	9922.9
506.567	9957.93
506.936	10062.11
507.304	10096.68
507.672	10161.99
508.041	10234.99
508.409	10304.81
508.777	10413.06
509.145	10465.71
509.514	10440.4
509.882	10578.25
510.25	10600.85
510.618	10682.88
510.986	10781.86
511.354	10860.05
511.722	10885.82
512.09	10976.21
512.458	11002.42
512.826	11018.69
513.193	11041.97
513.561	11063.66
513.929	11192.47
514.297	11288.29
514.664	11346.37
515.032	11331.45
515.4	11392.69
515.767	11456.87
516.135	11439.25
516.502	11382.3
516.869	11640.37
517.237	11569.41
517.604	11549.75
517.972	11667.49
518.339	11688.05
518.706	11687.38
519.073	11679.69
519.44	11814.38
519.808	11782.97
520.175	11792.46
520.542	11911.78
520.909	11981.83
521.276	12001.94
521.643	12062.96
522.009	12028.61
522.376	12087.59
522.743	12174.14
523.11	12210.75
523.477	12280.13
523.843	12286.68
524.21	12371.2
524.577	12369.62
524.943	12428.37
525.31	12495.72
525.676	12534.36
526.043	12528.26
526.409	12574.58
526.776	12593.57
527.142	12665.2
527.508	12677.63
527.874	12739.55
528.241	12707.46
528.607	12657.29
528.973	12833.33
529.339	12741.36
529.705	12832.2
530.071	12879.21
530.437	12864.75
530.803	12795.37
531.169	12906.1
531.535	12878.53
531.901	12820.23
532.267	12832.43
532.632	12902.49
532.998	12931.64
533.364	12830.85
533.73	12848.02
534.095	12918.76
534.461	12885.08
534.826	12923.28
535.192	12944.97
535.557	12901.58
535.923	12884.41
536.288	12823.17
536.653	12852.77
537.019	12872.43
537.384	12788.59
537.749	12832.43
538.114	12750.4
538.479	12688.71
538.845	12772.55
539.21	12693
539.575	12741.36
539.94	12775.94
540.305	12736.16
540.67	12653.9
541.034	12678.99
541.399	12698.42
541.764	12626.56
542.129	12616.17
542.494	12643.51
542.858	12573.68
543.223	12510.63
543.587	12558.77
543.952	12491.65
544.316	12501.37
544.681	12411.2
545.045	12502.72
545.41	12436.28
545.774	12364.65
546.138	12328.04
546.503	12347.47
546.867	12368.04
547.231	12353.35
547.595	12321.03
547.959	12371.65
548.324	12157.42
548.688	12183.63
549.052	12284.87
549.416	12168.27
549.779	12212.56
550.143	12135.95
550.507	12202.17
550.871	12156.74
551.235	12055.28
551.599	12069.74
551.962	12142.05
552.326	12044.88
552.689	12132.11
553.053	11982.06
553.417	12046.01
553.78	12123.3
554.143	11994.26
554.507	12040.36
554.87	12020.93
555.234	12088.04
555.597	11963.53
555.96	11945.67
556.323	11988.84
556.686	12034.26
557.05	11871.55
557.413	11905.9
557.776	11952
558.139	11959.46
558.502	11912.68
558.865	11938.67
559.228	11929.18
559.59	11854.38
559.953	11956.3
560.316	11969.63
560.679	11952.45
561.041	11999.01
561.404	12006.92
561.767	11958.1
562.129	12015.28
562.492	12186.8
562.854	12039.91
563.217	11984.32
563.579	11994.94
563.941	12043.07
564.304	11985.67
564.666	12188.61
565.028	12124.2
565.39	12091.89
565.753	12131.88
566.115	12092.79
566.477	12152.22
566.839	12189.96
567.201	12214.59
567.563	12114.26
567.925	12194.26
568.287	12225.67
568.648	12213.24
569.01	12199
569.372	12278.1
569.734	12241.94
570.095	12335.72
570.457	12361.03
570.819	12390.86
571.18	12335.04
571.542	12414.14
571.903	12399.9
572.265	12375.49
572.626	12380.69
572.987	12380.24
573.349	12458.66
573.71	12512.67
574.071	12378.43
574.432	12509.5
574.794	12506.34
575.155	12451.65
575.516	12446
575.877	12554.25
576.238	12467.02
576.599	12548.6
576.96	12528.94
577.32	12561.7
577.681	12567.35
578.042	12516.28
578.403	12639.22
578.763	12605.32
579.124	12557.41
579.485	12658.2
579.845	12627.24
580.206	12536.62
580.566	12522.38
580.927	12589.95
581.287	12515.6
581.648	12531.42
582.008	12649.38
582.368	12508.15
582.728	12565.32
583.089	12512.44
583.449	12564.19
583.809	12589.73
584.169	12559.44
584.529	12552.66
584.889	12654.36
585.249	12572.32
585.609	12565.09
585.969	12613.23
586.329	12517.19
586.688	12533.68
587.048	12555.83
587.408	12478.99
587.768	12503.17
588.127	12444.64
588.487	12495.49
588.846	12525.77
589.206	12343.18
589.565	12462.27
589.925	12517.19
590.284	12438.54
590.643	12448.71
591.003	12446
591.362	12482.61
591.721	12471.76
592.08	12440.12
592.44	12457.53
592.799	12409.39
593.158	12415.49
593.517	12431.31
593.876	12430.18
594.235	12355.16
594.593	12401.93
594.952	12409.84
595.311	12343.18
595.67	12324.2
596.029	12450.52
596.387	12431.31
596.746	12491.65
597.104	12434.02
597.463	12310.18
597.822	12359.68
598.18	12345.21
598.538	12282.39
598.897	12361.71
599.255	12288.94
599.613	12419.33
599.972	12304.99
600.33	12408.26
600.688	12321.26
601.046	12331.43
601.404	12436.06
601.762	12363.74
602.12	12402.84
602.478	12419.79
602.836	12360.58
603.194	12349.96
603.552	12348.38
603.91	12286.46
604.268	12319.45
604.625	12229.28
604.983	12404.65
605.341	12318.09
605.698	12306.34
606.056	12348.15
606.413	12362.16
606.771	12302.95
607.128	12420.46
607.485	12269.73
607.843	12262.73
608.2	12424.76
608.557	12405.32
608.914	12398.77
609.272	12371.65
609.629	12425.21
609.986	12513.34
610.343	12413.91
610.7	12582.04
611.057	12492.55
611.414	12543.17
611.771	12468.6
612.127	12620.23
612.484	12536.17
612.841	12599.44
613.198	12527.35
613.554	12542.5
613.911	12564.87
614.267	12540.69
614.624	12561.93
614.98	12545.88
615.337	12634.7
615.693	12580.69
616.05	12667.24
616.406	12528.26
616.762	12615.94
617.118	12633.34
617.475	12603.28
617.831	12673.57
618.187	12595.38
618.543	12706.33
618.899	12658.88
619.255	12658.42
619.611	12704.52
619.967	12808.7
620.323	12763.05
620.678	12675.37
621.034	12620.23
621.39	12674.24
621.746	12673.11
622.101	12847.12
622.457	12732.55
622.812	12809.38
623.168	12685.09
623.523	12769.83
623.879	12770.74
624.234	12697.52
624.589	12735.26
624.945	12793.56
625.3	12778.65
625.655	12765.77
626.01	12787.69
626.365	12739.33
626.72	12646.9
627.075	12731.42
627.43	12727.12
627.785	12644.19
628.14	12724.64
628.495	12678.99
628.85	12701.36
629.205	12642.38
629.559	12690.97
629.914	12697.29
630.269	12586.11
630.623	12611.19
630.978	12651.87
631.332	12649.16
631.687	12648.26
632.041	12685.77
632.396	12677.63
632.75	12553.79
633.104	12553.79
633.459	12533.46
633.813	12490.75
634.167	12550.4
634.521	12499.33
634.875	12520.8
635.229	12458.66
635.583	12408.49
635.937	12430.18
636.291	12424.98
636.645	12420.01
636.999	12363.29
637.352	12434.93
637.706	12325.33
638.06	12378.43
638.413	12400.58
638.767	12292.11
639.121	12310.18
639.474	12287.36
639.828	12285.1
640.181	12328.49
640.534	12295.95
640.888	12296.85
641.241	12200.58
641.594	12215.72
641.947	12304.76
642.301	12184.54
642.654	12260.02
643.007	12202.39
643.36	12229.06
643.713	12147.03
644.066	12231.99
644.419	12081.49
644.771	12116.07
645.124	11975.5
645.477	11905.22
645.83	11890.76
646.182	11783.42
646.535	11832.91
646.888	11812.8
647.24	11761.95
647.593	11806.7
647.945	11730.77
648.298	11724.66
648.65	11707.04
649.002	11666.81
649.355	11746.13
649.707	11797.2
650.059	11790.88
650.411	11963.3
650.763	11932.79
651.115	12061.6
651.467	11975.5
651.819	11968.05
652.171	11972.57
652.523	11940.48
652.875	12019.57
653.227	11908.16
653.578	11983.41
653.93	11991.78
654.282	11958.78
654.633	11928.27
654.985	12000.14
655.337	11967.82
655.688	12000.14
656.039	11999.68
656.391	11964.88
656.742	11928.27
657.094	11961.72
657.445	12000.59
657.796	11998.33
658.147	11943.19
658.498	12002.17
658.849	12023.86
659.2	12012.11
659.551	11976.41
659.902	11961.49
660.253	11995.62
660.604	12027.48
660.955	11985.67
661.306	11988.16
661.656	11939.57
662.007	11999.91
662.358	12095.73
662.708	12006.46
663.059	11958.33
663.409	11943.41
663.76	12010.31
664.11	11999.68
664.461	12011.66
664.811	12024.32
665.161	12030.19
665.511	12016.63
665.862	12091.21
666.212	12083.3
666.562	12016.41
666.912	12043.53
667.262	12067.25
667.612	11968.27
667.962	12100.92
668.312	11966.92
668.662	11968.95
669.011	11964.88
669.361	11982.51
669.711	12006.92
670.06	11921.72
670.41	11866.13
670.76	11924.43
671.109	11968.27
671.459	11978.89
671.808	11930.08
672.157	11990.42
672.507	11853.02
672.856	11899.8
673.205	11882.4
673.554	11944.77
673.904	11850.08
674.253	11971.66
674.602	11872.68
674.951	11722.18
675.3	11669.3
675.649	11842.63
675.998	11853.02
676.346	11813.02
676.695	11834.49
677.044	11728.05
677.393	11826.36
677.741	11724.44
678.09	11791.33
678.438	11763.76
678.787	11683.53
679.135	11700.48
679.484	11654.38
679.832	11724.66
680.181	11662.07
680.529	11641.05
680.877	11665.91
681.225	11660.94
681.573	11651.45
681.922	11604.21
682.27	11534.16
682.618	11533.93
682.966	11536.65
683.314	11519.7
683.661	11515.63
684.009	11521.73
684.357	11458
684.705	11466.37
685.053	11350.66
685.4	11411.23
685.748	11373.49
686.095	11342.53
686.443	11384.56
686.79	11234.73
687.138	11232.02
687.485	11241.06
687.832	11243.77
688.18	11187.95
688.527	11103.21
688.874	11121.52
689.221	11162.87
689.568	11048.3
689.915	11024.34
690.262	11028.18
690.609	10972.82
690.956	10882.65
691.303	10940.73
691.65	10899.37
691.997	10870.67
692.344	10818.47
692.69	10802.43
693.037	10843.56
693.383	10636.56
693.73	10715.42
694.077	10680.17
694.423	10682.88
694.769	10640.17
695.116	10573.28
695.462	10481.76
695.808	10545.71
696.155	10495.32
696.501	10420.06
696.847	10467.07
697.193	10342.33
697.539	10299.16
697.885	10318.6
698.231	10234.53
698.577	10216.68
698.923	10191.37
699.269	10125.38
699.614	10073.41
699.96	10046.29
700.306	10109.56
700.651	9962
700.997	9985.73
701.342	9898.5
701.688	9912.51
702.033	9818.95
702.379	9821.21
702.724	9766.52
703.069	9807.88
703.415	9698.95
703.76	9682.01
704.105	9702.34
704.45	9721.1
704.795	9590.26
705.14	9639.07
705.485	9573.53
705.83	9560.43
706.175	9546.42
706.52	9548.68
706.865	9470.94
707.209	9477.49
707.554	9449.92
707.899	9428.68
708.243	9307.78
708.588	9394.78
708.932	9270.94
709.277	9302.35
709.621	9216.25
709.966	9210.83
710.31	9204.96
710.654	9122.02
710.998	9178.06
711.342	9162.47
711.687	9102.13
712.031	9113.21
712.375	9069.37
712.719	9003.83
713.063	9009.93
713.407	9057.61
713.75	8987.56
714.094	9002.48
714.438	8901.69
714.782	8919.99
715.125	8905.98
715.469	8917.28
715.812	8891.07
716.156	8855.13
716.499	8840.22
716.843	8858.75
717.186	8823.04
717.53	8869.15
717.873	8867.11
718.216	8784.4
718.559	8759.54
718.902	8721.35
719.246	8745.31
719.589	8791.18
719.932	8682.48
720.275	8692.65
720.617	8581.92
720.96	8699.66
721.303	8654.01
721.646	8683.61
721.989	8597.06
722.331	8657.4
722.674	8608.59
723.016	8574.69
723.359	8622.82
723.701	8567.01
724.044	8565.65
724.386	8510.51
724.729	8567.23
725.071	8466.9
725.413	8499.21
725.755	8464.86
726.097	8528.14
726.439	8473
726.782	8319.33
727.124	8460.57
727.465	8470.51
727.807	8412.89
728.149	8447.91
728.491	8409.04
728.833	8435.48
729.175	8464.18
729.516	8405.43
729.858	8448.14
730.199	8403.62
730.541	8427.35
730.882	8354.13
731.224	8438.87
731.565	8419.44
731.906	8450.85
732.248	8471.19
732.589	8351.42
732.93	8348.93
733.271	8364.98
733.612	8431.42
733.953	8427.12
734.294	8342.15
734.635	8404.75
734.976	8393
735.317	8369.27
735.658	8360.68
735.999	8359.78
736.339	8337.18
736.68	8401.36
737.021	8319.56
737.361	8420.8
737.702	8400.01
738.042	8367.24
738.383	8405.88
738.723	8423.51
739.063	8384.86
739.404	8331.76
739.744	8444.52
740.084	8377.63
740.424	8416.05
740.764	8385.54
741.104	8444.75
741.444	8404.52
741.784	8459.44
742.124	8480
742.464	8466.67
742.804	8497.63
743.143	8513.67
743.483	8491.98
743.823	8524.75
744.162	8510.74
744.502	8593.9
744.841	8555.03
745.181	8616.5
745.52	8602.71
745.86	8560
746.199	8666.21
746.538	8681.13
746.877	8734.46
747.216	8793.44
747.556	8818.53
747.895	8912.31
748.234	8910.95
748.573	8847.22
748.911	8977.39
749.25	9060.55
749.589	9039.99
749.928	9065.07
750.267	9147.33
750.605	9296.48
750.944	9321.56
751.283	9307.55
751.621	9463.71
751.96	9470.03
752.298	9543.48
752.636	9635.68
752.975	9658.05
753.313	9747.77
753.651	9978.72
753.989	9945.5
754.327	10048.32
754.666	10109.56
755.004	10202.44
755.342	10291.71
755.679	10448.31
756.017	10430.46
756.355	10637.23
756.693	10684.69
757.031	10871.13
757.368	10952.71
757.706	11140.72
758.044	11182.08
758.381	11336.65
758.719	11455.97
759.056	11602.63
759.394	11652.12
759.731	11714.27
