Data from hue_32_FLMS001491_00084.txt Node
Date: Tue Feb 07 17:24:01 GMT 2017
User: dcchb
Spectrometer: FLMS00149
Trigger mode: 0
Integration Time (sec): 2.000000E-2
Scans to average: 10
Electric dark correction enabled: true
Nonlinearity correction enabled: false
Boxcar width: 0
XAxis mode: Wavelengths
Number of Pixels in Spectrum: 2048
>>>>>Begin Spectral Data<<<<<
341.393	-14.97
341.776	-14.97
342.16	-14.97
342.543	-48.64
342.927	-73.27
343.31	-71.92
343.693	-52.26
344.077	-57.68
344.46	-52.26
344.843	-75.08
345.226	-56.33
345.61	-6.61
345.993	-32.6
346.376	-9.77
346.759	20.73
347.142	37.23
347.525	56.44
347.908	29.32
348.291	83.78
348.674	82.65
349.057	104.35
349.44	108.87
349.823	127.62
350.206	191.58
350.588	226.6
350.971	225.93
351.354	250.78
351.737	258.69
352.119	244.68
352.502	267.06
352.884	291.46
353.267	305.92
353.65	290.78
354.032	308.86
354.414	312.48
354.797	338.24
355.179	336.21
355.562	307.73
355.944	341.18
356.326	333.27
356.709	337.34
357.091	342.31
357.473	335.98
357.855	338.47
358.238	348.86
358.62	353.15
359.002	333.95
359.384	337.11
359.766	352.25
360.148	342.31
360.53	345.25
360.912	341.86
361.294	347.05
361.676	350.22
362.057	356.54
362.439	342.53
362.821	336.21
363.203	343.21
363.584	332.14
363.966	309.54
364.348	314.06
364.729	334.85
365.111	318.13
365.493	341.63
365.874	323.32
366.256	315.42
366.637	339.37
367.019	319.71
367.4	324.68
367.781	352.7
368.163	326.04
368.544	310.44
368.925	318.35
369.306	345.92
369.688	324.45
370.069	308.41
370.45	308.64
370.831	303.89
371.212	321.07
371.593	310.44
371.974	351.8
372.355	326.04
372.736	305.47
373.117	327.39
373.498	335.08
373.879	333.27
374.26	316.77
374.641	323.32
375.021	311.12
375.402	318.81
375.783	327.62
376.163	347.5
376.544	342.76
376.925	323.55
377.305	337.34
377.686	338.69
378.066	341.4
378.447	348.63
378.827	338.47
379.208	331.69
379.588	341.4
379.968	346.38
380.349	334.17
380.729	343.66
381.109	354.51
381.489	352.7
381.87	354.96
382.25	357.45
382.63	355.64
383.01	364
383.39	360.84
383.77	362.87
384.15	352.93
384.53	339.37
384.91	334.17
385.29	353.61
385.67	366.94
386.049	358.13
386.429	362.87
386.809	361.29
387.189	334.4
387.568	380.5
387.948	373.94
388.328	377.33
388.707	391.8
389.087	359.93
389.466	363.1
389.846	370.33
390.225	378.46
390.605	394.06
390.984	367.84
391.363	383.44
391.743	384.57
392.122	373.49
392.501	368.75
392.881	389.99
393.26	379.59
393.639	388.18
394.018	402.87
394.397	381.63
394.776	405.81
395.155	415.75
395.534	392.7
395.913	382.53
396.292	397.9
396.671	381.18
397.05	389.76
397.429	394.28
397.808	399.03
398.186	410.78
398.565	389.31
398.944	397.67
399.323	406.26
399.701	403.32
400.08	420.05
400.458	413.49
400.837	418.01
401.215	403.32
401.594	422.53
401.972	427.73
402.351	435.19
402.729	421.63
403.107	422.76
403.486	431.12
403.864	438.35
404.242	436.54
404.62	434.28
404.999	432.47
405.377	428.63
405.755	429.54
406.133	434.28
406.511	426.15
406.889	438.12
407.267	464.79
407.645	456.2
408.023	444.9
408.401	452.81
408.779	470.67
409.156	441.06
409.534	458.91
409.912	453.94
410.29	474.51
410.667	464.56
411.045	498.69
411.422	488.29
411.8	489.65
412.178	487.84
412.555	486.26
412.933	504.56
413.31	491.46
413.687	477.22
414.065	502.08
414.442	509.53
414.819	499.37
415.197	506.82
415.574	496.65
415.951	506.6
416.328	506.37
416.705	521.06
417.082	521.29
417.46	529.2
417.837	519.7
418.214	526.71
418.591	527.16
418.967	531.91
419.344	551.12
419.721	570.32
420.098	520.16
420.475	542.08
420.852	550.89
421.228	540.27
421.605	562.41
421.982	561.96
422.358	563.09
422.735	555.18
423.111	542.53
423.488	573.49
423.864	567.16
424.241	574.17
424.617	573.71
424.994	580.49
425.37	597.44
425.746	604.22
426.123	572.36
426.499	592.7
426.875	608.29
427.251	615.29
427.627	597.22
428.003	618.68
428.379	614.84
428.756	634.28
429.132	630.21
429.507	635.41
429.883	628.4
430.259	652.58
430.635	653.03
431.011	650.55
431.387	676.76
431.763	666.82
432.138	696.87
432.514	704.33
432.89	688.29
433.265	695.07
433.641	712.69
434.016	714.5
434.392	698.91
434.767	731.68
435.143	723.77
435.518	721.96
435.894	736.87
436.269	750.43
436.644	749.98
437.02	765.8
437.395	738.46
437.77	776.87
438.145	764.9
438.52	782.3
438.895	765.8
439.271	775.29
439.646	783.2
440.021	783.2
440.395	802.63
440.77	785.23
441.145	821.16
441.52	828.17
441.895	806.25
442.27	844.89
442.645	824.78
443.019	819.13
443.394	841.05
443.769	857.1
444.143	832.46
444.518	851.22
444.892	825.01
445.267	863.42
445.641	877.21
446.016	860.03
446.39	873.37
446.764	851.67
447.139	859.58
447.513	894.61
447.887	877.43
448.262	897.1
448.636	897.55
449.01	899.35
449.384	919.47
449.758	928.28
450.132	912.46
450.506	926.47
450.88	921.5
451.254	927.83
451.628	954.49
452.002	944.55
452.376	956.75
452.75	962.63
453.123	957.43
453.497	986.13
453.871	1024.55
454.244	988.84
454.618	1055.51
454.992	1035.85
455.365	1037.43
455.739	1032.01
456.112	1040.59
456.486	1064.55
456.859	1050.76
457.232	1098.22
457.606	1080.59
457.979	1083.53
458.352	1093.93
458.725	1141.16
459.099	1128.73
459.472	1139.12
459.845	1154.49
460.218	1176.18
460.591	1189.29
460.964	1227.71
461.337	1193.13
461.71	1254.83
462.083	1232.68
462.456	1221.61
462.829	1215.28
463.201	1262.06
463.574	1265.9
463.947	1297.76
464.32	1297.99
464.692	1330.76
465.065	1337.76
465.438	1385.67
465.81	1433.13
466.183	1397.42
466.555	1411.43
466.928	1417.99
467.3	1456.4
467.672	1461.37
468.045	1486.01
468.417	1494.37
468.789	1512.9
469.161	1555.38
469.534	1562.84
469.906	1602.84
470.278	1624.99
470.65	1630.41
471.022	1636.96
471.394	1693.23
471.766	1712.67
472.138	1754.02
472.51	1791.08
472.882	1796.05
473.253	1839.9
473.625	1873.57
473.997	1913.57
474.369	1958.54
474.74	1984.75
475.112	1990.85
475.484	2059.1
475.855	2091.19
476.227	2140.45
476.598	2193.56
476.97	2216.16
477.341	2275.59
477.713	2326.66
478.084	2379.77
478.455	2454.34
478.827	2469.94
479.198	2539.09
479.569	2552.87
479.94	2627.9
480.311	2672.64
480.682	2734.33
481.053	2847.33
481.424	2902.69
481.795	2938.62
482.166	3032.41
482.537	3059.3
482.908	3140.88
483.279	3217.26
483.65	3282.57
484.021	3389.68
484.391	3428.78
484.762	3538.38
485.133	3584.03
485.503	3657.47
485.874	3784.25
486.244	3814.31
486.615	3885.04
486.985	3953.51
487.356	4070.34
487.726	4130.68
488.097	4262.43
488.467	4302.66
488.837	4430.56
489.207	4511.01
489.578	4600.73
489.948	4681.18
490.318	4741.06
490.688	4763.21
491.058	4955.75
491.428	5082.52
491.798	5088.4
492.168	5256.3
492.538	5250.65
492.908	5355.96
493.278	5509.63
493.648	5502.85
494.017	5652
494.387	5711.88
494.757	5752.56
495.126	5917.98
495.496	5946.45
495.866	5977.64
496.235	6121.82
496.605	6207.01
496.974	6214.47
497.344	6326.78
497.713	6370.4
498.082	6480.23
498.452	6521.58
498.821	6628.47
499.19	6670.05
499.559	6731.97
499.928	6838.63
500.298	6896.26
500.667	6945.98
501.036	6994.34
501.405	7069.14
501.774	7103.26
502.143	7219.41
502.512	7267.1
502.88	7297.83
503.249	7338.51
503.618	7438.17
503.987	7522.68
504.356	7529.46
504.724	7596.58
505.093	7680.87
505.462	7710.48
505.83	7788.67
506.199	7906.85
506.567	8027.53
506.936	7979.17
507.304	8084.48
507.672	8157.92
508.041	8185.27
508.409	8230.69
508.777	8303.91
509.145	8319.72
509.514	8364.92
509.882	8526.95
510.25	8474.07
510.618	8600.62
510.986	8583.22
511.354	8703.9
511.722	8777.57
512.09	8781.18
512.458	8797.45
512.826	8905.02
513.193	8908.41
513.561	8928.07
513.929	9077.9
514.297	9144.34
514.664	9177.1
515.032	9190.21
515.4	9289.42
515.767	9255.29
516.135	9375.74
516.502	9273.82
516.869	9478.34
517.237	9495.74
517.604	9451.67
517.972	9595.62
518.339	9578.9
518.706	9666.58
519.073	9749.74
519.44	9780.93
519.808	9884.43
520.175	9862.96
520.542	10001.71
520.909	10039.68
521.276	10006.46
521.643	10130.98
522.009	10183.63
522.376	10238.09
522.743	10239.9
523.11	10327.81
523.477	10460.91
523.843	10471.31
524.21	10560.12
524.577	10664.97
524.943	10690.28
525.31	10778.87
525.676	10868.81
526.043	10891.86
526.409	10956.72
526.776	11018.41
527.142	11052.99
527.508	11167.79
527.874	11239.65
528.241	11297.73
528.607	11334.79
528.973	11498.85
529.339	11438.29
529.705	11491.39
530.071	11575.23
530.437	11704.04
530.803	11666.3
531.169	11830.82
531.535	11719.18
531.901	11833.53
532.267	11845.73
532.632	11972.51
532.998	12020.87
533.364	12145.39
533.73	12115.11
534.095	12268.32
534.461	12230.58
534.826	12348.32
535.192	12394.19
535.557	12436.45
535.923	12418.6
536.288	12469.67
536.653	12611.14
537.019	12550.12
537.384	12592.83
537.749	12735.88
538.114	12748.31
538.479	12724.81
538.845	12847.29
539.21	12849.32
539.575	12886.38
539.94	12878.02
540.305	13009.09
540.67	13021.52
541.034	13089.32
541.399	13143.78
541.764	13177
542.129	13255.19
542.494	13362.3
542.858	13339.93
543.223	13447.73
543.587	13543.09
543.952	13468.06
544.316	13574.5
544.681	13484.79
545.045	13641.84
545.41	13729.75
545.774	13804.55
546.138	13752.8
546.503	13819.47
546.867	13873.48
547.231	14054.26
547.595	13985.56
547.959	14087.03
548.324	14096.3
548.688	14206.35
549.052	14181.27
549.416	14252.9
549.779	14323.86
550.143	14290.87
550.507	14376.06
550.871	14407.7
551.235	14402.95
551.599	14502.84
551.962	14638.65
552.326	14579.9
552.689	14740.12
553.053	14670.29
553.417	14664.42
553.78	14943.28
554.143	14706
554.507	14906.67
554.87	14952.32
555.234	15130.17
555.597	15092.43
555.96	15024.18
556.323	15175.36
556.686	15175.14
557.05	15246.55
557.413	15393.44
557.776	15352.99
558.139	15366.32
558.502	15422.81
558.865	15498.75
559.228	15525.19
559.59	15549.82
559.953	15616.93
560.316	15816.48
560.679	15677.05
561.041	15906.19
561.404	15872.75
561.767	16057.37
562.129	16068
562.492	16185.96
562.854	16173.76
563.217	16092.18
563.579	16206.75
563.941	16374.43
564.304	16397.03
564.666	16475.67
565.028	16557.47
565.39	16513.86
565.753	16573.52
566.115	16663.69
566.477	16665.95
566.839	16697.36
567.201	16862.78
567.563	16880.63
567.925	16985.26
568.287	17052.15
568.648	17042.21
569.01	17122.88
569.372	17263.22
569.734	17247.85
570.095	17357.91
570.457	17442.42
570.819	17511.35
571.18	17452.59
571.542	17684.22
571.903	17640.84
572.265	17798.35
572.626	17856.42
572.987	17863.65
573.349	18082.18
573.71	18074.95
574.071	18176.87
574.432	18191.56
574.794	18448.95
575.155	18493.92
575.516	18440.81
575.877	18657.31
576.238	18686.23
576.599	18843.74
576.96	18954.02
577.32	19003.96
577.681	19183.85
578.042	19408.47
578.403	19464.74
578.763	19520.56
579.124	19770.72
579.485	19872.19
579.845	20013.43
580.206	20185.4
580.566	20315.57
580.927	20486.41
581.287	20656.8
581.648	20748.78
582.008	21033.29
582.368	21116
582.728	21297.91
583.089	21495.88
583.449	21651.35
583.809	21791.23
584.169	22073.49
584.529	22114.62
584.889	22669.18
585.249	22699.69
585.609	22777.2
585.969	23239.11
586.329	23303.74
586.688	23578.31
587.048	23778.3
587.408	23916.6
587.768	24294.9
588.127	24360.88
588.487	24585.74
588.846	24986.41
589.206	25071.6
589.565	25205.61
589.925	25788.42
590.284	25824.12
590.643	26123.32
591.003	26412.36
591.362	26772.12
591.721	26850.31
592.08	27131.21
592.44	27528.03
592.799	27700.46
593.158	27911.07
593.517	28179.32
593.876	28570.27
594.235	28678.96
594.593	28966.41
594.952	29320.98
595.311	29350.36
595.67	29712.61
596.029	30122.32
596.387	30360.28
596.746	30711.68
597.104	30736.31
597.463	31033.25
597.822	31327.93
598.18	31546.46
598.538	31664.2
598.897	32103.05
599.255	31995.03
599.613	32709.59
599.972	32594.79
600.33	32887.21
600.688	32980.09
601.046	33392.51
601.404	33757.93
601.762	33925.38
602.12	34162.44
602.478	34417.12
602.836	34604.01
603.194	34544.12
603.552	34932.58
603.91	35152.69
604.268	35333.25
604.625	35413.25
604.983	35791.54
605.341	35801.26
605.698	36111.54
606.056	36333.9
606.413	36392.88
606.771	36826.77
607.128	36919.2
607.485	36970.04
607.843	37149.02
608.2	37396.7
608.557	37785.62
608.914	37681.44
609.272	37946.06
609.629	38153.52
609.986	38388.09
610.343	38338.82
610.7	38727.96
611.057	38814.29
611.414	38924.57
611.771	38983.55
612.127	39306.71
612.484	39434.84
612.841	39516.64
613.198	39573.59
613.554	39693.59
613.911	39989.17
614.267	40097.19
614.624	40194.59
614.98	40319.56
615.337	40474.13
615.693	40585.32
616.05	40689.95
616.406	41001.35
616.762	41020.11
617.118	41094.46
617.475	41176.04
617.831	41334.45
618.187	41511.39
618.543	41582.35
618.899	41709.81
619.255	41789.35
619.611	41846.07
619.967	42030.93
620.323	42292.39
620.678	42272.28
621.034	42020.99
621.39	42150.7
621.746	42315.22
622.101	42779.84
622.457	42516.79
622.812	42569.9
623.168	42734.87
623.523	42687.18
623.879	42947.51
624.234	42863.9
624.589	42952.26
624.945	43152.48
625.3	43062.77
625.655	43153.61
626.01	43240.84
626.365	43234.74
626.72	43265.7
627.075	43224.34
627.43	43295.98
627.785	43120.62
628.14	43538.01
628.495	43420.04
628.85	43437.67
629.205	43447.39
629.559	43567.39
629.914	43420.5
630.269	43634.73
630.623	43430.67
630.978	43531
631.332	43651.45
631.687	43749.3
632.041	43667.5
632.396	43771
632.75	43596.99
633.104	43594.5
633.459	43471.79
633.813	43680.15
634.167	43534.17
634.521	43508.18
634.875	43612.36
635.229	43684.22
635.583	43431.34
635.937	43519.93
636.291	43275.19
636.645	43479.93
636.999	43292.82
637.352	43475.18
637.706	43297.56
638.06	43517.44
638.413	43335.3
638.767	43243.55
639.121	43392.02
639.474	43269.54
639.828	43216.66
640.181	43249.88
640.534	43349.54
640.888	43181.18
641.241	43084.69
641.594	43221.18
641.947	43368.75
642.301	43151.35
642.654	43306.15
643.007	43286.71
643.36	43200.84
643.713	43124.23
644.066	43318.35
644.419	43096.21
644.771	42930.79
645.124	42574.64
645.477	42479.28
645.83	42239.96
646.182	42034.09
646.535	41926.07
646.888	42016.92
647.24	41768.79
647.593	42038.16
647.945	42004.26
648.298	41802.46
648.65	41698.28
649.002	41579.42
649.355	41800.2
649.707	41820.99
650.059	41942.34
650.411	42314.99
650.763	42454.87
651.115	42884.24
651.467	42754.07
651.819	42609.22
652.171	42593.17
652.523	42489.45
652.875	42476.11
653.227	42315.44
653.578	42697.58
653.93	42526.06
654.282	42404.93
654.633	42340.53
654.985	42438.38
655.337	42343.46
655.688	42394.54
656.039	42613.06
656.391	42320.41
656.742	42426.62
657.094	42332.16
657.445	42480.63
657.796	42368.77
658.147	42333.07
658.498	42199.96
658.849	42415.78
659.2	42326.06
659.551	42252.39
659.902	42331.26
660.253	42307.08
660.604	42316.12
660.955	42094.66
661.306	42355.89
661.656	42167.87
662.007	42231.38
662.358	42225.05
662.708	42043.36
663.059	42214.2
663.409	41925.62
663.76	42196.35
664.11	42124.26
664.461	42175.33
664.811	42204.48
665.161	42160.64
665.511	41989.57
665.862	42071.38
666.212	42231.83
666.562	42063.24
666.912	41972.63
667.262	41909.12
667.612	41989.57
667.962	42016.24
668.312	42021.21
668.662	42166.52
669.011	41841.33
669.361	41949.35
669.711	41972.63
670.06	42019.18
670.41	41865.06
670.76	41792.97
671.109	42020.99
671.459	41870.93
671.808	41878.84
672.157	41926.07
672.507	41754.1
672.856	41734.89
673.205	41757.72
673.554	41906.64
673.904	41764.72
674.253	41849.01
674.602	41840.2
674.951	41300.78
675.3	41043.61
675.649	41678.4
675.998	41551.17
676.346	41662.58
676.695	41820.54
677.044	41382.58
677.393	41530.38
677.741	41736.25
678.09	41600.66
678.438	41307.33
678.787	41424.62
679.135	41403.37
679.484	41237.5
679.832	41394.34
680.181	41124.74
680.529	41273.89
680.877	41145.08
681.225	41118.41
681.573	41309.37
681.922	41068.92
682.27	40738.99
682.618	40992.31
682.966	40839.32
683.314	41014.68
683.661	40788.25
684.009	40547.58
684.357	40685.88
684.705	40631.42
685.053	40672.77
685.4	40528.6
685.748	40393.46
686.095	40350.97
686.443	40237.08
686.79	40142.16
687.138	40286.34
687.485	40163.63
687.832	40065.78
688.18	40158.89
688.527	39947.82
688.874	39879.35
689.221	39822.63
689.568	39740.82
689.915	39564.1
690.262	39619.24
690.609	39525.46
690.956	39413.37
691.303	39231.91
691.65	39233.71
691.997	39181.74
692.344	38755.31
692.69	38856.55
693.037	38814.52
693.383	38588.76
693.73	38640.96
694.077	38454.75
694.423	38471.47
694.769	38391.93
695.116	38256.11
695.462	38262.67
695.808	38208.43
696.155	38190.58
696.501	37857.93
696.847	37957.59
697.193	37767.76
697.539	37828.1
697.885	37682.79
698.231	37496.81
698.577	37573.19
698.923	37419.3
699.269	37238.74
699.614	37153.32
699.96	37105.86
700.306	37062.02
700.651	36841.46
700.997	36773.21
701.342	36669.49
701.688	36646.44
702.033	36588.81
702.379	36582.71
702.724	36447.35
703.069	36482.37
703.415	36066.11
703.76	35996.96
704.105	36117.41
704.45	35928.26
704.795	35794.71
705.14	35758.33
705.485	35760.13
705.83	35439.01
706.175	35586.13
706.52	35495.73
706.865	35455.51
707.209	35296.42
707.554	35280.37
707.899	35273.37
708.243	35070.89
708.588	35032.02
708.932	34887.61
709.277	34788.18
709.621	34870.21
709.966	34634.74
710.31	34670.67
710.654	34295.54
710.998	34499.6
711.342	34435.65
711.687	34329.44
712.031	34183.23
712.375	33986.39
712.719	34175.77
713.063	33928.77
713.407	34169.67
713.75	33849.67
714.094	33858.26
714.438	33760.86
714.782	33866.4
715.125	33606.29
715.469	33723.58
715.812	33513.41
716.156	33325.62
716.499	33292.63
716.843	33429.57
717.186	33204.27
717.53	33489.68
717.873	33291.95
718.216	33161.56
718.559	32965.18
718.902	32858.06
719.246	32917.27
719.589	32674.11
719.932	32590.95
720.275	32754.11
720.617	32603.15
720.96	32601.12
721.303	32651.74
721.646	32633.44
721.989	32386.44
722.331	32508.24
722.674	32368.36
723.016	32412.65
723.359	32382.14
723.701	32409.71
724.044	32172.66
724.386	32004.07
724.729	32242.26
725.071	32038.2
725.413	32076.39
725.755	31980.57
726.097	31983.74
726.439	31716.4
726.782	31809.73
727.124	31828.94
727.465	31687.47
727.807	31673.91
728.149	31575.38
728.491	31610.86
728.833	31695.83
729.175	31461.49
729.516	31372.45
729.858	31299.01
730.199	31439.57
730.541	31235.96
730.882	31296.97
731.224	31332.45
731.565	31113.93
731.906	31154.38
732.248	31166.58
732.589	30989.86
732.93	30774.05
733.271	30906.48
733.612	30918
733.953	30887.27
734.294	30731.56
734.635	30728.63
734.976	30765.46
735.317	30518.46
735.658	30586.94
735.999	30625.58
736.339	30484.57
736.68	30629.42
737.021	30488.63
737.361	30307.62
737.702	30395.53
738.042	30258.36
738.383	30352.14
738.723	30336.55
739.063	30175.2
739.404	30181.75
739.744	30221.3
740.084	30043.45
740.424	30157.34
740.764	29994.64
741.104	30035.09
741.444	29800.74
741.784	29869.67
742.124	29857.01
742.464	29796.67
742.804	29799.39
743.143	29814.3
743.483	29727.07
743.823	29473.29
744.162	29642.78
744.502	29609.79
744.841	29478.94
745.181	29552.61
745.52	29364.14
745.86	29509.22
746.199	29356.46
746.538	29319.62
746.877	29405.5
747.216	29367.98
747.556	29175.22
747.895	29372.05
748.234	29004.38
748.573	29121.44
748.911	29105.84
749.25	29113.75
749.589	28814.78
749.928	28976.58
750.267	29028.78
750.605	28964.15
750.944	28761
751.283	28754.44
751.621	28784.27
751.96	28685.29
752.298	28653.2
752.636	28618.4
752.975	28429.03
753.313	28431.96
753.651	28472.19
753.989	28346.77
754.327	28321.91
754.666	28120.79
755.004	28093.22
755.342	28311.74
755.679	28124.4
756.017	28005.31
756.355	28047.79
756.693	27892.77
757.031	28034.01
757.368	27872.43
