Data from hue_26_FLMS001491_00003.txt Node
Date: Tue Feb 07 17:13:28 GMT 2017
User: dcchb
Spectrometer: FLMS00149
Trigger mode: 0
Integration Time (sec): 2.000000E-2
Scans to average: 10
Electric dark correction enabled: true
Nonlinearity correction enabled: false
Boxcar width: 0
XAxis mode: Wavelengths
Number of Pixels in Spectrum: 2048
>>>>>Begin Spectral Data<<<<<
341.393	-22.23
341.776	-22.23
342.16	-22.23
342.543	-46.41
342.927	-61.55
343.31	-55.68
343.693	-79.18
344.077	-54.55
344.46	-68.78
344.843	-36.02
345.226	-68.78
345.61	-26.3
345.993	-22.68
346.376	-12.97
346.759	3.3
347.142	17.32
347.525	46.69
347.908	52.8
348.291	100.7
348.674	95.05
349.057	109.06
349.44	123.53
349.823	117.88
350.206	167.82
350.588	181.38
350.971	202.62
351.354	213.92
351.737	245.78
352.119	236.07
352.502	248.72
352.884	255.73
353.267	279.46
353.65	290.76
354.032	298.21
354.414	299.79
354.797	318.32
355.179	302.51
355.562	318.78
355.944	327.14
356.326	338.66
356.709	334.14
357.091	339.34
357.473	349.06
357.855	351.32
358.238	324.2
358.62	324.88
359.002	362.39
359.384	363.52
359.766	337.53
360.148	330.53
360.53	333.47
360.912	327.59
361.294	342.05
361.676	320.81
362.057	309.06
362.439	326.69
362.821	298.66
363.203	347.48
363.584	330.98
363.966	329.85
364.348	314.26
364.729	314.03
365.111	312.22
365.493	334.82
365.874	322.17
366.256	316.74
366.637	308.83
367.019	323.75
367.4	316.07
367.781	313.13
368.163	309.96
368.544	313.35
368.925	322.39
369.306	321.71
369.688	316.97
370.069	304.99
370.45	309.06
370.831	325.33
371.212	329.4
371.593	318.1
371.974	316.52
372.355	306.35
372.736	324.2
373.117	291.66
373.498	314.03
373.879	311.09
374.26	328.95
374.641	323.52
375.021	303.86
375.402	330.98
375.783	320.58
376.163	332.34
376.544	340.92
376.925	343.41
377.305	341.83
377.686	325.33
378.066	322.62
378.447	318.32
378.827	349.28
379.208	325.56
379.588	328.04
379.968	343.86
380.349	328.72
380.729	342.51
381.109	354.03
381.489	337.53
381.87	335.27
382.25	326.69
382.63	336.86
383.01	330.3
383.39	331.66
383.77	320.58
384.15	357.19
384.53	343.41
384.91	348.83
385.29	360.36
385.67	339.79
386.049	365.33
386.429	342.96
386.809	361.94
387.189	378.21
387.568	359.45
387.948	374.82
388.328	363.3
388.707	345.22
389.087	348.83
389.466	331.88
389.846	362.62
390.225	363.3
390.605	359.91
390.984	372.11
391.363	377.76
391.743	356.06
392.122	374.14
392.501	370.75
392.881	376.85
393.26	369.85
393.639	389.96
394.018	368.72
394.397	379.34
394.776	380.7
395.155	383.18
395.534	386.57
395.913	389.28
396.292	357.19
396.671	382.28
397.05	382.05
397.429	385.22
397.808	383.41
398.186	395.16
398.565	397.19
398.944	382.28
399.323	363.75
399.701	387.7
400.08	389.74
400.458	389.28
400.837	418.66
401.215	393.13
401.594	411.43
401.972	416.4
402.351	397.19
402.729	422.05
403.107	398.77
403.486	394.93
403.864	406.23
404.242	395.84
404.62	408.72
404.999	413.69
405.377	411.66
405.755	396.29
406.133	424.54
406.511	432.9
406.889	422.28
407.267	438.55
407.645	445.33
408.023	420.7
408.401	422.28
408.779	438.1
409.156	446.23
409.534	457.08
409.912	462.73
410.29	459.11
410.667	437.42
411.045	459.79
411.422	455.5
411.8	466.34
412.178	467.25
412.555	469.73
412.933	453.91
413.31	484.65
413.687	482.16
414.065	476.06
414.442	476.74
414.819	477.19
415.197	469.28
415.574	493.46
415.951	487.36
416.328	497.76
416.705	483.97
417.082	508.38
417.46	499.11
417.837	487.13
418.214	501.82
418.591	504.99
418.967	503.63
419.344	497.3
419.721	509.73
420.098	517.42
420.475	547.92
420.852	519.9
421.228	556.51
421.605	521.26
421.982	535.72
422.358	526.91
422.735	531.65
423.111	523.29
423.488	520.13
423.864	540.92
424.241	541.6
424.617	551.31
424.994	542.27
425.37	541.6
425.746	564.42
426.123	562.16
426.499	565.1
426.875	561.26
427.251	567.81
427.627	593.35
428.003	588.6
428.379	594.48
428.756	588.83
429.132	598.09
429.507	571.43
429.883	595.61
430.259	606.9
430.635	601.71
431.011	620.92
431.387	618.88
431.763	643.51
432.138	637.41
432.514	629.28
432.89	635.38
433.265	627.24
433.641	647.13
434.016	659.78
434.392	656.62
434.767	647.58
435.143	700.91
435.518	685.77
435.894	694.81
436.269	705.21
436.644	698.2
437.02	693.68
437.395	712.21
437.77	687.81
438.145	713.12
438.52	732.33
438.895	723.51
439.271	713.57
439.646	738.65
440.021	727.81
440.395	735.94
440.77	734.36
441.145	753.79
441.52	745.43
441.895	762.61
442.27	758.77
442.645	765.09
443.019	779.1
443.394	787.69
443.769	754.47
444.143	761.25
444.518	776.62
444.892	782.04
445.267	794.24
445.641	792.44
446.016	812.1
446.39	822.94
446.764	811.87
447.139	809.84
447.513	793.11
447.887	806.22
448.262	807.8
448.636	838.99
449.01	836.28
449.384	836.28
449.758	810.29
450.132	843.06
450.506	855.03
450.88	856.16
451.254	855.26
451.628	888.03
452.002	878.31
452.376	872.43
452.75	912.21
453.123	863.17
453.497	913.79
453.871	905.2
454.244	916.28
454.618	934.81
454.992	956.27
455.365	931.87
455.739	966.22
456.112	962.38
456.486	965.99
456.859	976.84
457.232	1017.52
457.606	992.88
457.979	1018.42
458.352	1013.67
458.725	1011.19
459.099	1015.71
459.472	1030.85
459.845	1065.65
460.218	1067.46
460.591	1067.01
460.964	1064.07
461.337	1113.78
461.71	1097.97
462.083	1134.12
462.456	1140
462.829	1127.8
463.201	1156.5
463.574	1145.87
463.947	1158.98
464.32	1187
464.692	1204.63
465.065	1202.37
465.438	1237.4
465.81	1274.68
466.183	1258.19
466.555	1254.35
466.928	1262.03
467.3	1292.54
467.672	1311.97
468.045	1330.73
468.417	1320.78
468.789	1342.25
469.161	1365.98
469.534	1401.69
469.906	1409.82
470.278	1437.17
470.65	1434.91
471.022	1467.9
471.394	1491.63
471.766	1490.05
472.138	1514.9
472.51	1544.96
472.882	1582.25
473.253	1585.86
473.625	1609.14
473.997	1658.18
474.369	1671.96
474.74	1677.84
475.112	1717.84
475.484	1739.53
475.855	1776.82
476.227	1794.67
476.598	1831.05
476.97	1862.92
477.341	1870.6
477.713	1919.41
478.084	1958.51
478.455	2000.09
478.827	2042.12
479.198	2048
479.569	2080.99
479.94	2153.53
480.311	2168.9
480.682	2216.35
481.053	2265.17
481.424	2309.01
481.795	2329.8
482.166	2389
482.537	2401.89
482.908	2446.86
483.279	2490.7
483.65	2532.96
484.021	2611.37
484.391	2652.5
484.762	2670.35
485.133	2701.54
485.503	2757.81
485.874	2792.84
486.244	2876.9
486.615	2926.62
486.985	2963.23
487.356	3028.54
487.726	3030.8
488.097	3101.98
488.467	3128.65
488.837	3241.19
489.207	3258.59
489.578	3289.32
489.948	3339.94
490.318	3418.13
490.688	3448.19
491.058	3484.12
491.428	3536.09
491.798	3604.34
492.168	3691.12
492.538	3664
492.908	3721.85
493.278	3808.4
493.648	3826.71
494.017	3888.63
494.387	3860.15
494.757	3917.33
495.126	4014.27
495.496	4017.66
495.866	4070.99
496.235	4139.02
496.605	4202.06
496.974	4212.91
497.344	4238.67
497.713	4273.93
498.082	4291.55
498.452	4409.29
498.821	4363.42
499.19	4417.43
499.559	4407.93
499.928	4508.95
500.298	4485.22
500.667	4510.98
501.036	4551.66
501.405	4569.51
501.774	4622.17
502.143	4611.32
502.512	4682.05
502.88	4765.21
503.249	4739.23
503.618	4750.75
503.987	4785.33
504.356	4852.22
504.724	4826
505.093	4843.63
505.462	4931.09
505.83	4980.58
506.199	5006.34
506.567	5009.28
506.936	5014.47
507.304	5124.53
507.672	5100.8
508.041	5117.52
508.409	5146.9
508.777	5167.24
509.145	5241.13
509.514	5233.45
509.882	5247.69
510.25	5311.41
510.618	5346.67
510.986	5343.28
511.354	5377.4
511.722	5418.08
512.09	5428.7
512.458	5418.08
512.826	5500.11
513.193	5517.06
513.561	5507.34
513.929	5546.44
514.297	5594.8
514.664	5602.48
515.032	5618.3
515.4	5683.61
515.767	5687.68
516.135	5735.81
516.502	5683.61
516.869	5751.18
517.237	5842.25
517.604	5802.47
517.972	5808.58
518.339	5855.35
518.706	5844.51
519.073	5893.77
519.44	5960.44
519.808	6003.83
520.175	5969.02
520.542	6011.96
520.909	6079.98
521.276	6022.58
521.643	6102.13
522.009	6120.21
522.376	6150.26
522.743	6248.11
523.11	6235.68
523.477	6282.46
523.843	6310.48
524.21	6351.39
524.577	6392.97
524.943	6417.15
525.31	6447.88
525.676	6525.39
526.043	6574.21
526.409	6589.57
526.776	6631.61
527.142	6616.01
527.508	6651.72
527.874	6733.52
528.241	6769.68
528.607	6752.73
528.973	6772.84
529.339	6772.39
529.705	6854.2
530.071	6915.89
530.437	6989.79
530.803	7011.26
531.169	7009.22
531.535	7039.96
531.901	7086.28
532.267	7082.67
532.632	7186.39
532.998	7168.54
533.364	7252.83
533.73	7211.93
534.095	7266.39
534.461	7227.52
534.826	7388.2
535.192	7420.06
535.557	7444.92
535.923	7450.79
536.288	7422.54
536.653	7497.8
537.019	7506.16
537.384	7482.66
537.749	7558.36
538.114	7530.34
538.479	7670.67
538.845	7635.19
539.21	7653.73
539.575	7711.35
539.94	7766.49
540.305	7806.49
540.67	7825.7
541.034	7893.94
541.399	7872.02
541.764	7900.05
542.129	7922.19
542.494	8005.58
542.858	7978.01
543.223	8069.31
543.587	7999.7
543.952	8015.75
544.316	8059.14
544.681	8114.05
545.045	8149.98
545.41	8224.78
545.774	8225.69
546.138	8270.21
546.503	8313.37
546.867	8255.97
547.231	8328.74
547.595	8422.29
547.959	8449.18
548.324	8414.16
548.688	8446.25
549.052	8476.53
549.416	8545.68
549.779	8531.44
550.143	8619.58
550.507	8620.48
550.871	8653.02
551.235	8622.29
551.599	8739.57
551.962	8723.98
552.326	8791.32
552.689	8791.1
553.053	8796.07
553.417	8754.26
553.78	8974.59
554.143	8882.39
554.507	8937.53
554.87	8933.92
555.234	9027.25
555.597	8949.28
555.96	9023.63
556.323	9067.7
556.686	9083.07
557.05	9139.34
557.413	9151.31
557.776	9178.66
558.139	9276.28
558.502	9232.44
558.865	9247.13
559.228	9233.12
559.59	9376.62
559.953	9358.31
560.316	9512.89
560.679	9431.98
561.041	9543.39
561.404	9532.32
561.767	9567.57
562.129	9539.55
562.492	9678.53
562.854	9689.6
563.217	9605.31
563.579	9747.46
563.941	9738.64
564.304	9744.97
564.666	9854.57
565.028	9811.63
565.39	9858.64
565.753	9919.88
566.115	9977.96
566.477	9988.13
566.839	10047.79
567.201	10110.16
567.563	10145.19
567.925	10194.9
568.287	10189.03
568.648	10241.68
569.01	10275.13
569.372	10338.17
569.734	10292.53
570.095	10412.52
570.457	10465.4
570.819	10487.32
571.18	10520.99
571.542	10606.87
571.903	10642.57
572.265	10695.23
572.626	10652.29
572.987	10704.04
573.349	10812.51
573.71	10783.59
574.071	10914.88
574.432	10958.05
574.794	11018.38
575.155	11089.12
575.516	11085.5
575.877	11270.81
576.238	11301.99
576.599	11417.24
576.96	11406.39
577.32	11476.68
577.681	11582.21
578.042	11614.98
578.403	11649.1
578.763	11801.64
579.124	11885.7
579.485	12014.06
579.845	12091.57
580.206	12250.21
580.566	12336.09
580.927	12442.98
581.287	12667.83
581.648	12766.81
582.008	12905.56
582.368	13021.49
582.728	13140.13
583.089	13352.56
583.449	13496.51
583.809	13649.05
584.169	13845.88
584.529	13989.15
584.889	14239.09
585.249	14460.78
585.609	14419.42
585.969	14864.38
586.329	14955.68
586.688	15204.26
587.048	15443.13
587.408	15567.64
587.768	15832.04
588.127	16017.35
588.487	16290.79
588.846	16608.97
589.206	16812.13
589.565	17035.4
589.925	17391.77
590.284	17578.89
590.643	17837.64
591.003	18194.24
591.362	18461.8
591.721	18588.81
592.08	18997.61
592.44	19354.43
592.799	19566.63
593.158	19861.31
593.517	20118.26
593.876	20387.85
594.235	20661.52
594.593	20973.6
594.952	21433.25
595.311	21502.17
595.67	21913.46
596.029	22324.98
596.387	22640.68
596.746	23025.3
597.104	23162.92
597.463	23375.35
597.822	23823.92
598.18	24036.57
598.538	24308.43
598.897	24712.26
599.255	24813.5
599.613	25479.02
599.972	25392.92
600.33	26010.98
600.688	26026.12
601.046	26581.36
601.404	26906.78
601.762	27064.97
602.12	27390.16
602.478	27857.94
602.836	27971.61
603.194	28013.64
603.552	28571.59
603.91	28652.27
604.268	29066.27
604.625	29202.76
604.983	29684.11
605.341	29795.97
605.698	30144.66
606.056	30392.79
606.413	30784.42
606.771	30987.8
607.128	31348.24
607.485	31314.35
607.843	31569.71
608.2	32106.42
608.557	32297.15
608.914	32428.67
609.272	32760.18
609.629	33052.83
609.986	33402.65
610.343	33309.55
610.7	33871.12
611.057	34039.02
611.414	34059.13
611.771	34323.08
612.127	34647.14
612.484	34815.95
612.841	35055.26
613.198	35143.17
613.554	35383.39
613.911	35613.44
614.267	35771.63
614.624	35977.95
614.98	36092.07
615.337	36556.02
615.693	36440.76
616.05	36733.64
616.406	37097.47
616.762	36979.96
617.118	37160.29
617.475	37258.14
617.831	37434.41
618.187	37743.78
618.543	37900.16
618.899	38202.3
619.255	38254.95
619.611	38335.63
619.967	38630.99
620.323	38738.11
620.678	38520.94
621.034	38583.53
621.39	38797.77
621.746	38816.07
622.101	39487.01
622.457	39214.93
622.812	39425.77
623.168	39505.54
623.523	39655.37
623.879	39781.24
624.234	39625.09
624.589	39951.41
624.945	39931.07
625.3	40216.03
625.655	40081.8
626.01	40348.68
626.365	40342.13
626.72	40363.6
627.075	40430.94
627.43	40550.04
627.785	40395.01
628.14	40642.01
628.495	40862.12
628.85	40660.09
629.205	40739.64
629.559	40978.27
629.914	40846.3
630.269	40910.03
630.623	40810.59
630.978	40867.09
631.332	41148.89
631.687	41184.6
632.041	41065.28
632.396	41148.66
632.75	40957.71
633.104	41184.6
633.459	41060.3
633.813	41114.77
634.167	41152.73
634.521	41088.33
634.875	41206.06
635.229	41066.41
635.583	40995.22
635.937	41070.93
636.291	41077.03
636.645	41171.49
636.999	41151.83
637.352	41310.92
637.706	41029.34
638.06	41236.35
638.413	41047.42
638.767	41027.99
639.121	41353.18
639.474	40951.38
639.828	41146.18
640.181	41153.41
640.534	41122.45
640.888	40998.16
641.241	40911.16
641.594	40975.34
641.947	41058.04
642.301	41007.65
642.654	41053.3
643.007	41048.33
643.36	40943.47
643.713	40925.84
644.066	41039.51
644.419	40911.38
644.771	40703.03
645.124	40351.62
645.477	40149.59
645.83	40032.76
646.182	39816.72
646.535	39950.5
646.888	39866.21
647.24	39743.28
647.593	40064.62
647.945	39948.7
648.298	39803.84
648.65	39623.05
649.002	39500.8
649.355	39788.47
649.707	39859.88
650.059	39795.71
650.411	40403.6
650.763	40368.35
651.115	40811.5
651.467	40689.47
651.819	40617.38
652.171	40531.73
652.523	40553.43
652.875	40431.85
653.227	40391.85
653.578	40741.89
653.93	40536.93
654.282	40390.49
654.633	40238.63
654.985	40460.55
655.337	40485.86
655.688	40398.63
656.039	40721.56
656.391	40337.84
656.742	40432.75
657.094	40548.45
657.445	40586.42
657.796	40308.69
658.147	40389.81
658.498	40326.54
658.849	40385.07
659.2	40316.82
659.551	40330.61
659.902	40358.63
660.253	40224.85
660.604	40329.93
660.955	40196.6
661.306	40387.55
661.656	40204.73
662.007	40247.9
662.358	40264.85
662.708	40317.05
663.059	40213.55
663.409	40035.02
663.76	40272.98
664.11	40309.59
664.461	40301.91
664.811	40270.95
665.161	40225.75
665.511	40113.44
665.862	40126.77
666.212	40312.08
666.562	40154.34
666.912	40257.61
667.262	39978.53
667.612	40176.71
667.962	40128.8
668.312	40142.81
668.662	40460.09
669.011	40167.45
669.361	40160.22
669.711	40208.35
670.06	40122.02
670.41	39952.54
670.76	39818.53
671.109	40135.13
671.459	40131.52
671.808	40052.87
672.157	40128.8
672.507	39750.51
672.856	39792.99
673.205	39861.47
673.554	40117.73
673.904	39936.94
674.253	40096.71
674.602	39935.81
674.951	39289.28
675.3	39234.36
675.649	39794.58
675.998	39766.78
676.346	39789.15
676.695	40005.42
677.044	39458.54
677.393	39779.66
677.741	39723.84
678.09	39611.3
678.438	39623.51
678.787	39601.13
679.135	39724.07
679.484	39367.24
679.832	39538.31
680.181	39238.66
680.529	39408.6
680.877	39291.31
681.225	39225.32
681.573	39529.5
681.922	39338.77
682.27	39102.84
682.618	39066.01
682.966	39009.96
683.314	39117.76
683.661	38912.56
684.009	38908.04
684.357	38748.5
684.705	38788.5
685.053	38786.69
685.4	38791.21
685.748	38574.72
686.095	38630.99
686.443	38491.33
686.79	38341.28
687.138	38578.34
687.485	38453.14
687.832	38304.44
688.18	38358
688.527	38189.87
688.874	38130.66
689.221	38104
689.568	37922.08
689.915	37767.06
690.262	37860.39
690.609	37831.46
690.956	37644.58
691.303	37382.66
691.65	37375.88
691.997	37370.68
692.344	37148.99
692.69	37012.5
693.037	37257.01
693.383	36880.75
693.73	36958.72
694.077	36854.77
694.423	36823.58
694.769	36618.39
695.116	36683.02
695.462	36585.39
695.808	36415
696.155	36559.63
696.501	36282.13
696.847	36294.55
697.193	35983.83
697.539	36163.26
697.885	35954.22
698.231	35926.43
698.577	35796.04
698.923	35838.97
699.269	35613.44
699.614	35521.69
699.96	35404.63
700.306	35314.69
700.651	35221.81
700.997	35215.49
701.342	35035.38
701.688	35010.52
702.033	34937.08
702.379	34877.19
702.724	34802.62
703.069	35004.64
703.415	34418.9
703.76	34586.12
704.105	34540.48
704.45	34550.65
704.795	34276.53
705.14	34159.02
705.485	34133.26
705.83	34034.73
706.175	34040.38
706.52	34049.64
706.865	33841.96
707.209	33779.82
707.554	33608.07
707.899	33834.96
708.243	33570.33
708.588	33501.18
708.932	33273.62
709.277	33239.04
709.621	33200.85
709.966	33069.78
710.31	33214.41
710.654	32890.58
710.998	33031.82
711.342	32922.44
711.687	32963.57
712.031	32794.76
712.375	32605.61
712.719	32646.29
713.063	32558.83
713.407	32710.47
713.75	32483.35
714.094	32309.57
714.438	32234.77
714.782	32402.91
715.125	32178.05
715.469	32129.92
715.812	31988
716.156	31952.75
716.499	31917.27
716.843	32008.57
717.186	31794.56
717.53	31886.53
717.873	31843.82
718.216	31819.87
718.559	31649.25
718.902	31550.72
719.246	31507.56
719.589	31434.79
719.932	31331.07
720.275	31299.43
720.617	31371.75
720.96	31197.29
721.303	31256.72
721.646	31237.74
721.989	31090.85
722.331	31122.71
722.674	30991.64
723.016	30999.33
723.359	30903.06
723.701	30905.54
724.044	30844.98
724.386	30723.85
724.729	30832.1
725.071	30607.02
725.413	30702.16
725.755	30637.3
726.097	30469.62
726.439	30350.53
726.782	30421.26
727.124	30585.55
727.465	30254.49
727.807	30251.1
728.149	30265.11
728.491	30235.5
728.833	30318.44
729.175	30172.46
729.516	30030.54
729.858	29955.51
730.199	29982.63
730.541	29937.43
730.882	29925
731.224	30051.33
731.565	29824.44
731.906	29767.04
732.248	29769.3
732.589	29613.83
732.93	29495.18
733.271	29503.32
733.612	29675.97
733.953	29584.67
734.294	29410.67
734.635	29433.04
734.976	29499.93
735.317	29290.67
735.658	29351.46
735.999	29208.64
736.339	29183.33
736.68	29398.92
737.021	29167.74
737.361	29103.33
737.702	29251.58
738.042	29165.7
738.383	28999.6
738.723	29052.71
739.063	28898.14
739.404	28964.35
739.744	28899.49
740.084	28769.33
740.424	28783.57
740.764	28732.49
741.104	28849.55
741.444	28697.01
741.784	28642.33
742.124	28720.74
742.464	28621.76
742.804	28536.34
743.143	28431.94
743.483	28427.87
743.823	28366.85
744.162	28291.6
744.502	28320.3
744.841	28139.74
745.181	28324.14
745.52	28125.05
745.86	28181.1
746.199	28259.06
746.538	28087.76
746.877	28247.76
747.216	28017.71
747.556	28149.68
747.895	28111.27
748.234	27878.28
748.573	27851.16
748.911	27929.8
749.25	27894.55
749.589	27653.88
749.928	27667.21
750.267	27763.93
750.605	27826.53
750.944	27561.22
751.283	27600.55
751.621	27615.69
751.96	27460.89
752.298	27438.06
752.636	27451.4
752.975	27351.96
753.313	27237.84
753.651	27249.82
753.989	27113.55
754.327	27219.31
754.666	27048.24
755.004	27079.88
755.342	27022.03
755.679	27048.02
756.017	26864.52
756.355	26822.49
756.693	26777.52
757.031	26772.77
757.368	26597.18
757.706	26618.42
758.044	26623.85
758.381	26467.69
758.719	26503.85
759.056	26453.68
759.394	26278.09
759.731	26172.11
760.068	26226.8
