Data from hue_50_FLMS001491_89.txt Node
Date: Mon Feb 06 15:11:10 GMT 2017
User: dcchb
Spectrometer: FLMS00149
Trigger mode: 0
Integration Time (sec): 2.000000E-2
Scans to average: 10
Electric dark correction enabled: true
Nonlinearity correction enabled: false
Boxcar width: 0
XAxis mode: Wavelengths
Number of Pixels in Spectrum: 2048
>>>>>Begin Spectral Data<<<<<
341.393	-10.75
341.776	-10.75
342.16	-10.75
342.543	-66.34
342.927	-44.19
343.31	-54.81
343.693	-58.88
344.077	-78.09
344.46	-55.94
344.843	-60.46
345.226	-39.22
345.61	-42.16
345.993	-13.91
346.376	-7.13
346.759	30.38
347.142	18.18
347.525	44.17
347.908	57.5
348.291	70.61
348.674	93.2
349.057	96.59
349.44	114.45
349.823	150.15
350.206	164.16
350.588	193.77
350.971	213.43
351.354	203.03
351.737	224.5
352.119	239.41
352.502	252.75
352.884	284.16
353.267	294.1
353.65	296.59
354.032	300.88
354.414	323.71
354.797	317.38
355.179	339.75
355.562	335.01
355.944	335.23
356.326	331.39
356.709	330.49
357.091	349.69
357.473	352.41
357.855	345.85
358.238	347.66
358.62	359.19
359.002	340.2
359.384	330.94
359.766	333.2
360.148	324.16
360.53	348.79
360.912	344.5
361.294	337.72
361.676	338.62
362.057	334.55
362.439	354.44
362.821	312.63
363.203	311.05
363.584	326.42
363.966	340.88
364.348	321.67
364.729	322.58
365.111	336.81
365.493	333.2
365.874	318.51
366.256	294.78
366.637	323.48
367.019	318.28
367.4	337.49
367.781	323.71
368.163	323.48
368.544	297.27
368.925	315.8
369.306	324.61
369.688	340.43
370.069	335.68
370.45	314.21
370.831	316.47
371.212	311.73
371.593	311.05
371.974	319.64
372.355	318.96
372.736	328.9
373.117	326.64
373.498	302.46
373.879	325.29
374.26	322.35
374.641	310.6
375.021	316.7
375.402	318.06
375.783	316.7
376.163	315.34
376.544	332.97
376.925	335.01
377.305	321.67
377.686	332.07
378.066	329.81
378.447	337.72
378.827	326.87
379.208	350.82
379.588	322.35
379.968	330.94
380.349	345.85
380.729	331.39
381.109	335.68
381.489	347.89
381.87	336.59
382.25	341.33
382.63	351.95
383.01	366.19
383.39	354.89
383.77	356.02
384.15	336.59
384.53	346.3
384.91	342.69
385.29	354.21
385.67	376.59
386.049	335.46
386.429	360.99
386.809	360.54
387.189	350.6
387.568	333.88
387.948	336.81
388.328	370.26
388.707	355.34
389.087	356.7
389.466	355.12
389.846	365.96
390.225	369.13
390.605	366.87
390.984	372.97
391.363	367.32
391.743	353.54
392.122	390.15
392.501	384.5
392.881	373.87
393.26	354.67
393.639	365.74
394.018	381.56
394.397	370.71
394.776	382.91
395.155	407.55
395.534	370.94
395.913	375.68
396.292	384.5
396.671	379.07
397.05	406.19
397.429	400.54
397.808	385.4
398.186	398.51
398.565	389.02
398.944	409.58
399.323	388.56
399.701	385.63
400.08	417.04
400.458	394.21
400.837	405.06
401.215	409.58
401.594	399.41
401.972	424.27
402.351	388.34
402.729	414.33
403.107	404.61
403.486	412.52
403.864	422.46
404.242	404.16
404.62	412.29
404.999	393.31
405.377	408.45
405.755	425.17
406.133	425.4
406.511	411.39
406.889	428.79
407.267	426.53
407.645	437.15
408.023	442.8
408.401	418.84
408.779	422.01
409.156	431.27
409.534	442.8
409.912	428.79
410.29	441.44
410.667	465.17
411.045	445.74
411.422	450.93
411.8	464.49
412.178	457.49
412.555	463.36
412.933	480.31
413.31	464.95
413.687	462.69
414.065	464.95
414.442	468.79
414.819	485.28
415.197	492.74
415.574	484.83
415.951	499.97
416.328	501.33
416.705	500.88
417.082	517.37
417.46	519.18
417.837	495.45
418.214	492.74
418.591	494.78
418.967	516.92
419.344	520.09
419.721	511.72
420.098	528.67
420.475	516.7
420.852	532.74
421.228	527.99
421.605	535.45
421.982	532.29
422.358	512.18
422.735	519.18
423.111	547.43
423.488	541.33
423.864	523.25
424.241	559.86
424.617	554.66
424.994	566.19
425.37	576.13
425.746	567.09
426.123	563.7
426.499	556.69
426.875	556.47
427.251	550.82
427.627	588.33
428.003	574.32
428.379	578.61
428.756	590.59
429.132	589.24
429.507	588.78
429.883	592.4
430.259	595.79
430.635	621.55
431.011	599.86
431.387	624.04
431.763	653.42
432.138	624.26
432.514	646.18
432.89	657.93
433.265	656.35
433.641	658.16
434.016	656.58
434.392	652.51
434.767	661.32
435.143	688.67
435.518	669.69
435.894	683.47
436.269	689.12
436.644	670.59
437.02	686.18
437.395	698.39
437.77	727.54
438.145	726.86
438.52	716.24
438.895	731.15
439.271	704.04
439.646	753.3
440.021	734.77
440.395	732.73
440.77	730.93
441.145	749.91
441.52	767.54
441.895	734.32
442.27	747.2
442.645	760.53
443.019	740.42
443.394	772.51
443.769	804.15
444.143	777.03
444.518	772.96
444.892	769.8
445.267	786.52
445.641	784.49
446.016	763.47
446.39	796.01
446.764	812.05
447.139	831.26
447.513	808.44
447.887	798.72
448.262	814.99
448.636	811.15
449.01	838.72
449.384	818.38
449.758	828.55
450.132	851.83
450.506	857.48
450.88	849.57
451.254	848.66
451.628	870.58
452.002	874.43
452.376	880.08
452.75	902.67
453.123	878.72
453.497	891.83
453.871	900.19
454.244	932.5
454.618	921.66
454.992	906.29
455.365	937.93
455.739	970.24
456.112	952.16
456.486	964.14
456.859	961.88
457.232	992.39
457.606	999.62
457.979	1005.5
458.352	1017.93
458.725	1033.07
459.099	1058.83
459.472	1060.86
459.845	1065.38
460.218	1064.48
460.591	1066.96
460.964	1076.23
461.337	1123.01
461.71	1126.4
462.083	1155.55
462.456	1132.72
462.829	1144.02
463.201	1164.14
463.574	1178.37
463.947	1178.6
464.32	1204.81
464.692	1194.64
465.065	1237.35
465.438	1264.25
465.81	1267.18
466.183	1291.59
466.555	1316.45
466.928	1298.14
467.3	1323.91
467.672	1348.31
468.045	1380.63
468.417	1373.4
468.789	1414.98
469.161	1418.37
469.534	1461.53
469.906	1491.81
470.278	1506.73
470.65	1530.68
471.022	1542.21
471.394	1587.85
471.766	1617.68
472.138	1642.32
472.51	1704.46
472.882	1701.75
473.253	1749.21
473.625	1771.13
473.997	1828.07
474.369	1876.66
474.74	1869.2
475.112	1924.34
475.484	1941.52
475.855	1982.65
476.227	2026.94
476.598	2093.38
476.97	2151.23
477.341	2193.26
477.713	2258.12
478.084	2341.73
478.455	2425.12
478.827	2423.54
479.198	2557.55
479.569	2585.57
479.94	2669.63
480.311	2707.15
480.682	2804.09
481.053	2906.69
481.424	2975.61
481.795	3046.12
482.166	3129.28
482.537	3220.35
482.908	3289.96
483.279	3381.25
483.65	3466
484.021	3638.87
484.391	3688.14
484.762	3762.71
485.133	3877.51
485.503	3948.47
485.874	4101.46
486.244	4187.79
486.615	4334.45
486.985	4423.94
487.356	4570.15
487.726	4667.55
488.097	4751.84
488.467	4881.33
488.837	5039.29
489.207	5167.19
489.578	5318.83
489.948	5459.16
490.318	5553.17
490.688	5678.37
491.058	5842.43
491.428	5956.78
491.798	6114.06
492.168	6294.62
492.538	6349.31
492.908	6524.9
493.278	6704.56
493.648	6789.98
494.017	6963.76
494.387	7112.45
494.757	7145.22
495.126	7342.05
495.496	7438.55
495.866	7610.29
496.235	7787.69
496.605	7940.91
496.974	8018.19
497.344	8196.04
497.713	8306.32
498.082	8456.37
498.452	8604.62
498.821	8630.61
499.19	8798.96
499.559	8975.23
499.928	9114.89
500.298	9159.86
500.667	9345.16
501.036	9372.96
501.405	9599.85
501.774	9710.58
502.143	9777.02
502.512	9949.89
502.88	10057.24
503.249	10108.76
503.618	10251.35
503.987	10378.58
504.356	10475.3
504.724	10595.3
505.093	10688.41
505.462	10871.45
505.83	10872.81
506.199	11092.01
506.567	11291.1
506.936	11293.14
507.304	11458.78
507.672	11569.06
508.041	11655.16
508.409	11806.12
508.777	11920.01
509.145	12080.23
509.514	12117.07
509.882	12324.07
510.25	12313.9
510.618	12430.28
510.986	12466.21
511.354	12710.73
511.722	12821.91
512.09	12995.92
512.458	13056.48
512.826	13108.91
513.193	13173.76
513.561	13353.19
513.929	13505.28
514.297	13564.94
514.664	13678.61
515.032	13730.36
515.4	13887.42
515.767	13977.13
516.135	14204.02
516.502	14053.74
516.869	14301.87
517.237	14355.2
517.604	14308.42
517.972	14601.75
518.339	14646.49
518.706	14734.63
519.073	14867.28
519.44	14947.05
519.808	15130.77
520.175	15098.46
520.542	15438.34
520.909	15493.48
521.276	15497.32
521.643	15581.38
522.009	15822.51
522.376	15975.5
522.743	15998.77
523.11	16200.8
523.477	16257.52
523.843	16426.11
524.21	16652.32
524.577	16692.99
524.943	16719.43
525.31	16899.32
525.676	17015.02
526.043	17122.13
526.409	17237.84
526.776	17412.52
527.142	17419.98
527.508	17548.11
527.874	17726.86
528.241	17823.13
528.607	17855.9
528.973	18042.34
529.339	17957.82
529.705	18174.31
530.071	18456.11
530.437	18487.75
530.803	18550.8
531.169	18724.58
531.535	18693.84
531.901	18792.6
532.267	18861.52
532.632	19042.54
532.998	19112.36
533.364	19227.39
533.73	19252.7
534.095	19434.16
534.461	19485.69
534.826	19636.42
535.192	19623.54
535.557	19743.08
535.923	19789.18
536.288	19913.7
536.653	20032.57
537.019	19976.97
537.384	20153.69
537.749	20172
538.114	20259.23
538.479	20262.39
538.845	20473.23
539.21	20488.6
539.575	20624.19
539.94	20546.45
540.305	20704.64
540.67	20670.97
541.034	20811.08
541.399	21006.78
541.764	21016.95
542.129	21156.15
542.494	21065.08
542.858	21289.48
543.223	21162.48
543.587	21322.7
543.952	21438.63
544.316	21471.17
544.681	21493.09
545.045	21606.08
545.41	21759.98
545.774	21802.24
546.138	21801.33
546.503	22004.27
546.867	21996.58
547.231	22206.75
547.595	22140.76
547.959	22307.31
548.324	22236.8
548.688	22390.7
549.052	22430.92
549.416	22502.33
549.779	22569.22
550.143	22668.2
550.507	22744.36
550.871	22806.73
551.235	22822.1
551.599	22993.84
551.962	22959.95
552.326	23084.24
552.689	23187.74
553.053	23173.5
553.417	23276.77
553.78	23580.04
554.143	23461.63
554.507	23662.53
554.87	23595.41
555.234	23939.36
555.597	23720.61
555.96	23884.89
556.323	23959.02
556.686	24009.41
557.05	24183.64
557.413	24221.16
557.776	24284.21
558.139	24519.23
558.502	24552
558.865	24649.62
559.228	24888.26
559.59	24893.46
559.953	24957.63
560.316	25229.27
560.679	25254.12
561.041	25305.87
561.404	25361.69
561.767	25517.62
562.129	25445.53
562.492	25848.68
562.854	25802.81
563.217	25804.17
563.579	25895.24
563.941	26062.01
564.304	26086.87
564.666	26403.47
565.028	26306.3
565.39	26441.89
565.753	26528.67
566.115	26560.98
566.477	26815.21
566.839	26781.54
567.201	26993.51
567.563	27039.16
567.925	27209.1
568.287	27226.73
568.648	27405.48
569.01	27492.48
569.372	27631.91
569.734	27610.22
570.095	27669.43
570.457	27907.84
570.819	27878.69
571.18	28016.76
571.542	28143.09
571.903	28279.36
572.265	28381.5
572.626	28415.85
572.987	28449.75
573.349	28710.98
573.71	28635.28
574.071	28824.88
574.432	28925.44
574.794	29240.23
575.155	29148.71
575.516	29138.09
575.877	29425.31
576.238	29334.92
576.599	29673.67
576.96	29591.64
577.32	29698.08
577.681	29797.73
578.042	29961.12
578.403	30057.39
578.763	30170.61
579.124	30168.57
579.485	30388.68
579.845	30479.52
580.206	30533.08
580.566	30646.3
580.927	30761.32
581.287	30947.99
581.648	30870.47
582.008	31133.29
582.368	31265.94
582.728	31372.16
583.089	31425.94
583.449	31434.98
583.809	31637.91
584.169	31747.51
584.529	31809.43
584.889	32144.34
585.249	32127.39
585.609	32126.94
585.969	32519.7
586.329	32343.2
586.688	32586.36
587.048	32636.53
587.408	32855.73
587.768	32803.08
588.127	32982.96
588.487	33111.09
588.846	33338.66
589.206	33240.81
589.565	33408.49
589.925	33770.96
590.284	33717.4
590.643	33907.46
591.003	33955.59
591.362	34148.35
591.721	34151.07
592.08	34312.19
592.44	34490.27
592.799	34581.11
593.158	34641.22
593.517	34767.77
593.876	34879.41
594.235	34925.06
594.593	35073.75
594.952	35227.87
595.311	35088.89
595.67	35462.44
596.029	35739.5
596.387	35766.84
596.746	35973.39
597.104	35792.83
597.463	35985.59
597.822	36210.9
598.18	36107.4
598.538	36264.46
598.897	36555.75
599.255	36395.75
599.613	36914.38
599.972	36686.14
600.33	36870.32
600.688	36893.82
601.046	36972.69
601.404	37351.43
601.762	37233.02
602.12	37366.8
602.478	37514.59
602.836	37602.73
603.194	37513.46
603.552	37694.93
603.91	37427.82
604.268	37889.27
604.625	37790.07
604.983	38053.34
605.341	38030.74
605.698	38327.9
606.056	38360.67
606.413	38245.42
606.771	38334.91
607.128	38483.15
607.485	38475.92
607.843	38435.47
608.2	38778.29
608.557	38958.4
608.914	38846.54
609.272	39042.91
609.629	39179.86
609.986	39375.33
610.343	39299.4
610.7	39557.48
611.057	39429.34
611.414	39472.51
611.771	39604.93
612.127	39769.22
612.484	39741.2
612.841	39973.74
613.198	39996.79
613.554	39962.89
613.911	40108.42
614.267	40286.95
614.624	40178.7
614.98	40295.54
615.337	40488.53
615.693	40575.53
616.05	40405.82
616.406	40738.69
616.762	40531.69
617.118	40672.25
617.475	40662.98
617.831	40871.79
618.187	40885.13
618.543	41021.62
618.899	41292.35
619.255	41128.06
619.611	41143.42
619.967	41370.31
620.323	41442.4
620.678	41276.3
621.034	41267.94
621.39	41381.38
621.746	41346.81
622.101	41787.47
622.457	41489.4
622.812	41555.16
623.168	41784.76
623.523	41917.19
623.879	41697.99
624.234	41612.79
624.589	41815.5
624.945	41708.61
625.3	41860.02
625.655	41880.81
626.01	41857.53
626.365	41980.69
626.72	41865.89
627.075	42010.07
627.43	41888.49
627.785	41942.27
628.14	41881.26
628.495	42034.25
628.85	42005.1
629.205	41971.42
629.559	42199.67
629.914	41950.41
630.269	42099.33
630.623	41868.83
630.978	41925.78
631.332	42029.95
631.687	42220.01
632.041	41940.92
632.396	41959.22
632.75	41809.4
633.104	41961.03
633.459	41725.78
633.813	41794.93
634.167	41810.07
634.521	41942.5
634.875	41960.35
635.229	41804.2
635.583	41721.49
635.937	41772.56
636.291	41739.79
636.645	41578.21
636.999	41643.98
637.352	41727.36
637.706	41488.27
638.06	41888.71
638.413	41689.4
638.767	41455.96
639.121	41641.26
639.474	41383.87
639.828	41474.49
640.181	41376.41
640.534	41444.66
640.888	41502.96
641.241	41133.25
641.594	41199.47
641.947	41376.19
642.301	41261.16
642.654	41212.57
643.007	41300.71
643.36	41191.33
643.713	41182.07
644.066	41237.66
644.419	40861.4
644.771	40820.04
645.124	40422.76
645.477	40370.56
645.83	40142.09
646.182	40049.67
646.535	39969.44
646.888	40053.51
647.24	39786.62
647.593	40060.06
647.945	39955.21
648.298	39903
648.65	39690.35
649.002	39640.64
649.355	39828.43
649.707	39623.69
650.059	39920.41
650.411	40293.28
650.763	40382.77
651.115	40601.74
651.467	40608.07
651.819	40589.09
652.171	40465.02
652.523	40513.38
652.875	40549.09
653.227	40221.41
653.578	40593.83
653.93	40527.17
654.282	40204.92
654.633	40078.14
654.985	40340.28
655.337	40069.33
655.688	40331.47
656.039	40328.76
656.391	39930.8
656.742	40164.47
657.094	40256.67
657.445	40303.9
657.796	40153.17
658.147	40103.68
658.498	40049.89
658.849	40100.51
659.2	40087.86
659.551	40044.02
659.902	40248.31
660.253	40070.23
660.604	40108.65
660.955	39940.74
661.306	40139.16
661.656	39809.9
662.007	39951.36
662.358	39894.64
662.708	40032.27
663.059	40028.88
663.409	39903.46
663.76	40068.88
664.11	39913.4
664.461	40047.63
664.811	40044.47
665.161	39913.4
665.511	39924.92
665.862	39870.91
666.212	39958.82
666.562	40010.12
666.912	39994.08
667.262	39776.23
667.612	40031.59
667.962	39940.74
668.312	39902.78
668.662	39988.43
669.011	39991.59
669.361	39833.18
669.711	39748.88
670.06	39653.75
670.41	39753.18
670.76	39613.75
671.109	39775.55
671.459	39554.77
671.808	39567.19
672.157	39616.23
672.507	39389.35
672.856	39424.6
673.205	39479.06
673.554	39763.12
673.904	39484.03
674.253	39760.64
674.602	39454.65
674.951	38994.33
675.3	38767.67
675.649	39419.18
675.998	39408.33
676.346	39397.26
676.695	39492.62
677.044	39171.05
677.393	39417.37
677.741	39447.88
678.09	39223.02
678.438	39137.6
678.787	39190.71
679.135	39264.6
679.484	38908.91
679.832	39108.45
680.181	38909.81
680.529	39061.9
680.877	38933.09
681.225	38825.29
681.573	39159.07
681.922	38771.96
682.27	38755.01
682.618	38751.85
682.966	38595.24
683.314	38562.02
683.661	38629.14
684.009	38409.94
684.357	38430.95
684.705	38288.81
685.053	38366.32
685.4	38255.82
685.748	38131.53
686.095	38122.94
686.443	37994.13
686.79	37793.91
687.138	38030.29
687.485	38136.05
687.832	37917.75
688.18	37834.81
688.527	37528.6
688.874	37543.97
689.221	37599.56
689.568	37402.73
689.915	37480.02
690.262	37459.45
690.609	37278.21
690.956	37136.75
691.303	36961.61
691.65	36983.08
691.997	36870.54
692.344	36662.64
692.69	36734.73
693.037	36773.14
693.383	36418.12
693.73	36558.01
694.077	36324.12
694.423	36343.1
694.769	36176.77
695.116	36204.34
695.462	36088.19
695.808	35941.98
696.155	36035.76
696.501	35777.24
696.847	35885.93
697.193	35693.4
697.539	35548.32
697.885	35408.89
698.231	35340.86
698.577	35351.71
698.923	35208.89
699.269	35059.97
699.614	34914.44
699.96	34760.09
700.306	34819.3
700.651	34812.97
700.997	34577.72
701.342	34588.57
701.688	34567.55
702.033	34344.51
702.379	34403.49
702.724	34233.78
703.069	34334.11
703.415	33978.64
703.76	33930.96
704.105	33989.26
704.45	33817.97
704.795	33621.59
705.14	33730.96
705.485	33675.37
705.83	33437.86
706.175	33567.58
706.52	33405.1
706.865	33184.09
707.209	33267.25
707.554	33222.73
707.899	33218.89
708.243	33144.76
708.588	33074.71
708.932	32842.85
709.277	32683.08
709.621	32773.47
709.966	32499.81
710.31	32545.01
710.654	32442.18
710.998	32463.88
711.342	32374.84
711.687	32235.18
712.031	32185.24
712.375	31995.87
712.719	32078.58
713.063	32011.69
713.407	32096.66
713.75	32065.02
714.094	31875.42
714.438	31889.2
714.782	31857.11
715.125	31608.53
715.469	31663.45
715.812	31568.53
716.156	31341.42
716.499	31458.25
716.843	31280.86
717.186	31280.86
717.53	31338.48
717.873	31322.89
718.216	31217.36
718.559	31034.54
718.902	30906.18
719.246	30953.41
719.589	30826.18
719.932	30762
720.275	30691.5
720.617	30751.38
720.96	30696.69
721.303	30686.75
721.646	30689.24
721.989	30466.64
722.331	30666.86
722.674	30446.98
723.016	30458.73
723.359	30371.05
723.701	30392.97
724.044	30216.71
724.386	30148.23
724.729	30214.45
725.071	30118.18
725.413	30093.32
725.755	29992.3
726.097	29998.18
726.439	29796.38
726.782	29787.79
727.124	29912.08
727.465	29748.47
727.807	29609.04
728.149	29626.66
728.491	29497.4
728.833	29663.27
729.175	29543.95
729.516	29499.89
729.858	29424.41
730.199	29403.17
730.541	29347.8
730.882	29285.43
731.224	29328.82
731.565	29178.77
731.906	29227.8
732.248	29263.96
732.589	29082.27
732.93	28938.77
733.271	29000.24
733.612	28919.79
733.953	28999.11
734.294	28750.3
734.635	28793.24
734.976	28822.84
735.317	28657.2
735.658	28661.27
735.999	28714.6
736.339	28563.42
736.68	28628.05
737.021	28561.83
737.361	28478.22
737.702	28550.08
738.042	28441.16
738.383	28301.5
738.723	28391.44
739.063	28189.19
739.404	28279.36
739.744	28216.08
740.084	28061.06
740.424	28056.54
740.764	28038.01
741.104	28073.26
741.444	28014.96
741.784	27927.5
742.124	28007.95
742.464	27969.08
742.804	27849.31
743.143	27834.4
743.483	27915.07
743.823	27639.37
744.162	27682.31
744.502	27715.98
744.841	27669.2
745.181	27644.34
745.52	27490
745.86	27616.55
746.199	27520.28
746.538	27436.44
746.877	27506.27
747.216	27348.08
747.556	27278.7
747.895	27441.19
748.234	27224.69
748.573	27213.85
748.911	27147.86
749.25	27187.86
749.589	27043.68
749.928	26966.4
750.267	27004.13
750.605	27026.73
750.944	26817.7
751.283	26839.39
751.621	26857.47
751.96	26731.37
752.298	26605.05
752.636	26670.58
752.975	26568.44
753.313	26405.96
753.651	26608.44
753.989	26396.01
754.327	26407.54
754.666	26343.81
755.004	26300.42
755.342	26360.08
755.679	26248.45
756.017	25989.7
756.355	26017.49
756.693	25921.9
