Data from hue_90_FLMS001491_70.txt Node
Date: Mon Feb 06 15:25:29 GMT 2017
User: dcchb
Spectrometer: FLMS00149
Trigger mode: 0
Integration Time (sec): 2.000000E-2
Scans to average: 10
Electric dark correction enabled: true
Nonlinearity correction enabled: false
Boxcar width: 0
XAxis mode: Wavelengths
Number of Pixels in Spectrum: 2048
>>>>>Begin Spectral Data<<<<<
341.393	-0.95
341.776	-0.95
342.16	-0.95
342.543	-91.57
342.927	-50.44
343.31	-69.87
343.693	-72.13
344.077	-46.59
344.46	-69.65
344.843	-48.18
345.226	-40.49
345.61	-26.48
345.993	1.99
346.376	-6.82
346.759	-3.21
347.142	25.72
347.525	36.11
347.908	46.51
348.291	84.02
348.674	81.76
349.057	107.3
349.44	135.55
349.823	152.72
350.206	139.61
350.588	186.62
350.971	201.08
351.354	219.61
351.737	222.55
352.119	250.57
352.502	256.22
352.884	279.27
353.267	301.64
353.65	301.42
354.032	286.5
354.414	304.36
354.797	319.5
355.179	312.72
355.562	308.2
355.944	315.66
356.326	329.67
356.709	330.57
357.091	345.03
357.473	333.51
357.855	346.39
358.238	323.34
358.62	328.08
359.002	345.94
359.384	326.95
359.766	345.03
360.148	353.39
360.53	348.42
360.912	321.53
361.294	347.52
361.676	340.06
362.057	325.6
362.439	347.29
362.821	333.28
363.203	337.8
363.584	331.02
363.966	332.6
364.348	333.96
364.729	316.33
365.111	324.47
365.493	317.01
365.874	312.72
366.256	302.1
366.637	307.07
367.019	308.88
367.4	320.63
367.781	320.18
368.163	328.08
368.544	309.1
368.925	315.43
369.306	329.21
369.688	308.88
370.069	305.94
370.45	317.46
370.831	309.55
371.212	315.66
371.593	315.2
371.974	318.37
372.355	311.81
372.736	328.99
373.117	332.15
373.498	304.81
373.879	310.01
374.26	309.78
374.641	286.05
375.021	325.15
375.402	317.24
375.783	319.27
376.163	338.71
376.544	338.03
376.925	317.69
377.305	335.32
377.686	341.64
378.066	341.64
378.447	330.57
378.827	325.15
379.208	344.81
379.588	320.4
379.968	339.16
380.349	332.15
380.729	330.34
381.109	347.97
381.489	357.01
381.87	337.58
382.25	362.21
382.63	335.32
383.01	332.15
383.39	351.59
383.77	336.22
384.15	345.71
384.53	371.25
384.91	346.84
385.29	343
385.67	352.49
386.049	362.66
386.429	360.4
386.809	379.16
387.189	366.05
387.568	362.66
387.948	375.09
388.328	362.66
388.707	361.76
389.087	355.88
389.466	381.42
389.846	372.15
390.225	364.92
390.605	384.58
390.984	367.18
391.363	386.16
391.743	365.6
392.122	391.59
392.501	369.89
392.881	379.16
393.26	387.29
393.639	378.93
394.018	375.99
394.397	407.86
394.776	377.35
395.155	370.34
395.534	392.72
395.913	380.74
396.292	395.2
396.671	392.72
397.05	405.6
397.429	407.63
397.808	395.88
398.186	384.81
398.565	393.85
398.944	370.8
399.323	396.11
399.701	410.12
400.08	415.09
400.458	399.72
400.837	416.9
401.215	415.99
401.594	394.07
401.972	416.9
402.351	424.58
402.729	429.78
403.107	407.18
403.486	411.25
403.864	415.77
404.242	425.71
404.62	432.26
404.999	424.58
405.377	422.77
405.755	441.98
406.133	430.45
406.511	429.1
406.889	451.92
407.267	438.36
407.645	447.18
408.023	459.83
408.401	462.54
408.779	495.09
409.156	448.53
409.534	482.43
409.912	470
410.29	476.56
410.667	467.52
411.045	467.97
411.422	486.72
411.8	476.33
412.178	505.03
412.555	472.04
412.933	490.34
413.31	515.2
413.687	491.24
414.065	485.82
414.442	503.67
414.819	491.02
415.197	500.06
415.574	514.75
415.951	505.93
416.328	511.58
416.705	511.13
417.082	516.78
417.46	511.81
417.837	524.92
418.214	517.91
418.591	540.28
418.967	549.77
419.344	542.77
419.721	547.74
420.098	551.36
420.475	532.6
420.852	525.59
421.228	540.73
421.605	581.19
421.982	569.43
422.358	580.06
422.735	562.2
423.111	575.31
423.488	573.05
423.864	581.64
424.241	596.78
424.617	584.8
424.994	596.33
425.37	587.74
425.746	592.03
426.123	579.38
426.499	608.3
426.875	629.77
427.251	630.68
427.627	626.16
428.003	618.7
428.379	632.26
428.756	646.27
429.132	631.13
429.507	663.89
429.883	660.73
430.259	657.79
430.635	680.39
431.011	642.88
431.387	671.8
431.763	665.7
432.138	670.9
432.514	721.75
432.89	676.32
433.265	725.81
433.641	713.39
434.016	689.88
434.392	728.53
434.767	719.94
435.143	714.97
435.518	721.75
435.894	772.37
436.269	761.52
436.644	748.41
437.02	770.11
437.395	752.93
437.77	792.93
438.145	783.44
438.52	786.15
438.895	812.59
439.271	815.3
439.646	797.9
440.021	815.76
440.395	828.18
440.77	795.87
441.145	831.57
441.52	825.25
441.895	832.03
442.27	847.62
442.645	846.26
443.019	850.56
443.394	883.55
443.769	868.41
444.143	879.71
444.518	875.19
444.892	875.64
445.267	876.54
445.641	868.41
446.016	889.88
446.39	879.48
446.764	914.74
447.139	904.79
447.513	897.11
447.887	903.66
448.262	919.03
448.636	916.54
449.01	933.72
449.384	949.76
449.758	940.5
450.132	971.46
450.506	960.38
450.88	962.19
451.254	984.11
451.628	991.57
452.002	1007.61
452.376	1003.77
452.75	1021.4
453.123	1029.76
453.497	1033.83
453.871	1034.28
454.244	1042.19
454.618	1061.17
454.992	1075.18
455.365	1078.12
455.739	1096.65
456.112	1108.63
456.486	1115.41
456.859	1144.56
457.232	1158.35
457.606	1135.07
457.979	1165.8
458.352	1166.03
458.725	1220.26
459.099	1205.58
459.472	1218.68
459.845	1253.48
460.218	1283.54
460.591	1257.33
460.964	1282.41
461.337	1278.79
461.71	1319.24
462.083	1335.52
462.456	1333.71
462.829	1330.54
463.201	1373.03
463.574	1378
463.947	1421.84
464.32	1443.31
464.692	1429.52
465.065	1466.81
465.438	1484.44
465.81	1500.48
466.183	1503.42
466.555	1557.66
466.928	1572.35
467.3	1570.31
467.672	1598.56
468.045	1649.18
468.417	1656.86
468.789	1667.71
469.161	1701.83
469.534	1735.05
469.906	1759.69
470.278	1796.97
470.65	1844.88
471.022	1866.8
471.394	1902.51
471.766	1924.65
472.138	1963.52
472.51	2009.85
472.882	2018.21
473.253	2079
473.625	2154.7
473.997	2183.63
474.369	2220.24
474.74	2263.17
475.112	2320.12
475.484	2382.95
475.855	2446.45
476.227	2467.92
476.598	2527.8
476.97	2583.62
477.341	2683.28
477.713	2762.14
478.084	2798.08
478.455	2881.69
478.827	2921.24
479.198	3033.78
479.569	3067
479.94	3255.92
480.311	3279.65
480.682	3382.02
481.053	3486.65
481.424	3585.85
481.795	3630.6
482.166	3818.84
482.537	3825.85
482.908	3973.86
483.279	4046.63
483.65	4162.33
484.021	4287.75
484.391	4401.88
484.762	4488.43
485.133	4605.94
485.503	4699.04
485.874	4838.25
486.244	4975.19
486.615	5116.43
486.985	5181.97
487.356	5353.04
487.726	5416.54
488.097	5685.68
488.467	5708.06
488.837	5932.23
489.207	6074.83
489.578	6224.88
489.948	6337.64
490.318	6510.75
490.688	6551.42
491.058	6778.99
491.428	6931.98
491.798	7042.03
492.168	7274.79
492.538	7347.34
492.908	7471.4
493.278	7599.98
493.648	7759.3
494.017	7892.86
494.387	8045.62
494.757	8163.81
495.126	8318.83
495.496	8436.12
495.866	8541.43
496.235	8780.29
496.605	8937.58
496.974	9009.21
497.344	9102.32
497.713	9234.97
498.082	9375.3
498.452	9523.78
498.821	9620.95
499.19	9688.29
499.559	9923.99
499.928	9996.08
500.298	10128.28
500.667	10271.55
501.036	10309.97
501.405	10447.14
501.774	10550.64
502.143	10581.83
502.512	10779.56
502.88	10867.69
503.249	10932.1
503.618	11009.16
503.987	11122.38
504.356	11172.77
504.724	11289.15
505.093	11429.94
505.462	11450.5
505.83	11599.43
506.199	11657.28
506.567	11779.99
506.936	11852.08
507.304	11968
507.672	12076.48
508.041	12135.91
508.409	12150.6
508.777	12308.11
509.145	12414.55
509.514	12454.77
509.882	12536.13
510.25	12613.41
510.618	12737.25
510.986	12675.78
511.354	12836.46
511.722	12918.71
512.09	12985.83
512.458	12989.9
512.826	13152.15
513.193	13164.36
513.561	13265.6
513.929	13278.7
514.297	13399.15
514.664	13418.59
515.032	13406.84
515.4	13500.17
515.767	13494.97
516.135	13577.68
516.502	13511.24
516.869	13724.34
517.237	13832.36
517.604	13721.86
517.972	13868.07
518.339	13926.6
518.706	13918.91
519.073	13973.6
519.44	13979.25
519.808	14085.01
520.175	14112.81
520.542	14129.76
520.909	14193.48
521.276	14110.1
521.643	14308.51
522.009	14312.58
522.376	14381.95
522.743	14428.96
523.11	14520.71
523.477	14615.17
523.843	14536.75
524.21	14680.93
524.577	14773.81
524.943	14759.34
525.31	14773.81
525.676	14898.77
526.043	14896.97
526.409	14847.93
526.776	14994.14
527.142	14933.8
527.508	14979.9
527.874	15056.28
528.241	15023.52
528.607	15056.06
528.973	15119.79
529.339	14999.56
529.705	15135.83
530.071	15131.76
530.437	15128.15
530.803	15132.22
531.169	15235.26
531.535	15098.09
531.901	15120.46
532.267	15158.88
532.632	15133.8
532.998	15269.16
533.364	15211.76
533.73	15055.83
534.095	15226.22
534.461	15188.48
534.826	15220.12
535.192	15245.66
535.557	15182.16
535.923	15158.88
536.288	15127.24
536.653	15208.6
537.019	15062.61
537.384	15066.45
537.749	15063.52
538.114	15013.8
538.479	15037.3
538.845	14998.66
539.21	14866.69
539.575	14931.54
539.94	14869.85
540.305	14884.31
540.67	14810.64
541.034	14774.94
541.399	14905.1
541.764	14756.63
542.129	14766.8
542.494	14662.17
542.858	14698.33
543.223	14591.89
543.587	14637.09
543.952	14589.86
544.316	14640.7
544.681	14506.24
545.045	14454.94
545.41	14601.61
545.774	14561.61
546.138	14441.39
546.503	14447.49
546.867	14396.42
547.231	14443.42
547.595	14274.16
547.959	14347.38
548.324	14278.68
548.688	14270.32
549.052	14134.95
549.416	14223.99
549.779	14067.38
550.143	14113.26
550.507	14107.61
550.871	14057.67
551.235	14079.81
551.599	14075.52
551.962	14092.02
552.326	14033.26
552.689	14069.19
553.053	13892.02
553.417	13906.94
553.78	14006.37
554.143	13907.61
554.507	13918.46
554.87	13929.53
555.234	13934.96
555.597	13809.76
555.96	13788.52
556.323	13713.5
556.686	13767.73
557.05	13741.29
557.413	13799.59
557.776	13672.14
558.139	13803.21
558.502	13778.58
558.865	13616.32
559.228	13662.65
559.59	13749.88
559.953	13685.7
560.316	13860.61
560.679	13690.67
561.041	13802.53
561.404	13740.16
561.767	13880.04
562.129	13722.99
562.492	13795.75
562.854	13687.51
563.217	13711.24
563.579	13762.76
563.941	13811.35
564.304	13798.24
564.666	13809.09
565.028	13841.4
565.39	13956.2
565.753	13901.96
566.115	13837.11
566.477	13814.74
566.839	13889.31
567.201	13982.64
567.563	13878.91
567.925	13987.39
568.287	13914.85
568.648	13920.72
569.01	13958.91
569.372	13982.87
569.734	13958.23
570.095	13965.01
570.457	14015.18
570.819	14033.26
571.18	14082.98
571.542	14118.68
571.903	14008.85
572.265	14038.01
572.626	14080.94
572.987	14125.69
573.349	14132.02
573.71	14196.65
574.071	14127.5
574.432	14130.43
574.794	14195.52
575.155	14180.15
575.516	14136.31
575.877	14082.53
576.238	14202.3
576.599	14222.41
576.96	14219.02
577.32	14129.76
577.681	14211.79
578.042	14295.17
578.403	14112.58
578.763	14198.68
579.124	14254.72
579.485	14219.02
579.845	14255.18
580.206	14224.22
580.566	14314.16
580.927	14197.55
581.287	14200.49
581.648	14123.2
582.008	14209.98
582.368	14249.98
582.728	14302.86
583.089	14198
583.449	14247.49
583.809	14247.94
584.169	14223.54
584.529	14153.26
584.889	14299.02
585.249	14177.21
585.609	14116.2
585.969	14114.39
586.329	14087.04
586.688	14052.7
587.048	14089.98
587.408	14051.11
587.768	14097.89
588.127	14023.54
588.487	14091.34
588.846	14160.04
589.206	13950.33
589.565	13928.18
589.925	14079.59
590.284	13998.69
590.643	14019.93
591.003	14063.77
591.362	14005.01
591.721	14013.15
592.08	13964.34
592.44	14021.74
592.799	13956.43
593.158	13933.6
593.517	13933.38
593.876	14025.8
594.235	13918.69
594.593	13912.36
594.952	13935.64
595.311	13864
595.67	13992.58
596.029	13951
596.387	14008.4
596.746	13973.38
597.104	13908.97
597.463	13917.11
597.822	14001.17
598.18	13835.3
598.538	13805.02
598.897	13934.28
599.255	13841.18
599.613	13998.01
599.972	13848.41
600.33	13916.65
600.688	13847.28
601.046	13926.6
601.404	13867.16
601.762	13832.36
602.12	13934.28
602.478	13873.49
602.836	13831.46
603.194	13829.88
603.552	13841.85
603.91	13790.1
604.268	13815.19
604.625	13768.64
604.983	13846.6
605.341	13856.09
605.698	13819.26
606.056	13847.5
606.413	13877.78
606.771	13844.34
607.128	13878.24
607.485	13889.99
607.843	13863.77
608.2	13904.9
608.557	13953.49
608.914	13870.55
609.272	13906.48
609.629	13887.73
609.986	13952.81
610.343	13902.64
610.7	14019.25
611.057	13964.56
611.414	14017.44
611.771	13965.69
612.127	14076.42
612.484	14003.43
612.841	14125.91
613.198	14024.45
613.554	13989.42
613.911	14154.84
614.267	14076.2
614.624	14011.79
614.98	14023.77
615.337	14134.05
615.693	14068.06
616.05	14072.13
616.406	14144.67
616.762	14129.08
617.118	14042.07
617.475	14108.06
617.831	14172.01
618.187	14135.18
618.543	14179.7
618.899	14244.78
619.255	14266.48
619.611	14228.28
619.967	14252.69
620.323	14307.6
620.678	14194.39
621.034	14155.29
621.39	14213.14
621.746	14145.35
622.101	14362.97
622.457	14240.04
622.812	14362.74
623.168	14293.14
623.523	14254.05
623.879	14348.28
624.234	14202.52
624.589	14345.12
624.945	14287.94
625.3	14270.09
625.655	14276.42
626.01	14336.53
626.365	14295.63
626.72	14153.48
627.075	14234.61
627.43	14270.32
627.785	14233.26
628.14	14205.46
628.495	14195.06
628.85	14141.05
629.205	14181.51
629.559	14268.06
629.914	14159.59
630.269	14189.42
630.623	14129.98
630.978	14108.97
631.332	14133.6
631.687	14176.08
632.041	14091.79
632.396	14165.46
632.75	13988.74
633.104	14092.69
633.459	13946.03
633.813	14003.21
634.167	13990.1
634.521	14089.3
634.875	14031.68
635.229	13966.82
635.583	13938.57
635.937	13844.57
636.291	13929.08
636.645	13892.7
636.999	13833.49
637.352	13811.12
637.706	13800.95
638.06	13864
638.413	13867.16
638.767	13877.78
639.121	13775.41
639.474	13739.03
639.828	13756.66
640.181	13714.4
640.534	13782.19
640.888	13760.27
641.241	13569.32
641.594	13659.94
641.947	13682.08
642.301	13727.28
642.654	13647.73
643.007	13726.15
643.36	13635.31
643.713	13603.89
644.066	13621.75
644.419	13616.32
644.771	13489.32
645.124	13315.09
645.477	13330.45
645.83	13269.67
646.182	13194.86
646.535	13159.16
646.888	13250
647.24	13132.72
647.593	13240.06
647.945	13196.67
648.298	13035.1
648.65	13111.7
649.002	13071.48
649.355	13116.45
649.707	13138.82
650.059	13132.27
650.411	13306.5
650.763	13290
651.115	13454.07
651.467	13437.57
651.819	13451.58
652.171	13470.11
652.523	13416.55
652.875	13345.14
653.227	13380.4
653.578	13450.68
653.93	13447.06
654.282	13330.91
654.633	13380.85
654.985	13389.89
655.337	13419.04
655.688	13377.46
656.039	13427.18
656.391	13405.48
656.742	13410.9
657.094	13440.73
657.445	13464.24
657.796	13422.43
658.147	13463.11
658.498	13417.46
658.849	13433.95
659.2	13461.98
659.551	13496.1
659.902	13472.6
660.253	13400.74
660.604	13437.8
660.955	13412.94
661.306	13416.55
661.656	13416.55
662.007	13420.17
662.358	13440.06
662.708	13468.53
663.059	13438.47
663.409	13374.07
663.76	13380.85
664.11	13563.22
664.461	13531.13
664.811	13565.93
665.161	13540.17
665.511	13510.56
665.862	13499.72
666.212	13560.28
666.562	13618.13
666.912	13582.88
667.262	13536.1
667.612	13541.3
667.962	13514.63
668.312	13480.06
668.662	13636.44
669.011	13556.44
669.361	13517.57
669.711	13524.35
670.06	13464.24
670.41	13377.01
670.76	13426.95
671.109	13537.45
671.459	13512.6
671.808	13511.69
672.157	13497.91
672.507	13387.18
672.856	13417.68
673.205	13447.29
673.554	13496.55
673.904	13403.45
674.253	13498.59
674.602	13393.28
674.951	13191.02
675.3	13107.64
675.649	13419.04
675.998	13358.48
676.346	13375.43
676.695	13380.85
677.044	13316.44
677.393	13273.96
677.741	13292.04
678.09	13232.38
678.438	13218.14
678.787	13280.74
679.135	13235.99
679.484	13119.61
679.832	13288.2
680.181	13033.29
680.529	13101.31
680.877	13077.35
681.225	13066.51
681.573	13181.98
681.922	13068.99
682.27	12872.39
682.618	13069.67
682.966	12948.09
683.314	12994.19
683.661	12957.36
684.009	12804.14
684.357	12809.11
684.705	12830.58
685.053	12843.91
685.4	12790.13
685.748	12703.58
686.095	12749.45
686.443	12612.28
686.79	12617.7
687.138	12651.15
687.485	12635.56
687.832	12532.51
688.18	12614.77
688.527	12555.56
688.874	12475.11
689.221	12446.18
689.568	12373.42
689.915	12407.77
690.262	12377.03
690.609	12325.96
690.956	12311.95
691.303	12282.12
691.65	12194.89
691.997	12077.83
692.344	12091.84
692.69	12081.22
693.037	12048.68
693.383	11946.99
693.73	12036.93
694.077	11983.82
694.423	11941.56
694.769	11881.23
695.116	11837.84
695.462	11821.57
695.808	11748.35
696.155	11803.26
696.501	11651.4
696.847	11640.56
697.193	11586.32
697.539	11558.3
697.885	11432.2
698.231	11456.15
698.577	11482.37
698.923	11407.34
699.269	11349.94
699.614	11245.09
699.96	11221.58
700.306	11305.42
700.651	11194.24
700.997	11170.29
701.342	11087.8
701.688	11038.76
702.033	11067.46
702.379	10969.16
702.724	10933.23
703.069	10966.9
703.415	10838.77
703.76	10867.47
704.105	10785.21
704.45	10760.8
704.795	10665.67
705.14	10663.41
705.485	10643.97
705.83	10630.41
706.175	10623.18
706.52	10602.39
706.865	10575.27
707.209	10508.83
707.554	10437.42
707.899	10499.57
708.243	10384.32
708.588	10424.09
708.932	10267.26
709.277	10380.93
709.621	10328.73
709.966	10235.62
710.31	10326.92
710.654	10152.91
710.998	10291.66
711.342	10176.87
711.687	10120.6
712.031	10122.18
712.375	10029.98
712.719	10091.44
713.063	10010.99
713.407	10079.01
713.75	10064.1
714.094	10023.42
714.438	10008.06
714.782	10047.38
715.125	9953.37
715.469	9920.6
715.812	9875.86
716.156	9818
716.499	9904.56
716.843	9890.77
717.186	9768.97
717.53	9822.3
717.873	9843.31
718.216	9788.85
718.559	9775.75
718.902	9630.66
719.246	9773.26
719.589	9713.83
719.932	9669.99
720.275	9706.37
720.617	9616.2
720.96	9675.64
721.303	9604.22
721.646	9645.35
721.989	9614.85
722.331	9609.42
722.674	9593.6
723.016	9629.99
723.359	9521.06
723.701	9514.28
724.044	9478.58
724.386	9504.57
724.729	9525.13
725.071	9450.78
725.413	9477.9
725.755	9493.72
726.097	9440.84
726.439	9425.25
726.782	9419.37
727.124	9499.14
727.465	9436.77
727.807	9410.11
728.149	9402.87
728.491	9440.61
728.833	9394.29
729.175	9408.98
729.516	9340.73
729.858	9412.59
730.199	9425.25
730.541	9427.05
730.882	9394.96
731.224	9410.78
731.565	9318.36
731.906	9385.47
732.248	9359.49
732.589	9308.19
732.93	9350.9
733.271	9314.97
733.612	9293.5
733.953	9343.89
734.294	9264.8
734.635	9313.39
734.976	9353.84
735.317	9327.17
735.658	9368.98
735.999	9393.16
736.339	9329.66
736.68	9401.74
737.021	9347.28
737.361	9277.45
737.702	9404.68
738.042	9368.07
738.383	9408.75
738.723	9434.96
739.063	9404.91
739.404	9443.1
739.744	9428.86
740.084	9454.17
740.424	9455.53
740.764	9413.5
741.104	9474.96
741.444	9500.72
741.784	9451.23
742.124	9432.7
742.464	9538.01
742.804	9538.92
743.143	9593.6
743.483	9575.53
743.823	9630.89
744.162	9579.37
744.502	9683.32
744.841	9684.22
745.181	9654.39
745.52	9697.56
745.86	9793.6
746.199	9851.22
746.538	9932.35
746.877	9981.39
747.216	10088.73
747.556	10012.58
747.895	10071.11
748.234	10087.6
748.573	10135.51
748.911	10217.32
749.25	10291.66
749.589	10286.69
749.928	10319.69
750.267	10463.19
750.605	10533.24
750.944	10626.34
751.283	10660.47
751.621	10768.49
751.96	10868.82
752.298	10916.96
752.636	11052.55
752.975	11115.15
753.313	11204.41
753.651	11420.22
753.989	11470.84
754.327	11670.16
754.666	11745.64
755.004	11826.54
755.342	12030.83
755.679	12079.64
756.017	12153.54
756.355	12451.61
756.693	12518.05
757.031	12660.87
757.368	12791.03
757.706	12977.7
758.044	13101.53
758.381	13230.8
758.719	13466.27
