Data from hue_24_FLMS001491_00025.txt Node
Date: Tue Feb 07 17:12:02 GMT 2017
User: dcchb
Spectrometer: FLMS00149
Trigger mode: 0
Integration Time (sec): 2.000000E-2
Scans to average: 10
Electric dark correction enabled: true
Nonlinearity correction enabled: false
Boxcar width: 0
XAxis mode: Wavelengths
Number of Pixels in Spectrum: 2048
>>>>>Begin Spectral Data<<<<<
341.393	-6.21
341.776	-6.21
342.16	-6.21
342.543	-60.9
342.927	-74.01
343.31	-75.14
343.693	-64.74
344.077	-50.28
344.46	-59.77
344.843	-48.02
345.226	-41.92
345.61	-34.01
345.993	-26.55
346.376	8.25
346.759	7.57
347.142	17.06
347.525	34.69
347.908	68.81
348.291	67.91
348.674	89.6
349.057	106.55
349.44	130.28
349.823	160.11
350.206	182.26
350.588	192.2
350.971	221.8
351.354	229.94
351.737	253.21
352.119	245.98
352.502	259.09
352.884	292.31
353.267	271.97
353.65	284.85
354.032	302.25
354.414	310.61
354.797	316.71
355.179	314.46
355.562	312.87
355.944	334.12
356.326	342.25
356.709	345.41
357.091	340.89
357.473	354.91
357.855	333.44
358.238	333.89
358.62	357.62
359.002	347
359.384	337.28
359.766	342.7
360.148	356.49
360.53	344.06
360.912	321.91
361.294	321.91
361.676	349.48
362.057	338.41
362.439	335.7
362.821	328.69
363.203	335.47
363.584	345.64
363.966	338.86
364.348	333.21
364.729	335.02
365.111	314
365.493	341.12
365.874	306.77
366.256	311.97
366.637	327.79
367.019	314.91
367.4	352.87
367.781	297.96
368.163	327.11
368.544	328.01
368.925	318.52
369.306	352.87
369.688	327.79
370.069	305.42
370.45	316.04
370.831	293.89
371.212	321.23
371.593	304.29
371.974	326.21
372.355	312.87
372.736	315.36
373.117	315.13
373.498	328.01
373.879	322.36
374.26	317.39
374.641	310.16
375.021	323.72
375.402	299.09
375.783	332.31
376.163	336.15
376.544	340.22
376.925	327.11
377.305	325.98
377.686	330.27
378.066	323.72
378.447	318.52
378.827	331.4
379.208	326.21
379.588	324.4
379.968	342.93
380.349	333.21
380.729	333.66
381.109	347.22
381.489	350.84
381.87	335.02
382.25	335.02
382.63	311.29
383.01	368.92
383.39	340.67
383.77	361.69
384.15	364.17
384.53	354.91
384.91	336.6
385.29	346.32
385.67	385.19
386.049	375.92
386.429	364.4
386.809	361.69
387.189	351.29
387.568	356.71
387.948	379.99
388.328	371.18
388.707	361.69
389.087	357.17
389.466	353.55
389.846	370.05
390.225	376.83
390.605	367.33
390.984	377.5
391.363	364.17
391.743	341.35
392.122	384.28
392.501	373.89
392.881	389.26
393.26	375.24
393.639	374.34
394.018	404.4
394.397	401.68
394.776	392.65
395.155	399.42
395.534	367.11
395.913	406.66
396.292	386.09
396.671	394
397.05	395.36
397.429	423.15
397.808	379.54
398.186	387.9
398.565	394.23
398.944	388.8
399.323	406.88
399.701	399.42
400.08	408.69
400.458	400.78
400.837	406.88
401.215	420.21
401.594	434.68
401.972	418.41
402.351	405.98
402.729	415.02
403.107	404.17
403.486	409.82
403.864	429.93
404.242	419.76
404.62	431.74
404.999	412.31
405.377	451.4
405.755	427.45
406.133	427.9
406.511	413.21
406.889	433.77
407.267	416.37
407.645	429.25
408.023	454.34
408.401	456.82
408.779	454.79
409.156	474.68
409.534	451.17
409.912	443.27
410.29	452.98
410.667	455.69
411.045	439.42
411.422	464.28
411.8	453.89
412.178	483.04
412.555	480.1
412.933	467.9
413.31	488.46
413.687	504.28
414.065	493.66
414.442	496.37
414.819	505.86
415.197	478.52
415.574	490.5
415.951	506.77
416.328	493.21
416.705	514.9
417.082	526.2
417.46	509.25
417.837	512.64
418.214	520.78
418.591	544.51
418.967	525.97
419.344	534.79
419.721	514.22
420.098	544.05
420.475	548.35
420.852	529.14
421.228	550.83
421.605	541.79
421.982	535.69
422.358	553.09
422.735	556.93
423.111	546.09
423.488	547.44
423.864	539.53
424.241	574.79
424.617	569.14
424.994	593.77
425.37	584.28
425.746	561.91
426.123	595.13
426.499	600.1
426.875	570.27
427.251	581.79
427.627	571.17
428.003	612.75
428.379	624.5
428.756	615.46
429.132	615.01
429.507	619.53
429.883	657.27
430.259	623.37
430.635	624.5
431.011	636.93
431.387	678.74
431.763	645.52
432.138	655.91
432.514	678.51
432.89	646.2
433.265	685.97
433.641	689.59
434.016	680.1
434.392	685.97
434.767	720.32
435.143	717.38
435.518	713.31
435.894	704.5
436.269	757.83
436.644	701.56
437.02	730.26
437.395	732.07
437.77	746.53
438.145	727.78
438.52	748.57
438.895	754.22
439.271	767.32
439.646	766.65
440.021	753.54
440.395	774.1
440.77	763.48
441.145	777.49
441.52	806.42
441.895	788.34
442.27	791.73
442.645	756.03
443.019	834.22
443.394	816.36
443.769	839.41
444.143	830.15
444.518	849.36
444.892	840.99
445.267	824.27
445.641	817.94
446.016	840.32
446.39	828.11
446.764	851.16
447.139	859.98
447.513	833.54
447.887	865.4
448.262	897.26
448.636	867.66
449.01	883.48
449.384	897.04
449.758	867.89
450.132	902.46
450.506	915.8
450.88	905.4
451.254	915.8
451.628	906.3
452.002	906.3
452.376	941.78
452.75	958.51
453.123	945.62
453.497	959.86
453.871	969.58
454.244	956.02
454.618	991.27
454.992	986.3
455.365	978.17
455.739	1024.49
456.112	1020.2
456.486	1002.12
456.859	1030.59
457.232	1050.71
457.606	1050.48
457.979	1066.75
458.352	1092.74
458.725	1075.34
459.099	1079.63
459.472	1106.98
459.845	1121.21
460.218	1108.56
460.591	1115.11
460.964	1143.59
461.337	1146.98
461.71	1182.23
462.083	1193.3
462.456	1188.1
462.829	1179.74
463.201	1216.13
463.574	1240.08
463.947	1249.35
464.32	1266.75
464.692	1273.07
465.065	1317.59
465.438	1341.55
465.81	1298.38
466.183	1321.43
466.555	1366.18
466.928	1349
467.3	1374.09
467.672	1351.94
468.045	1421.54
468.417	1419.96
468.789	1441.66
469.161	1450.92
469.534	1465.16
469.906	1505.16
470.278	1509.45
470.65	1543.8
471.022	1546.74
471.394	1593.74
471.766	1593.52
472.138	1608.88
472.51	1662.67
472.882	1658.6
473.253	1710.58
473.625	1727.53
473.997	1750.8
474.369	1773.63
474.74	1770.01
475.112	1822.21
475.484	1822.44
475.855	1891.14
476.227	1925.03
476.598	1960.29
476.97	2007.29
477.341	2033.73
477.713	2065.37
478.084	2095.88
478.455	2121.19
478.827	2177.91
479.198	2257
479.569	2244.12
479.94	2297.68
480.311	2302.88
480.682	2361.63
481.053	2426.04
481.424	2451.35
481.795	2508.97
482.166	2566.6
482.537	2623.32
482.908	2641.17
483.279	2675.52
483.65	2723.88
484.021	2808.85
484.391	2824.45
484.762	2894.27
485.133	2925.01
485.503	2946.93
485.874	3008.4
486.244	3061.95
486.615	3090.2
486.985	3166.36
487.356	3208.62
487.726	3267.6
488.097	3350.31
488.467	3344.66
488.837	3445.22
489.207	3503.98
489.578	3540.36
489.948	3590.3
490.318	3632.33
490.688	3681.37
491.058	3737.87
491.428	3778.32
491.798	3836.85
492.168	3930.63
492.538	3924.53
492.908	3974.02
493.278	4042.72
493.648	4096.95
494.017	4106.22
494.387	4174.24
494.757	4167.01
495.126	4254.92
495.496	4288.36
495.866	4324.52
496.235	4335.14
496.605	4383.05
496.974	4421.47
497.344	4475.25
497.713	4455.36
498.082	4529.49
498.452	4583.72
498.821	4610.39
499.19	4627.79
499.559	4689.03
499.928	4719.31
500.298	4709.59
500.667	4777.39
501.036	4822.59
501.405	4878.4
501.774	4895.35
502.143	4900.32
502.512	4968.34
502.88	4985.97
503.249	5017.61
503.618	5053.09
503.987	5033.2
504.356	5089.7
504.724	5099.19
505.093	5145.74
505.462	5194.33
505.83	5184.84
506.199	5246.75
506.567	5268.45
506.936	5287.88
507.304	5375.79
507.672	5338.96
508.041	5386.86
508.409	5411.27
508.777	5454.88
509.145	5496.01
509.514	5493.3
509.882	5530.59
510.25	5582.57
510.618	5580.31
510.986	5619.85
511.354	5667.31
511.722	5661.43
512.09	5717.48
512.458	5749.11
512.826	5758.83
513.193	5776.91
513.561	5768.1
513.929	5868.43
514.297	5879.73
514.664	5907.08
515.032	5964.02
515.4	5921.77
515.767	6006.06
516.135	5987.98
516.502	5965.61
516.869	6053.74
517.237	6126.51
517.604	6074.08
517.972	6110.69
518.339	6116.56
518.706	6176.67
519.073	6186.17
519.44	6217.35
519.808	6230.01
520.175	6267.74
520.542	6331.02
520.909	6362.43
521.276	6318.14
521.643	6421.87
522.009	6440.62
522.376	6464.12
522.743	6506.61
523.11	6587.51
523.477	6630.22
523.843	6660.95
524.21	6688.98
524.577	6707.96
524.943	6761.52
525.31	6747.51
525.676	6885.58
526.043	6894.62
526.409	6879.25
526.776	6965.13
527.142	6976.43
527.508	7071.34
527.874	7041.06
528.241	7119.47
528.607	7199.47
528.973	7220.49
529.339	7171.45
529.705	7254.39
530.071	7324.89
530.437	7356.08
530.803	7389.3
531.169	7393.14
531.535	7381.61
531.901	7458
532.267	7475.17
532.632	7549.52
532.998	7574.15
533.364	7633.36
533.73	7607.37
534.095	7688.5
534.461	7707.03
534.826	7719.01
535.192	7783.64
535.557	7864.09
535.923	7893.92
536.288	7868.83
536.653	7963.75
537.019	7899.34
537.384	7907.48
537.749	7943.86
538.114	8013.24
538.479	7997.19
538.845	8091.2
539.21	8058.88
539.575	8090.3
539.94	8098.21
540.305	8216.85
540.67	8173.46
541.034	8217.98
541.399	8260.46
541.764	8272.66
542.129	8389.72
542.494	8391.08
542.858	8419.1
543.223	8406.67
543.587	8427.91
543.952	8496.39
544.316	8576.16
544.681	8512.88
545.045	8615.25
545.41	8623.62
545.774	8702.94
546.138	8649.6
546.503	8762.37
546.867	8698.42
547.231	8808.24
547.595	8806.44
547.959	8817.06
548.324	8888.01
548.688	8848.92
549.052	8887.34
549.416	8977.96
549.779	9006.43
550.143	9012.53
550.507	9025.64
550.871	9117.39
551.235	9044.85
551.599	9147.44
551.962	9182.92
552.326	9221.34
552.689	9225.41
553.053	9290.04
553.417	9253.88
553.78	9419.53
554.143	9408.45
554.507	9420.2
554.87	9361.9
555.234	9442.35
555.597	9438.51
555.96	9546.08
556.323	9540.2
556.686	9492.52
557.05	9565.96
557.413	9636.7
557.776	9695.68
558.139	9805.28
558.502	9665.4
558.865	9715.56
559.228	9804.6
559.59	9880.53
559.953	9839.18
560.316	9974.09
560.679	9917.14
561.041	10041.2
561.404	10062
561.767	10102.45
562.129	10067.42
562.492	10179.05
562.854	10103.35
563.217	10199.84
563.579	10179.73
563.941	10283.68
564.304	10292.27
564.666	10340.18
565.028	10359.39
565.39	10380.86
565.753	10453.62
566.115	10520.06
566.477	10544.02
566.839	10562.32
567.201	10622.21
567.563	10626.5
567.925	10695.42
568.287	10799.6
568.648	10717.8
569.01	10845.25
569.372	10905.14
569.734	10826.27
570.095	11001.63
570.457	11024.68
570.819	11078.92
571.18	11009.77
571.542	11118.01
571.903	11106.04
572.265	11204.34
572.626	11251.12
572.987	11306.93
573.349	11371.34
573.71	11423.77
574.071	11440.72
574.432	11507.83
574.794	11538.79
575.155	11604.55
575.516	11651.78
575.877	11770.65
576.238	11878.67
576.599	11869.86
576.96	11943.3
577.32	12020.59
577.681	12174.93
578.042	12281.15
578.403	12313.01
578.763	12447.02
579.124	12546.45
579.485	12600.46
579.845	12760.68
580.206	12757.74
580.566	12961.58
580.927	13053.33
581.287	13298.75
581.648	13284.51
582.008	13490.15
582.368	13704.84
582.728	13676.14
583.089	13911.16
583.449	14021.44
583.809	14177.14
584.169	14392.95
584.529	14487.87
584.889	14726.73
585.249	14940.06
585.609	15021.41
585.969	15315.42
586.329	15427.28
586.688	15619.82
587.048	15802.41
587.408	15990.43
587.768	16269.74
588.127	16485.1
588.487	16717.64
588.846	17139.55
589.206	17241.02
589.565	17600.55
589.925	17764.17
590.284	17998.74
590.643	18293.42
591.003	18644.14
591.362	18918.03
591.721	19199.16
592.08	19430.34
592.44	19683.44
592.799	20041.39
593.158	20233.71
593.517	20536.97
593.876	20943.74
594.235	21172.21
594.593	21544.63
594.952	21791.18
595.311	22072.53
595.67	22420.54
596.029	22815.33
596.387	23163.57
596.746	23484.24
597.104	23614.41
597.463	23968.75
597.822	24455.74
598.18	24654.38
598.538	24933.47
598.897	25313.12
599.255	25401.25
599.613	26174.11
599.972	26123.27
600.33	26626.31
600.688	26750.6
601.046	27216.12
601.404	27515.32
601.762	27722.32
602.12	28203.21
602.478	28466.26
602.836	28612.92
603.194	28835.74
603.552	29219.91
603.91	29418.32
604.268	29877.07
604.625	29970.4
604.983	30384.62
605.341	30546.2
605.698	30845.4
606.056	31071.61
606.413	31466.4
606.771	31762.67
607.128	32116.78
607.485	32035.2
607.843	32368.53
608.2	32587.73
608.557	33093.93
608.914	33104.55
609.272	33630.64
609.629	33701.6
609.986	34063.17
610.343	34175.71
610.7	34601.24
611.057	34703.38
611.414	34941.12
611.771	35307.89
612.127	35534.77
612.484	35648.44
612.841	36003.46
613.198	35932.73
613.554	36225.83
613.911	36590.11
614.267	36690.45
614.624	36868.75
614.98	36870.56
615.337	37328.4
615.693	37452.69
616.05	37560.48
616.406	37911.43
616.762	37926.35
617.118	37922.73
617.475	38177.19
617.831	38339.67
618.187	38523.62
618.543	38697.4
618.899	39006.54
619.255	39231.17
619.611	39248.35
619.967	39428.23
620.323	39620.99
620.678	39524.72
621.034	39694.44
621.39	39744.15
621.746	39858.27
622.101	40272.95
622.457	40155.44
622.812	40299.62
623.168	40550.46
623.523	40481.99
623.879	40789.1
624.234	40689.89
624.589	40900.05
624.945	41064.34
625.3	41114.29
625.655	41121.74
626.01	41308.41
626.365	41207.84
626.72	41259.59
627.075	41438.57
627.43	41389.53
627.785	41387.73
628.14	41667.27
628.495	41673.59
628.85	41621.39
629.205	41622.52
629.559	41937.77
629.914	41822.52
630.269	41844.21
630.623	41825.91
630.978	41889.86
631.332	42046.92
631.687	41994.26
632.041	41968.73
632.396	42154.71
632.75	41976.18
633.104	42291.2
633.459	42010.76
633.813	42053.47
634.167	41963.98
634.521	42057.54
634.875	42156.52
635.229	42221.6
635.583	42060.02
635.937	42102.28
636.291	42063.19
636.645	41943.64
636.999	42067.93
637.352	42182.96
637.706	41926.47
638.06	42310.41
638.413	42103.41
638.767	42039.91
639.121	42102.96
639.474	41978.22
639.828	42006.69
640.181	42044.21
640.534	41928.73
640.888	41942.06
641.241	41781.16
641.594	41987.03
641.947	42093.7
642.301	42111.1
642.654	41931.89
643.007	42091.89
643.36	41940.71
643.713	41980.7
644.066	42014.38
644.419	41810.99
644.771	41764.66
645.124	41351.12
645.477	41279.25
645.83	40935.99
646.182	40899.6
646.535	40791.58
646.888	40774.86
647.24	40677.24
647.593	40935.08
647.945	40849.89
648.298	40628.65
648.65	40706.16
649.002	40602.66
649.355	40801.53
649.707	40692.38
650.059	40889.21
650.411	41461.4
650.763	41332.13
651.115	41743.42
651.467	41495.75
651.819	41557.44
652.171	41463.2
652.523	41304.11
652.875	41333.72
653.227	41340.49
653.578	41720.6
653.93	41519.7
654.282	41337.56
654.633	41279.03
654.985	41396.76
655.337	41415.97
655.688	41458.68
656.039	41489.19
656.391	41207.17
656.742	41283.32
657.094	41285.36
657.445	41373.49
657.796	41355.18
658.147	41233.15
658.498	41275.86
658.849	41161.74
659.2	41180.27
659.551	41271.8
659.902	41284.68
660.253	41063.67
660.604	41328.52
660.955	41101.41
661.306	41272.25
661.656	41098.69
662.007	41311.57
662.358	41192.02
662.708	41247.62
663.059	41246.49
663.409	40998.36
663.76	41290.33
664.11	41182.08
664.461	41271.12
664.811	41193.38
665.161	41079.94
665.511	41215.07
665.862	41185.47
666.212	41235.41
666.562	41232.7
666.912	41126.94
667.262	41103.44
667.612	41142.31
667.962	41184.79
668.312	41092.37
668.662	41334.62
669.011	41128.52
669.361	41085.59
669.711	40972.82
670.06	41081.97
670.41	40955.42
670.76	41016.66
671.109	40911.13
671.459	40937.79
671.808	40892.6
672.157	41034.51
672.507	40667.07
672.856	40746.39
673.205	40818.7
673.554	40943.22
673.904	40902.77
674.253	41017.11
674.602	40901.64
674.951	40347.3
675.3	40151.15
675.649	40788.42
675.998	40798.14
676.346	40749.32
676.695	40795.42
677.044	40437.24
677.393	40704.13
677.741	40737.35
678.09	40532.61
678.438	40522.21
678.787	40619.84
679.135	40601.31
679.484	40381.42
679.832	40535.32
680.181	40373.97
680.529	40328.54
680.877	40290.13
681.225	40216.68
681.573	40549.33
681.922	40272.27
682.27	40180.53
682.618	40002.9
682.966	40035.9
683.314	40064.6
683.661	40006.74
684.009	39760.88
684.357	39694.44
684.705	39672.29
685.053	39892.17
685.4	39526.31
685.748	39445.18
686.095	39491.5
686.443	39332.64
686.79	39170.83
687.138	39398.85
687.485	39263.94
687.832	39138.29
688.18	39267.1
688.527	39082.93
688.874	39070.05
689.221	38971.74
689.568	38987.11
689.915	38802.48
690.262	38877.51
690.609	38603.17
690.956	38454.24
691.303	38645.88
691.65	38217.41
691.997	38339.22
692.344	38136.74
692.69	38189.84
693.037	37990.75
693.383	37750.08
693.73	37855.84
694.077	37652.91
694.423	37676.64
694.769	37594.38
695.116	37432.12
695.462	37630.54
695.808	37445
696.155	37256.53
696.501	37108.97
696.847	37005.69
697.193	36871.69
697.539	37065.58
697.885	36698.81
698.231	36761.18
698.577	36734.06
698.923	36604.8
699.269	36531.58
699.614	36368.87
699.96	36261.31
700.306	36267.86
700.651	36071.25
700.997	36109.45
701.342	35950.58
701.688	35919.62
702.033	35800.75
702.379	35668.33
702.724	35725.73
703.069	35683.92
703.415	35336.58
703.76	35247.55
704.105	35354.89
704.45	35295.23
704.795	35033.77
705.14	34958.06
705.485	34977.05
705.83	34818.18
706.175	34771.18
706.52	34777.28
706.865	34576.6
707.209	34557.17
707.554	34483.05
707.899	34535.25
708.243	34398.3
708.588	34375.48
708.932	34043.29
709.277	34231.98
709.621	34023.85
709.966	33765.55
710.31	33991.76
710.654	33704.09
710.998	33715.61
711.342	33675.84
711.687	33660.47
712.031	33460.48
712.375	33432.68
712.719	33417.31
713.063	33371.66
713.407	33458.44
713.75	33367.37
714.094	33180.03
714.438	33060.49
714.782	33063.2
715.125	33019.13
715.469	33021.62
715.812	32902.3
716.156	32712.7
716.499	32615.75
716.843	32698.24
717.186	32584.79
717.53	32678.12
717.873	32457.11
718.216	32526.72
718.559	32366.27
718.902	32286.95
719.246	32354.06
719.589	32183.22
719.932	32154.07
720.275	32113.39
720.617	31971.7
720.96	31968.31
721.303	31864.13
721.646	31985.03
721.989	31741.2
722.331	31817.81
722.674	31846.28
723.016	31822.33
723.359	31579.62
723.701	31715.21
724.044	31505.05
724.386	31336.24
724.729	31474.77
725.071	31438.16
725.413	31409
725.755	31274.77
726.097	31137.15
726.439	31005.4
726.782	31020.09
727.124	31173.3
727.465	30927.89
727.807	30965.17
728.149	30856.02
728.491	30829.36
728.833	30902.8
729.175	30689.93
729.516	30679.53
729.858	30785.29
730.199	30692.41
730.541	30631.62
730.882	30555.47
731.224	30585.3
731.565	30362.03
731.906	30325.64
732.248	30413.55
732.589	30263.05
732.93	30140.11
733.271	30370.39
733.612	30327.68
733.953	30236.38
734.294	30056.27
734.635	30169.49
734.976	30198.64
735.317	29934.69
735.658	29910.06
735.999	29923.17
736.339	29874.81
736.68	29961.81
737.021	29860.57
737.361	29798.43
737.702	29823.51
738.042	29746.45
738.383	29677.07
738.723	29768.6
739.063	29611.09
739.404	29605.21
739.744	29612.67
740.084	29445.44
740.424	29560.92
740.764	29457.87
741.104	29493.8
741.444	29317.53
741.784	29246.12
742.124	29261.04
742.464	29319.57
742.804	29257.87
743.143	29148.5
743.483	29144.66
743.823	29077.77
744.162	28981.95
744.502	29112.12
744.841	28903.99
745.181	28999.35
745.52	28926.36
745.86	28975.62
746.199	28826.02
746.538	28722.07
746.877	28792.8
747.216	28812.69
747.556	28718.91
747.895	28730.88
748.234	28544.9
748.573	28604.33
748.911	28510.1
749.25	28525.46
749.589	28387.84
749.928	28397.56
750.267	28494.96
750.605	28401.4
750.944	28188.07
751.283	28243.44
751.621	28208.64
751.96	28162.76
752.298	28125.48
752.636	28075.76
752.975	28022.65
753.313	27871.92
753.651	28015.2
753.989	27791.25
754.327	27810
754.666	27699.72
755.004	27705.83
755.342	27784.02
755.679	27686.16
756.017	27566.85
756.355	27583.57
756.693	27552.16
757.031	27518.26
757.368	27350.58
757.706	27456.57
758.044	27242.11
758.381	27258.15
758.719	27070.59
759.056	27208.44
759.394	26985.84
759.731	26832.63
