Data from hue_250_FLMS001491_00081.txt Node
Date: Tue Feb 07 16:01:34 GMT 2017
User: dcchb
Spectrometer: FLMS00149
Trigger mode: 0
Integration Time (sec): 2.000000E-2
Scans to average: 10
Electric dark correction enabled: true
Nonlinearity correction enabled: false
Boxcar width: 0
XAxis mode: Wavelengths
Number of Pixels in Spectrum: 2048
>>>>>Begin Spectral Data<<<<<
341.393	-11.93
341.776	-11.93
342.16	-11.93
342.543	-74.53
342.927	-76.34
343.31	-54.87
343.693	-79.05
344.077	-58.49
344.46	-55.32
344.843	-39.28
345.226	-40.86
345.61	-37.92
345.993	-30.01
346.376	-1.09
346.759	4.56
347.142	18.35
347.525	60.61
347.908	40.27
348.291	89.31
348.674	86.59
349.057	97.21
349.44	129.3
349.823	147.84
350.206	165.24
350.588	178.12
350.971	188.74
351.354	206.59
351.737	235.97
352.119	231.45
352.502	257.44
352.884	274.39
353.267	253.6
353.65	261.28
354.032	279.13
354.414	293.14
354.797	292.92
355.179	315.51
355.562	301.5
355.944	320.26
356.326	307.38
356.709	307.83
357.091	304.89
357.473	329.07
357.855	324.33
358.238	346.47
358.62	330.2
359.002	330.88
359.384	325.68
359.766	347.38
360.148	326.81
360.53	320.71
360.912	319.36
361.294	317.32
361.676	302.86
362.057	308.06
362.439	324.78
362.821	298.57
363.203	329.53
363.584	304.44
363.966	299.92
364.348	313.48
364.729	318.68
365.111	297.89
365.493	284.78
365.874	303.31
366.256	300.83
366.637	302.86
367.019	306.25
367.4	302.18
367.781	311.9
368.163	315.51
368.544	319.58
368.925	314.61
369.306	316.87
369.688	299.7
370.069	305.35
370.45	301.96
370.831	304.44
371.212	293.59
371.593	305.35
371.974	319.13
372.355	283.88
372.736	294.5
373.117	289.98
373.498	302.63
373.879	310.32
374.26	315.97
374.641	303.99
375.021	295.63
375.402	303.09
375.783	301.5
376.163	315.06
376.544	331.11
376.925	322.52
377.305	306.02
377.686	325.46
378.066	316.42
378.447	320.71
378.827	316.87
379.208	329.75
379.588	301.96
379.968	330.66
380.349	303.09
380.729	313.03
381.109	330.88
381.489	309.41
381.87	317.1
382.25	332.24
382.63	308.96
383.01	314.61
383.39	327.94
383.77	337.89
384.15	341.5
384.53	336.3
384.91	329.07
385.29	339.24
385.67	338.11
386.049	350.09
386.429	321.62
386.809	340.6
387.189	353.48
387.568	345.57
387.948	350.99
388.328	361.39
388.707	360.71
389.087	339.24
389.466	340.15
389.846	371.11
390.225	366.59
390.605	356.19
390.984	358.9
391.363	362.74
391.743	336.08
392.122	370.65
392.501	348.28
392.881	384.44
393.26	365.46
393.639	350.32
394.018	371.56
394.397	378.11
394.776	354.38
395.155	380.82
395.534	374.95
395.913	360.26
396.292	374.27
396.671	385.79
397.05	379.92
397.429	376.08
397.808	397.32
398.186	405.46
398.565	389.41
398.944	400.26
399.323	385.57
399.701	395.29
400.08	397.55
400.458	400.48
400.837	381.05
401.215	396.42
401.594	398.45
401.972	435.06
402.351	426.47
402.729	404.55
403.107	421.27
403.486	425.57
403.864	399.13
404.242	438.9
404.62	442.29
404.999	440.26
405.377	440.93
405.755	429.86
406.133	465.34
406.511	439.58
406.889	451.33
407.267	467.6
407.645	464.21
408.023	457.88
408.401	481.39
408.779	489.07
409.156	468.96
409.534	477.54
409.912	485.68
410.29	505.57
410.667	505.57
411.045	506.47
411.422	533.14
411.8	504.44
412.178	518.9
412.555	526.13
412.933	552.8
413.31	537.88
413.687	549.86
414.065	556.64
414.442	556.64
414.819	582.17
415.197	583.76
415.574	581.72
415.951	579.69
416.328	602.74
416.705	590.54
417.082	575.85
417.46	610.42
417.837	625.79
418.214	632.12
418.591	631.44
418.967	626.92
419.344	630.53
419.721	650.87
420.098	659.23
420.475	648.39
420.852	670.08
421.228	681.15
421.605	669.86
421.982	680.48
422.358	693.58
422.735	693.13
423.111	706.69
423.488	728.61
423.864	717.54
424.241	758.67
424.617	763.86
424.994	760.02
425.37	776.75
425.746	776.07
426.123	816.74
426.499	796.18
426.875	821.94
427.251	804.32
427.627	843.64
428.003	840.7
428.379	857.65
428.756	844.54
429.132	877.53
429.507	885.22
429.883	888.83
430.259	905.78
430.635	913.24
431.011	926.8
431.387	911.66
431.763	938.1
432.138	958.66
432.514	958.21
432.89	982.62
433.265	1007.93
433.641	1014.25
434.016	1006.12
434.392	1034.37
434.767	1052.22
435.143	1075.49
435.518	1075.49
435.894	1099.22
436.269	1125.21
436.644	1147.13
437.02	1142.61
437.395	1154.14
437.77	1164.31
438.145	1169.28
438.52	1186.68
438.895	1213.12
439.271	1217.64
439.646	1238.43
440.021	1264.19
440.395	1263.96
440.77	1280.91
441.145	1271.65
441.52	1338.31
441.895	1341.93
442.27	1345.09
442.645	1331.76
443.019	1347.8
443.394	1343.06
443.769	1370.4
444.143	1370.85
444.518	1383.06
444.892	1379.67
445.267	1438.2
445.641	1421.47
446.016	1437.29
446.39	1415.15
446.764	1463.05
447.139	1454.92
447.513	1490.17
447.887	1494.01
448.262	1475.71
448.636	1496.73
449.01	1502.38
449.384	1501.25
449.758	1538.76
450.132	1548.02
450.506	1556.84
450.88	1579.89
451.254	1581.02
451.628	1598.87
452.002	1621.92
452.376	1642.94
452.75	1624.18
453.123	1647.23
453.497	1706.21
453.871	1684.07
454.244	1742.14
454.618	1729.26
454.992	1710.73
455.365	1733.78
455.739	1800.22
456.112	1799.09
456.486	1805.64
456.859	1848.36
457.232	1882.7
457.606	1853.33
457.979	1857.62
458.352	1925.87
458.725	1944.4
459.099	1935.81
459.472	1974.23
459.845	1963.83
460.218	2020.33
460.591	2024.85
460.964	2035.7
461.337	2059.2
461.71	2081.34
462.083	2168.35
462.456	2134.68
462.829	2126.99
463.201	2160.44
463.574	2209.48
463.947	2213.32
464.32	2246.09
464.692	2263.49
465.065	2284.95
465.438	2321.79
465.81	2331.05
466.183	2371.73
466.555	2402.47
466.928	2427.78
467.3	2426.19
467.672	2462.8
468.045	2535.57
468.417	2499.86
468.789	2559.98
469.161	2616.92
469.534	2618.28
469.906	2644.94
470.278	2667.77
470.65	2694.21
471.022	2695.11
471.394	2748.67
471.766	2802.45
472.138	2803.13
472.51	2844.04
472.882	2893.3
473.253	2930.81
473.625	2975.11
473.997	3009
474.369	3050.36
474.74	3052.84
475.112	3080.64
475.484	3140.98
475.855	3255.78
476.227	3239.51
476.598	3331.48
476.97	3358.6
477.341	3426.84
477.713	3424.13
478.084	3469.33
478.455	3531.47
478.827	3632.49
479.198	3649.66
479.569	3641.53
479.94	3793.16
480.311	3741.86
480.682	3844.91
481.053	3897.34
481.424	3923.33
481.795	3974.63
482.166	4027.06
482.537	4116.32
482.908	4144.11
483.279	4206.71
483.65	4261.85
484.021	4329.42
484.391	4359.02
484.762	4359.48
485.133	4415.07
485.503	4462.52
485.874	4576.19
486.244	4626.81
486.615	4682.18
486.985	4739.8
487.356	4847.37
487.726	4850.76
488.097	4897.77
488.467	4918.78
488.837	5012.79
489.207	5107.03
489.578	5077.65
489.948	5144.77
490.318	5243.75
490.688	5227.02
491.058	5291.65
491.428	5384.99
491.798	5430.86
492.168	5539.33
492.538	5508.15
492.908	5547.47
493.278	5609.16
493.648	5649.16
494.017	5662.49
494.387	5694.58
494.757	5757.18
495.126	5817.74
495.496	5838.98
495.866	5864.75
496.235	5909.72
496.605	5970.51
496.974	5959.89
497.344	6019.77
497.713	6097.74
498.082	6083.5
498.452	6141.58
498.821	6170.05
499.19	6153.55
499.559	6212.99
499.928	6278.3
500.298	6258.86
500.667	6281.23
501.036	6330.72
501.405	6348.58
501.774	6390.38
502.143	6401.91
502.512	6423.83
502.88	6474
503.249	6472.41
503.618	6506.76
503.987	6494.79
504.356	6573.2
504.724	6555.8
505.093	6577.72
505.462	6582.24
505.83	6609.81
506.199	6706.98
506.567	6758.06
506.936	6711.73
507.304	6789.47
507.672	6805.74
508.041	6797.38
508.409	6894.78
508.777	6871.73
509.145	6976.13
509.514	6928.45
509.882	6974.55
510.25	6963.25
510.618	6983.59
510.986	7010.93
511.354	6978.84
511.722	7031.04
512.09	7121.21
512.458	7094.09
512.826	7102
513.193	7149.01
513.561	7159.63
513.929	7191.94
514.297	7232.85
514.664	7204.37
515.032	7235.78
515.4	7311.71
515.767	7264.26
516.135	7315.33
516.502	7203.92
516.869	7341.77
517.237	7366.4
517.604	7278.27
517.972	7396.68
518.339	7378.15
518.706	7431.26
519.073	7424.25
519.44	7425.16
519.808	7521.65
520.175	7419.06
520.542	7560.97
520.909	7591.71
521.276	7478.49
521.643	7504.93
522.009	7624.7
522.376	7590.58
522.743	7653.17
523.11	7702.44
523.477	7713.96
523.843	7710.35
524.21	7739.05
524.577	7807.97
524.943	7868.99
525.31	7857.46
525.676	7875.32
526.043	7900.17
526.409	7936.1
526.776	7983.79
527.142	7886.39
527.508	7941.53
527.874	7964.13
528.241	7951.7
528.607	7966.16
528.973	8003.45
529.339	7963.9
529.705	8038.7
530.071	8106.5
530.437	8054.52
530.803	8087.51
531.169	8134.52
531.535	8096.1
531.901	8140.62
532.267	8184.69
532.632	8155.31
532.998	8195.08
533.364	8170.67
533.73	8197.79
534.095	8235.31
534.461	8227.17
534.826	8168.42
535.192	8142.88
535.557	8242.09
535.923	8184.91
536.288	8197.57
536.653	8188.08
537.019	8134.97
537.384	8171.58
537.749	8194.86
538.114	8121.86
538.479	8153.73
538.845	8203.67
539.21	8181.52
539.575	8170.22
539.94	8180.84
540.305	8191.01
540.67	8184.23
541.034	8154.63
541.399	8224.01
541.764	8190.11
542.129	8201.41
542.494	8148.08
542.858	8168.87
543.223	8151.47
543.587	8156.21
543.952	8096.78
544.316	8175.19
544.681	8174.52
545.045	8086.84
545.41	8132.03
545.774	8140.85
546.138	8122.77
546.503	8128.87
546.867	8134.74
547.231	8124.57
547.595	8143.33
547.959	8134.74
548.324	8144.46
548.688	8078.02
549.052	8149.88
549.416	8144.46
549.779	8103.78
550.143	8123.9
550.507	8092.03
550.871	8115.54
551.235	8066.5
551.599	8131.81
551.962	8175.42
552.326	8113.05
552.689	8148.3
553.053	8040.06
553.417	8089.1
553.78	8148.3
554.143	8063.33
554.507	8138.59
554.87	8140.62
555.234	8166.16
555.597	8143.11
555.96	8172.93
556.323	8130
556.686	8165.03
557.05	8203.89
557.413	8200.05
557.776	8135.42
558.139	8237.79
558.502	8206.38
558.865	8250.67
559.228	8210.45
559.59	8268.75
559.953	8230.11
560.316	8274.18
560.679	8311.46
561.041	8306.04
561.404	8379.03
561.767	8412.48
562.129	8378.81
562.492	8404.57
562.854	8420.16
563.217	8357.56
563.579	8388.97
563.941	8400.5
564.304	8435.07
564.666	8521.17
565.028	8475.98
565.39	8484.34
565.753	8607.5
566.115	8545.81
566.477	8555.75
566.839	8568.86
567.201	8611.57
567.563	8653.37
567.925	8621.96
568.287	8775.4
568.648	8690.66
569.01	8711.68
569.372	8802.07
569.734	8702.41
570.095	8816.53
570.457	8857.89
570.819	8864.44
571.18	8758.23
571.542	8882.75
571.903	8965.46
572.265	8969.52
572.626	8933.37
572.987	8981.5
573.349	9009.97
573.71	8946.7
574.071	8995.74
574.432	9045.23
574.794	9096.07
575.155	9098.33
575.516	9057.43
575.877	9094.27
576.238	9136.3
576.599	9138.11
576.96	9206.35
577.32	9169.52
577.681	9163.64
578.042	9158.22
578.403	9222.17
578.763	9273.7
579.124	9291.1
579.485	9367.93
579.845	9368.16
580.206	9271.89
580.566	9258.56
580.927	9316.18
581.287	9425.11
581.648	9355.05
582.008	9387.14
582.368	9453.35
582.728	9382.17
583.089	9452
583.449	9404.09
583.809	9498.55
584.169	9521.6
584.529	9498.32
584.889	9541.94
585.249	9511.43
585.609	9448.16
585.969	9505.1
586.329	9532.67
586.688	9543.52
587.048	9561.82
587.408	9508.27
587.768	9598.89
588.127	9516.85
588.487	9575.84
588.846	9657.64
589.206	9598.43
589.565	9662.84
589.925	9649.96
590.284	9690.41
590.643	9684.76
591.003	9739.67
591.362	9775.6
591.721	9671.88
592.08	9691.09
592.44	9685.89
592.799	9761.14
593.158	9703.97
593.517	9768.37
593.876	9781.25
594.235	9802.72
594.593	9772.44
594.952	9787.58
595.311	9765.21
595.67	9747.81
596.029	9842.72
596.387	9863.06
596.746	9876.39
597.104	9830.52
597.463	9783.06
597.822	9837.52
598.18	9809.73
598.538	9767.7
598.897	9816.51
599.255	9780.8
599.613	9916.84
599.972	9821.03
600.33	9871.2
600.688	9856.73
601.046	9942.61
601.404	9914.13
601.762	9913.23
602.12	9963.4
602.478	10011.98
602.836	9997.07
603.194	9928.82
603.552	9954.36
603.91	9984.41
604.268	9900.57
604.625	9962.94
604.983	9977.18
605.341	9900.35
605.698	9966.79
606.056	10013.79
606.413	9941.02
606.771	10003.17
607.128	9970.4
607.485	9893.12
607.843	9926.56
608.2	10004.3
608.557	10054.92
608.914	10016.5
609.272	10058.53
609.629	10025.09
609.986	10090.17
610.343	10059.66
610.7	10153.22
611.057	10081.36
611.414	10080.46
611.771	10150.28
612.127	10216.95
612.484	10120.91
612.841	10181.02
613.198	10210.62
613.554	10155.03
613.911	10229.83
614.267	10176.95
614.624	10216.95
614.98	10222.15
615.337	10316.61
615.693	10238.64
616.05	10223.05
616.406	10274.57
616.762	10172.43
617.118	10209.94
617.475	10278.19
617.831	10284.52
618.187	10298.75
618.543	10221.92
618.899	10334.46
619.255	10303.5
619.611	10307.79
619.967	10311.64
620.323	10387.34
620.678	10290.85
621.034	10294.46
621.39	10329.49
621.746	10193.67
622.101	10395.48
622.457	10262.37
622.812	10347.79
623.168	10349.15
623.523	10335.59
623.879	10368.58
624.234	10255.59
624.589	10325.42
624.945	10311.18
625.3	10324.74
625.655	10311.64
626.01	10355.7
626.365	10321.8
626.72	10229.6
627.075	10282.03
627.43	10308.92
627.785	10280.68
628.14	10344.86
628.495	10273.9
628.85	10257.85
629.205	10266.44
629.559	10367.68
629.914	10268.47
630.269	10328.13
630.623	10233.9
630.978	10195.25
631.332	10252.88
631.687	10314.35
632.041	10251.07
632.396	10211.98
632.75	10176.95
633.104	10213.56
633.459	10076.39
633.813	10147.35
634.167	10093.56
634.521	10101.25
634.875	10158.87
635.229	10091.3
635.583	10002.49
635.937	10112.77
636.291	10135.14
636.645	10072.32
636.999	10035.26
637.352	10092.21
637.706	9973.79
638.06	10055.6
638.413	10035.94
638.767	9987.58
639.121	10061.02
639.474	9946
639.828	9895.15
640.181	9950.29
640.534	9919.78
640.888	9944.64
641.241	9846.56
641.594	9851.76
641.947	9916.39
642.301	9873.68
642.654	9915.94
643.007	9790.97
643.36	9864.42
643.713	9843.85
644.066	9808.6
644.419	9781.25
644.771	9727.47
645.124	9662.61
645.477	9626.91
645.83	9633.69
646.182	9570.64
646.535	9523.18
646.888	9547.81
647.24	9436.63
647.593	9494.26
647.945	9494.03
648.298	9504.43
648.65	9465.33
649.002	9444.54
649.355	9466.69
649.707	9484.76
650.059	9505.78
650.411	9637.76
650.763	9590.07
651.115	9736.06
651.467	9621.71
651.819	9606.57
652.171	9654.03
652.523	9601.82
652.875	9593.01
653.227	9610.86
653.578	9673.69
653.93	9707.58
654.282	9614.03
654.633	9618.77
654.985	9656.06
655.337	9614.25
655.688	9642.73
656.039	9687.02
656.391	9619.22
656.742	9668.26
657.094	9600.92
657.445	9715.49
657.796	9663.29
658.147	9652.9
658.498	9642.73
658.849	9658.32
659.2	9664.2
659.551	9602.73
659.902	9667.81
660.253	9611.99
660.604	9605.67
660.955	9586.46
661.306	9611.99
661.656	9634.82
662.007	9613.35
662.358	9653.8
662.708	9612.9
663.059	9640.24
663.409	9525.22
663.76	9648.38
664.11	9559.11
664.461	9561.15
664.811	9600.47
665.161	9591.65
665.511	9564.08
665.862	9561.37
666.212	9613.35
666.562	9552.33
666.912	9589.39
667.262	9543.52
667.612	9596.17
667.962	9531.77
668.312	9625.78
668.662	9659.45
669.011	9642.73
669.361	9586.46
669.711	9583.29
670.06	9554.82
670.41	9538.1
670.76	9562.05
671.109	9547.14
671.459	9595.04
671.808	9575.61
672.157	9568.38
672.507	9455.16
672.856	9601.15
673.205	9452.22
673.554	9541.71
673.904	9508.04
674.253	9473.69
674.602	9428.5
674.951	9355.5
675.3	9273.02
675.649	9467.14
675.998	9475.05
676.346	9426.69
676.695	9486.57
677.044	9365.22
677.393	9368.16
677.741	9391.66
678.09	9394.15
678.438	9343.53
678.787	9430.75
679.135	9411.32
679.484	9321.83
679.832	9323.64
680.181	9262.4
680.529	9370.87
680.877	9283.41
681.225	9278.67
681.573	9329.97
681.922	9244.32
682.27	9106.92
682.618	9262.4
682.966	9147.82
683.314	9180.59
683.661	9183.3
684.009	9157.77
684.357	9103.53
684.705	9116.64
685.053	9175.17
685.4	9112.57
685.748	9075.06
686.095	9114.6
686.443	9058.11
686.79	8987.83
687.138	9020.82
687.485	9066.02
687.832	8952.35
688.18	8948.73
688.527	8947.15
688.874	8922.75
689.221	8902.18
689.568	8893.59
689.915	8824.67
690.262	8789.19
690.609	8757.1
690.956	8730.66
691.303	8696.76
691.65	8652.47
691.997	8704.67
692.344	8589.42
692.69	8616.99
693.037	8566.6
693.383	8558.91
693.73	8595.97
694.077	8456.09
694.423	8552.59
694.769	8397.34
695.116	8460.16
695.462	8442.98
695.808	8392.36
696.155	8427.84
696.501	8361.63
696.847	8348.3
697.193	8298.36
697.539	8296.77
697.885	8261.07
698.231	8206.38
698.577	8206.83
698.923	8156.44
699.269	8091.36
699.614	8102.2
699.96	8056.55
700.306	8092.26
700.651	8063.33
700.997	8013.62
701.342	8015.42
701.688	7977.91
702.033	7934.3
702.379	7891.13
702.724	7888.2
703.069	7869.44
703.415	7858.82
703.76	7792.61
704.105	7769.33
704.45	7774.53
704.795	7754.19
705.14	7669.67
705.485	7711.48
705.83	7622.67
706.175	7631.93
706.52	7627.19
706.865	7602.33
707.209	7586.51
707.554	7568.66
707.899	7587.19
708.243	7563.69
708.588	7495.44
708.932	7461.99
709.277	7428.55
709.621	7403.46
709.966	7410.47
710.31	7363.24
710.654	7342.45
710.998	7360.98
711.342	7313.07
711.687	7313.97
712.031	7334.76
712.375	7288.44
712.719	7330.25
713.063	7215.9
713.407	7289.34
713.75	7186.07
714.094	7240.3
714.438	7199.85
714.782	7259.29
715.125	7178.84
715.469	7199.63
715.812	7200.53
716.156	7172.28
716.499	7177.25
716.843	7123.92
717.186	7103.36
717.53	7096.35
717.873	7137.71
718.216	7035.79
718.559	7020.2
718.902	7033.53
719.246	7020.42
719.589	7042.57
719.932	6921.22
720.275	6964.83
720.617	6947.66
720.96	6985.62
721.303	6953.53
721.646	6916.92
721.989	6891.61
722.331	6916.02
722.674	6883.03
723.016	6951.5
723.359	6936.81
723.701	6884.16
724.044	6888.67
724.386	6789.69
724.729	6869.69
725.071	6822.91
725.413	6833.99
725.755	6830.37
726.097	6811.84
726.439	6861.56
726.782	6814.78
727.124	6823.59
727.465	6835.79
727.807	6852.74
728.149	6828.79
728.491	6776.59
728.833	6791.73
729.175	6824.72
729.516	6855
729.858	6737.04
730.199	6712.18
730.541	6732.75
730.882	6779.53
731.224	6805.51
731.565	6752.41
731.906	6821.78
732.248	6771.39
732.589	6738.17
732.93	6687.32
733.271	6730.71
733.612	6763.48
733.953	6743.82
734.294	6707.89
734.635	6713.99
734.976	6744.72
735.317	6768.68
735.658	6680.77
735.999	6734.33
736.339	6700.43
736.68	6712.63
737.021	6702.92
737.361	6662.92
737.702	6732.97
738.042	6782.01
738.383	6689.13
738.723	6706.08
739.063	6665.4
739.404	6738.17
739.744	6714.22
740.084	6755.8
740.424	6727.78
740.764	6687.78
741.104	6768.23
741.444	6711.73
741.784	6688.45
742.124	6745.4
742.464	6737.49
742.804	6778.4
743.143	6825.4
743.483	6834.66
743.823	6757.38
744.162	6835.79
744.502	6847.09
744.841	6822.01
745.181	6829.69
745.52	6833.76
745.86	6884.38
746.199	6899.07
746.538	6960.76
746.877	6973.19
747.216	6942.23
747.556	7012.29
747.895	7052.51
748.234	7005.73
748.573	7026.07
748.911	7085.28
749.25	7149.01
749.589	7198.27
749.928	7235.11
750.267	7291.15
750.605	7316.46
750.944	7357.59
751.283	7330.25
751.621	7395.1
751.96	7510.13
752.298	7532.95
752.636	7569.33
752.975	7677.81
753.313	7739.05
753.651	7838.25
753.989	7822.66
754.327	7888.87
754.666	7974.3
755.004	8118.25
755.342	8138.81
755.679	8171.8
756.017	8305.59
756.355	8365.25
756.693	8431.46
757.031	8527.28
757.368	8574.05
757.706	8753.48
758.044	8811.34
758.381	8891.11
758.719	8990.77
759.056	9089.07
759.394	9228.5
759.731	9258.78
760.068	9338.33
760.405	9453.81
760.743	9579.9
761.08	9706.45
761.417	9706.68
761.754	9815.6
762.091	9992.1
762.428	10026.9
762.765	10111.87
763.102	10223.5
763.438	10321.35
763.775	10358.19
764.112	10465.08
764.449	10688.8
764.785	10713.43
765.122	10790.49
765.458	10857.84
765.795	11017.38
766.131	11118.85
766.467	11164.72
766.804	11260.54
767.14	11356.13
767.476	11412.4
