Data from hue_210_FLMS001491_00099.txt Node
Date: Tue Feb 07 16:42:01 GMT 2017
User: dcchb
Spectrometer: FLMS00149
Trigger mode: 0
Integration Time (sec): 2.000000E-2
Scans to average: 10
Electric dark correction enabled: true
Nonlinearity correction enabled: false
Boxcar width: 0
XAxis mode: Wavelengths
Number of Pixels in Spectrum: 2048
>>>>>Begin Spectral Data<<<<<
341.393	-19.72
341.776	-19.72
342.16	-19.72
342.543	-53.84
342.927	-56.78
343.31	-82.77
343.693	-65.37
344.077	-73.05
344.46	-56.78
344.843	-51.35
345.226	-42.99
345.61	-23.11
345.993	-9.1
346.376	-1.64
346.759	18.93
347.142	31.36
347.525	49.66
347.908	46.5
348.291	69.09
348.674	82.88
349.057	107.74
349.44	144.8
349.823	131.24
350.206	164.91
350.588	200.39
350.971	211.92
351.354	208.3
351.737	225.7
352.119	226.38
352.502	258.24
352.884	260.73
353.267	267.73
353.65	283.78
354.032	292.82
354.414	303.21
354.797	300.95
355.179	325.13
355.562	325.36
355.944	320.39
356.326	340.95
356.709	330.33
357.091	341.63
357.473	345.25
357.855	337.11
358.238	339.14
358.62	347.05
359.002	345.02
359.384	329.43
359.766	335.08
360.148	340.05
360.53	351.35
360.912	331.69
361.294	340.73
361.676	330.33
362.057	319.48
362.439	339.6
362.821	335.75
363.203	318.35
363.584	299.6
363.966	326.94
364.348	313.83
364.729	324.68
365.111	326.49
365.493	301.18
365.874	333.49
366.256	324.23
366.637	316.32
367.019	306.6
367.4	313.61
367.781	326.71
368.163	303.21
368.544	320.61
368.925	316.32
369.306	322.19
369.688	321.74
370.069	326.26
370.45	315.64
370.831	317.22
371.212	313.83
371.593	310.9
371.974	291.01
372.355	308.64
372.736	325.13
373.117	300.95
373.498	318.35
373.879	320.61
374.26	303.66
374.641	324.23
375.021	313.61
375.402	319.94
375.783	338.01
376.163	332.36
376.544	331.69
376.925	306.83
377.305	340.5
377.686	326.49
378.066	306.83
378.447	322.87
378.827	324
379.208	318.35
379.588	309.09
379.968	347.5
380.349	338.24
380.729	326.71
381.109	342.53
381.489	340.95
381.87	320.84
382.25	345.47
382.63	332.82
383.01	346.38
383.39	335.3
383.77	364.45
384.15	319.94
384.53	352.02
384.91	351.35
385.29	352.7
385.67	346.83
386.049	363.78
386.429	335.53
386.809	359.48
387.189	342.53
387.568	355.19
387.948	357
388.328	350.44
388.707	364.91
389.087	354.96
389.466	353.15
389.846	352.25
390.225	349.54
390.605	367.39
390.984	367.62
391.363	371.46
391.743	374.62
392.122	381.18
392.501	375.98
392.881	385.24
393.26	378.01
393.639	385.92
394.018	381.85
394.397	369.65
394.776	371.69
395.155	376.66
395.534	364
395.913	392.25
396.292	419.82
396.671	413.94
397.05	416.2
397.429	381.4
397.808	380.27
398.186	419.14
398.565	405.13
398.944	409.42
399.323	414.17
399.701	410.78
400.08	410.1
400.458	411.46
400.837	439.93
401.215	416.66
401.594	429.54
401.972	428.18
402.351	436.99
402.729	436.09
403.107	432.47
403.486	446.49
403.864	432.93
404.242	456.88
404.62	465.92
404.999	447.84
405.377	456.2
405.755	449.88
406.133	465.92
406.511	474.06
406.889	487.16
407.267	479.48
407.645	487.39
408.023	506.6
408.401	507.05
408.779	486.03
409.156	521.06
409.534	496.2
409.912	512.25
410.29	550.21
410.667	547.95
411.045	555.41
411.422	556.77
411.8	573.26
412.178	590.89
412.555	564.67
412.933	567.39
413.31	589.98
413.687	584.79
414.065	604.22
414.442	599.93
414.819	641.28
415.197	639.02
415.574	644.67
415.951	659.36
416.328	674.05
416.705	690.32
417.082	668.17
417.46	660.94
417.837	711.11
418.214	707.5
418.591	705.46
418.967	701.39
419.344	724.9
419.721	735.74
420.098	749.98
420.475	739.81
420.852	755.18
421.228	777.55
421.605	797.44
421.982	790.43
422.358	801.73
422.735	834.5
423.111	848.96
423.488	848.96
423.864	863.88
424.241	886.02
424.617	882.63
424.994	928.05
425.37	908.85
425.746	914.04
426.123	949.3
426.499	930.31
426.875	996.08
427.251	979.35
427.627	982.06
428.003	1022.06
428.379	1034.49
428.756	1024.78
429.132	1041.95
429.507	1074.94
429.883	1080.59
430.259	1075.85
430.635	1096.41
431.011	1122.85
431.387	1144.32
431.763	1124.89
432.138	1161.72
432.514	1190.65
432.89	1217.09
433.265	1225.9
433.641	1268.61
434.016	1228.84
434.392	1288.27
434.767	1323.3
435.143	1299.8
435.518	1332.34
435.894	1375.27
436.269	1421.83
436.644	1417.08
437.02	1427.25
437.395	1441.49
437.77	1508.15
438.145	1494.59
438.52	1481.71
438.895	1576.85
439.271	1519.45
439.646	1607.13
440.021	1628.6
440.395	1648.94
440.77	1626.12
441.145	1645.78
441.52	1701.82
441.895	1720.58
442.27	1733.01
442.645	1769.61
443.019	1777.3
443.394	1776.39
443.769	1808.71
444.143	1826.56
444.518	1845.09
444.892	1829.05
445.267	1822.04
445.641	1888.26
446.016	1909.95
446.39	1937.75
446.764	1898.88
447.139	1926.9
447.513	1962.6
447.887	1942.94
448.262	1979.55
448.636	1984.98
449.01	2005.99
449.384	2035.37
449.758	2037.63
450.132	2065.2
450.506	2099.55
450.88	2085.09
451.254	2084.41
451.628	2124.86
452.002	2112.43
452.376	2140.23
452.75	2198.98
453.123	2211.64
453.497	2260.9
453.871	2275.59
454.244	2292.09
454.618	2297.96
454.992	2308.58
455.365	2336.15
455.739	2386.55
456.112	2408.92
456.486	2441.91
456.859	2448.24
457.232	2511.52
457.606	2463.61
457.979	2547.22
458.352	2592.19
458.725	2602.59
459.099	2595.36
459.472	2624.06
459.845	2694.34
460.218	2723.49
460.591	2742.02
460.964	2737.72
461.337	2795.35
461.71	2839.87
462.083	2887.1
462.456	2899.08
462.829	2887.33
463.201	2967.32
463.574	2984.72
463.947	3004.38
464.32	3110.6
464.692	3092.07
465.065	3121.22
465.438	3180.2
465.81	3243.02
466.183	3182.46
466.555	3279.41
466.928	3304.72
467.3	3309.24
467.672	3292.96
468.045	3419.74
468.417	3453.41
468.789	3457.71
469.161	3455.45
469.534	3556.23
469.906	3639.17
470.278	3618.38
470.65	3732.27
471.022	3754.65
471.394	3825.38
471.766	3876.45
472.138	3897.47
472.51	3939.5
472.882	4034.19
473.253	4073.51
473.625	4101.76
473.997	4175.43
474.369	4216.33
474.74	4279.6
475.112	4300.4
475.484	4370.45
475.855	4410.45
476.227	4492.93
476.598	4615.64
476.97	4617.22
477.341	4758.91
477.713	4782.19
478.084	4772.7
478.455	4907.39
478.827	4973.37
479.198	5110.32
479.569	5024.67
479.94	5195.06
480.311	5248.85
480.682	5316.41
481.053	5430.99
481.424	5522.06
481.795	5536.3
482.166	5649.96
482.537	5708.49
482.908	5829.85
483.279	5848.83
483.65	5904.2
484.021	6090.63
484.391	6104.87
484.762	6155.26
485.133	6209.05
485.503	6278.65
485.874	6403.39
486.244	6446.1
486.615	6536.72
486.985	6611.07
487.356	6763.83
487.726	6790.27
488.097	6870.27
488.467	6835.02
488.837	7016.26
489.207	7105.07
489.578	7195.23
489.948	7251.73
490.318	7317.72
490.688	7375.12
491.058	7370.6
491.428	7540.31
491.798	7544.83
492.168	7724.71
492.538	7684.26
492.908	7787.76
493.278	7900.98
493.648	7938.27
494.017	7979.17
494.387	8023.24
494.757	8137.36
495.126	8134.87
495.496	8139.16
495.866	8240.4
496.235	8246.51
496.605	8312.49
496.974	8370.57
497.344	8480.17
497.713	8466.84
498.082	8567.63
498.452	8643.33
498.821	8577.12
499.19	8620.51
499.559	8654.63
499.928	8741.41
500.298	8810.11
500.667	8829.54
501.036	8752.26
501.405	8840.16
501.774	8799.94
502.143	8925.81
502.512	8982.31
502.88	8989.99
503.249	9004
503.618	9060.95
503.987	9086.48
504.356	9073.83
504.724	9161.74
505.093	9196.76
505.462	9119.48
505.83	9202.87
506.199	9142.98
506.567	9314.73
506.936	9317.44
507.304	9429.98
507.672	9395.18
508.041	9402.18
508.409	9431.56
508.777	9432.69
509.145	9495.06
509.514	9512.91
509.882	9578.9
510.25	9522.18
510.618	9608.73
510.986	9587.04
511.354	9603.08
511.722	9705.68
512.09	9762.85
512.458	9697.77
512.826	9755.85
513.193	9777.09
513.561	9706.13
513.929	9846.24
514.297	9886.46
514.664	9898.67
515.032	9827.48
515.4	9898.21
515.767	9887.37
516.135	9933.24
516.502	9854.6
516.869	9920.36
517.237	10030.87
517.604	9946.57
517.972	9990.64
518.339	9943.41
518.706	9980.02
519.073	9984.09
519.44	10043.3
519.808	10038.55
520.175	10018.44
520.542	10097.76
520.909	10071.32
521.276	10050.75
521.643	10137.53
522.009	10150.41
522.376	10225.89
522.743	10177.08
523.11	10214.82
523.477	10286.9
523.843	10313.57
524.21	10266.57
524.577	10318.77
524.943	10278.77
525.31	10319.45
525.676	10357.19
526.043	10432.66
526.409	10369.84
526.776	10467.69
527.142	10384.76
527.508	10376.85
527.874	10434.47
528.241	10460.91
528.607	10446.22
528.973	10458.43
529.339	10483.74
529.705	10486.67
530.071	10497.07
530.437	10486.45
530.803	10525.32
531.169	10467.01
531.535	10429.73
531.901	10391.31
532.267	10433.57
532.632	10434.47
532.998	10394.92
533.364	10373.23
533.73	10438.31
534.095	10485.09
534.461	10443.96
534.826	10379.78
535.192	10359.67
535.557	10396.51
535.923	10357.64
536.288	10310.63
536.653	10332.78
537.019	10237.19
537.384	10286.68
537.749	10295.27
538.114	10220.69
538.479	10190.18
538.845	10158.32
539.21	10084.65
539.575	10132.11
539.94	10095.95
540.305	10102.5
540.67	10040.36
541.034	9978.66
541.399	10093.24
541.764	9952.22
542.129	9885.79
542.494	9902.51
542.858	9877.2
543.223	9847.37
543.587	9880.59
543.952	9760.36
544.316	9790.87
544.681	9712
545.045	9726.24
545.41	9758.11
545.774	9753.13
546.138	9709.97
546.503	9644.89
546.867	9606.24
547.231	9575.96
547.595	9644.44
547.959	9609.41
548.324	9584.32
548.688	9451.22
549.052	9465.46
549.416	9424.78
549.779	9459.81
550.143	9441.05
550.507	9386.14
550.871	9358.12
551.235	9349.08
551.599	9324.44
551.962	9323.99
552.326	9271.79
552.689	9267.27
553.053	9279.25
553.417	9188.85
553.78	9214.39
554.143	9203.54
554.507	9160.38
554.87	9172.81
555.234	9173.49
555.597	9088.74
555.96	9116.31
556.323	9085.35
556.686	9103.88
557.05	9034.28
557.413	9076.54
557.776	9041.74
558.139	8978.92
558.502	9041.51
558.865	9091
559.228	9068.18
559.59	9007.16
559.953	8998.58
560.316	9040.84
560.679	9034.28
561.041	9013.72
561.404	9055.52
561.767	9019.59
562.129	8973.72
562.492	9033.15
562.854	8982.08
563.217	9014.85
563.579	9008.07
563.941	9037.67
564.304	9046.71
564.666	8997.67
565.028	8981.4
565.39	8974.17
565.753	8968.3
566.115	9006.71
566.477	9026.15
566.839	9002.87
567.201	9022.98
567.563	9076.09
567.925	9133.71
568.287	9080.83
568.648	9050.33
569.01	9099.82
569.372	9069.99
569.734	9058.24
570.095	9080.83
570.457	9197.44
570.819	9131.23
571.18	9088.29
571.542	9191.11
571.903	9194.5
572.265	9186.59
572.626	9186.37
572.987	9143.21
573.349	9211.9
573.71	9179.14
574.071	9213.49
574.432	9234.73
574.794	9247.16
575.155	9252.36
575.516	9231.79
575.877	9240.38
576.238	9246.03
576.599	9293.48
576.96	9306.59
577.32	9277.67
577.681	9326.25
578.042	9354.5
578.403	9345.46
578.763	9339.36
579.124	9312.24
579.485	9345.91
579.845	9426.81
580.206	9341.62
580.566	9383.2
580.927	9389.53
581.287	9457.1
581.648	9391.56
582.008	9410.77
582.368	9399.92
582.728	9484.44
583.089	9465.23
583.449	9484.89
583.809	9450.32
584.169	9478.79
584.529	9454.16
584.889	9514.27
585.249	9481.95
585.609	9431.56
585.969	9489.64
586.329	9493.71
586.688	9471.56
587.048	9531.44
587.408	9509.98
587.768	9506.59
588.127	9476.98
588.487	9447.38
588.846	9500.71
589.206	9489.41
589.565	9432.01
589.925	9532.57
590.284	9509.75
590.643	9572.12
591.003	9563.99
591.362	9559.69
591.721	9581.61
592.08	9535.29
592.44	9532.12
592.799	9588.39
593.158	9547.49
593.517	9536.64
593.876	9566.25
594.235	9545.68
594.593	9585.23
594.952	9587.49
595.311	9565.12
595.67	9620.93
596.029	9596.53
596.387	9621.39
596.746	9621.16
597.104	9597.88
597.463	9575.06
597.822	9596.98
598.18	9545.68
598.538	9565.57
598.897	9658.9
599.255	9489.41
599.613	9587.26
599.972	9580.26
600.33	9681.72
600.688	9539.35
601.046	9649.18
601.404	9608.96
601.762	9625.23
602.12	9696.64
602.478	9605.57
602.836	9647.37
603.194	9642.4
603.552	9675.85
603.91	9514.04
604.268	9602.4
604.625	9560.37
604.983	9657.32
605.341	9627.71
605.698	9627.26
606.056	9662.06
606.413	9593.59
606.771	9618.45
607.128	9687.37
607.485	9630.2
607.843	9576.41
608.2	9697.32
608.557	9742.74
608.914	9648.96
609.272	9715.17
609.629	9741.83
609.986	9705.68
610.343	9693.25
610.7	9743.64
611.057	9726.02
611.414	9699.58
611.771	9731.44
612.127	9810.76
612.484	9756.52
612.841	9758.11
613.198	9801.04
613.554	9743.19
613.911	9761.49
614.267	9733.02
614.624	9673.36
614.98	9810.08
615.337	9820.48
615.693	9776.64
616.05	9800.14
616.406	9863.41
616.762	9822.51
617.118	9824.32
617.475	9810.53
617.831	9866.8
618.187	9895.73
618.543	9942.05
618.899	9907.25
619.255	9919
619.611	9867.93
619.967	9893.47
620.323	9942.51
620.678	9829.97
621.034	9850.08
621.39	9888.05
621.746	9883.53
622.101	9980.25
622.457	9952.68
622.812	9866.8
623.168	9913.81
623.523	9944.99
623.879	9979.57
624.234	9862.96
624.589	9923.3
624.945	9966.69
625.3	9869.29
625.655	9899.57
626.01	9861.15
626.365	9890.08
626.72	9897.08
627.075	9803.08
627.43	9857.09
627.785	9852.79
628.14	9798.33
628.495	9842.17
628.85	9852.57
629.205	9846.01
629.559	9814.83
629.914	9813.7
630.269	9810.08
630.623	9835.84
630.978	9818.22
631.332	9829.06
631.687	9826.13
632.041	9803.53
632.396	9819.12
632.75	9764.66
633.104	9724.21
633.459	9714.94
633.813	9781.38
634.167	9662.74
634.521	9706.35
634.875	9710.87
635.229	9720.14
635.583	9667.26
635.937	9563.99
636.291	9621.61
636.645	9628.16
636.999	9601.05
637.352	9632.68
637.706	9574.61
638.06	9666.13
638.413	9609.18
638.767	9524.89
639.121	9597.66
639.474	9545
639.828	9475.4
640.181	9547.49
640.534	9519.02
640.888	9477.21
641.241	9429.3
641.594	9416.87
641.947	9482.86
642.301	9406.02
642.654	9482.41
643.007	9451.67
643.36	9526.47
643.713	9404.22
644.066	9476.98
644.419	9360.6
644.771	9343.2
645.124	9301.39
645.477	9292.81
645.83	9199.48
646.182	9192.24
646.535	9135.3
646.888	9149.53
647.24	9098.69
647.593	9107.5
647.945	9117.67
648.298	9131.91
648.65	9046.71
649.002	9038.8
649.355	9129.42
649.707	9080.38
650.059	9177.1
650.411	9233.37
650.763	9296.2
651.115	9350.21
651.467	9329.19
651.819	9406.48
652.171	9325.12
652.523	9279.47
652.875	9284.67
653.227	9305.24
653.578	9316.53
653.93	9284.22
654.282	9224.56
654.633	9282.86
654.985	9274.05
655.337	9305.46
655.688	9275.63
656.039	9329.87
656.391	9265.69
656.742	9322.64
657.094	9314.05
657.445	9328.51
657.796	9340.49
658.147	9286.7
658.498	9306.82
658.849	9334.16
659.2	9362.64
659.551	9316.08
659.902	9355.63
660.253	9309.76
660.604	9345.69
660.955	9376.19
661.306	9330.55
661.656	9388.4
662.007	9376.87
662.358	9375.97
662.708	9323.09
663.059	9355.4
663.409	9294.39
663.76	9366.02
664.11	9366.7
664.461	9358.12
664.811	9351.34
665.161	9358.57
665.511	9354.73
665.862	9356.99
666.212	9345.01
666.562	9413.71
666.912	9320.15
667.262	9401.28
667.612	9413.03
667.962	9381.17
668.312	9391.79
668.662	9352.01
669.011	9390.21
669.361	9314.05
669.711	9355.63
670.06	9380.94
670.41	9370.09
670.76	9347.04
671.109	9365.57
671.459	9303.43
671.808	9297.55
672.157	9324.22
672.507	9256.2
672.856	9269.98
673.205	9306.82
673.554	9316.76
673.904	9274.95
674.253	9310.43
674.602	9281.06
674.951	9179.36
675.3	9131
675.649	9266.37
675.998	9240.6
676.346	9210.32
676.695	9297.1
677.044	9144.34
677.393	9178.69
677.741	9195.63
678.09	9183.66
678.438	9207.16
678.787	9210.32
679.135	9149.53
679.484	9064.56
679.832	9125.58
680.181	9093.04
680.529	9103.66
680.877	9141.85
681.225	9100.95
681.573	9131.23
681.922	9024.56
682.27	8982.98
682.618	9036.09
682.966	8961.29
683.314	8929.88
683.661	8929.88
684.009	8934.4
684.357	8847.85
684.705	8868.64
685.053	8919.71
685.4	8872.93
685.748	8839.26
686.095	8749.77
686.443	8775.31
686.79	8822.76
687.138	8828.64
687.485	8754.97
687.832	8778.7
688.18	8753.16
688.527	8648.08
688.874	8698.02
689.221	8677
689.568	8599.94
689.915	8549.1
690.262	8569.21
690.609	8588.87
690.956	8535.31
691.303	8468.2
691.65	8407.41
691.997	8475.2
692.344	8406.05
692.69	8388.88
693.037	8402.43
693.383	8270.23
693.73	8333.06
694.077	8215.09
694.423	8230.69
694.769	8208.99
695.116	8196.56
695.462	8142.55
695.808	8192.04
696.155	8152.05
696.501	8067.53
696.847	8103.69
697.193	8039.05
697.539	8078.83
697.885	7977.13
698.231	7902.11
698.577	7929.23
698.923	7837.03
699.269	7864.14
699.614	7849.45
699.96	7736.24
700.306	7795.22
700.651	7691.72
700.997	7649.91
701.342	7689.68
701.688	7655.34
702.033	7608.33
702.379	7611.95
702.724	7545.73
703.069	7545.73
703.415	7461.44
703.76	7502.57
704.105	7439.07
704.45	7441.56
704.795	7416.02
705.14	7356.36
705.485	7340.09
705.83	7358.62
706.175	7323.37
706.52	7267.32
706.865	7280.43
707.209	7276.14
707.554	7201.79
707.899	7196.59
708.243	7218.96
708.588	7162.02
708.932	7109.36
709.277	7149.59
709.621	7114.56
709.966	7032.75
710.31	7070.04
710.654	7045.18
710.998	7058.06
711.342	6995.92
711.687	7037.27
712.031	6902.59
712.375	6913.21
712.719	6933.32
713.063	6911.85
713.407	6854.68
713.75	6890.84
714.094	6860.1
714.438	6803.15
714.782	6827.33
715.125	6824.85
715.469	6854
715.812	6792.99
716.156	6810.39
716.499	6741.24
716.843	6713.44
717.186	6681.12
717.53	6734.23
717.873	6742.14
718.216	6742.37
718.559	6727.68
718.902	6709.15
719.246	6684.97
719.589	6630.05
719.932	6673.44
720.275	6626.89
720.617	6649.26
720.96	6648.36
721.303	6673.44
721.646	6650.62
721.989	6588.92
722.331	6652.42
722.674	6564.06
723.016	6561.13
723.359	6587.11
723.701	6574.91
724.044	6536.27
724.386	6517.51
724.729	6571.3
725.071	6540.79
725.413	6614.46
725.755	6529.94
726.097	6517.29
726.439	6515.7
726.782	6468.25
727.124	6560
727.465	6481.36
727.807	6488.81
728.149	6489.26
728.491	6456.72
728.833	6483.16
729.175	6444.75
729.516	6463.5
729.858	6454.46
730.199	6476.16
730.541	6456.27
730.882	6521.81
731.224	6493.11
731.565	6470.51
731.906	6479.1
732.248	6555.93
732.589	6545.08
732.93	6422.37
733.271	6462.15
733.612	6447.91
733.953	6494.69
734.294	6496.95
734.635	6508.7
734.976	6530.17
735.317	6465.76
735.658	6480.68
735.999	6482.94
736.339	6481.58
736.68	6451.75
737.021	6447.46
737.361	6491.07
737.702	6525.42
738.042	6505.31
738.383	6495.82
738.723	6545.76
739.063	6498.76
739.404	6585.08
739.744	6504.41
740.084	6551.41
740.424	6630.73
740.764	6529.49
741.104	6625.98
741.444	6557.74
741.784	6541.92
742.124	6629.83
742.464	6615.81
742.804	6658.98
743.143	6667.56
743.483	6684.97
743.823	6628.24
744.162	6691.52
744.502	6722.93
744.841	6767.45
745.181	6864.17
745.52	6813.55
745.86	6844.51
746.199	6931.51
746.538	6934.45
746.877	6964.28
747.216	7041.57
747.556	7103.94
747.895	7071.17
748.234	7098.97
748.573	7144.39
748.911	7200.21
749.25	7311.39
749.589	7301.45
749.928	7392.74
750.267	7519.97
750.605	7521.1
750.944	7637.93
751.283	7625.73
751.621	7814.65
751.96	7786.18
752.298	7938.94
752.636	8054.65
752.975	8100.52
753.313	8208.54
753.651	8303.68
753.989	8387.52
754.327	8466.84
754.666	8569.21
755.004	8722.65
755.342	8904.12
755.679	8997.9
756.017	9047.84
756.355	9167.61
756.693	9299.81
757.031	9501.16
757.368	9577.32
757.706	9711.33
758.044	9814.15
758.381	9960.81
758.719	10187.02
759.056	10310.63
759.394	10438.77
759.731	10573.9
760.068	10764.63
760.405	10904.52
760.743	11084.4
761.08	11174.56
761.417	11359.87
761.754	11578.4
762.091	11667.89
762.428	11866.3
762.765	11997.82
763.102	12245.05
763.438	12318.72
763.775	12555.77
764.112	12654.3
764.449	12896.55
764.785	13048.19
765.122	13100.16
765.458	13253.83
765.795	13439.59
766.131	13596.87
766.467	13670.54
766.804	13813.82
767.14	14000.25
767.476	14226.01
