Data from hue_260_FLMS001491_00095.txt Node
Date: Tue Feb 07 15:59:54 GMT 2017
User: dcchb
Spectrometer: FLMS00149
Trigger mode: 0
Integration Time (sec): 2.000000E-2
Scans to average: 10
Electric dark correction enabled: true
Nonlinearity correction enabled: false
Boxcar width: 0
XAxis mode: Wavelengths
Number of Pixels in Spectrum: 2048
>>>>>Begin Spectral Data<<<<<
341.393	-25.28
341.776	-25.28
342.16	-25.28
342.543	-73.87
342.927	-60.76
343.31	-56.47
343.693	-65.96
344.077	-59.86
344.46	-53.08
344.843	-36.58
345.226	-49.69
345.61	-28.67
345.993	-27.09
346.376	-24.83
346.759	6.81
347.142	31.67
347.525	44.77
347.908	50.42
348.291	66.24
348.674	81.83
349.057	120.48
349.44	131.32
349.823	134.26
350.206	164.09
350.588	201.83
350.971	191.89
351.354	217.42
351.737	221.94
352.119	226.69
352.502	239.57
352.884	282.73
353.267	270.76
353.65	281.83
354.032	292
354.414	292
354.797	293.81
355.179	284.99
355.562	300.59
355.944	299.68
356.326	341.49
356.709	328.38
357.091	318.66
357.473	313.69
357.855	336.29
358.238	330.42
358.62	335.16
359.002	316.86
359.384	338.32
359.766	343.97
360.148	340.58
360.53	315.95
360.912	337.19
361.294	326.57
361.676	313.47
362.057	321.6
362.439	336.97
362.821	311.88
363.203	318.89
363.584	334.26
363.966	305.56
364.348	319.57
364.729	307.36
365.111	299.91
365.493	322.28
365.874	297.2
366.256	308.49
366.637	304.65
367.019	313.92
367.4	320.47
367.781	306.23
368.163	303.07
368.544	299.46
368.925	298.55
369.306	313.69
369.688	322.73
370.069	296.29
370.45	312.11
370.831	311.88
371.212	303.52
371.593	311.43
371.974	308.27
372.355	284.31
372.736	294.94
373.117	315.27
373.498	289.96
373.879	298.78
374.26	308.49
374.641	311.88
375.021	321.83
375.402	325.44
375.783	308.49
376.163	331.09
376.544	308.27
376.925	296.29
377.305	321.38
377.686	325.67
378.066	327.03
378.447	315.5
378.827	324.31
379.208	312.79
379.588	339
379.968	327.48
380.349	323.18
380.729	315.27
381.109	335.61
381.489	328.38
381.87	344.65
382.25	318.89
382.63	324.99
383.01	341.04
383.39	344.88
383.77	337.42
384.15	335.16
384.53	340.58
384.91	335.84
385.29	345.78
385.67	335.16
386.049	367.25
386.429	351.21
386.809	363.41
387.189	325.9
387.568	347.36
387.948	347.59
388.328	349.4
388.707	336.29
389.087	355.5
389.466	351.21
389.846	362.73
390.225	342.17
390.605	341.26
390.984	354.6
391.363	351.21
391.743	337.87
392.122	360.92
392.501	365.22
392.881	364.54
393.26	395.27
393.639	382.62
394.018	370.64
394.397	375.39
394.776	380.58
395.155	374.48
395.534	372.67
395.913	372.22
396.292	387.36
396.671	385.1
397.05	383.52
397.429	397.53
397.808	384.65
398.186	390.3
398.565	402.96
398.944	400.92
399.323	406.8
399.701	395.05
400.08	400.24
400.458	412.22
400.837	423.97
401.215	403.63
401.594	429.85
401.972	399.34
402.351	405.22
402.729	426.23
403.107	412.9
403.486	421.49
403.864	424.88
404.242	433.69
404.62	430.98
404.999	449.06
405.377	452.9
405.755	426.01
406.133	427.14
406.511	462.84
406.889	472.78
407.267	479.56
407.645	463.97
408.023	469.85
408.401	473.01
408.779	466.91
409.156	456.51
409.534	482.5
409.912	479.56
410.29	501.03
410.667	497.87
411.045	511.2
411.422	524.76
411.8	528.38
412.178	545.1
412.555	549.62
412.933	562.73
413.31	560.24
413.687	551.2
414.065	569.96
414.442	581.93
414.819	593.91
415.197	612.67
415.574	615.61
415.951	606.79
416.328	618.54
416.705	605.89
417.082	614.48
417.46	635.27
417.837	652.67
418.214	663.51
418.591	645.21
418.967	671.65
419.344	672.1
419.721	669.62
420.098	679.56
420.475	686.11
420.852	680.24
421.228	728.6
421.605	727.92
421.982	723.4
422.358	729.5
422.735	756.17
423.111	767.24
423.488	754.58
423.864	768.6
424.241	803.4
424.617	787.8
424.994	814.7
425.37	832.1
425.746	844.75
426.123	836.39
426.499	841.36
426.875	861.93
427.251	877.75
427.627	898.99
428.003	899.44
428.379	898.76
428.756	930.17
429.132	925.43
429.507	925.43
429.883	927.69
430.259	944.41
430.635	950.06
431.011	969.72
431.387	974.47
431.763	992.32
432.138	1007.69
432.514	1020.57
432.89	1054.69
433.265	1084.75
433.641	1084.52
434.016	1111.41
434.392	1092.43
434.767	1128.36
435.143	1152.54
435.518	1164.97
435.894	1169.49
436.269	1191.86
436.644	1236.38
437.02	1254.23
437.395	1244.52
437.77	1253.78
438.145	1300.56
438.52	1296.72
438.895	1340.78
439.271	1323.38
439.646	1341.69
440.021	1365.64
440.395	1358.64
440.77	1382.14
441.145	1406.54
441.52	1425.3
441.895	1413.55
442.27	1454.68
442.645	1436.83
443.019	1483.38
443.394	1483.83
443.769	1498.07
444.143	1515.47
444.518	1509.14
444.892	1515.92
445.267	1536.94
445.641	1558.18
446.016	1544.17
446.39	1570.83
446.764	1590.72
447.139	1577.16
447.513	1593.43
447.887	1621.91
448.262	1608.12
448.636	1624.84
449.01	1626.88
449.384	1662.58
449.758	1662.13
450.132	1694.22
450.506	1701
450.88	1698.29
451.254	1706.42
451.628	1732.19
452.002	1744.84
452.376	1753.2
452.75	1744.62
453.123	1791.85
453.497	1845.63
453.871	1828.45
454.244	1875.46
454.618	1889.7
454.992	1889.7
455.365	1882.92
455.739	1946.64
456.112	1948.45
456.486	1971.73
456.859	1993.42
457.232	2037.94
457.606	2026.87
457.979	2039.07
458.352	2111.16
458.725	2097.6
459.099	2104.83
459.472	2126.98
459.845	2167.65
460.218	2232.74
460.591	2196.35
460.964	2186.41
461.337	2224.15
461.71	2260.53
462.083	2344.6
462.456	2310.02
462.829	2346.86
463.201	2364.03
463.574	2346.41
463.947	2390.93
464.32	2460.98
464.692	2454.43
465.065	2451.26
465.438	2527.87
465.81	2536.46
466.183	2541.43
466.555	2611.94
466.928	2621.65
467.3	2582.79
467.672	2625.95
468.045	2757.47
468.417	2699.17
468.789	2754.08
469.161	2751.37
469.534	2846.06
469.906	2885.83
470.278	2889.9
470.65	2932.83
471.022	2930.57
471.394	3036.78
471.766	3016.67
472.138	3027.07
472.51	3093.96
472.882	3152.94
473.253	3187.52
473.625	3208.08
473.997	3249.43
474.369	3299.6
474.74	3301.18
475.112	3427.51
475.484	3415.76
475.855	3494.63
476.227	3477.68
476.598	3601.06
476.97	3613.27
477.341	3686.48
477.713	3708.41
478.084	3704.11
478.455	3799.48
478.827	3802.41
479.198	3923.54
479.569	3936.65
479.94	4025.01
480.311	4084.21
480.682	4131.22
481.053	4218
481.424	4289.18
481.795	4339.58
482.166	4330.08
482.537	4415.73
482.908	4448.27
483.279	4512.45
483.65	4559.46
484.021	4664.31
484.391	4705.89
484.762	4725.33
485.133	4770.3
485.503	4871.31
485.874	4886
486.244	4995.15
486.615	5038.99
486.985	5103.17
487.356	5191.98
487.726	5196.5
488.097	5254.81
488.467	5294.58
488.837	5399.43
489.207	5441.24
489.578	5431.98
489.948	5528.92
490.318	5579.99
490.688	5660.44
491.058	5666.09
491.428	5722.59
491.798	5733.66
492.168	5854.79
492.538	5880.1
492.908	5961
493.278	6028.12
493.648	6005.29
494.017	6082.35
494.387	6117.16
494.757	6167.55
495.126	6205.29
495.496	6236.93
495.866	6237.38
496.235	6316.47
496.605	6324.83
496.974	6465.85
497.344	6405.96
497.713	6452.74
498.082	6539.29
498.452	6548.56
498.821	6616.13
499.19	6550.59
499.559	6642.34
499.928	6620.42
500.298	6668.55
500.667	6764.82
501.036	6711.72
501.405	6792.39
501.774	6807.98
502.143	6846.18
502.512	6803.92
502.88	6803.47
503.249	6886.17
503.618	6949
503.987	6950.58
504.356	6986.06
504.724	7050.01
505.093	6984.03
505.462	7010.92
505.83	7085.04
506.199	7118.71
506.567	7201.42
506.936	7112.84
507.304	7160.97
507.672	7256.56
508.041	7265.6
508.409	7268.54
508.777	7355.77
509.145	7381.53
509.514	7291.59
509.882	7372.72
510.25	7379.5
510.618	7383.11
510.986	7396.9
511.354	7382.21
511.722	7531.13
512.09	7572.94
512.458	7552.82
512.826	7534.52
513.193	7596.21
513.561	7559.15
513.929	7636.21
514.297	7654.52
514.664	7679.15
515.032	7681.41
515.4	7747.85
515.767	7742.65
516.135	7745.36
516.502	7668.08
516.869	7854.51
517.237	7832.82
517.604	7741.29
517.972	7794.85
518.339	7858.58
518.706	7750.56
519.073	7840.05
519.44	7826.26
519.808	7892.48
520.175	7821.52
520.542	7955.75
520.909	7958.92
521.276	7942.19
521.643	8034.17
522.009	8020.61
522.376	8014.28
522.743	8049.31
523.11	8111.45
523.477	8101.28
523.843	8100.38
524.21	8159.59
524.577	8241.85
524.943	8156.88
525.31	8282.07
525.676	8290.88
526.043	8261.05
526.409	8312.58
526.776	8381.5
527.142	8311.22
527.508	8301.05
527.874	8385.34
528.241	8390.77
528.607	8427.6
528.973	8420.15
529.339	8365.46
529.705	8426.25
530.071	8456.53
530.437	8470.54
530.803	8524.32
531.169	8473.93
531.535	8417.21
531.901	8464.89
532.267	8462.4
532.632	8522.29
532.998	8465.34
533.364	8501.05
533.73	8438.9
534.095	8470.09
534.461	8448.85
534.826	8496.3
535.192	8521.84
535.557	8539.69
535.923	8547.37
536.288	8561.16
536.653	8515.06
537.019	8477.55
537.384	8500.6
537.749	8476.64
538.114	8508.05
538.479	8487.26
538.845	8527.26
539.21	8447.04
539.575	8512.8
539.94	8431.67
540.305	8488.62
540.67	8407.72
541.034	8440.03
541.399	8469.18
541.764	8438.9
542.129	8421.28
542.494	8517.54
542.858	8445.46
543.223	8395.51
543.587	8454.5
543.952	8447.26
544.316	8390.77
544.681	8397.77
545.045	8391.9
545.41	8437.77
545.774	8396.64
546.138	8343.99
546.503	8405.91
546.867	8368.62
547.231	8378.57
547.595	8438.9
547.959	8316.87
548.324	8397.1
548.688	8379.69
549.052	8317.32
549.416	8384.44
549.779	8281.84
550.143	8253.6
550.507	8314.84
550.871	8364.78
551.235	8303.99
551.599	8319.13
551.962	8308.06
552.326	8315.97
552.689	8329.53
553.053	8249.53
553.417	8269.64
553.78	8351.67
554.143	8285.01
554.507	8325.91
554.87	8314.39
555.234	8334.5
555.597	8297.66
555.96	8262.18
556.323	8323.43
556.686	8300.37
557.05	8306.25
557.413	8365.46
557.776	8362.97
558.139	8369.53
558.502	8303.54
558.865	8329.98
559.228	8376.08
559.59	8400.94
559.953	8374.72
560.316	8437.55
560.679	8456.76
561.041	8479.58
561.404	8428.51
561.767	8494.72
562.129	8445.68
562.492	8492.23
562.854	8435.74
563.217	8428.51
563.579	8480.48
563.941	8564.1
564.304	8528.39
564.666	8569.29
565.028	8544.21
565.39	8591.44
565.753	8652.68
566.115	8649.74
566.477	8634.83
566.839	8665.56
567.201	8682.51
567.563	8757.99
567.925	8699.01
568.287	8745.11
568.648	8751.66
569.01	8763.64
569.372	8837.76
569.734	8786.24
570.095	8805.67
570.457	8856.74
570.819	8883.64
571.18	8854.94
571.542	8908.27
571.903	8860.81
572.265	8957.08
572.626	9028.27
572.987	8970.19
573.349	8970.41
573.71	9039.56
574.071	9031.43
574.432	9100.81
574.794	9128.6
575.155	9082.05
575.516	9125.44
575.877	9211.09
576.238	9176.51
576.599	9193.91
576.96	9178.54
577.32	9148.26
577.681	9316.62
578.042	9268.49
578.403	9250.86
578.763	9250.63
579.124	9311.42
579.485	9357.52
579.845	9367.69
580.206	9364.75
580.566	9434.13
580.927	9415.37
581.287	9488.82
581.648	9419.44
582.008	9383.06
582.368	9473.9
582.728	9497.18
583.089	9557.74
583.449	9485.2
583.809	9466.67
584.169	9540.12
584.529	9576.05
584.889	9638.64
585.249	9557.97
585.609	9591.41
585.969	9651.75
586.329	9645.88
586.688	9696.95
587.048	9654.46
587.408	9650.4
587.768	9698.3
588.127	9683.84
588.487	9692.65
588.846	9781.24
589.206	9750.05
589.565	9820.11
589.925	9823.72
590.284	9874.12
590.643	9856.49
591.003	9816.95
591.362	9942.82
591.721	9810.17
592.08	9831.63
592.44	9926.09
592.799	9857.62
593.158	9897.4
593.517	9869.15
593.876	9955.02
594.235	9943.95
594.593	9930.84
594.952	9901.69
595.311	9927.45
595.67	9977.17
596.029	10003.38
596.387	9963.83
596.746	9993.66
597.104	9980.1
597.463	10010.16
597.822	10010.61
598.18	9969.71
598.538	10030.27
598.897	10076.15
599.255	9991.63
599.613	10132.42
599.972	10093.55
600.33	10071.63
600.688	10097.84
601.046	10108.91
601.404	10195.01
601.762	10049.26
602.12	10194.11
602.478	10155.02
602.836	10169.25
603.194	10117.05
603.552	10114.79
603.91	10087.9
604.268	10189.82
604.625	10153.21
604.983	10129.25
605.341	10132.87
605.698	10157.28
606.056	10157.05
606.413	10222.36
606.771	10192.3
607.128	10193.43
607.485	10117.73
607.843	10233.66
608.2	10213.09
608.557	10260.32
608.914	10249.25
609.272	10244.28
609.629	10212.87
609.986	10329.93
610.343	10317.27
610.7	10423.03
611.057	10340.77
611.414	10335.58
611.771	10352.3
612.127	10367.21
612.484	10368.57
612.841	10360.21
613.198	10368.57
613.554	10322.92
613.911	10444.73
614.267	10452.63
614.624	10393.2
614.98	10419.42
615.337	10489.92
615.693	10481.33
616.05	10400.88
616.406	10512.97
616.762	10432.97
617.118	10454.89
617.475	10540.77
617.831	10517.49
618.187	10470.94
618.543	10529.47
618.899	10571.95
619.255	10586.64
619.611	10602.46
619.967	10516.59
620.323	10603.14
620.678	10585.29
621.034	10533.99
621.39	10636.58
621.746	10519.53
622.101	10570.15
622.457	10587.09
622.812	10515.46
623.168	10551.84
623.523	10576.02
623.879	10624.83
624.234	10486.53
624.589	10559.3
624.945	10551.84
625.3	10611.5
625.655	10555.68
626.01	10619.64
626.365	10572.86
626.72	10577.6
627.075	10512.29
627.43	10527.89
627.785	10506.19
628.14	10555
628.495	10531.73
628.85	10548.68
629.205	10564.27
629.559	10602.01
629.914	10517.72
630.269	10532.41
630.623	10518.17
630.978	10473.2
631.332	10521.11
631.687	10533.08
632.041	10442.01
632.396	10493.76
632.75	10448.34
633.104	10465.97
633.459	10417.38
633.813	10408.34
634.167	10380.09
634.521	10351.62
634.875	10359.3
635.229	10371.96
635.583	10300.32
635.937	10296.48
636.291	10350.72
636.645	10337.84
636.999	10250.38
637.352	10289.25
637.706	10171.74
638.06	10270.27
638.413	10230.04
638.767	10228.23
639.121	10238.86
639.474	10166.99
639.828	10193.21
640.181	10125.64
640.534	10144.17
640.888	10193.66
641.241	10156.15
641.594	10128.35
641.947	10102.36
642.301	10139.65
642.654	10162.7
643.007	10082.48
643.36	10168.57
643.713	10056.26
644.066	10099.65
644.419	10025.98
644.771	9990.73
645.124	9908.02
645.477	9848.13
645.83	9825.31
646.182	9802.71
646.535	9724.97
646.888	9736.95
647.24	9711.19
647.593	9750.51
647.945	9741.47
648.298	9673.22
648.65	9687.46
649.002	9615.37
649.355	9699.21
649.707	9760.22
650.059	9807
650.411	9865.53
650.763	9878.64
651.115	9973.55
651.467	9975.59
651.819	9925.64
652.171	9923.61
652.523	9831.63
652.875	9908.47
653.227	9872.99
653.578	9941.01
653.93	9877.28
654.282	9876.6
654.633	9895.59
654.985	9876.15
655.337	9903.72
655.688	9943.72
656.039	9951.41
656.391	9836.83
656.742	9884.06
657.094	9901.91
657.445	9936.94
657.796	9949.6
658.147	9861.46
658.498	9929.26
658.849	9917.28
659.2	9878.41
659.551	9870.96
659.902	9996.83
660.253	9924.51
660.604	9872.76
660.955	9881.35
661.306	9866.89
661.656	9917.96
662.007	9865.53
662.358	9872.99
662.708	9920.45
663.059	9928.35
663.409	9841.35
663.76	9920.45
664.11	9983.95
664.461	9959.54
664.811	9913.67
665.161	9950.73
665.511	9876.38
665.862	9944.4
666.212	9939.2
666.562	9893.33
666.912	9888.81
667.262	9851.52
667.612	9866.89
667.962	9921.58
668.312	9908.92
668.662	9990.05
669.011	9943.5
669.361	9929.71
669.711	9925.64
670.06	9865.31
670.41	9875.25
670.76	9869.6
671.109	9959.99
671.459	9845.65
671.808	9944.63
672.157	9890.16
672.507	9892.2
672.856	9788.02
673.205	9823.95
673.554	9924.74
673.904	9837.28
674.253	9848.13
674.602	9781.47
674.951	9715.03
675.3	9695.37
675.649	9785.31
675.998	9738.53
676.346	9779.43
676.695	9818.3
677.044	9733.56
677.393	9740.56
677.741	9734.01
678.09	9692.65
678.438	9711.41
678.787	9698.08
679.135	9725.65
679.484	9607.91
679.832	9697.17
680.181	9606.56
680.529	9643.39
680.877	9623.5
681.225	9615.59
681.573	9647.68
681.922	9595.03
682.27	9489.5
682.618	9573.79
682.966	9583.05
683.314	9484.75
683.661	9434.81
684.009	9455.6
684.357	9403.17
684.705	9345.32
685.053	9398.2
685.4	9433.68
685.748	9365.43
686.095	9368.6
686.443	9379.89
686.79	9319.11
687.138	9321.37
687.485	9262.16
687.832	9223.97
688.18	9284.53
688.527	9226.9
688.874	9208.83
689.221	9172.44
689.568	9121.6
689.915	9090.86
690.262	9089.28
690.609	9053.58
690.956	9075.72
691.303	9063.52
691.65	8981.49
691.997	8950.98
692.344	8899.23
692.69	8920.02
693.037	8883.18
693.383	8796.41
693.73	8791.44
694.077	8793.92
694.423	8728.16
694.769	8708.73
695.116	8775.62
695.462	8648.61
695.808	8634.6
696.155	8567.03
696.501	8621.04
696.847	8609.52
697.193	8504.66
697.539	8581.95
697.885	8521.39
698.231	8406.81
698.577	8500.37
698.923	8389.41
699.269	8388.28
699.614	8320.26
699.96	8318.23
700.306	8343.76
700.651	8186.93
700.997	8225.12
701.342	8241.85
701.688	8191.23
702.033	8132.7
702.379	8142.64
702.724	8128.85
703.069	8085.69
703.415	8033.26
703.76	8055.18
704.105	8007.5
704.45	7999.14
704.795	7945.13
705.14	7901.06
705.485	7934.73
705.83	7807.96
706.175	7817.9
706.52	7794.63
706.865	7825.36
707.209	7802.53
707.554	7760.05
707.899	7761.41
708.243	7668.08
708.588	7662.65
708.932	7628.98
709.277	7582.88
709.621	7589.66
709.966	7574.74
710.31	7615.2
710.654	7530.23
710.998	7517.57
711.342	7484.58
711.687	7537.91
712.031	7460.85
712.375	7416.56
712.719	7424.69
713.063	7452.26
713.407	7386.73
713.75	7384.24
714.094	7367.97
714.438	7367.29
714.782	7390.57
715.125	7355.99
715.469	7277.35
715.812	7306.28
716.156	7254.3
716.499	7247.3
716.843	7280.97
717.186	7205.04
717.53	7268.99
717.873	7243
718.216	7292.27
718.559	7246.17
718.902	7169.56
719.246	7234.64
719.589	7204.13
719.932	7172.95
720.275	7177.47
720.617	7100.86
720.96	7131.14
721.303	7088.88
721.646	7113.74
721.989	7054.76
722.331	7145.15
722.674	7040.52
723.016	7083.23
723.359	7104.7
723.701	7114.87
724.044	7021.54
724.386	6997.36
724.729	7019.5
725.071	7065.61
725.413	7034.42
725.755	6989.22
726.097	6980.86
726.439	6974.08
726.782	6982.22
727.124	7024.48
727.465	7013.86
727.807	6969.56
728.149	6988.55
728.491	6913.52
728.833	6986.51
729.175	6959.17
729.516	6922.33
729.858	6895.44
730.199	6958.04
730.541	6902.45
730.882	6916.68
731.224	6918.04
731.565	6994.42
731.906	6848.44
732.248	6914.2
732.589	6935.21
732.93	6860.41
733.271	6885.72
733.612	6934.31
733.953	6897.25
734.294	6865.61
734.635	6872.84
734.976	6946.29
735.317	6889.34
735.658	6870.13
735.999	6924.59
736.339	6886.85
736.68	6951.26
737.021	6896.34
737.361	6867.42
737.702	6933.86
738.042	6914.2
738.383	6916.91
738.723	6883.69
739.063	6955.1
739.404	6928.21
739.744	6961.88
740.084	6923.24
740.424	6958.26
740.764	6944.48
741.104	7012.73
741.444	6959.62
741.784	6986.74
742.124	6961.65
742.464	6968.66
742.804	7038.26
743.143	7041.65
743.483	7063.8
743.823	7028.77
744.162	7064.02
744.502	7142.67
744.841	7096.34
745.181	7140.41
745.52	7131.37
745.86	7212.27
746.199	7224.25
746.538	7200.97
746.877	7277.58
747.216	7314.19
747.556	7306.73
747.895	7355.54
748.234	7420.17
748.573	7356.22
748.911	7438.48
749.25	7548.98
749.589	7528.87
749.928	7613.39
750.267	7669.43
750.605	7694.74
750.944	7750.56
751.283	7792.82
751.621	7886.15
751.96	7920.05
752.298	7945.36
752.636	8111
752.975	8097.89
753.313	8158.68
753.651	8283.43
753.989	8398.9
754.327	8432.57
754.666	8498.34
755.004	8613.14
755.342	8767.93
755.679	8788.72
756.017	8922.96
756.355	9012.9
756.693	9085.89
757.031	9323.17
757.368	9409.5
757.706	9429.61
758.044	9504.86
758.381	9661.47
758.719	9739.43
759.056	9969.26
759.394	10055.36
759.731	10106.2
760.068	10213.32
760.405	10381.9
760.743	10430.04
761.08	10650.82
761.417	10742.8
761.754	10719.29
762.091	11016.91
762.428	11112.5
762.765	11208.32
763.102	11361.76
763.438	11449.9
763.775	11519.73
764.112	11724.24
764.449	11898.7
764.785	11934.4
765.122	12085.81
765.458	12117.22
765.795	12309.54
766.131	12354.28
766.467	12474.5
766.804	12622.3
