Data from hue_60_FLMS001491_31.txt Node
Date: Mon Feb 06 15:17:16 GMT 2017
User: dcchb
Spectrometer: FLMS00149
Trigger mode: 0
Integration Time (sec): 2.000000E-2
Scans to average: 10
Electric dark correction enabled: true
Nonlinearity correction enabled: false
Boxcar width: 0
XAxis mode: Wavelengths
Number of Pixels in Spectrum: 2048
>>>>>Begin Spectral Data<<<<<
341.393	-24.97
341.776	-24.97
342.16	-24.97
342.543	-65.42
342.927	-73.56
343.31	-78.75
343.693	-79.88
344.077	-64.74
344.46	-57.06
344.843	-45.99
345.226	-28.13
345.61	-37.85
345.993	-18.87
346.376	-15.25
346.759	4.41
347.142	35.14
347.525	34.46
347.908	69.04
348.291	73.56
348.674	93.9
349.057	116.04
349.44	128.25
349.823	125.53
350.206	174.12
350.588	200.11
350.971	201.46
351.354	204.63
351.737	246.21
352.119	257.73
352.502	281.46
352.884	257.28
353.267	282.14
353.65	284.4
354.032	293.21
354.414	290.73
354.797	295.47
355.179	315.36
355.562	319.88
355.944	326.88
356.326	348.58
356.709	331.4
357.091	344.74
357.473	339.09
357.855	328.69
358.238	342.7
358.62	359.2
359.002	338.18
359.384	345.87
359.766	329.37
360.148	343.15
360.53	319.88
360.912	327.34
361.294	326.66
361.676	321.01
362.057	349.26
362.439	332.99
362.821	329.14
363.203	335.7
363.584	316.04
363.966	332.53
364.348	338.86
364.729	315.81
365.111	319.43
365.493	312.65
365.874	309.71
366.256	320.56
366.637	302.25
367.019	323.04
367.4	320.1
367.781	327.79
368.163	335.92
368.544	292.53
368.925	334.34
369.306	309.94
369.688	286.89
370.069	304.51
370.45	300.9
370.831	299.77
371.212	301.57
371.593	297.51
371.974	298.18
372.355	312.2
372.736	318.3
373.117	332.53
373.498	331.4
373.879	314.23
374.26	301.35
374.641	312.2
375.021	296.6
375.402	317.62
375.783	305.19
376.163	332.08
376.544	328.01
376.925	305.19
377.305	308.58
377.686	328.47
378.066	325.75
378.447	329.14
378.827	311.97
379.208	333.89
379.588	329.37
379.968	314.46
380.349	336.6
380.729	328.01
381.109	329.6
381.489	345.41
381.87	342.93
382.25	338.64
382.63	339.54
383.01	327.56
383.39	327.79
383.77	361.23
384.15	341.57
384.53	332.53
384.91	351.29
385.29	341.35
385.67	340.44
386.049	350.84
386.429	333.44
386.809	366.43
387.189	349.26
387.568	347.67
387.948	352.87
388.328	346.54
388.707	352.65
389.087	347.67
389.466	358.3
389.846	342.93
390.225	341.8
390.605	366.21
390.984	344.96
391.363	338.64
391.743	344.06
392.122	342.25
392.501	346.32
392.881	345.19
393.26	376.6
393.639	355.58
394.018	356.04
394.397	360.33
394.776	356.04
395.155	382.7
395.534	363.27
395.913	359.2
396.292	365.75
396.671	369.82
397.05	354.91
397.429	387.22
397.808	370.27
398.186	385.87
398.565	365.3
398.944	373.21
399.323	377.73
399.701	373.44
400.08	363.04
400.458	381.57
400.837	378.41
401.215	394.45
401.594	363.95
401.972	384.96
402.351	386.54
402.729	383.83
403.107	383.38
403.486	362.59
403.864	389.03
404.242	403.27
404.62	358.3
404.999	404.85
405.377	396.71
405.755	395.36
406.133	386.54
406.511	384.96
406.889	382.7
407.267	430.61
407.645	404.17
408.023	407.79
408.401	385.87
408.779	418.86
409.156	407.79
409.534	417.5
409.912	441.23
410.29	428.35
410.667	429.71
411.045	427.22
411.422	428.8
411.8	452.53
412.178	439.2
412.555	446.65
412.933	431.97
413.31	438.07
413.687	431.06
414.065	443.94
414.442	452.76
414.819	459.76
415.197	436.71
415.574	467.67
415.951	477.61
416.328	461.8
416.705	466.99
417.082	466.77
417.46	481.46
417.837	460.67
418.214	474
418.591	499.31
418.967	501.79
419.344	485.98
419.721	488.69
420.098	469.93
420.475	506.09
420.852	495.24
421.228	497.5
421.605	504.28
421.982	494.34
422.358	493.89
422.735	517.84
423.111	528.23
423.488	493.21
423.864	521.68
424.241	518.74
424.617	545.41
424.994	507.44
425.37	514
425.746	530.49
426.123	530.27
426.499	521.68
426.875	558.52
427.251	518.52
427.627	557.61
428.003	533.66
428.379	568.91
428.756	547.67
429.132	549.03
429.507	575.92
429.883	562.36
430.259	550.61
430.635	570.95
431.011	568.69
431.387	575.92
431.763	579.31
432.138	598.29
432.514	593.54
432.89	597.84
433.265	632.19
433.641	599.65
434.016	617.05
434.392	619.98
434.767	629.25
435.143	636.03
435.518	624.28
435.894	635.35
436.269	615.24
436.644	656.14
437.02	655.91
437.395	643.71
437.77	642.58
438.145	658.85
438.52	681
438.895	689.36
439.271	663.15
439.646	683.94
440.021	680.1
440.395	675.12
440.77	681.23
441.145	691.62
441.52	711.96
441.895	699.53
442.27	692.3
442.645	706.54
443.019	703.15
443.394	715.57
443.769	720.32
444.143	695.46
444.518	702.92
444.892	740.21
445.267	746.08
445.641	745.4
446.016	754.9
446.39	737.04
446.764	742.47
447.139	755.12
447.513	737.95
447.887	755.12
448.262	755.57
448.636	760.09
449.01	767.55
449.384	794.89
449.758	791.73
450.132	789.02
450.506	803.93
450.88	785.18
451.254	778.85
451.628	814.78
452.002	819.3
452.376	811.39
452.75	818.17
453.123	828.57
453.497	840.32
453.871	854.33
454.244	882.12
454.618	843.48
454.992	878.06
455.365	864.5
455.739	893.2
456.112	863.82
456.486	899.52
456.859	944.27
457.232	923.7
457.606	948.79
457.979	932.07
458.352	944.95
458.725	959.64
459.099	963.03
459.472	974.78
459.845	978.62
460.218	997.83
460.591	1007.09
460.964	994.66
461.337	1045.74
461.71	1036.02
462.083	1053.64
462.456	1076.92
462.829	1048.22
463.201	1087.77
463.574	1113.3
463.947	1133.19
464.32	1123.47
464.692	1132.06
465.065	1132.74
465.438	1140.2
465.81	1164.38
466.183	1221.32
466.555	1233.07
466.928	1228.56
467.3	1207.09
467.672	1263.81
468.045	1267.42
468.417	1299.06
468.789	1318.27
469.161	1335.9
469.534	1343.81
469.906	1389
470.278	1413.64
470.65	1457.25
471.022	1462.22
471.394	1499.51
471.766	1500.86
472.138	1533.63
472.51	1605.49
472.882	1606.62
473.253	1623.12
473.625	1702.22
473.997	1745.38
474.369	1762.33
474.74	1790.12
475.112	1851.82
475.484	1866.5
475.855	1903.34
476.227	1954.41
476.598	2007.52
476.97	2039.61
477.341	2138.14
477.713	2177.23
478.084	2217.23
478.455	2286.15
478.827	2351.24
479.198	2438.01
479.569	2461.52
479.94	2580.16
480.311	2633.26
480.682	2746.03
481.053	2813.15
481.424	2848.4
481.795	2937.89
482.166	3007.49
482.537	3129.07
482.908	3216.07
483.279	3312.34
483.65	3409.06
484.021	3522.51
484.391	3596.85
484.762	3705.33
485.133	3809.05
485.503	3880.01
485.874	4001.59
486.244	4141.02
486.615	4223.96
486.985	4344.41
487.356	4496.49
487.726	4597.96
488.097	4786.65
488.467	4864.17
488.837	5042.47
489.207	5169.02
489.578	5321.55
489.948	5453.75
490.318	5515.45
490.688	5637.48
491.058	5829.34
491.428	6011.03
491.798	6132.16
492.168	6321.3
492.538	6458.47
492.908	6525.82
493.278	6689.2
493.648	6836.32
494.017	7013.94
494.387	7134.61
494.757	7242.41
495.126	7465.45
495.496	7527.37
495.866	7781.83
496.235	7845.56
496.605	8031.77
496.974	8138.88
497.344	8338.42
497.713	8451.42
498.082	8634.91
498.452	8726.89
498.821	8873.55
499.19	9021.8
499.559	9227.22
499.928	9360.54
500.298	9447.32
500.667	9587.66
501.036	9735.9
501.405	9956.46
501.774	9955.56
502.143	10113.29
502.512	10258.15
502.88	10373.85
503.249	10489.33
503.618	10620.4
503.987	10805.03
504.356	10893.39
504.724	11080.05
505.093	11156.88
505.462	11309.87
505.83	11419.25
506.199	11653.82
506.567	11821.95
506.936	11847.94
507.304	12017.88
507.672	12176.52
508.041	12277.98
508.409	12400.46
508.777	12617.86
509.145	12739.44
509.514	12758.87
509.882	12955.25
510.25	13049.71
510.618	13133.55
510.986	13306.66
511.354	13504.39
511.722	13612.64
512.09	13722.69
512.458	13772.86
512.826	13947.32
513.193	14086.3
513.561	14112.96
513.929	14318.61
514.297	14465.04
514.664	14625.72
515.032	14809.89
515.4	14876.33
515.767	14993.84
516.135	15120.39
516.502	15089.21
516.869	15428.18
517.237	15595.64
517.604	15501.17
517.972	15707.04
518.339	15792.47
518.706	15939.58
519.073	16025.68
519.44	16175.05
519.808	16429.96
520.175	16408.5
520.542	16692.56
520.909	16740.69
521.276	16806.22
521.643	16967.12
522.009	17129.83
522.376	17298.64
522.743	17408.69
523.11	17533.66
523.477	17680.1
523.843	17845.75
524.21	18123.93
524.577	18188.11
524.943	18260.42
525.31	18406.63
525.676	18618.15
526.043	18755.33
526.409	18817.47
526.776	19069.89
527.142	19028.77
527.508	19241.87
527.874	19458.58
528.241	19531.35
528.607	19698.58
528.973	19925.24
529.339	19805.69
529.705	20037.33
530.071	20165.01
530.437	20281.39
530.803	20395.06
531.169	20595.96
531.535	20475.96
531.901	20657.2
532.267	20802.28
532.632	20909.85
532.998	20989.62
533.364	21157.75
533.73	21145.09
534.095	21449.94
534.461	21361.36
534.826	21628.24
535.192	21648.36
535.557	21865.75
535.923	21830.5
536.288	22013.55
536.653	22068.01
537.019	21983.04
537.384	22162.69
537.749	22279.08
538.114	22289.02
538.479	22301.22
538.845	22412.86
539.21	22508.67
539.575	22543.02
539.94	22526.98
540.305	22830.47
540.67	22758.84
541.034	22839.06
541.399	22928.1
541.764	23062.33
542.129	23139.62
542.494	23161.31
542.858	23348.2
543.223	23392.04
543.587	23510
543.952	23389.55
544.316	23598.14
544.681	23560.85
545.045	23749.32
545.41	23883.33
545.774	23955.64
546.138	23945.7
546.503	23940.5
546.867	24008.97
547.231	24175.3
547.595	24216.43
547.959	24345.01
548.324	24309.98
548.688	24345.46
549.052	24596.3
549.416	24612.8
549.779	24630.2
550.143	24636.3
550.507	24875.84
550.871	24911.77
551.235	24949.29
551.599	25163.97
551.962	25206
552.326	25262.27
552.689	25400.8
553.053	25414.13
553.417	25478.77
553.78	25737.06
554.143	25621.36
554.507	25808.02
554.87	25862.03
555.234	26202.81
555.597	25942.26
555.96	26084.62
556.323	26295.92
556.686	26413.2
557.05	26576.14
557.413	26635.34
557.776	26721.67
558.139	26858.84
558.502	26937.71
558.865	26930.48
559.228	27108.78
559.59	27239.4
559.953	27362.56
560.316	27635.77
560.679	27718.71
561.041	27716.22
561.404	27907.63
561.767	28123.22
562.129	27969.77
562.492	28312.81
562.854	28362.08
563.217	28381.06
563.579	28439.59
563.941	28709.64
564.304	28727.95
564.666	28949.86
565.028	29069.41
565.39	29062.85
565.753	29332.9
566.115	29361.37
566.477	29533.8
566.839	29517.08
567.201	29734.02
567.563	29784.87
567.925	29904.41
568.287	30010.17
568.648	30016.27
569.01	30186.21
569.372	30455.58
569.734	30293.55
570.095	30607.67
570.457	30617.84
570.819	30712.3
571.18	30736.93
571.542	30959.98
571.903	31064.15
572.265	31187.77
572.626	31212.85
572.987	31280.19
573.349	31389.12
573.71	31516.35
574.071	31566.29
574.432	31695.1
574.794	31950.69
575.155	31889.67
575.516	31805.15
575.877	31925.6
576.238	32039.95
576.599	32203.11
576.96	32208.31
577.32	32254.41
577.681	32405.36
578.042	32417.57
578.403	32502.76
578.763	32521.97
579.124	32652.81
579.485	32711.12
579.845	32912.02
580.206	32736.2
580.566	32806.71
580.927	32831.79
581.287	32896.2
581.648	32785.01
582.008	33060.03
582.368	32854.84
582.728	33063.2
583.089	32916.08
583.449	33026.82
583.809	32988.4
584.169	33099.13
584.529	33036.76
584.889	33276.3
585.249	32957.66
585.609	33086.47
585.969	33286.02
586.329	33197.66
586.688	33269.75
587.048	33345.45
587.408	33191.56
587.768	33206.02
588.127	33235.17
588.487	33344.55
588.846	33559.68
589.206	33182.52
589.565	33210.54
589.925	33510.64
590.284	33351.78
590.643	33418.67
591.003	33531.66
591.362	33488.27
591.721	33452.11
592.08	33606.01
592.44	33715.38
592.799	33650.3
593.158	33522.4
593.517	33630.42
593.876	33624.77
594.235	33610.53
594.593	33600.36
594.952	33709.74
595.311	33605.78
595.67	33713.58
596.029	33951.31
596.387	33894.14
596.746	34016.17
597.104	33742.73
597.463	33898.2
597.822	34015.72
598.18	33874.7
598.538	33932.55
598.897	34111.08
599.255	33790.86
599.613	34384.29
599.972	34165.32
600.33	34229.04
600.688	34167.12
601.046	34314.24
601.404	34426.78
601.762	34481.24
602.12	34455.7
602.478	34580.22
602.836	34536.61
603.194	34236.73
603.552	34333
603.91	34335.26
604.268	34570.05
604.625	34538.19
604.983	34577.96
605.341	34449.83
605.698	34716.94
606.056	34740.89
606.413	34829.93
606.771	34917.16
607.128	34991.51
607.485	34814.79
607.843	34902.7
608.2	35140.21
608.557	35249.13
608.914	35051.62
609.272	35311.5
609.629	35403.02
609.986	35587.43
610.343	35328.68
610.7	35642.79
611.057	35673.53
611.414	35567.54
611.771	35854.76
612.127	35963.24
612.484	35773.18
612.841	35836.46
613.198	35906.06
613.554	35873.75
613.911	36086.62
614.267	36015.44
614.624	36088.2
614.98	36171.59
615.337	36412.04
615.693	36299.27
616.05	36222.89
616.406	36493.16
616.762	36340.17
617.118	36455.65
617.475	36395.77
617.831	36501.07
618.187	36590.79
618.543	36657.91
618.899	36996.88
619.255	36722.09
619.611	36790.56
619.967	36923.44
620.323	36965.47
620.678	36900.61
621.034	36724.8
621.39	36820.16
621.746	36779.03
622.101	37222.19
622.457	37014.51
622.812	37077.56
623.168	37249.08
623.523	37108.29
623.879	37330.88
624.234	37141.96
624.589	37186.71
624.945	37214.05
625.3	37374.27
625.655	37431.45
626.01	37376.31
626.365	37407.94
626.72	37441.84
627.075	37506.7
627.43	37353.93
627.785	37290.66
628.14	37429.41
628.495	37483.2
628.85	37454.72
629.205	37423.08
629.559	37568.39
629.914	37256.76
630.269	37485.68
630.623	37375.63
630.978	37143.77
631.332	37390.54
631.687	37485.46
632.041	37287.72
632.396	37309.64
632.75	37293.37
633.104	37268.29
633.459	37132.92
633.813	37064.9
634.167	37146.93
634.521	37188.29
634.875	37220.6
635.229	37332.69
635.583	36940.84
635.937	37013.83
636.291	37031.46
636.645	37083.88
636.999	36982.64
637.352	37037.11
637.706	36851.57
638.06	37021.74
638.413	36913.27
638.767	36856.09
639.121	37062.87
639.474	36730.45
639.828	36765.02
640.181	36793.27
640.534	36884.57
640.888	36687.96
641.241	36548.76
641.594	36700.84
641.947	36827.85
642.301	36596.89
642.654	36680.05
643.007	36607.06
643.36	36622.2
643.713	36636.66
644.066	36746.49
644.419	36462.21
644.771	36244.58
645.124	35899.06
645.477	35844.14
645.83	35698.38
646.182	35473.98
646.535	35418.39
646.888	35692.73
647.24	35201.67
647.593	35450.25
647.945	35454.77
648.298	35235.8
648.65	35140.21
649.002	35140.43
649.355	35175.46
649.707	35196.25
650.059	35361.67
650.411	35887.98
650.763	35741.32
651.115	36088.66
651.467	36025.83
651.819	35914.87
652.171	35957.59
652.523	35909.45
652.875	35838.27
653.227	35726.41
653.578	36001.2
653.93	35857.48
654.282	35784.93
654.633	35693.41
654.985	35618.39
655.337	35583.58
655.688	35671.27
656.039	35796.91
656.391	35613.64
656.742	35578.61
657.094	35490.93
657.445	35807.08
657.796	35761.66
658.147	35516.69
658.498	35545.39
658.849	35653.64
659.2	35646.18
659.551	35592.85
659.902	35745.61
660.253	35527.09
660.604	35686.63
660.955	35398.73
661.306	35538.16
661.656	35532.51
662.007	35581.78
662.358	35541.33
662.708	35416.58
663.059	35351.27
663.409	35090.26
663.76	35511.5
664.11	35308.79
664.461	35601.44
664.811	35365.96
665.161	35355.12
665.511	35302.69
665.862	35277.83
666.212	35443.25
666.562	35459.07
666.912	35316.47
667.262	35302.69
667.612	35297.94
667.962	35441.67
668.312	35182.69
668.662	35504.94
669.011	35301.11
669.361	35149.02
669.711	35288.68
670.06	35244.38
670.41	35156.93
670.76	35162.13
671.109	35208.68
671.459	35280.99
671.808	35116.48
672.157	35126.87
672.507	35077.16
672.856	35060.21
673.205	35044.16
673.554	35110.6
673.904	34898.18
674.253	35235.34
674.602	35048.01
674.951	34584.51
675.3	34333.45
675.649	34988.12
675.998	34802.59
676.346	34990.83
676.695	35081.22
677.044	34797.16
677.393	34880.78
677.741	34835.58
678.09	34815.69
678.438	34734.57
678.787	34789.71
679.135	34819.76
679.484	34603.5
679.832	34755.81
680.181	34501.8
680.529	34610.05
680.877	34528.92
681.225	34415.03
681.573	34601.01
681.922	34330.06
682.27	34327.12
682.618	34274.01
682.966	34194.69
683.314	34227.24
683.661	34157.63
684.009	34076.73
684.357	34028.6
684.705	33974.81
685.053	33970.07
685.4	33886.45
685.748	33716.74
686.095	33617.99
686.443	33642.84
686.79	33540.93
687.138	33543.19
687.485	33680.13
687.832	33471.55
688.18	33575.95
688.527	33233.59
688.874	33250.76
689.221	33175.29
689.568	33175.74
689.915	33052.58
690.262	33123.99
690.609	32916.99
690.956	32805.13
691.303	32747.95
691.65	32727.39
691.997	32669.76
692.344	32425.7
692.69	32477.45
693.037	32499.82
693.383	32139.83
693.73	32403.78
694.077	32158.36
694.423	32251.02
694.769	32137.8
695.116	31905.49
695.462	31924.92
695.808	31850.35
696.155	31947.75
696.501	31672.27
696.847	31547.53
697.193	31445.16
697.539	31522.67
697.885	31312.51
698.231	31288.1
698.577	31165.62
698.923	31159.52
699.269	30946.87
699.614	30971.28
699.96	30870.26
700.306	30707.1
700.651	30874.78
700.997	30579.87
701.342	30723.37
701.688	30581.68
702.033	30508.24
702.379	30489.03
702.724	30343.95
703.069	30542.36
703.415	30089.72
703.76	30112.54
704.105	30081.13
704.45	30062.6
704.795	29827.58
705.14	29766.11
705.485	29776.96
705.83	29642.5
706.175	29747.58
706.52	29629.84
706.865	29452.9
707.209	29482.28
707.554	29316.4
707.899	29317.99
708.243	29259.68
708.588	29107.82
708.932	28969.75
709.277	28935.17
709.621	28988.96
709.966	28758.9
710.31	28708.51
710.654	28621.96
710.998	28628.74
711.342	28589.64
711.687	28607.04
712.031	28401.63
712.375	28423.09
712.719	28506.03
713.063	28365.47
713.407	28411.8
713.75	28264.68
714.094	28245.92
714.438	28036.21
714.782	27974.07
715.125	28047.06
715.469	27953.05
715.812	27897.01
716.156	27710.34
716.499	27687.75
716.843	27746.73
717.186	27568.65
717.53	27708.54
717.873	27732.04
718.216	27688.42
718.559	27533.4
718.902	27365.27
719.246	27533.4
719.589	27376.34
719.932	27120.08
720.275	27180.64
720.617	27105.84
720.96	27055.67
721.303	27117.59
721.646	27153.98
721.989	26933.64
722.331	27081.43
722.674	26938.16
723.016	26982.45
723.359	26876.02
723.701	26915.11
724.044	26729.81
724.386	26734.55
724.729	26663.59
725.071	26644.84
725.413	26650.49
725.755	26580.66
726.097	26412.3
726.439	26396.03
726.782	26289.14
727.124	26483.71
727.465	26302.02
727.807	26213.44
728.149	26252.3
728.491	26165.98
728.833	26209.82
729.175	26147.45
729.516	26039.65
729.858	26021.58
730.199	26104.51
730.541	25923.95
730.882	25920.56
731.224	26027.45
731.565	25804.18
731.906	25817.74
732.248	25761.02
732.589	25701.58
732.93	25483.28
733.271	25570.29
733.612	25615.94
733.953	25726.89
734.294	25540.23
734.635	25529.39
734.976	25452.1
735.317	25384.98
735.658	25306.57
735.999	25358.54
736.339	25265.89
736.68	25418.65
737.021	25197.42
737.361	25138.21
737.702	25311.99
738.042	25171.88
738.383	25110.64
738.723	25140.47
739.063	25093.24
739.404	25122.39
739.744	24962.85
740.084	24937.76
740.424	24860.02
740.764	24892.57
741.104	25018.44
741.444	24824.77
741.784	24715.17
742.124	24826.35
742.464	24769.63
742.804	24734.6
743.143	24690.54
743.483	24746.13
743.823	24505.01
744.162	24505.23
744.502	24637.43
744.841	24321.51
745.181	24529.64
745.52	24389.3
745.86	24347.95
746.199	24294.39
746.538	24210.55
746.877	24414.84
747.216	24263.43
747.556	24114.73
747.895	24114.96
748.234	24145.24
748.573	24084.23
748.911	24011.69
749.25	23988.41
749.589	23874.74
749.928	23877.9
750.267	23962.42
750.605	23749.32
750.944	23782.09
751.283	23707.96
751.621	23689.89
751.96	23685.59
752.298	23679.04
752.636	23645.59
752.975	23462.55
753.313	23404.02
753.651	23479.95
753.989	23363.34
754.327	23292.61
754.666	23080.41
755.004	23251.03
755.342	23288.77
755.679	23194.31
756.017	23009
756.355	23133.29
756.693	22883.13
