Data from hue_200_FLMS001491_00068.txt Node
Date: Tue Feb 07 16:43:47 GMT 2017
User: dcchb
Spectrometer: FLMS00149
Trigger mode: 0
Integration Time (sec): 2.000000E-2
Scans to average: 10
Electric dark correction enabled: true
Nonlinearity correction enabled: false
Boxcar width: 0
XAxis mode: Wavelengths
Number of Pixels in Spectrum: 2048
>>>>>Begin Spectral Data<<<<<
341.393	-0.72
341.776	-0.72
342.16	-0.72
342.543	-58.8
342.927	-62.64
343.31	-91.11
343.693	-70.77
344.077	-45.92
344.46	-49.53
344.843	-60.38
345.226	-57.44
345.61	-46.82
345.993	-18.8
346.376	-6.6
346.759	8.77
347.142	27.3
347.525	40.41
347.908	45.61
348.291	102.1
348.674	116.34
349.057	106.85
349.44	118.15
349.823	120.86
350.206	147.98
350.588	192.72
350.971	207.86
351.354	245.83
351.737	238.82
352.119	262.1
352.502	271.36
352.884	277.24
353.267	292.15
353.65	312.72
354.032	301.19
354.414	311.59
354.797	303.68
355.179	341.42
355.562	329.67
355.944	334.19
356.326	338.48
356.709	335.77
357.091	347.75
357.473	342.55
357.855	335.77
358.238	335.54
358.62	353.62
359.002	336.45
359.384	362.89
359.766	356.56
360.148	324.69
360.53	342.32
360.912	351.59
361.294	323.34
361.676	340.74
362.057	336.22
362.439	342.32
362.821	329.67
363.203	319.72
363.584	293.96
363.966	326.95
364.348	321.31
364.729	338.48
365.111	326.73
365.493	329.21
365.874	340.51
366.256	320.63
366.637	324.24
367.019	318.14
367.4	330.8
367.781	326.73
368.163	317.69
368.544	313.4
368.925	335.77
369.306	331.02
369.688	318.37
370.069	327.63
370.45	312.94
370.831	326.95
371.212	310.91
371.593	322.21
371.974	301.19
372.355	318.82
372.736	328.54
373.117	313.17
373.498	314.98
373.879	309.55
374.26	324.47
374.641	313.17
375.021	320.63
375.402	291.93
375.783	319.5
376.163	325.82
376.544	343.23
376.925	323.56
377.305	338.71
377.686	339.84
378.066	334.19
378.447	310.23
378.827	357.69
379.208	356.78
379.588	349.55
379.968	321.31
380.349	331.02
380.729	339.38
381.109	332.83
381.489	347.07
381.87	356.56
382.25	336.9
382.63	353.17
383.01	355.43
383.39	372.38
383.77	323.79
384.15	345.49
384.53	361.98
384.91	351.59
385.29	382.09
385.67	360.63
386.049	365.6
386.429	364.69
386.809	361.76
387.189	362.43
387.568	375.77
387.948	370.8
388.328	379.16
388.707	387.52
389.087	375.09
389.466	387.74
389.846	380.51
390.225	368.54
390.605	371.25
390.984	393.17
391.363	381.87
391.743	382.32
392.122	372.15
392.501	394.75
392.881	396.56
393.26	398.59
393.639	409.21
394.018	383.9
394.397	387.07
394.776	409.89
395.155	427.07
395.534	429.1
395.913	416.67
396.292	405.6
396.671	432.26
397.05	423.22
397.429	413.51
397.808	416.44
398.186	418.93
398.565	428.87
398.944	425.71
399.323	421.87
399.701	440.17
400.08	422.55
400.458	434.75
400.837	433.84
401.215	457.35
401.594	454.18
401.972	453.05
402.351	452.6
402.729	469.55
403.107	436.1
403.486	458.25
403.864	459.83
404.242	480.17
404.62	475.88
404.999	504.13
405.377	474.07
405.755	484.46
406.133	476.56
406.511	503
406.889	524.92
407.267	524.69
407.645	544.12
408.023	532.15
408.401	531.7
408.779	549.1
409.156	535.76
409.534	546.61
409.912	560.17
410.29	584.8
410.667	604.69
411.045	567.4
411.422	608.3
411.8	625.03
412.178	634.07
412.555	646.27
412.933	627.51
413.31	650.11
413.687	648.08
414.065	656.89
414.442	689.88
414.819	699.83
415.197	694.18
415.574	709.09
415.951	726.49
416.328	707.96
416.705	757.45
417.082	749.09
417.46	754.51
417.837	770.33
418.214	802.2
418.591	777.79
418.967	798.58
419.344	797.9
419.721	810.56
420.098	831.8
420.475	841.52
420.852	855.75
421.228	875.41
421.605	915.64
421.982	900.95
422.358	942.08
422.735	943.89
423.111	947.28
423.488	970.78
423.864	975.3
424.241	1000.38
424.617	1017.33
424.994	1044.22
425.37	1068.18
425.746	1077.67
426.123	1081.51
426.499	1102.3
426.875	1119.48
427.251	1127.61
427.627	1121.28
428.003	1175.97
428.379	1183.66
428.756	1195.41
429.132	1216.87
429.507	1194.05
429.883	1254.39
430.259	1247.16
430.635	1277.66
431.011	1267.27
431.387	1304.33
431.763	1326.48
432.138	1351.79
432.514	1363.54
432.89	1373.71
433.265	1415.97
433.641	1425.23
434.016	1428.17
434.392	1450.77
434.767	1514.95
435.143	1538.9
435.518	1563.08
435.894	1578.45
436.269	1609.63
436.644	1648.5
437.02	1670.65
437.395	1682.17
437.77	1718.1
438.145	1769.4
438.52	1775.5
438.895	1815.73
439.271	1852.11
439.646	1876.97
440.021	1895.28
440.395	1909.74
440.77	1909.74
441.145	1971.88
441.52	2004.65
441.895	2053.24
442.27	2074.48
442.645	2060.69
443.019	2097.08
443.394	2110.86
443.769	2171.2
444.143	2126.91
444.518	2170.75
444.892	2179.11
445.267	2211.2
445.641	2256.17
446.016	2260.92
446.39	2286.9
446.764	2285.55
447.139	2300.24
447.513	2324.19
447.887	2370.97
448.262	2349.05
448.636	2369.61
449.01	2431.53
449.384	2441.02
449.758	2440.8
450.132	2483.51
450.506	2494.58
450.88	2527.57
451.254	2546.11
451.628	2576.61
452.002	2616.84
452.376	2578.65
452.75	2646.22
453.123	2661.58
453.497	2716.27
453.871	2736.38
454.244	2777.51
454.618	2801.69
454.992	2822.26
455.365	2840.33
455.739	2892.54
456.112	2942.93
456.486	2936.15
456.859	2997.84
457.232	3042.36
457.606	3066.09
457.979	3099.09
458.352	3178.41
458.725	3163.72
459.099	3184.28
459.472	3283.04
459.845	3267.67
460.218	3329.59
460.591	3340.21
460.964	3378.17
461.337	3445.97
461.71	3503.59
462.083	3539.75
462.456	3583.59
462.829	3592.86
463.201	3644.83
463.574	3615.46
463.947	3695.91
464.32	3778.62
464.692	3802.12
465.065	3809.35
465.438	3920.53
465.81	3964.15
466.183	3990.59
466.555	4082.34
466.928	4095.9
467.3	4108.78
467.672	4171.15
468.045	4269.9
468.417	4250.69
468.789	4318.04
469.161	4352.84
469.534	4455.43
469.906	4538.14
470.278	4595.09
470.65	4605.03
471.022	4695.43
471.394	4731.13
471.766	4799.83
472.138	4897.23
472.51	4969.54
472.882	4995.76
473.253	5078.92
473.625	5131.8
473.997	5238.24
474.369	5303.55
474.74	5334.73
475.112	5424
475.484	5480.04
475.855	5639.13
476.227	5624.44
476.598	5778.11
476.97	5854.49
477.341	5939.24
477.713	6031.21
478.084	6086.8
478.455	6237.76
478.827	6245.9
479.198	6425.78
479.569	6420.35
479.94	6591.65
480.311	6640.24
480.682	6821.93
481.053	6953
481.424	7013.33
481.795	7064.86
482.166	7184.85
482.537	7388.92
482.908	7424.17
483.279	7496.03
483.65	7590.27
484.021	7728.12
484.391	7879.98
484.762	7905.74
485.133	7908.45
485.503	8066.19
485.874	8230.93
486.244	8317.71
486.615	8473.41
486.985	8468.21
487.356	8651.26
487.726	8699.16
488.097	8826.17
488.467	8882.44
488.837	9015.31
489.207	9187.51
489.578	9218.25
489.948	9308.64
490.318	9444.46
490.688	9445.81
491.058	9580.95
491.428	9706.82
491.798	9716.31
492.168	9994.27
492.538	9938.68
492.908	10126.92
493.278	10166.24
493.648	10215.51
494.017	10277.2
494.387	10363.07
494.757	10472.22
495.126	10522.39
495.496	10628.6
495.866	10612.56
496.235	10739.79
496.605	10872.44
496.974	10819.56
497.344	10936.62
497.713	10898.43
498.082	11026.33
498.452	11129.16
498.821	11104.75
499.19	11102.49
499.559	11276.95
499.928	11302.71
500.298	11355.14
500.667	11396.49
501.036	11422.48
501.405	11448.7
501.774	11451.41
502.143	11599.65
502.512	11560.33
502.88	11575.02
503.249	11661.12
503.618	11755.58
503.987	11719.88
504.356	11790.16
504.724	11800.78
505.093	11894.56
505.462	11841
505.83	11906.99
506.199	12032.18
506.567	12090.26
506.936	12099.07
507.304	12130.26
507.672	12241.67
508.041	12265.62
508.409	12320.31
508.777	12351.72
509.145	12450.03
509.514	12397.6
509.882	12428.11
510.25	12450.48
510.618	12465.84
510.986	12477.82
511.354	12598.27
511.722	12626.74
512.09	12656.35
512.458	12626.52
512.826	12699.51
513.193	12719.62
513.561	12750.36
513.929	12760.07
514.297	12915.32
514.664	12791.94
515.032	12911.03
515.4	12868.09
515.767	12886.17
516.135	12941.09
516.502	12843.91
516.869	13045.04
517.237	13004.14
517.604	12894.31
517.972	13103.12
518.339	13129.33
518.706	13061.08
519.073	13075.09
519.44	13148.31
519.808	13211.14
520.175	13144.7
520.542	13252.94
520.909	13267.18
521.276	13222.89
521.643	13353.96
522.009	13360.28
522.376	13332.71
522.743	13286.61
523.11	13440.73
523.477	13480.73
523.843	13440.96
524.21	13538.58
524.577	13566.15
524.943	13527.29
525.31	13622.65
525.676	13586.49
526.043	13636.21
526.409	13668.52
526.776	13627.4
527.142	13720.05
527.508	13729.09
527.874	13794.62
528.241	13677.11
528.607	13691.35
528.973	13762.53
529.339	13737.22
529.705	13814.28
530.071	13792.36
530.437	13797.33
530.803	13812.25
531.169	13754.4
531.535	13644.8
531.901	13675.08
532.267	13635.31
532.632	13685.25
532.998	13668.07
533.364	13649.54
533.73	13704.68
534.095	13690.67
534.461	13725.7
534.826	13647.51
535.192	13697.68
535.557	13669.43
535.923	13664.46
536.288	13560.51
536.653	13572.03
537.019	13503.56
537.384	13415.88
537.749	13425.37
538.114	13383.33
538.479	13274.86
538.845	13354.18
539.21	13212.04
539.575	13216.79
539.94	13196.9
540.305	13156.67
540.67	13164.81
541.034	13231.25
541.399	13102.89
541.764	13043
542.129	13026.73
542.494	13017.92
542.858	12977.7
543.223	12900.86
543.587	12957.36
543.952	12806.85
544.316	12814.08
544.681	12753.97
545.045	12711.71
545.41	12693.64
545.774	12707.42
546.138	12701.32
546.503	12632.62
546.867	12569.57
547.231	12478.05
547.595	12485.51
547.959	12466.75
548.324	12407.32
548.688	12321.22
549.052	12316.24
549.416	12355.11
549.779	12203.03
550.143	12224.27
550.507	12261.1
550.871	12227.43
551.235	12151.95
551.599	12126.42
551.962	12078.96
552.326	12014.78
552.689	11982.24
553.053	11984.73
553.417	11945.86
553.78	12011.62
554.143	11919.87
554.507	11920.77
554.87	11948.8
555.234	11915.35
555.597	11828.35
555.96	11785.86
556.323	11826.54
556.686	11804.39
557.05	11821.34
557.413	11802.59
557.776	11699.99
558.139	11798.97
558.502	11735.02
558.865	11656.83
559.228	11721.46
559.59	11721.91
559.953	11662.02
560.316	11752.87
560.679	11651.4
561.041	11742.02
561.404	11674.68
561.767	11706.99
562.129	11700.44
562.492	11746.09
562.854	11680.33
563.217	11648.69
563.579	11653.44
563.941	11727.56
564.304	11715.36
564.666	11726.43
565.028	11812.98
565.39	11663.15
565.753	11718.75
566.115	11707.22
566.477	11784.96
566.839	11762.36
567.201	11801.68
567.563	11801
567.925	11826.99
568.287	11796.26
568.648	11778.86
569.01	11856.6
569.372	11786.54
569.734	11784.28
570.095	11879.65
570.457	11863.37
570.819	11777.5
571.18	11806.65
571.542	11858.85
571.903	11850.04
572.265	11914.22
572.626	11939.98
572.987	11872.41
573.349	11920.1
573.71	11944.73
574.071	11892.3
574.432	11990.6
574.794	12018.17
575.155	11993.09
575.516	11901.57
575.877	11926.65
576.238	12010.72
576.599	12048.68
576.96	12002.35
577.32	11930.04
577.681	12000.32
578.042	12048.68
578.403	11992.18
578.763	12009.81
579.124	11965.74
579.485	12121.45
579.845	12081.45
580.206	12059.08
580.566	12093.2
580.927	12054.33
581.287	12065.4
581.648	12018.62
582.008	12054.56
582.368	12063.14
582.728	12135.68
583.089	12017.95
583.449	12088.91
583.809	11960.77
584.169	11992.64
584.529	12013.65
584.889	12050.26
585.249	12027.21
585.609	11940.66
585.969	12012.3
586.329	11936.82
586.688	11969.59
587.048	11928.23
587.408	11898.18
587.768	11992.86
588.127	11963.48
588.487	11901.57
588.846	11963.71
589.206	11848.91
589.565	11916.71
589.925	11958.97
590.284	11902.24
590.643	11910.83
591.003	11928.01
591.362	11960.1
591.721	11882.36
592.08	11906.76
592.44	11876.26
592.799	11951.51
593.158	11884.84
593.517	11919.64
593.876	11878.74
594.235	11826.31
594.593	11854.79
594.952	11865.63
595.311	11839.65
595.67	11829.25
596.029	11895.46
596.387	11869.02
596.746	11934.56
597.104	11779.99
597.463	11806.2
597.822	11843.26
598.18	11792.42
598.538	11851.62
598.897	11855.92
599.255	11740.89
599.613	12028.79
599.972	11855.24
600.33	11775.92
600.688	11779.76
601.046	11858.63
601.404	11863.37
601.762	11839.87
602.12	11835.13
602.478	11862.24
602.836	11852.08
603.194	11886.65
603.552	11832.41
603.91	11744.06
604.268	11819.99
604.625	11804.17
604.983	11766.88
605.341	11724.62
605.698	11800.55
606.056	11791.74
606.413	11798.52
606.771	11833.54
607.128	11825.86
607.485	11790.16
607.843	11804.84
608.2	11927.33
608.557	11909.47
608.914	11839.65
609.272	11870.38
609.629	11841.68
609.986	11895.92
610.343	11877.16
610.7	11944.73
611.057	11960.1
611.414	11892.75
611.771	11999.87
612.127	11991.96
612.484	12000.55
612.841	11957.16
613.198	11959.64
613.554	11970.04
613.911	12021.11
614.267	12018.62
614.624	11993.54
614.98	11993.77
615.337	12064.73
615.693	12077.38
616.05	11974.33
616.406	12076.25
616.762	12026.53
617.118	11949.7
617.475	12017.04
617.831	12070.15
618.187	12077.15
618.543	12051.39
618.899	12134.55
619.255	12054.78
619.611	12075.8
619.967	12090.04
620.323	12167.32
620.678	12038.06
621.034	12073.31
621.39	12052.07
621.746	12072.41
622.101	12208
622.457	12093.88
622.812	12156.47
623.168	12083.93
623.523	12113.99
623.879	12184.27
624.234	12068.34
624.589	12122.12
624.945	12177.72
625.3	12066.76
625.655	12120.77
626.01	12107.44
626.365	12078.51
626.72	12076.48
627.075	12052.97
627.43	12037.83
627.785	12031.73
628.14	12130.03
628.495	12036.25
628.85	12099.75
629.205	12001.22
629.559	11990.38
629.914	11943.37
630.269	12004.16
630.623	12011.62
630.978	11972.52
631.332	11993.77
631.687	11970.72
632.041	11910.6
632.396	11923.03
632.75	11878.52
633.104	11937.72
633.459	11797.84
633.813	11823.38
634.167	11784.28
634.521	11788.8
634.875	11792.64
635.229	11761.68
635.583	11716.49
635.937	11730.27
636.291	11679.2
636.645	11747.9
636.999	11719.65
637.352	11718.97
637.706	11622.93
638.06	11668.8
638.413	11661.8
638.767	11600.1
639.121	11591.74
639.474	11560.33
639.828	11615.25
640.181	11569.37
640.534	11591.74
640.888	11520.78
641.241	11522.14
641.594	11560.11
641.947	11536.38
642.301	11527.56
642.654	11497.73
643.007	11580.9
643.36	11492.76
643.713	11459.77
644.066	11546.77
644.419	11439.66
644.771	11325.76
645.124	11323.73
645.477	11287.8
645.83	11209.15
646.182	11143.17
646.535	11151.75
646.888	11118.31
647.24	11042.38
647.593	11130.51
647.945	11043.28
648.298	11083.96
648.65	11039.89
649.002	10994.92
649.355	11075.15
649.707	11078.08
650.059	11107.69
650.411	11250.51
650.763	11210.06
651.115	11355.82
651.467	11332.32
651.819	11333.9
652.171	11271.07
652.523	11327.57
652.875	11262.94
653.227	11297.06
653.578	11319.21
653.93	11342.48
654.282	11219.78
654.633	11330.06
654.985	11291.19
655.337	11290.28
655.688	11305.2
656.039	11316.95
656.391	11232.2
656.742	11312.88
657.094	11295.48
657.445	11339.77
657.796	11232.2
658.147	11252.32
658.498	11309.26
658.849	11347.23
659.2	11282.6
659.551	11320.11
659.902	11328.02
660.253	11380.9
660.604	11302.94
660.955	11273.33
661.306	11309.94
661.656	11319.66
662.007	11348.13
662.358	11334.12
662.708	11315.37
663.059	11338.64
663.409	11273.11
663.76	11348.59
664.11	11366.44
664.461	11378.87
664.811	11311.75
665.161	11390.17
665.511	11312.2
665.862	11309.49
666.212	11375.48
666.562	11392.65
666.912	11354.01
667.262	11309.72
667.612	11306.33
667.962	11277.4
668.312	11305.65
668.662	11335.03
669.011	11306.1
669.361	11302.94
669.711	11285.08
670.06	11246.22
670.41	11310.85
670.76	11178.19
671.109	11305.2
671.459	11226.33
671.808	11225.43
672.157	11251.87
672.507	11187.01
672.856	11205.99
673.205	11168.03
673.554	11137.07
673.904	11174.81
674.253	11196.27
674.602	11193.34
674.951	11099.33
675.3	11039.44
675.649	11173.9
675.998	11137.52
676.346	11214.13
676.695	11171.19
677.044	11113.56
677.393	11172.55
677.741	11120.57
678.09	11138.2
678.438	11037.86
678.787	11108.37
679.135	11024.07
679.484	10935.26
679.832	11040.8
680.181	10991.53
680.529	10982.04
680.877	10940.69
681.225	10898.2
681.573	10938.2
681.922	10938.43
682.27	10886.9
682.618	10902.04
682.966	10837.41
683.314	10869.5
683.661	10837.19
684.009	10784.31
684.357	10731.65
684.705	10776.4
685.053	10709.51
685.4	10657.53
685.748	10658.66
686.095	10600.13
686.443	10579.34
686.79	10630.19
687.138	10624.99
687.485	10540.7
687.832	10485.33
688.18	10536.18
688.527	10422.73
688.874	10402.85
689.221	10474.03
689.568	10405.33
689.915	10334.83
690.262	10361.95
690.609	10311.1
690.956	10228.84
691.303	10218.9
691.65	10170.54
691.997	10118.79
692.344	10074.27
692.69	10105
693.037	10033.82
693.383	10047.6
693.73	10057.77
694.077	10034.27
694.423	10008.96
694.769	9894.61
695.116	9922.41
695.462	9883.99
695.808	9806.71
696.155	9817.78
696.501	9725.8
696.847	9690.1
697.193	9657.56
697.539	9634.51
697.885	9570.55
698.231	9652.59
698.577	9520.61
698.923	9471.35
699.269	9483.78
699.614	9381.86
699.96	9443.55
700.306	9371.24
700.651	9309.77
700.997	9284.01
701.342	9258.02
701.688	9221.18
702.033	9226.38
702.379	9209.43
702.724	9215.53
703.069	9190.22
703.415	9015.77
703.76	9049.21
704.105	9032.26
704.45	9037.69
704.795	8943
705.14	8930.12
705.485	8902.77
705.83	8843.34
706.175	8868.2
706.52	8775.77
706.865	8837.24
707.209	8788.2
707.554	8738.71
707.899	8734.87
708.243	8724.7
708.588	8675.21
708.932	8652.84
709.277	8625.04
709.621	8593.18
709.966	8594.99
710.31	8529.9
710.654	8521.09
710.998	8514.08
711.342	8526.51
711.687	8431.37
712.031	8433.63
712.375	8418.49
712.719	8423.46
713.063	8399.28
713.407	8446.29
713.75	8402.22
714.094	8360.64
714.438	8326.07
714.782	8286.07
715.125	8282
715.469	8318.38
715.812	8284.03
716.156	8160.2
716.499	8198.16
716.843	8247.42
717.186	8181.89
717.53	8221.89
717.873	8193.19
718.216	8170.59
718.559	8129.69
718.902	8079.75
719.246	8135.34
719.589	8077.71
719.932	8093.08
720.275	8095.11
720.617	8034.32
720.96	8049.92
721.303	8031.61
721.646	8020.09
721.989	7988.67
722.331	8040.65
722.674	7972.4
723.016	7990.48
723.359	7945.51
723.701	7998.84
724.044	7948.9
724.386	7946.64
724.729	7955.68
725.071	7934.21
725.413	7933.08
725.755	7985.06
726.097	7877.94
726.439	7881.56
726.782	7918.17
727.124	7883.37
727.465	7932.4
727.807	7846.76
728.149	7856.7
728.491	7846.98
728.833	7890.82
729.175	7834.78
729.516	7849.69
729.858	7836.81
730.199	7865.51
730.541	7812.86
730.882	7835.23
731.224	7891.73
731.565	7832.75
731.906	7814.89
732.248	7895.8
732.589	7774.67
732.93	7788
733.271	7800.2
733.612	7834.78
733.953	7805.63
734.294	7821.9
734.635	7767.66
734.976	7867.77
735.317	7738.74
735.658	7781.22
735.999	7860.77
736.339	7851.95
736.68	7853.76
737.021	7823.25
737.361	7797.27
737.702	7849.47
738.042	7817.61
738.383	7808.11
738.723	7856.25
739.063	7827.77
739.404	7885.63
739.744	7891.95
740.084	7837.49
740.424	7906.64
740.764	7879.98
741.104	7968.79
741.444	7893.31
741.784	7934.89
742.124	7892.18
742.464	7968.56
742.804	7895.12
743.143	7979.18
743.483	7975.79
743.823	8040.42
744.162	8046.75
744.502	8044.72
744.841	8042.01
745.181	8117.26
745.52	8147.09
745.86	8225.96
746.199	8264.83
746.538	8183.25
746.877	8351.83
747.216	8345.27
747.556	8384.37
747.895	8484.25
748.234	8455.33
748.573	8538.94
748.911	8540.3
749.25	8641.54
749.589	8686.28
749.928	8733.74
750.267	8867.3
750.605	8896.9
750.944	8938.25
751.283	8995.88
751.621	9148.19
751.96	9209.66
752.298	9245.36
752.636	9472.02
752.975	9410.78
753.313	9560.16
753.651	9595.64
753.989	9760.38
754.327	9881.73
754.666	9928.96
755.004	10120.6
755.342	10353.81
755.679	10410.53
756.017	10479.46
756.355	10670.64
756.693	10798.54
757.031	10967.58
757.368	11038.99
757.706	11198.31
758.044	11347.23
