Data from hue_50_FLMS001491_52.txt Node
Date: Mon Feb 06 15:10:31 GMT 2017
User: dcchb
Spectrometer: FLMS00149
Trigger mode: 0
Integration Time (sec): 2.000000E-2
Scans to average: 10
Electric dark correction enabled: true
Nonlinearity correction enabled: false
Boxcar width: 0
XAxis mode: Wavelengths
Number of Pixels in Spectrum: 2048
>>>>>Begin Spectral Data<<<<<
341.393	-5.52
341.776	-5.52
342.16	-5.52
342.543	-57.05
342.927	-41
343.31	-95.01
343.693	-62.02
344.077	-58.4
344.46	-49.59
344.843	-46.43
345.226	-46.88
345.61	-8.69
345.993	-23.38
346.376	-17.5
346.759	7.36
347.142	24.31
347.525	42.61
347.908	57.53
348.291	72.44
348.674	96.85
349.057	106.79
349.44	130.29
349.823	148.37
350.206	156.51
350.588	189.73
350.971	211.65
351.354	220.91
351.737	220.69
352.119	257.75
352.502	288.26
352.884	272.89
353.267	292.77
353.65	312.21
354.032	300.91
354.414	317.41
354.797	316.05
355.179	313.57
355.562	305.43
355.944	315.15
356.326	351.3
356.709	352.43
357.091	336.39
357.473	341.36
357.855	348.59
358.238	329.16
358.62	341.81
359.002	340.23
359.384	349.04
359.766	347.01
360.148	331.19
360.53	335.03
360.912	349.95
361.294	324.86
361.676	321.7
362.057	339.1
362.439	329.61
362.821	340.23
363.203	327.12
363.584	325.99
363.966	334.81
364.348	315.15
364.729	309.95
365.111	320.12
365.493	316.95
365.874	323.73
366.256	328.03
366.637	316.5
367.019	310.63
367.4	307.24
367.781	328.25
368.163	316.73
368.544	313.79
368.925	324.64
369.306	326.67
369.688	302.49
370.069	314.92
370.45	293
370.831	325.32
371.212	346.33
371.593	306.79
371.974	336.84
372.355	322.38
372.736	317.63
373.117	319.89
373.498	312.21
373.879	311.53
374.26	316.73
374.641	310.4
375.021	316.5
375.402	311.53
375.783	301.14
376.163	330.97
376.544	321.7
376.925	319.89
377.305	338.65
377.686	335.03
378.066	321.47
378.447	321.7
378.827	338.88
379.208	324.86
379.588	331.64
379.968	325.32
380.349	338.88
380.729	342.72
381.109	345.43
381.489	334.81
381.87	321.7
382.25	337.97
382.63	363.06
383.01	362.15
383.39	347.69
383.77	353.79
384.15	315.83
384.53	348.14
384.91	319.44
385.29	314.92
385.67	342.27
386.049	351.98
386.429	350.63
386.809	347.46
387.189	351.53
387.568	348.82
387.948	358.99
388.328	359.44
388.707	359.44
389.087	348.82
389.466	381.81
389.846	354.92
390.225	357.41
390.605	368.25
390.984	364.19
391.363	384.52
391.743	365.54
392.122	363.73
392.501	363.73
392.881	369.38
393.26	349.95
393.639	372.55
394.018	347.24
394.397	374.81
394.776	396.05
395.155	375.03
395.534	381.59
395.913	387.46
396.292	369.16
396.671	385.43
397.05	374.58
397.429	373.68
397.808	391.3
398.186	392.43
398.565	376.61
398.944	363.51
399.323	398.08
399.701	371.19
400.08	401.92
400.458	401.47
400.837	412.32
401.215	393.11
401.594	379.55
401.972	373.68
402.351	399.21
402.729	402.83
403.107	398.76
403.486	386.33
403.864	388.37
404.242	404.18
404.62	410.06
404.999	409.83
405.377	396.27
405.755	410.96
406.133	391.08
406.511	411.64
406.889	403.05
407.267	420.68
407.645	427.91
408.023	420.46
408.401	430.4
408.779	400.79
409.156	417.29
409.534	418.87
409.912	407.12
410.29	417.52
410.667	422.04
411.045	426.1
411.422	431.08
411.8	446.9
412.178	423.17
412.555	444.86
412.933	450.51
413.31	432.88
413.687	439.66
414.065	462.04
414.442	443.28
414.819	446.22
415.197	462.26
415.574	474.46
415.951	450.28
416.328	464.52
416.705	470.4
417.082	471.53
417.46	454.35
417.837	492.09
418.214	480.11
418.591	474.92
418.967	476.95
419.344	484.18
419.721	485.09
420.098	499.1
420.475	473.56
420.852	477.18
421.228	510.85
421.605	502.94
421.982	498.42
422.358	509.27
422.735	470.62
423.111	497.97
423.488	493
423.864	502.26
424.241	504.07
424.617	525.76
424.994	501.81
425.37	515.82
425.746	507.46
426.123	538.87
426.499	535.25
426.875	537.74
427.251	522.83
427.627	556.95
428.003	529.6
428.379	566.89
428.756	536.38
429.132	539.55
429.507	546.55
429.883	566.44
430.259	570.06
430.635	570.73
431.011	588.36
431.387	579.09
431.763	594.01
432.138	573.22
432.514	578.42
432.89	587
433.265	598.08
433.641	588.13
434.016	601.02
434.392	594.46
434.767	606.21
435.143	626.55
435.518	626.33
435.894	622.94
436.269	644.63
436.644	621.81
437.02	630.84
437.395	641.47
437.77	620.22
438.145	652.99
438.52	660.22
438.895	641.69
439.271	645.31
439.646	659.09
440.021	653.9
440.395	662.03
440.77	667.91
441.145	659.32
441.52	655.48
441.895	685.98
442.27	672.2
442.645	680.34
443.019	677.62
443.394	703.61
443.769	696.83
444.143	720.11
444.518	684.4
444.892	692.09
445.267	705.87
445.641	714.23
446.016	728.92
446.39	725.98
446.764	729.37
447.139	750.62
447.513	729.6
447.887	726.21
448.262	742.25
448.636	733.22
449.01	761.91
449.384	751.29
449.758	785.42
450.132	749.03
450.506	772.31
450.88	770.73
451.254	769.6
451.628	756.04
452.002	809.82
452.376	776.6
452.75	787.23
453.123	783.61
453.497	795.81
453.871	809.15
454.244	820.22
454.618	833.33
454.992	836.04
455.365	859.31
455.739	852.53
456.112	879.2
456.486	875.36
456.859	843.95
457.232	886.43
457.606	869.26
457.979	878.52
458.352	908.35
458.725	914.23
459.099	946.32
459.472	941.35
459.845	953.77
460.218	949.03
460.591	962.14
460.964	979.54
461.337	973.66
461.71	994.23
462.083	990.61
462.456	1015.69
462.829	1013.89
463.201	1024.51
463.574	1009.14
463.947	1040.78
464.32	1072.42
464.692	1069.7
465.065	1070.38
465.438	1091.17
465.81	1112.64
466.183	1135.69
466.555	1142.92
466.928	1147.89
467.3	1169.36
467.672	1186.99
468.045	1222.92
468.417	1229.47
468.789	1242.58
469.161	1253.43
469.534	1295.23
469.906	1328
470.278	1326.42
470.65	1337.95
471.022	1363.93
471.394	1404.38
471.766	1390.15
472.138	1427.21
472.51	1468.11
472.882	1481.67
473.253	1505.85
473.625	1574.1
473.997	1604.15
474.369	1640.54
474.74	1649.12
475.112	1662.46
475.484	1720.53
475.855	1742.23
476.227	1826.07
476.598	1840.08
476.97	1879.85
477.341	1953.75
477.713	2006.63
478.084	2012.28
478.455	2127.75
478.827	2153.52
479.198	2188.32
479.569	2278.26
479.94	2333.85
480.311	2386.05
480.682	2457.92
481.053	2558.48
481.424	2627.4
481.795	2676.89
482.166	2732.71
482.537	2817.23
482.908	2930.67
483.279	2979.94
483.65	3058.58
484.021	3181.06
484.391	3280.04
484.762	3326.37
485.133	3423.54
485.503	3554.16
485.874	3609.75
486.244	3705.79
486.615	3818.78
486.985	3939.46
487.356	4015.16
487.726	4158.66
488.097	4280.24
488.467	4317.08
488.837	4500.57
489.207	4621.02
489.578	4716.84
489.948	4806.55
490.318	4961.13
490.688	5031.41
491.058	5159.09
491.428	5270.95
491.798	5437.27
492.168	5659.64
492.538	5657.83
492.908	5810.82
493.278	5994.32
493.648	6040.87
494.017	6211.94
494.387	6298.94
494.757	6435.89
495.126	6533.06
495.496	6698.03
495.866	6723.57
496.235	6904.35
496.605	6997.01
496.974	7089.43
497.344	7249.2
497.713	7336.21
498.082	7494.17
498.452	7606.03
498.821	7726.48
499.19	7832.69
499.559	8026.81
499.928	8074.04
500.298	8222.06
500.667	8294.6
501.036	8357.2
501.405	8556.96
501.774	8599
502.143	8752.67
502.512	8856.39
502.88	8981.59
503.249	9074.01
503.618	9175.48
503.987	9256.15
504.356	9366.89
504.724	9534.57
505.093	9520.55
505.462	9631.96
505.83	9727.55
506.199	9843.26
506.567	9996.02
506.936	10002.35
507.304	10211.84
507.672	10344.26
508.041	10395.79
508.409	10480.53
508.777	10617.93
509.145	10730.92
509.514	10783.12
509.882	10922.1
510.25	10982.44
510.618	11092.49
510.986	11214.97
511.354	11276.67
511.722	11406.83
512.09	11547.17
512.458	11576.77
512.826	11698.58
513.193	11798.23
513.561	11880.72
513.929	11962.75
514.297	12028.29
514.664	12191.67
515.032	12297.66
515.4	12339.46
515.767	12380.59
516.135	12526.13
516.502	12506.24
516.869	12767.02
517.237	12824.42
517.604	12784.2
517.972	12968.37
518.339	13084.3
518.706	13073.46
519.073	13201.14
519.44	13268.48
519.808	13464.41
520.175	13534.69
520.542	13659.88
520.909	13758.64
521.276	13789.82
521.643	13971.06
522.009	14054.22
522.376	14163.82
522.743	14213.99
523.11	14412.86
523.477	14593.87
523.843	14605.39
524.21	14791.83
524.577	14904.59
524.943	14928.55
525.31	15011.26
525.676	15132.38
526.043	15271.82
526.409	15336.67
526.776	15472.26
527.142	15477.23
527.508	15670.9
527.874	15791.35
528.241	15836.09
528.607	15889.88
528.973	16081.51
529.339	16171.23
529.705	16228.17
530.071	16382.07
530.437	16438.79
530.803	16524.21
531.169	16667.49
531.535	16610.99
531.901	16619.35
532.267	16786.35
532.632	17013.24
532.998	17022.5
533.364	17141.6
533.73	17189.28
534.095	17276.73
534.461	17429.73
534.826	17484.41
535.192	17433.57
535.557	17634.24
535.923	17676.95
536.288	17708.59
536.653	17825.42
537.019	17768.25
537.384	17964.17
537.749	17962.37
538.114	18037.62
538.479	18034.46
538.845	18149.25
539.21	18083.04
539.575	18227.9
539.94	18311.28
540.305	18532.52
540.67	18506.31
541.034	18471.51
541.399	18632.86
541.764	18717.15
542.129	18782.23
542.494	18718.05
542.858	18941.55
543.223	18837.6
543.587	19076.46
543.952	18959.63
544.316	19047.99
544.681	19136.8
545.045	19292.28
545.41	19310.13
545.774	19367.3
546.138	19398.04
546.503	19485.94
546.867	19523.91
547.231	19705.6
547.595	19713.06
547.959	19767.06
548.324	19771.13
548.688	19860.85
549.052	19964.12
549.416	20058.81
549.779	20076.21
550.143	20043.22
550.507	20389.87
550.871	20285.92
551.235	20232.14
551.599	20476.88
551.962	20511.68
552.326	20586.03
552.689	20641.17
553.053	20590.32
553.417	20739.47
553.78	20961.38
554.143	20966.36
554.507	21042.74
554.87	21088.61
555.234	21302.84
555.597	21122.96
555.96	21193.24
556.323	21285.44
556.686	21314.37
557.05	21525.89
557.413	21593.46
557.776	21584.42
558.139	21917.74
558.502	21861.47
558.865	21876.61
559.228	22040.23
559.59	22059.43
559.953	22143.95
560.316	22407.22
560.679	22384.85
561.041	22548.23
561.404	22626.2
561.767	22786.19
562.129	22691.06
562.492	22955.46
562.854	22886.08
563.217	23012.63
563.579	23032.06
563.941	23293.75
564.304	23308.67
564.666	23415.33
565.028	23436.35
565.39	23570.81
565.753	23691.93
566.115	23750.01
566.477	23923.11
566.839	23818.94
567.201	24086.73
567.563	24017.57
567.925	24293.05
568.287	24314.97
568.648	24281.07
569.01	24520.39
569.372	24672.7
569.734	24666.6
570.095	24747.05
570.457	24919.92
570.819	24985.23
571.18	24994.95
571.542	25150.43
571.903	25220.71
572.265	25332.79
572.626	25389.74
572.987	25476.29
573.349	25586.8
573.71	25690.75
574.071	25706.57
574.432	25882.61
574.794	25989.5
575.155	26094.36
575.516	25885.55
575.877	26149.5
576.238	26290.06
576.599	26417.96
576.96	26387.23
577.32	26403.27
577.681	26681.01
578.042	26788.8
578.403	26799.87
578.763	26800.78
579.124	26897.27
579.485	27024.95
579.845	27223.82
580.206	27235.8
580.566	27421.55
580.927	27370.48
581.287	27566.41
581.648	27589.91
582.008	27717.59
582.368	27817.93
582.728	27876
583.089	27993.52
583.449	28041.2
583.809	28135.43
584.169	28307.63
584.529	28278.25
584.889	28655.64
585.249	28383.79
585.609	28525.03
585.969	28750.78
586.329	28732.7
586.688	28822.42
587.048	28925.92
587.408	29093.6
587.768	29136.54
588.127	29160.49
588.487	29215.4
588.846	29488.84
589.206	29478
589.565	29570.65
589.925	29726.8
590.284	29762.28
590.643	29922.5
591.003	30008.6
591.362	30194.14
591.721	30327.01
592.08	30401.14
592.44	30511.64
592.799	30588.7
593.158	30644.52
593.517	30668.7
593.876	30856.49
594.235	30933.55
594.593	30874.34
594.952	31226.2
595.311	31102.36
595.67	31159.53
596.029	31541.44
596.387	31557.04
596.746	31652.85
597.104	31653.76
597.463	31690.14
597.822	31805.17
598.18	31808.56
598.538	31803.36
598.897	32104.37
599.255	31886.97
599.613	32397.92
599.972	32353.4
600.33	32377.81
600.688	32328.32
601.046	32568.99
601.404	32566.73
601.762	32669.78
602.12	32945.93
602.478	32952.48
602.836	33045.59
603.194	33023.67
603.552	33137.33
603.91	33083.78
604.268	33286.03
604.625	33176.88
604.983	33423.2
605.341	33287.61
605.698	33502.98
606.056	33516.76
606.413	33670.43
606.771	33786.81
607.128	33900.03
607.485	33627.49
607.843	33842.4
608.2	34020.93
608.557	34182.73
608.914	34072
609.272	34364.42
609.629	34424.31
609.986	34533
610.343	34334.82
610.7	34601.03
611.057	34592.66
611.414	34782.94
611.771	34754.69
612.127	34892.99
612.484	34947.23
612.841	35176.6
613.198	34845.54
613.554	35008.7
613.911	35249.82
614.267	35229.03
614.624	35315.36
614.98	35429.25
615.337	35643.94
615.693	35569.81
616.05	35509.48
616.406	35822.24
616.762	35590.15
617.118	35676.93
617.475	35660.43
617.831	35898.84
618.187	35827.21
618.543	35945.85
618.899	36238.27
619.255	36224.49
619.611	36196.69
619.967	36171.61
620.323	36374.99
620.678	36294.09
621.034	36107.2
621.39	36257.7
621.746	36201.21
622.101	36625.83
622.457	36394.42
622.812	36429.9
623.168	36695.21
623.523	36585.38
623.879	36649.78
624.234	36428.32
624.589	36622.89
624.945	36793.96
625.3	36788.76
625.655	36798.71
626.01	36801.19
626.365	36793.51
626.72	36772.95
627.075	36873.28
627.43	36869.21
627.785	36759.61
628.14	36853.85
628.495	36895.65
628.85	36953.96
629.205	36809.78
629.559	36925.94
629.914	36917.35
630.269	36779.95
630.623	36905.82
630.978	36785.83
631.332	37005.03
631.687	36989.66
632.041	36733.4
632.396	36945.14
632.75	36734.08
633.104	36776.79
633.459	36608.88
633.813	36783.34
634.167	36812.94
634.521	36739.95
634.875	36762.78
635.229	36797.13
635.583	36656.11
635.937	36703.34
636.291	36610.46
636.645	36554.65
636.999	36518.26
637.352	36608.88
637.706	36458.83
638.06	36650.01
638.413	36446.4
638.767	36433.52
639.121	36587.64
639.474	36323.47
639.828	36426.29
640.181	36283.24
640.534	36462.67
640.888	36313.3
641.241	36188.1
641.594	36239.63
641.947	36351.71
642.301	36275.33
642.654	36271.94
643.007	36251.38
643.36	36104.26
643.713	36095.22
644.066	36306.52
644.419	36005.73
644.771	35971.84
645.124	35555.12
645.477	35579.3
645.83	35213.89
646.182	35112.65
646.535	35111.97
646.888	35135.02
647.24	35012.09
647.593	35194.68
647.945	34980.22
648.298	34877.4
648.65	34741.81
649.002	34916.05
649.355	34956.27
649.707	34821.36
650.059	35053.67
650.411	35336.83
650.763	35380.89
651.115	35763.48
651.467	35695.01
651.819	35776.36
652.171	35598.29
652.523	35464.05
652.875	35571.85
653.227	35286.2
653.578	35589.25
653.93	35461.34
654.282	35290.95
654.633	35387.9
654.985	35419.53
655.337	35414.34
655.688	35207.11
656.039	35348.35
656.391	35163.95
656.742	35229.94
657.094	35209.37
657.445	35407.56
657.796	35331.85
658.147	35185.64
658.498	35334.79
658.849	35269.48
659.2	35248.69
659.551	35098.41
659.902	35374.79
660.253	35223.16
660.604	35386.99
660.955	35110.84
661.306	35328.01
661.656	35004.63
662.007	35229.71
662.358	35100
662.708	35159.65
663.059	35040.56
663.409	34874.24
663.76	35144.74
664.11	35119.2
664.461	35180.9
664.811	35063.39
665.161	35198.75
665.511	35045.31
665.862	35063.84
666.212	35196.49
666.562	35112.42
666.912	35063.84
667.262	35046.89
667.612	35161.69
667.962	34912.43
668.312	34961.69
668.662	35156.26
669.011	35063.61
669.361	34903.16
669.711	34886.44
670.06	34979.77
670.41	34921.69
670.76	34840.11
671.109	34866.33
671.459	34803.28
671.808	34678.99
672.157	34834.69
672.507	34703.4
672.856	34685.32
673.205	34702.04
673.554	34879.66
673.904	34776.61
674.253	34936.38
674.602	34719.67
674.951	34245.1
675.3	34022.28
675.649	34641.93
675.998	34719.44
676.346	34606.22
676.695	34717.63
677.044	34425.21
677.393	34550.18
677.741	34712.66
678.09	34539.33
678.438	34390.86
678.787	34452.55
679.135	34518.99
679.484	34294.59
679.832	34363.52
680.181	34218.89
680.529	34344.99
680.877	34088.04
681.225	34152.45
681.573	34358.55
681.922	34109.74
682.27	34146.12
682.618	33980.7
682.966	33947.03
683.314	34016.86
683.661	34003.07
684.009	33709.52
684.357	33734.16
684.705	33728.96
685.053	33728.05
685.4	33597.44
685.748	33470.21
686.095	33460.26
686.443	33415.97
686.79	33336.2
687.138	33471.79
687.485	33340.72
687.832	33136.88
688.18	33213.49
688.527	33034.06
688.874	33088.97
689.221	33052.82
689.568	32937.57
689.915	32796.55
690.262	32781.64
690.609	32752.26
690.956	32691.24
691.303	32678.82
691.65	32536.45
691.997	32519.72
692.344	32285.61
692.69	32198.6
693.037	32251.71
693.383	31999.51
693.73	32210.58
694.077	32072.73
694.423	31980.98
694.769	31805.62
695.116	31848.1
695.462	31764.72
695.808	31594.55
696.155	31637.49
696.501	31471.39
696.847	31435.91
697.193	31225.29
697.539	31327.66
697.885	31039.76
698.231	31140.1
698.577	31082.7
698.923	31076.15
699.269	30750.73
699.614	30861.01
699.96	30651.52
700.306	30729.49
700.651	30450.4
700.997	30492.88
701.342	30412.66
701.688	30434.58
702.033	30163.4
702.379	30149.39
702.724	30110.52
703.069	30106.68
703.415	29891.77
703.76	29875.05
704.105	29941.49
704.45	29823.07
704.795	29582.17
705.14	29533.36
705.485	29595.96
705.83	29446.81
706.175	29475.51
706.52	29387.15
706.865	29278.68
707.209	29238.45
707.554	29083.43
707.899	29241.39
708.243	29026.48
708.588	28887.05
708.932	28806.6
709.277	28777.22
709.621	28908.29
709.966	28564.57
710.31	28695.42
710.654	28402.32
710.998	28530.9
711.342	28533.61
711.687	28336.78
712.031	28317.57
712.375	28219.95
712.719	28192.83
713.063	28235.54
713.407	28215.2
713.75	28073.51
714.094	28073.51
714.438	27880.52
714.782	27887.53
715.125	27799.62
715.469	27909.22
715.812	27744.93
716.156	27571.61
716.499	27650.47
716.843	27642.11
717.186	27456.13
717.53	27589.68
717.873	27587.65
718.216	27447.77
718.559	27358.73
718.902	27135.68
719.246	27210.71
719.589	27043.03
719.932	27035.8
720.275	27062.24
720.617	27003.03
720.96	27003.48
721.303	27052.07
721.646	26957.38
721.989	26769.82
722.331	26894.11
722.674	26742.02
723.016	26768.01
723.359	26696.6
723.701	26741.8
724.044	26626.55
724.386	26432.65
724.729	26610.73
725.071	26502.26
725.413	26504.51
725.755	26302.49
726.097	26298.19
726.439	26193.34
726.782	26234.69
727.124	26293.9
727.465	26144.07
727.807	26212.55
728.149	25911.99
728.491	26092.32
728.833	26034.47
729.175	25967.35
729.516	26010.29
729.858	25949.05
730.199	25925.55
730.541	25840.8
730.882	25820.92
731.224	25962.16
731.565	25780.69
731.906	25650.53
732.248	25612.56
732.589	25647.36
732.93	25605.78
733.271	25460.25
733.612	25526.91
733.953	25568.04
734.294	25406.46
734.635	25298.22
734.976	25455.28
735.317	25149.3
735.658	25316.07
735.999	25228.16
736.339	25185
736.68	25246.24
737.021	25177.54
737.361	25002.41
737.702	25086.7
738.042	25151.56
738.383	24960.15
738.723	25098.68
739.063	24903.88
739.404	25048.06
739.744	24883.77
740.084	24754.28
740.424	24830.21
740.764	24774.16
741.104	24800.6
741.444	24692.59
741.784	24575.75
742.124	24724.9
742.464	24573.72
742.804	24549.54
743.143	24563.78
743.483	24469.77
743.823	24394.06
744.162	24349.09
744.502	24382.76
744.841	24259.83
745.181	24406.27
745.52	24208.08
745.86	24247.85
746.199	24140.74
746.538	24220.51
746.877	24199.94
747.216	24146.61
747.556	24109.78
747.895	24048.31
748.234	24025.03
748.573	23998.37
748.911	23857.8
749.25	23914.07
749.589	23774.19
749.928	23752.27
750.267	23825.04
750.605	23755.66
750.944	23641.99
751.283	23693.52
751.621	23701.65
751.96	23560.86
752.298	23536.23
752.636	23420.75
752.975	23320.87
753.313	23310.02
753.651	23397.7
753.989	23272.06
754.327	23270.48
754.666	23032.29
755.004	23052.63
755.342	23171.72
755.679	23058.05
756.017	22850.37
756.355	23014.44
756.693	22873.42
757.031	22898.06
757.368	22759.53
