Data from hue_240_FLMS001491_00010.txt Node
Date: Tue Feb 07 16:34:59 GMT 2017
User: dcchb
Spectrometer: FLMS00149
Trigger mode: 0
Integration Time (sec): 2.000000E-2
Scans to average: 10
Electric dark correction enabled: true
Nonlinearity correction enabled: false
Boxcar width: 0
XAxis mode: Wavelengths
Number of Pixels in Spectrum: 2048
>>>>>Begin Spectral Data<<<<<
341.393	-6.77
341.776	-6.77
342.16	-6.77
342.543	-72.07
342.927	-77.95
343.31	-75.24
343.693	-78.18
344.077	-62.36
344.46	-60.32
344.843	-47.67
345.226	-57.84
345.61	-34.11
345.993	-40.66
346.376	-13.54
346.759	25.78
347.142	28.04
347.525	51.76
347.908	77.75
348.291	73.91
348.674	90.63
349.057	122.04
349.44	133.34
349.823	153.68
350.206	154.13
350.588	172.89
350.971	175.6
351.354	216.96
351.737	211.99
352.119	245.66
352.502	240.69
352.884	265.77
353.267	257.86
353.65	270.29
354.032	287.46
354.414	296.28
354.797	288.82
355.179	304.86
355.562	294.24
355.944	302.61
356.326	314.13
356.709	325.66
357.091	310.51
357.473	337.18
357.855	337.86
358.238	332.89
358.62	323.62
359.002	321.14
359.384	330.17
359.766	332.66
360.148	328.37
360.53	295.6
360.912	299.89
361.294	319.1
361.676	315.49
362.057	313
362.439	324.98
362.821	309.61
363.203	334.02
363.584	322.94
363.966	317.52
364.348	296.28
364.729	291.31
365.111	300.8
365.493	317.52
365.874	310.97
366.256	280.23
366.637	298.54
367.019	300.57
367.4	298.31
367.781	292.89
368.163	310.06
368.544	300.57
368.925	291.76
369.306	287.24
369.688	291.76
370.069	296.96
370.45	287.01
370.831	289.72
371.212	288.82
371.593	313.9
371.974	296.73
372.355	295.83
372.736	297.63
373.117	305.09
373.498	300.57
373.879	303.28
374.26	304.86
374.641	295.37
375.021	317.75
375.402	310.06
375.783	300.57
376.163	317.97
376.544	315.49
376.925	304.19
377.305	293.57
377.686	315.26
378.066	317.97
378.447	322.04
378.827	306.67
379.208	312.1
379.588	333.11
379.968	302.15
380.349	328.82
380.729	325.66
381.109	330.4
381.489	321.59
381.87	319.78
382.25	319.33
382.63	318.88
383.01	323.85
383.39	329.05
383.77	331.53
384.15	343.28
384.53	332.89
384.91	329.05
385.29	320.01
385.67	341.25
386.049	325.66
386.429	326.56
386.809	343.51
387.189	342.15
387.568	346.22
387.948	331.08
388.328	329.5
388.707	334.92
389.087	343.73
389.466	349.16
389.846	343.51
390.225	345.32
390.605	342.83
390.984	362.94
391.363	340.8
391.743	369.95
392.122	364.3
392.501	346.22
392.881	351.87
393.26	372.21
393.639	358.65
394.018	370.4
394.397	372.66
394.776	385.31
395.155	367.46
395.534	356.84
395.913	374.92
396.292	388.93
396.671	375.6
397.05	377.41
397.429	382.83
397.808	367.24
398.186	394.13
398.565	380.8
398.944	385.99
399.323	410.4
399.701	400
400.08	385.09
400.458	393.22
400.837	381.47
401.215	411.3
401.594	397.07
401.972	390.29
402.351	402.26
402.729	412.21
403.107	407.69
403.486	399.78
403.864	420.79
404.242	411.75
404.62	402.04
404.999	420.57
405.377	427.8
405.755	436.84
406.133	431.87
406.511	417.63
406.889	450.4
407.267	433.22
407.645	435.71
408.023	439.55
408.401	469.61
408.779	457.86
409.156	475.48
409.534	461.92
409.912	480.23
410.29	476.61
410.667	483.62
411.045	509.61
411.422	487.01
411.8	501.47
412.178	504.86
412.555	519.32
412.933	516.61
413.31	527.23
413.687	517.29
414.065	524.29
414.442	549.6
414.819	566.1
415.197	556.84
415.574	560.9
415.951	574.01
416.328	560
416.705	543.95
417.082	581.69
417.46	604.52
417.837	597.06
418.214	589.15
418.591	610.85
418.967	612.88
419.344	614.24
419.721	635.03
420.098	621.69
420.475	653.33
420.852	654.23
421.228	661.01
421.605	651.97
421.982	670.5
422.358	698.3
422.735	683.61
423.111	697.85
423.488	730.84
423.864	725.42
424.241	723.84
424.617	736.27
424.994	724.29
425.37	759.32
425.746	783.5
426.123	756.83
426.499	790.28
426.875	791.41
427.251	795.93
427.627	808.81
428.003	828.69
428.379	848.13
428.756	830.95
429.132	831.4
429.507	875.02
429.883	856.49
430.259	899.43
430.635	888.35
431.011	881.35
431.387	925.87
431.763	942.36
432.138	919.54
432.514	950.27
432.89	931.97
433.265	966.99
433.641	985.07
434.016	977.84
434.392	1009.71
434.767	1044.28
435.143	1046.54
435.518	1055.58
435.894	1077.05
436.269	1094.9
436.644	1100.32
437.02	1134
437.395	1129.02
437.77	1103.49
438.145	1145.97
438.52	1169.47
438.895	1193.88
439.271	1201.79
439.646	1220.55
440.021	1224.61
440.395	1241.79
440.77	1256.03
441.145	1253.31
441.52	1269.59
441.895	1290.83
442.27	1315.01
442.645	1303.26
443.019	1341.45
443.394	1334.67
443.769	1331.28
444.143	1350.71
444.518	1362.69
444.892	1357.72
445.267	1361.79
445.641	1381.9
446.016	1388.9
446.39	1427.1
446.764	1412.18
447.139	1421.9
447.513	1425.74
447.887	1443.59
448.262	1471.16
448.636	1471.84
449.01	1462.8
449.384	1488.56
449.758	1492.63
450.132	1537.6
450.506	1538.73
450.88	1526.98
451.254	1532.63
451.628	1562.23
452.002	1576.02
452.376	1564.49
452.75	1599.07
453.123	1592.97
453.497	1667.99
453.871	1629.58
454.244	1664.15
454.618	1672.51
454.992	1723.36
455.365	1708.44
455.739	1723.36
456.112	1760.65
456.486	1769.01
456.859	1792.51
457.232	1799.06
457.606	1812.17
457.979	1807.88
458.352	1859.17
458.725	1848.1
459.099	1903.24
459.472	1907.31
459.845	1927.65
460.218	1932.39
460.591	1992.5
460.964	1946.86
461.337	1995.67
461.71	2055.55
462.083	2082.9
462.456	2069.79
462.829	2067.3
463.201	2130.81
463.574	2139.62
463.947	2144.36
464.32	2196.34
464.692	2183.91
465.065	2197.47
465.438	2234.08
465.81	2278.15
466.183	2293.29
466.555	2335.32
466.928	2340.97
467.3	2355.66
467.672	2376.22
468.045	2444.7
468.417	2472.49
468.789	2444.92
469.161	2482.89
469.534	2571.25
469.906	2575.54
470.278	2592.49
470.65	2599.72
471.022	2655.76
471.394	2691.02
471.766	2731.92
472.138	2731.02
472.51	2781.86
472.882	2816.66
473.253	2852.14
473.625	2892.82
473.997	2928.98
474.369	2941.86
474.74	3001.52
475.112	2993.83
475.484	3083.77
475.855	3112.93
476.227	3134.62
476.598	3229.08
476.97	3247.39
477.341	3308.18
477.713	3322.64
478.084	3361.28
478.455	3442.86
478.827	3469.75
479.198	3532.8
479.569	3543.42
479.94	3644.89
480.311	3637.21
480.682	3734.15
481.053	3796.3
481.424	3861.61
481.795	3912.91
482.166	3902.06
482.537	4007.37
482.908	4042.62
483.279	4068.38
483.65	4140.02
484.021	4202.62
484.391	4274.03
484.762	4228.38
485.133	4310.18
485.503	4352.44
485.874	4427.02
486.244	4488.48
486.615	4542.27
486.985	4592.21
487.356	4636.5
487.726	4672.66
488.097	4759.89
488.467	4765.99
488.837	4867.68
489.207	4905.2
489.578	4909.49
489.948	5010.73
490.318	5059.32
490.688	5026.55
491.058	5122.14
491.428	5198.97
491.798	5177.05
492.168	5316.94
492.538	5375.69
492.908	5371.85
493.278	5442.13
493.648	5451.4
494.017	5504.73
494.387	5527.78
494.757	5549.7
495.126	5653.42
495.496	5647.55
495.866	5668.79
496.235	5704.72
496.605	5783.14
496.974	5812.52
497.344	5872.18
497.713	5866.75
498.082	5859.07
498.452	5898.16
498.821	5953.76
499.19	5980.65
499.559	6069.01
499.928	6044.6
500.298	6050.48
500.667	6107.42
501.036	6114.2
501.405	6141.77
501.774	6142
502.143	6179.29
502.512	6209.34
502.88	6271.71
503.249	6303.13
503.618	6232.17
503.987	6287.08
504.356	6366.63
504.724	6319.4
505.093	6389
505.462	6363.46
505.83	6407.98
506.199	6465.38
506.567	6519.39
506.936	6549.67
507.304	6579.28
507.672	6570.69
508.041	6624.92
508.409	6655.88
508.777	6672.38
509.145	6733.4
509.514	6728.88
509.882	6755.32
510.25	6778.14
510.618	6770.68
510.986	6764.58
511.354	6772.27
511.722	6790.12
512.09	6892.94
512.458	6828.99
512.826	6834.64
513.193	6880.06
513.561	6906.5
513.929	6881.19
514.297	6906.05
514.664	6981.07
515.032	6991.69
515.4	7004.12
515.767	7038.7
516.135	7042.31
516.502	6964.12
516.869	7094.97
517.237	7104.01
517.604	7095.19
517.972	7138.13
518.339	7198.02
518.706	7101.07
519.073	7157.11
519.44	7138.36
519.808	7196.66
520.175	7204.34
520.542	7261.52
520.909	7259.26
521.276	7293.61
521.643	7322.99
522.009	7282.53
522.376	7318.01
522.743	7393.72
523.11	7388.97
523.477	7408.63
523.843	7435.98
524.21	7491.79
524.577	7570.21
524.943	7475.75
525.31	7441.85
525.676	7560.04
526.043	7601.85
526.409	7541.06
526.776	7698.79
527.142	7602.07
527.508	7622.86
527.874	7661.06
528.241	7645.24
528.607	7667.84
528.973	7710.32
529.339	7672.35
529.705	7738.12
530.071	7767.72
530.437	7800.04
530.803	7799.81
531.169	7742.41
531.535	7775.4
531.901	7803.42
532.267	7741.96
532.632	7790.32
532.998	7839.81
533.364	7799.36
533.73	7824.22
534.095	7865.12
534.461	7853.14
534.826	7822.63
535.192	7841.84
535.557	7852.91
535.923	7764.56
536.288	7853.59
536.653	7790.32
537.019	7839.81
537.384	7823.09
537.749	7817.89
538.114	7723.65
538.479	7760.04
538.845	7835.51
539.21	7823.09
539.575	7775.85
539.94	7776.98
540.305	7789.64
540.67	7752.58
541.034	7767.27
541.399	7769.3
541.764	7715.52
542.129	7770.66
542.494	7743.99
542.858	7726.14
543.223	7708.51
543.587	7755.97
543.952	7717.55
544.316	7693.37
544.681	7677.33
545.045	7709.87
545.41	7699.92
545.774	7669.42
546.138	7658.12
546.503	7621.73
546.867	7710.55
547.231	7726.82
547.595	7647.72
547.959	7709.87
548.324	7696.08
548.688	7680.94
549.052	7675.07
549.416	7616.09
549.779	7631.45
550.143	7652.02
550.507	7641.85
550.871	7629.42
551.235	7609.98
551.599	7657.44
551.962	7710.55
552.326	7600.49
552.689	7693.82
553.053	7672.58
553.417	7633.03
553.78	7719.81
554.143	7629.42
554.507	7642.3
554.87	7625.12
555.234	7682.07
555.597	7649.3
555.96	7666.93
556.323	7685.24
556.686	7617.21
557.05	7679.36
557.413	7641.4
557.776	7676.42
558.139	7642.75
558.502	7678
558.865	7678.23
559.228	7722.75
559.59	7709.42
559.953	7708.51
560.316	7776.53
560.679	7754.61
561.041	7786.48
561.404	7733.14
561.767	7801.62
562.129	7714.84
562.492	7786.7
562.854	7838.23
563.217	7794.39
563.579	7801.62
563.941	7874.84
564.304	7913.03
564.666	7871.9
565.028	7898.34
565.39	7920.71
565.753	7891.33
566.115	7976.3
566.477	7941.5
566.839	7961.39
567.201	8002.52
567.563	8042.06
567.925	8052.68
568.287	8101.95
568.648	8091.1
569.01	8109.86
569.372	8221.72
569.734	8153.92
570.095	8195.73
570.457	8183.53
570.819	8070.76
571.18	8168.39
571.542	8185.11
571.903	8253.36
572.265	8300.59
572.626	8343.52
572.987	8307.59
573.349	8332.45
573.71	8398.44
574.071	8349.85
574.432	8340.59
574.794	8417.42
575.155	8360.47
575.516	8381.49
575.877	8479.79
576.238	8394.37
576.599	8469.17
576.96	8495.84
577.32	8473.46
577.681	8539.9
578.042	8601.37
578.403	8493.58
578.763	8539.45
579.124	8601.14
579.485	8597.98
579.845	8660.58
580.206	8609.28
580.566	8676.62
580.927	8684.53
581.287	8666.68
581.648	8695.15
582.008	8742.61
582.368	8755.49
582.728	8749.16
583.089	8720.01
583.449	8811.31
583.809	8755.04
584.169	8773.57
584.529	8764.98
584.889	8851.08
585.249	8798.88
585.609	8761.14
585.969	8857.41
586.329	8803.62
586.688	8861.25
587.048	8830.29
587.408	8799.78
587.768	8871.19
588.127	8831.42
588.487	8887.92
588.846	8889.72
589.206	8930.4
589.565	8877.97
589.925	8960.46
590.284	8945.09
590.643	8966.33
591.003	8955.71
591.362	9025.09
591.721	8981.47
592.08	8981.25
592.44	8999.33
592.799	9046.78
593.158	9008.59
593.517	9059.44
593.876	9037.97
594.235	9040.45
594.593	8988.48
594.952	9034.35
595.311	9038.65
595.67	9091.3
596.029	9141.24
596.387	9148.7
596.746	9136.95
597.104	9158.19
597.463	9071.41
597.822	9146.21
598.18	9140.34
598.538	9112.77
598.897	9147.57
599.255	9121.13
599.613	9261.47
599.972	9156.16
600.33	9201.13
600.688	9166.1
601.046	9218.08
601.404	9202.03
601.762	9195.48
602.12	9223.05
602.478	9264.4
602.836	9247.23
603.194	9242.26
603.552	9235.7
603.91	9169.72
604.268	9208.13
604.625	9203.39
604.983	9300.33
605.341	9233.22
605.698	9252.88
606.056	9286.78
606.413	9297.17
606.771	9264.4
607.128	9319.77
607.485	9207
607.843	9247.68
608.2	9321.8
608.557	9380.11
608.914	9288.36
609.272	9363.38
609.629	9392.31
609.986	9415.81
610.343	9320
610.7	9395.7
611.057	9414.23
611.414	9383.04
611.771	9331.52
612.127	9414.23
612.484	9429.6
612.841	9414.46
613.198	9446.77
613.554	9426.88
613.911	9430.73
614.267	9439.09
614.624	9469.37
614.98	9484.96
615.337	9470.27
615.693	9503.95
616.05	9503.72
616.406	9615.58
616.762	9504.85
617.118	9500.33
617.475	9499.43
617.831	9592.98
618.187	9493.55
618.543	9531.74
618.899	9618.97
619.255	9603.6
619.611	9548.69
619.967	9659.87
620.323	9610.16
620.678	9643.38
621.034	9533.77
621.39	9544.62
621.746	9588.91
622.101	9678.86
622.457	9588.01
622.812	9615.58
623.168	9616.03
623.523	9609.03
623.879	9609.48
624.234	9601.8
624.589	9634.56
624.945	9572.42
625.3	9646.77
625.655	9611.06
626.01	9597.95
626.365	9614.9
626.72	9552.08
627.075	9564.28
627.43	9572.87
627.785	9618.07
628.14	9643.38
628.495	9661.91
628.85	9632.76
629.205	9583.04
629.559	9576.94
629.914	9508.92
630.269	9524.74
630.623	9530.61
630.978	9509.37
631.332	9497.84
631.687	9526.77
632.041	9495.13
632.396	9465.75
632.75	9518.86
633.104	9492.87
633.459	9372.88
633.813	9444.96
634.167	9413.33
634.521	9438.18
634.875	9463.04
635.229	9421.69
635.583	9272.99
635.937	9385.08
636.291	9397.73
636.645	9390.73
636.999	9339.2
637.352	9387.79
637.706	9360.22
638.06	9361.58
638.413	9326.55
638.767	9337.17
639.121	9317.51
639.474	9231.18
639.828	9226.66
640.181	9254.46
640.534	9307.57
640.888	9254.91
641.241	9204.07
641.594	9200.9
641.947	9231.86
642.301	9136.72
642.654	9181.69
643.007	9165.2
643.36	9157.51
643.713	9171.07
644.066	9170.39
644.419	9165.2
644.771	9093.33
645.124	9013.56
645.477	8985.31
645.83	8975.37
646.182	8904.86
646.535	8823.74
646.888	8902.6
647.24	8850.85
647.593	8857.41
647.945	8851.53
648.298	8825.09
648.65	8790.97
649.002	8773.34
649.355	8816.05
649.707	8863.96
650.059	8835.49
650.411	8911.64
650.763	8954.58
651.115	9007.23
651.467	9016.5
651.819	8985.31
652.171	9045.2
652.523	8998.2
652.875	9025.77
653.227	8973.79
653.578	8942.15
653.93	9015.14
654.282	9022.38
654.633	8971.53
654.985	8936.05
655.337	9014.69
655.688	8967.46
656.039	9023.51
656.391	8955.71
656.742	8961.59
657.094	8968.37
657.445	9016.05
657.796	8993
658.147	8959.1
658.498	8954.58
658.849	9051.98
659.2	9046.1
659.551	8900.12
659.902	8965.65
660.253	8938.76
660.604	8885.43
660.955	8979.21
661.306	8936.28
661.656	8986.67
662.007	8943.73
662.358	9035.71
662.708	8943.06
663.059	8973.79
663.409	8865.77
663.76	8949.61
664.11	8951.42
664.461	8991.87
664.811	9020.79
665.161	8907.58
665.511	8934.24
665.862	8950.97
666.212	8913.68
666.562	8969.95
666.912	8999.33
667.262	8931.53
667.612	9019.89
667.962	8991.64
668.312	9032.32
668.662	8954.81
669.011	9005.2
669.361	8942.6
669.711	8914.36
670.06	8926.33
670.41	8931.98
670.76	8861.02
671.109	8884.75
671.459	8889.05
671.808	8837.52
672.157	8976.95
672.507	8974.47
672.856	8847.24
673.205	8913.45
673.554	8883.17
673.904	8867.35
674.253	8921.36
674.602	8834.13
674.951	8754.36
675.3	8687.92
675.649	8837.75
675.998	8796.17
676.346	8793.46
676.695	8901.47
677.044	8786
677.393	8840.69
677.741	8785.55
678.09	8817.18
678.438	8801.14
678.787	8767.24
679.135	8755.04
679.484	8702.61
679.832	8692.21
680.181	8697.64
680.529	8689.73
680.877	8668.03
681.225	8684.53
681.573	8716.85
681.922	8596.17
682.27	8577.64
682.618	8616.74
682.966	8595.27
683.314	8605.44
683.661	8556.4
684.009	8509.39
684.357	8557.08
684.705	8559.11
685.053	8495.84
685.4	8466.91
685.748	8445.89
686.095	8451.09
686.443	8342.17
686.79	8359.79
687.138	8376.74
687.485	8418.78
687.832	8315.73
688.18	8378.32
688.527	8357.08
688.874	8271.89
689.221	8267.37
689.568	8268.72
689.915	8213.81
690.262	8231.44
690.609	8131.33
690.956	8213.81
691.303	8203.87
691.65	8138.11
691.997	8116.41
692.344	8061.27
692.69	8011.1
693.037	8055.17
693.383	7993.7
693.73	7999.35
694.077	7944.21
694.423	7950.31
694.769	7925.46
695.116	7838.23
695.462	7913.25
695.808	7906.92
696.155	7837.32
696.501	7727.72
696.847	7783.54
697.193	7708.06
697.539	7769.98
697.885	7638.01
698.231	7653.15
698.577	7626.93
698.923	7668.51
699.269	7639.14
699.614	7494.73
699.96	7522.75
700.306	7487.73
700.651	7446.37
700.997	7471.23
701.342	7452.02
701.688	7412.47
702.033	7386.03
702.379	7423.32
702.724	7280.05
703.069	7342.65
703.415	7305.13
703.76	7286.15
704.105	7249.77
704.45	7220.62
704.795	7167.74
705.14	7156.21
705.485	7195.76
705.83	7111.47
706.175	7173.38
706.52	7161.63
706.865	7042.99
707.209	7087.51
707.554	7049.09
707.899	7021.75
708.243	7014.52
708.588	7054.74
708.932	6939.49
709.277	6962.54
709.621	6920.28
709.966	6924.8
710.31	6925.48
710.654	6895.65
710.998	6889.55
711.342	6845.71
711.687	6847.07
712.031	6816.11
712.375	6751.48
712.719	6760.06
713.063	6790.34
713.407	6772.49
713.75	6746.96
714.094	6708.31
714.438	6689.78
714.782	6761.42
715.125	6666.05
715.469	6717.13
715.812	6645.49
716.156	6666.73
716.499	6647.07
716.843	6614.98
717.186	6624.7
717.53	6669.44
717.873	6617.69
718.216	6579.95
718.559	6580.63
718.902	6555.1
719.246	6570.91
719.589	6591.71
719.932	6554.64
720.275	6539.73
720.617	6553.51
720.96	6503.12
721.303	6521.88
721.646	6524.81
721.989	6466.28
722.331	6472.16
722.674	6516.68
723.016	6474.19
723.359	6522.1
723.701	6457.92
724.044	6499.73
724.386	6395.55
724.729	6465.38
725.071	6429.9
725.413	6401.65
725.755	6440.07
726.097	6410.92
726.439	6400.07
726.782	6353.75
727.124	6372.95
727.465	6391.71
727.807	6400.3
728.149	6348.55
728.491	6351.94
728.833	6358.49
729.175	6367.98
729.516	6314.65
729.858	6304.03
730.199	6330.24
730.541	6273.07
730.882	6322.79
731.224	6351.94
731.565	6335.44
731.906	6342.9
732.248	6300.19
732.589	6255.89
732.93	6279.4
733.271	6335.67
733.612	6332.05
733.953	6303.8
734.294	6294.99
734.635	6285.95
734.976	6307.42
735.317	6241.21
735.658	6299.96
735.999	6316.68
736.339	6294.76
736.68	6357.81
737.021	6322.79
737.361	6308.32
737.702	6318.72
738.042	6327.08
738.383	6361.65
738.723	6339.73
739.063	6287.31
739.404	6369.79
739.744	6341.77
740.084	6317.59
740.424	6306.51
740.764	6326.85
741.104	6337.7
741.444	6295.44
741.784	6346.97
742.124	6368.66
742.464	6386.29
742.804	6365.5
743.143	6333.86
743.483	6419.51
743.823	6441.2
744.162	6363.24
744.502	6464.25
744.841	6494.31
745.181	6513.06
745.52	6460.18
745.86	6521.88
746.199	6573.63
746.538	6572.04
746.877	6580.63
747.216	6639.16
747.556	6631.25
747.895	6592.38
748.234	6627.18
748.573	6804.58
748.911	6776.56
749.25	6732.27
749.589	6819.04
749.928	6863.56
750.267	6922.32
750.605	6905.6
750.944	6990.79
751.283	6970.9
751.621	7083.67
751.96	7083.22
752.298	7121.86
752.636	7248.86
752.975	7260.84
753.313	7330.44
753.651	7406.37
753.989	7415.64
754.327	7518.01
754.666	7560.95
755.004	7683.88
755.342	7784.67
755.679	7793.03
756.017	7871.67
756.355	8045.68
756.693	8007.71
757.031	8106.47
757.368	8170.87
757.706	8288.38
758.044	8345.33
758.381	8456.97
758.719	8542.84
759.056	8674.14
759.394	8721.37
759.731	8783.96
760.068	8893.11
760.405	8942.15
760.743	9007.01
761.08	9252.88
761.417	9291.3
761.754	9412.65
762.091	9411.29
762.428	9509.14
762.765	9593.43
763.102	9812.41
763.438	9879.75
763.775	9921.34
764.112	10021.9
764.449	10209.24
764.785	10238.39
765.122	10291.27
765.458	10369.23
765.795	10482.9
766.131	10612.62
766.467	10628.21
766.804	10693.07
767.14	10775.1
767.476	10856
767.812	10842.44
768.148	11043.57
768.485	11041.53
768.821	11081.08
769.157	11192.26
769.492	11202.21
