Data from hue_28_FLMS001491_00061.txt Node
Date: Tue Feb 07 17:17:35 GMT 2017
User: dcchb
Spectrometer: FLMS00149
Trigger mode: 0
Integration Time (sec): 2.000000E-2
Scans to average: 10
Electric dark correction enabled: true
Nonlinearity correction enabled: false
Boxcar width: 0
XAxis mode: Wavelengths
Number of Pixels in Spectrum: 2048
>>>>>Begin Spectral Data<<<<<
341.393	-5.32
341.776	-5.32
342.16	-5.32
342.543	-62.05
342.927	-63.18
343.31	-62.95
343.693	-77.19
344.077	-70.18
344.46	-70.41
344.843	-62.05
345.226	-50.97
345.61	-35.38
345.993	-17.08
346.376	9.82
346.759	27.89
347.142	38.97
347.525	54.11
347.908	58.18
348.291	64.28
348.674	87.1
349.057	105.86
349.44	108.8
349.823	166.65
350.206	164.84
350.588	186.76
350.971	202.13
351.354	229.47
351.737	231.05
352.119	244.61
352.502	252.3
352.884	259.98
353.267	292.07
353.65	297.49
354.032	303.82
354.414	308.79
354.797	314.67
355.179	331.62
355.562	322.12
355.944	325.74
356.326	324.84
356.709	350.15
357.091	338.4
357.473	339.98
357.855	348.11
358.238	353.76
358.62	367.55
359.002	339.98
359.384	352.63
359.766	358.28
360.148	346.98
360.53	339.75
360.912	357.15
361.294	339.3
361.676	337.04
362.057	347.89
362.439	357.38
362.821	340.2
363.203	320.77
363.584	325.06
363.966	334.1
364.348	339.07
364.729	354.21
365.111	348.79
365.493	335.23
365.874	314.67
366.256	327.32
366.637	328.45
367.019	317.15
367.4	330.71
367.781	327.32
368.163	326.87
368.544	306.98
368.925	300.66
369.306	314.67
369.688	333.42
370.069	335.23
370.45	320.09
370.831	319.41
371.212	311.28
371.593	325.29
371.974	327.77
372.355	319.64
372.736	318.28
373.117	334.55
373.498	311.96
373.879	333.2
374.26	324.16
374.641	317.83
375.021	324.84
375.402	332.75
375.783	333.2
376.163	344.95
376.544	336.81
376.925	325.51
377.305	303.14
377.686	322.12
378.066	325.51
378.447	324.61
378.827	315.8
379.208	342.91
379.588	320.32
379.968	339.07
380.349	340.88
380.729	330.49
381.109	357.6
381.489	343.37
381.87	341.11
382.25	331.62
382.63	336.14
383.01	325.29
383.39	351.28
383.77	346.53
384.15	345.63
384.53	358.51
384.91	355.12
385.29	333.88
385.67	366.19
386.049	349.02
386.429	347.43
386.809	358.51
387.189	328.45
387.568	365.74
387.948	356.25
388.328	342.24
388.707	348.56
389.087	371.61
389.466	370.03
389.846	378.85
390.225	369.35
390.605	377.04
390.984	365.51
391.363	367.77
391.743	363.48
392.122	397.6
392.501	365.96
392.881	384.04
393.26	377.72
393.639	388.56
394.018	386.76
394.397	366.19
394.776	378.17
395.155	373.2
395.534	384.72
395.913	392.86
396.292	360.54
396.671	368.9
397.05	388.11
397.429	408.45
397.808	386.98
398.186	398.05
398.565	395.34
398.944	402.8
399.323	391.05
399.701	394.66
400.08	401.22
400.458	407.09
400.837	393.08
401.215	399.18
401.594	382.24
401.972	398.05
402.351	428.79
402.729	418.62
403.107	403.03
403.486	396.25
403.864	428.34
404.242	417.26
404.62	414.78
404.999	410.26
405.377	439.86
405.755	436.92
406.133	425.17
406.511	416.59
406.889	444.15
407.267	455.91
407.645	404.61
408.023	443.03
408.401	426.3
408.779	428.11
409.156	419.52
409.534	437.6
409.912	445.51
410.29	457.26
410.667	451.16
411.045	450.71
411.422	460.88
411.8	462.23
412.178	448
412.555	448
412.933	461.78
413.31	467.21
413.687	467.66
414.065	454.55
414.442	468.11
414.819	495.91
415.197	488.45
415.574	475.79
415.951	487.32
416.328	480.54
416.705	457.94
417.082	492.52
417.46	488.9
417.837	497.03
418.214	497.71
418.591	495.45
418.967	500.2
419.344	516.7
419.721	506.53
420.098	522.57
420.475	511.05
420.852	509.46
421.228	516.92
421.605	517.15
421.982	509.01
422.358	549.46
422.735	527.32
423.111	533.42
423.488	537.26
423.864	545.85
424.241	548.11
424.617	544.72
424.994	551.95
425.37	558.73
425.746	547.88
426.123	554.66
426.499	566.86
426.875	573.64
427.251	584.72
427.627	565.28
428.003	575.9
428.379	575
428.756	581.78
429.132	587.2
429.507	580.87
429.883	588.56
430.259	604.6
430.635	609.12
431.011	604.83
431.387	608.22
431.763	610.93
432.138	614.09
432.514	635.56
432.89	624.72
433.265	646.41
433.641	635.56
434.016	627.65
434.392	646.64
434.767	650.7
435.143	646.18
435.518	664.49
435.894	676.69
436.269	686.41
436.644	698.39
437.02	681.21
437.395	676.47
437.77	705.84
438.145	700.87
438.52	703.36
438.895	696.13
439.271	695.9
439.646	720.76
440.021	727.99
440.395	720.98
440.77	700.65
441.145	730.02
441.52	732.73
441.895	725.73
442.27	728.67
442.645	761.21
443.019	734.54
443.394	753.75
443.769	743.58
444.143	759.4
444.518	776.35
444.892	743.36
445.267	761.43
445.641	762.79
446.016	784.71
446.39	800.53
446.764	784.71
447.139	772.06
447.513	762.34
447.887	809.12
448.262	789.68
448.636	815.44
449.01	812.73
449.384	804.6
449.758	819.29
450.132	834.43
450.506	833.75
450.88	817.03
451.254	824.48
451.628	848.89
452.002	860.42
452.376	873.97
452.75	868.55
453.123	885.05
453.497	890.47
453.871	905.16
454.244	894.99
454.618	891.83
454.992	906.74
455.365	897.93
455.739	947.42
456.112	919.62
456.486	954.42
456.859	963.24
457.232	949.9
457.606	946.74
457.979	964.59
458.352	983.8
458.725	1010.69
459.099	1000.98
459.472	1004.59
459.845	1024.7
460.218	1043.01
460.591	1035.1
460.964	1069.9
461.337	1048.21
461.71	1097.02
462.083	1087.3
462.456	1112.16
462.829	1108.54
463.201	1126.85
463.574	1107.87
463.947	1121.2
464.32	1167.07
464.692	1180.86
465.065	1156.45
465.438	1173.63
465.81	1203.01
466.183	1231.03
466.555	1236.45
466.928	1252.5
467.3	1246.62
467.672	1250.01
468.045	1301.53
468.417	1291.14
468.789	1304.92
469.161	1318.71
469.534	1345.15
469.906	1353.06
470.278	1366.84
470.65	1394.86
471.022	1426.95
471.394	1458.59
471.766	1428.76
472.138	1465.6
472.51	1488.65
472.882	1483.9
473.253	1529.78
473.625	1564.35
473.997	1587.63
474.369	1626.95
474.74	1615.65
475.112	1666.95
475.484	1698.59
475.855	1701.07
476.227	1760.96
476.598	1828.3
476.97	1794.85
477.341	1840.28
477.713	1889.31
478.084	1947.62
478.455	1975.64
478.827	1976.32
479.198	2060.61
479.569	2068.97
479.94	2119.14
480.311	2129.31
480.682	2189.87
481.053	2233.03
481.424	2317.55
481.795	2306.93
482.166	2348.51
482.537	2413.37
482.908	2496.3
483.279	2496.3
483.65	2569.97
484.021	2621.72
484.391	2629.41
484.762	2692.68
485.133	2755.28
485.503	2774.26
485.874	2835.05
486.244	2851.78
486.615	2978.1
486.985	2962.73
487.356	3047.48
487.726	3085.22
488.097	3193.91
488.467	3211.54
488.837	3322.05
489.207	3328.15
489.578	3410.63
489.948	3450.63
490.318	3497.41
490.688	3532.89
491.058	3621.47
491.428	3657.63
491.798	3736.5
492.168	3786.67
492.538	3792.99
492.908	3860.34
493.278	3926.78
493.648	3945.76
494.017	4023.27
494.387	4055.13
494.757	4128.13
495.126	4173.1
495.496	4183.72
495.866	4233.43
496.235	4272.53
496.605	4357.72
496.974	4378.06
497.344	4406.99
497.713	4471.85
498.082	4441.56
498.452	4545.97
498.821	4541
499.19	4648.79
499.559	4663.48
499.928	4697.83
500.298	4695.12
500.667	4768.79
501.036	4811.5
501.405	4828.67
501.774	4829.58
502.143	4898.5
502.512	4924.94
502.88	4988.89
503.249	4969.46
503.618	5066.63
503.987	5067.31
504.356	5111.6
504.724	5133.75
505.093	5121.55
505.462	5199.96
505.83	5195.44
506.199	5246.97
506.567	5312.5
506.936	5322.67
507.304	5330.58
507.672	5361.09
508.041	5385.49
508.409	5427.3
508.777	5503.91
509.145	5547.98
509.514	5510.01
509.882	5604.02
510.25	5595.88
510.618	5669.33
510.986	5625.71
511.354	5638.59
511.722	5703.9
512.09	5707.07
512.458	5790.68
512.826	5834.52
513.193	5823.45
513.561	5800.17
513.929	5867.06
514.297	5998.13
514.664	5945.93
515.032	5917.23
515.4	5959.04
515.767	5982.31
516.135	6039.49
516.502	6044.01
516.869	6149.32
517.237	6080.39
517.604	6121.29
517.972	6141.41
518.339	6156.1
518.706	6238.13
519.073	6263.66
519.44	6244.45
519.808	6302.31
520.175	6284.45
520.542	6342.98
520.909	6384.34
521.276	6387.73
521.643	6463.88
522.009	6462.98
522.376	6483.54
522.743	6550.44
523.11	6616.2
523.477	6658.45
523.843	6659.36
524.21	6703.2
524.577	6695.74
524.943	6750.2
525.31	6735.74
525.676	6866.58
526.043	6893.93
526.409	6928.73
526.776	6970.31
527.142	7027.71
527.508	7067.03
527.874	7022.51
528.241	7099.35
528.607	7155.39
528.973	7196.29
529.339	7162.85
529.705	7252.34
530.071	7292.79
530.437	7334.37
530.803	7333.24
531.169	7361.94
531.535	7384.99
531.901	7436.06
532.267	7441.26
532.632	7486.46
532.998	7572.56
533.364	7591.54
533.73	7652.1
534.095	7685.55
534.461	7733.91
534.826	7758.09
535.192	7710.4
535.557	7828.37
535.923	7806.9
536.288	7899.1
536.653	7885.99
537.019	7868.82
537.384	7921.25
537.749	7887.35
538.114	7953.34
538.479	7970.96
538.845	8025.42
539.21	8012.77
539.575	8067.91
539.94	8091.19
540.305	8181.13
540.67	8147.68
541.034	8232.42
541.399	8323.95
541.764	8261.12
542.129	8335.47
542.494	8344.96
542.858	8356.94
543.223	8448.92
543.587	8492.76
543.952	8507.22
544.316	8484.85
544.681	8492.53
545.045	8612.08
545.41	8608.91
545.774	8675.8
546.138	8668.12
546.503	8713.77
546.867	8743.37
547.231	8814.78
547.595	8780.88
547.959	8785.86
548.324	8839.64
548.688	8876.25
549.052	8907.89
549.416	8904.05
549.779	8962.8
550.143	9008.9
550.507	9077.37
550.871	9067.21
551.235	9018.84
551.599	9110.59
551.962	9148.78
552.326	9154.21
552.689	9253.64
553.053	9162.12
553.417	9232.4
553.78	9411.83
554.143	9367.76
554.507	9360.98
554.87	9353.07
555.234	9377.93
555.597	9454.77
555.96	9432.39
556.323	9478.95
556.686	9483.92
557.05	9577.47
557.413	9606.17
557.776	9611.15
558.139	9683.01
558.502	9706.96
558.865	9761.88
559.228	9833.29
559.59	9803.68
559.953	9811.37
560.316	9938.82
560.679	9965.49
561.041	9954.19
561.404	9984.24
561.767	10045.71
562.129	10050.68
562.492	10117.35
562.854	10147.4
563.217	10087.52
563.579	10170.23
563.941	10252.03
564.304	10233.05
564.666	10303.56
565.028	10298.36
565.39	10366.83
565.753	10416.1
566.115	10462.2
566.477	10402.76
566.839	10458.58
567.201	10602.31
567.563	10579.03
567.925	10605.02
568.287	10646.6
568.648	10660.38
569.01	10690.67
569.372	10782.19
569.734	10741.51
570.095	10793.04
570.457	10943.54
570.819	10950.55
571.18	10960.71
571.542	11012.92
571.903	11070.99
572.265	11127.72
572.626	11210.88
572.987	11190.31
573.349	11309.41
573.71	11321.16
574.071	11447.93
574.432	11564.54
574.794	11629.85
575.155	11619.45
575.516	11595.95
575.877	11703.52
576.238	11832.33
576.599	11917.75
576.96	12020.57
577.32	11959.78
577.681	12194.58
578.042	12330.62
578.403	12408.59
578.763	12398.87
579.124	12527.91
579.485	12660.56
579.845	12843.6
580.206	12927.67
580.566	13093.31
580.927	13171.5
581.287	13306.19
581.648	13419.18
582.008	13660.08
582.368	13729.91
582.728	13923.12
583.089	13955.44
583.449	14180.97
583.809	14314.52
584.169	14490.34
584.529	14732.14
584.889	14977.33
585.249	15032.25
585.609	15275.63
585.969	15564.21
586.329	15672.68
586.688	15903.18
587.048	16234.25
587.408	16353.12
587.768	16608.25
588.127	16820.9
588.487	17075.81
588.846	17477.61
589.206	17545.4
589.565	17848.9
589.925	18185.61
590.284	18435.32
590.643	18701.75
591.003	19051.35
591.362	19350.32
591.721	19593.03
592.08	19877.99
592.44	20100.36
592.799	20401.37
593.158	20603.17
593.517	20952.77
593.876	21214
594.235	21502.13
594.593	21741.45
594.952	22123.36
595.311	22341.66
595.67	22590.92
596.029	23064.58
596.387	23410.78
596.746	23773.94
597.104	23881.73
597.463	24190.65
597.822	24601.94
598.18	24697.08
598.538	24985.88
598.897	25463.84
599.255	25616.6
599.613	26113.99
599.972	26295.68
600.33	26739.73
600.688	26746.51
601.046	27095.43
601.404	27544.46
601.762	27804.79
602.12	28074.61
602.478	28431.67
602.836	28647.26
603.194	28787.14
603.552	29089.05
603.91	29159.56
604.268	29681.58
604.625	29753.44
604.983	30160.89
605.341	30205.41
605.698	30674.32
606.056	30878.16
606.413	31073.63
606.771	31386.17
607.128	31652.6
607.485	31837.68
607.843	31959.03
608.2	32431.56
608.557	32554.27
608.914	32735.51
609.272	32980.02
609.629	33298.66
609.986	33577.07
610.343	33596.73
610.7	34042.82
611.057	34123.5
611.414	34243.27
611.771	34452.07
612.127	34746.98
612.484	34951.72
612.841	35229.91
613.198	35156.91
613.554	35358.72
613.911	35730.46
614.267	35855.2
614.624	35920.74
614.98	36124.35
615.337	36495.41
615.693	36560.95
616.05	36577.22
616.406	37015.62
616.762	37018.56
617.118	37182.4
617.475	37404.54
617.831	37552.33
618.187	37806.11
618.543	37799.33
618.899	38004.3
619.255	38114.35
619.611	37963.85
619.967	38402.7
620.323	38481.35
620.678	38472.53
621.034	38632.53
621.39	38655.35
621.746	38611.06
622.101	39290.14
622.457	39057.6
622.812	39064.83
623.168	39252.4
623.523	39453.07
623.879	39549.57
624.234	39308.67
624.589	39698.04
624.945	39587.98
625.3	39837.24
625.655	39792.27
626.01	39919.28
626.365	40129.67
626.72	40086.05
627.075	39977.13
627.43	40056.67
627.785	40210.57
628.14	40285.37
628.495	40314.97
628.85	40257.12
629.205	40270
629.559	40622.31
629.914	40474.74
630.269	40602.65
630.623	40509.99
630.978	40522.88
631.332	40786.6
631.687	40878.57
632.041	40758.35
632.396	40743.66
632.75	40556.09
633.104	40717.67
633.459	40622.31
633.813	40683.1
634.167	40767.61
634.521	40644.23
634.875	40802.87
635.229	40785.02
635.583	40534.17
635.937	40743.66
636.291	40642.65
636.645	40646.04
636.999	40633.38
637.352	40879.25
637.706	40650.33
638.06	40691.23
638.413	40750.67
638.767	40658.92
639.121	40633.38
639.474	40537.79
639.828	40542.54
640.181	40673.61
640.534	40563.55
640.888	40580.95
641.241	40349.77
641.594	40627.51
641.947	40669.31
642.301	40547.73
642.654	40594.96
643.007	40645.36
643.36	40654.85
643.713	40590.9
644.066	40692.59
644.419	40427.96
644.771	40254.63
645.124	39932.16
645.477	39891.03
645.83	39595.67
646.182	39411.49
646.535	39440.19
646.888	39468.67
647.24	39277.03
647.593	39557.48
647.945	39517.48
648.298	39252.63
648.65	39230.03
649.002	39088.79
649.355	39226.64
649.707	39195
650.059	39482.22
650.411	39937.35
650.763	39816.23
651.115	40335.08
651.467	40211.7
651.819	40241.3
652.171	40095.09
652.523	40065.26
652.875	39929.44
653.227	39964.02
653.578	40141.64
653.93	40041.76
654.282	39932.16
654.633	39865.04
654.985	40005.37
655.337	39946.17
655.688	40047.63
656.039	40204.92
656.391	39787.98
656.742	39811.03
657.094	39874.3
657.445	40103
657.796	39991.36
658.147	39970.12
658.498	39877.92
658.849	39860.07
659.2	39896.22
659.551	39753.18
659.902	39929.67
660.253	39767.41
660.604	39884.93
660.955	39799.96
661.306	39860.52
661.656	39803.35
662.007	39788.43
662.358	39721.31
662.708	39885.6
663.059	39748.88
663.409	39451.49
663.76	39884.7
664.11	39927.86
664.461	40030.68
664.811	39792.05
665.161	39735.78
665.511	39677.02
665.862	39705.95
666.212	39686.51
666.562	39684.03
666.912	39644.71
667.262	39651.71
667.612	39699.17
667.962	39700.52
668.312	39527.2
668.662	39779.17
669.011	39767.87
669.361	39527.2
669.711	39692.16
670.06	39450.59
670.41	39548.66
670.76	39476.12
671.109	39743.01
671.459	39531.49
671.808	39529.23
672.157	39581.88
672.507	39400.42
672.856	39305.05
673.205	39437.25
673.554	39561.54
673.904	39371.94
674.253	39704.82
674.602	39546.63
674.951	38882.92
675.3	38764.73
675.649	39409.23
675.998	39408.78
676.346	39338.05
676.695	39477.7
677.044	39312.29
677.393	39313.42
677.741	39343.92
678.09	39218.95
678.438	39121.56
678.787	39192.51
679.135	39108.45
679.484	39029.13
679.832	39297.14
680.181	38929.92
680.529	38995.46
680.877	38802.47
681.225	38813.99
681.573	38988.68
681.922	38765.41
682.27	38660.55
682.618	38639.31
682.966	38624.39
683.314	38746.88
683.661	38584.85
684.009	38385.08
684.357	38447.45
684.705	38324.51
685.053	38391.86
685.4	38207.68
685.748	38143.73
686.095	38173.56
686.443	38007.91
686.79	37974.24
687.138	38004.07
687.485	38023.96
687.832	37902.61
688.18	38028.93
688.527	37737.41
688.874	37554.82
689.221	37575.83
689.568	37564.99
689.915	37468.94
690.262	37519.79
690.609	37317.31
690.956	37066.02
691.303	37059.01
691.65	36970.43
691.997	36899.92
692.344	36857.21
692.69	36796.65
693.037	36826.7
693.383	36496.54
693.73	36511.46
694.077	36332.02
694.423	36424.23
694.769	36327.05
695.116	36225.59
695.462	36197.11
695.808	36020.62
696.155	35996.67
696.501	35805.26
696.847	35767.75
697.193	35617.24
697.539	35751.25
697.885	35451.14
698.231	35358.04
698.577	35518.26
698.923	35283.24
699.269	35310.36
699.614	35057.26
699.96	34933.42
700.306	35048.67
700.651	34882.57
700.997	34783.59
701.342	34755.12
701.688	34666.31
702.033	34657.04
702.379	34559.42
702.724	34438.52
703.069	34463.83
703.415	34132.76
703.76	34180.9
704.105	34040.56
704.45	34114.91
704.795	33808.93
705.14	33761.47
705.485	33715.82
705.83	33516.51
706.175	33598.76
706.52	33570.29
706.865	33285.1
707.209	33256.85
707.554	33243.74
707.899	33263.18
708.243	33132.79
708.588	33113.35
708.932	32868.84
709.277	32887.37
709.621	32897.99
709.966	32794.04
710.31	32895.73
710.654	32530.32
710.998	32553.59
711.342	32595.63
711.687	32482.41
712.031	32284
712.375	32145.02
712.719	32307.95
713.063	32319.93
713.407	32365.12
713.75	32144.56
714.094	31997.22
714.438	31868.87
714.782	31974.4
715.125	31713.16
715.469	31909.77
715.812	31684.69
716.156	31515.2
716.499	31401.31
716.843	31559.72
717.186	31242.67
717.53	31525.15
717.873	31462.77
718.216	31446.05
718.559	31220.75
718.902	31092.84
719.246	31245.15
719.589	31120.18
719.932	30862.34
720.275	30916.57
720.617	30882.9
720.96	30871.38
721.303	30839.06
721.646	30777.82
721.989	30541.89
722.331	30646.07
722.674	30716.58
723.016	30692.63
723.359	30640.88
723.701	30639.07
724.044	30256.7
724.386	30395.68
724.729	30478.62
725.071	30284.73
725.413	30298.96
725.755	30217.84
726.097	30077.95
726.439	30004.73
726.782	30063.94
727.124	30042.7
727.465	30041.12
727.807	29840.44
728.149	29833.66
728.491	29901.01
728.833	29897.62
729.175	29714.57
729.516	29729.26
729.858	29674.57
730.199	29755.25
730.541	29551.41
730.882	29529.27
731.224	29696.04
731.565	29377.86
731.906	29378.76
732.248	29373.56
732.589	29270.52
732.93	29207.69
733.271	29156.17
733.612	29162.27
733.953	29165.66
734.294	29060.58
734.635	29156.17
734.976	29124.76
735.317	28971.09
735.658	29001.82
735.999	28881.37
736.339	28990.52
736.68	28950.75
737.021	28777.42
737.361	28690.42
737.702	28812.22
738.042	28625.33
738.383	28663.3
738.723	28794.6
739.063	28460.59
739.404	28649.97
739.744	28463.08
740.084	28325.68
740.424	28509.63
740.764	28445.23
741.104	28413.36
741.444	28332.24
741.784	28418.79
742.124	28217.66
742.464	28268.28
742.804	28132.01
743.143	28187.38
743.483	28197.78
743.823	27940.38
744.162	27984.22
744.502	27958.91
744.841	27927.73
745.181	28031.45
745.52	27839.82
745.86	27941.74
746.199	27785.36
746.538	27712.36
746.877	27744.91
747.216	27819.48
747.556	27666.26
747.895	27817.67
748.234	27654.51
748.573	27536.32
748.911	27653.61
749.25	27607.96
749.589	27504.23
749.928	27484.57
750.267	27400.06
750.605	27331.13
750.944	27249.78
751.283	27122.32
751.621	27321.87
751.96	27071.93
752.298	27176.11
752.636	27127.07
752.975	26915.55
753.313	26965.49
753.651	27036.22
753.989	26722.33
754.327	26867.19
754.666	26698.15
755.004	26641.88
755.342	26687.53
755.679	26612.51
756.017	26502.9
756.355	26577.71
756.693	26477.82
757.031	26408.67
757.368	26368.9
757.706	26156.93
758.044	26236.47
758.381	26196.02
758.719	26116.47
759.056	26190.6
759.394	25922.13
759.731	25892.53
