Data from hue_50_FLMS001491_7.txt Node
Date: Mon Feb 06 15:09:30 GMT 2017
User: dcchb
Spectrometer: FLMS00149
Trigger mode: 0
Integration Time (sec): 2.000000E-2
Scans to average: 10
Electric dark correction enabled: true
Nonlinearity correction enabled: false
Boxcar width: 0
XAxis mode: Wavelengths
Number of Pixels in Spectrum: 2048
>>>>>Begin Spectral Data<<<<<
341.393	-19.32
341.776	-19.32
342.16	-19.32
342.543	-53.22
342.927	-48.47
343.31	-62.03
343.693	-64.97
344.077	-56.61
344.46	-63.39
344.843	-46.67
345.226	-46.44
345.61	-36.5
345.993	-1.92
346.376	-6.44
346.759	6.21
347.142	31.3
347.525	46.21
347.908	65.65
348.291	61.13
348.674	95.7
349.057	78.75
349.44	121.24
349.823	113.78
350.206	157.62
350.588	172.54
350.971	203.72
351.354	229.94
351.737	245.98
352.119	240.78
352.502	265.19
352.884	256.6
353.267	287.56
353.65	289.37
354.032	315.58
354.414	310.39
354.797	318.75
355.179	318.3
355.562	327.79
355.944	336.83
356.326	332.31
356.709	314.91
357.091	334.57
357.473	333.89
357.855	332.08
358.238	334.34
358.62	335.92
359.002	363.95
359.384	332.08
359.766	337.96
360.148	335.92
360.53	334.79
360.912	336.6
361.294	330.05
361.676	329.6
362.057	344.51
362.439	352.19
362.821	330.5
363.203	333.44
363.584	316.71
363.966	321.91
364.348	324.85
364.729	316.26
365.111	314.23
365.493	314.91
365.874	308.35
366.256	310.84
366.637	308.81
367.019	309.26
367.4	291.18
367.781	302.25
368.163	319.65
368.544	313.55
368.925	316.26
369.306	316.71
369.688	331.18
370.069	326.88
370.45	294.34
370.831	297.73
371.212	303.16
371.593	302.93
371.974	322.82
372.355	331.18
372.736	326.66
373.117	327.11
373.498	304.51
373.879	309.03
374.26	311.52
374.641	325.53
375.021	321.46
375.402	326.21
375.783	346.32
376.163	343.15
376.544	337.05
376.925	316.49
377.305	326.21
377.686	299.31
378.066	320.33
378.447	322.82
378.827	331.86
379.208	346.54
379.588	325.53
379.968	335.7
380.349	341.8
380.729	331.63
381.109	300.22
381.489	340.89
381.87	342.02
382.25	335.7
382.63	331.86
383.01	340.44
383.39	327.79
383.77	345.41
384.15	331.18
384.53	373.21
384.91	332.08
385.29	342.02
385.67	331.86
386.049	346.77
386.429	357.17
386.809	346.77
387.189	356.94
387.568	336.15
387.948	350.61
388.328	344.96
388.707	348.13
389.087	343.15
389.466	346.32
389.846	326.66
390.225	361.46
390.605	363.95
390.984	342.02
391.363	331.4
391.743	342.7
392.122	344.74
392.501	348.58
392.881	358.52
393.26	373.89
393.639	374.57
394.018	359.43
394.397	347.22
394.776	360.78
395.155	373.21
395.534	380.67
395.913	380.22
396.292	378.86
396.671	348.58
397.05	372.98
397.429	376.15
397.808	364.62
398.186	371.18
398.565	358.52
398.944	371.85
399.323	390.39
399.701	373.44
400.08	370.05
400.458	368.24
400.837	397.16
401.215	391.74
401.594	391.06
401.972	371.63
402.351	388.58
402.729	398.07
403.107	398.75
403.486	383.38
403.864	378.18
404.242	398.52
404.62	401.01
404.999	396.26
405.377	381.35
405.755	395.81
406.133	427.22
406.511	396.26
406.889	396.26
407.267	403.04
407.645	424.51
408.023	395.81
408.401	416.15
408.779	412.53
409.156	405.53
409.534	436.94
409.912	421.34
410.29	435.36
410.667	418.41
411.045	408.24
411.422	430.16
411.8	405.07
412.178	455.92
412.555	438.52
412.933	458.63
413.31	446.43
413.687	441.91
414.065	459.76
414.442	464.28
414.819	459.54
415.197	460.44
415.574	469.71
415.951	453.43
416.328	469.03
416.705	456.82
417.082	477.84
417.46	456.15
417.837	464.96
418.214	475.13
418.591	502.02
418.967	479.42
419.344	466.77
419.721	476.03
420.098	473.77
420.475	508.12
420.852	484.17
421.228	480.55
421.605	488.91
421.982	494.11
422.358	511.74
422.735	497.28
423.111	485.75
423.488	518.07
423.864	505.64
424.241	517.61
424.617	521
424.994	506.77
425.37	501.12
425.746	525.75
426.123	515.13
426.499	532.3
426.875	506.77
427.251	544.51
427.627	535.69
428.003	546.54
428.379	537.95
428.756	542.92
429.132	558.06
429.507	551.74
429.883	561
430.259	566.2
430.635	547.67
431.011	562.36
431.387	603.03
431.763	590.61
432.138	573.21
432.514	582.7
432.89	586.31
433.265	598.97
433.641	617.05
434.016	604.84
434.392	608.01
434.767	625.41
435.143	609.59
435.518	592.87
435.894	639.64
436.269	640.77
436.644	637.84
437.02	630.38
437.395	644.16
437.77	666.31
438.145	655.24
438.52	678.29
438.895	673.32
439.271	669.7
439.646	683.48
440.021	683.26
440.395	667.89
440.77	652.98
441.145	676.25
441.52	700.89
441.895	662.92
442.27	694.11
442.645	705.41
443.019	695.24
443.394	697.5
443.769	702.02
444.143	733.2
444.518	715.35
444.892	715.12
445.267	724.16
445.641	718.29
446.016	727.1
446.39	731.17
446.764	746.31
447.139	758.51
447.513	701.79
447.887	753.09
448.262	742.01
448.636	744.27
449.01	742.24
449.384	769.36
449.758	762.8
450.132	787.21
450.506	779.3
450.88	765.97
451.254	744.05
451.628	799.19
452.002	806.42
452.376	793.09
452.75	802.35
453.123	796.7
453.497	829.7
453.871	795.12
454.244	833.54
454.618	833.99
454.992	859.98
455.365	847.1
455.739	849.58
456.112	848.23
456.486	861.11
456.859	861.33
457.232	897.49
457.606	912.18
457.979	910.15
458.352	910.37
458.725	944.04
459.099	940.88
459.472	959.18
459.845	936.36
460.218	960.54
460.591	982.23
460.964	997.37
461.337	1018.84
461.71	992.86
462.083	1042.12
462.456	1014.78
462.829	1025.62
463.201	1039.18
463.574	1044.83
463.947	1067.2
464.32	1100.88
464.692	1123.47
465.065	1105.39
465.438	1134.32
465.81	1138.84
466.183	1156.01
466.555	1168.9
466.928	1210.48
467.3	1180.42
467.672	1202.57
468.045	1259.97
468.417	1244.83
468.789	1242.79
469.161	1284.37
469.534	1298.38
469.906	1297.25
470.278	1341.77
470.65	1367.53
471.022	1369.12
471.394	1411.15
471.766	1458.61
472.138	1480.98
472.51	1514.2
472.882	1528.89
473.253	1591.03
473.625	1558.26
473.997	1644.14
474.369	1652.27
474.74	1677.36
475.112	1743.8
475.484	1770.69
475.855	1805.26
476.227	1826.05
476.598	1893.4
476.97	1938.82
477.341	2007.07
477.713	2032.15
478.084	2073.73
478.455	2145.82
478.827	2220.85
479.198	2229.88
479.569	2295.65
479.94	2387.85
480.311	2425.81
480.682	2522.31
481.053	2584.45
481.424	2681.62
481.795	2710.1
482.166	2767.72
482.537	2899.92
482.908	2974.95
483.279	3045.91
483.65	3122.06
484.021	3239.58
484.391	3296.07
484.762	3363.19
485.133	3464.88
485.503	3525.44
485.874	3686.57
486.244	3748.71
486.615	3867.36
486.985	3951.2
487.356	4056.5
487.726	4179.89
488.097	4312.32
488.467	4358.87
488.837	4515.7
489.207	4656.94
489.578	4749.59
489.948	4867.33
490.318	5000.66
490.688	5085.4
491.058	5233.65
491.428	5345.51
491.798	5411.04
492.168	5639.29
492.538	5748.21
492.908	5818.72
493.278	5987.75
493.648	6045.6
494.017	6234.07
494.387	6326.05
494.757	6475.42
495.126	6620.05
495.496	6677.23
495.866	6805.36
496.235	6980.95
496.605	7063.2
496.974	7167.61
497.344	7379.81
497.713	7400.6
498.082	7581.61
498.452	7749.06
498.821	7817.53
499.19	7876.52
499.559	8094.59
499.928	8130.52
500.298	8318.99
500.667	8429.5
501.036	8479.21
501.405	8618.42
501.774	8681.24
502.143	8790.62
502.512	8916.04
502.88	9053.66
503.249	9127.33
503.618	9261.11
503.987	9381.79
504.356	9452.07
504.724	9603.25
505.093	9646.86
505.462	9795.56
505.83	9881.89
506.199	10018.15
506.567	10154.2
506.936	10200.52
507.304	10359.61
507.672	10497.46
508.041	10492.94
508.409	10634.18
508.777	10814.07
509.145	10872.6
509.514	10988.3
509.882	11044.57
510.25	11215.86
510.618	11206.6
510.986	11293.15
511.354	11406.14
511.722	11648.17
512.09	11740.14
512.458	11796.41
512.826	11914.15
513.193	11948.27
513.561	12037.99
513.929	12170.64
514.297	12330.18
514.664	12361.37
515.032	12489.95
515.4	12667.35
515.767	12680.46
516.135	12784.18
516.502	12765.43
516.869	12961.58
517.237	13016.04
517.604	13087.23
517.972	13229.82
518.339	13319.08
518.706	13373.09
519.073	13534.9
519.44	13591.85
519.808	13699.87
520.175	13776.25
520.542	13975.34
520.909	14085.62
521.276	14053.08
521.643	14263.69
522.009	14339.62
522.376	14509.79
522.743	14546.62
523.11	14811.02
523.477	14785.03
523.843	14868.65
524.21	15021.86
524.577	15122.65
524.943	15245.59
525.31	15382.99
525.676	15515.41
526.043	15473.15
526.409	15668.85
526.776	15920.15
527.142	15899.13
527.508	16044.44
527.874	16178.9
528.241	16166.69
528.607	16359.46
528.973	16494.14
529.339	16339.57
529.705	16648.49
530.071	16771.42
530.437	16829.05
530.803	16969.84
531.169	17030.4
531.535	17034.92
531.901	17101.58
532.267	17249.83
532.632	17288.92
532.998	17398.3
533.364	17484.17
533.73	17513.55
534.095	17704.05
534.461	17782.24
534.826	17913.77
535.192	17990.6
535.557	18088.9
535.923	18124.38
536.288	18199.18
536.653	18278.73
537.019	18193.98
537.384	18349.91
537.749	18439.85
538.114	18529.34
538.479	18582
538.845	18609.57
539.21	18687.76
539.575	18768.43
539.94	18778.38
540.305	18896.34
540.67	18913.74
541.034	18929.33
541.399	19139.04
541.764	19167.74
542.129	19254.75
542.494	19262.88
542.858	19351.02
543.223	19376.1
543.587	19445.03
543.952	19495.87
544.316	19514.18
544.681	19564.12
545.045	19723.21
545.41	19857.67
545.774	19880.72
546.138	19843.89
546.503	19928.18
546.867	19923.66
547.231	20226.93
547.595	20217.89
547.959	20307.38
548.324	20339.92
548.688	20402.74
549.052	20515.96
549.416	20546.24
549.779	20532.23
550.143	20682.73
550.507	20766.8
550.871	20702.39
551.235	20706.01
551.599	20869.85
551.962	20921.14
552.326	21081.14
552.689	21213.57
553.053	21019
553.417	21184.41
553.78	21385.77
554.143	21381.92
554.507	21540.56
554.87	21583.05
555.234	21780.33
555.597	21573.56
555.96	21844.74
556.323	21916.6
556.686	21894.45
557.05	22147.78
557.413	22188
557.776	22291.96
558.139	22233.43
558.502	22303.93
558.865	22480.88
559.228	22502.12
559.59	22663.7
559.953	22606.75
560.316	22989.57
560.679	22896.23
561.041	23015.1
561.404	23224.81
561.767	23297.81
562.129	23153.63
562.492	23520.62
562.854	23466.61
563.217	23482.89
563.579	23710.9
563.941	23730.79
564.304	23796.55
564.666	23983.89
565.028	23939.82
565.39	24157.67
565.753	24149.08
566.115	24279.25
566.477	24430.21
566.839	24542.97
567.201	24684.21
567.563	24692.57
567.925	24727.15
568.287	24844.66
568.648	25053.47
569.01	25130.75
569.372	25250.97
569.734	25171.88
570.095	25398.32
570.457	25440.35
570.819	25482.38
571.18	25550.18
571.542	25775.48
571.903	25703.39
572.265	25853.67
572.626	25970.73
572.987	26010.73
573.349	26091.4
573.71	26171.63
574.071	26338.18
574.432	26379.76
574.794	26638.06
575.155	26533.43
575.516	26515.12
575.877	26817.49
576.238	26828.56
576.599	26923.7
576.96	26964.15
577.32	27026.07
577.681	27170.25
578.042	27412.5
578.403	27259.74
578.763	27452.72
579.124	27480.29
579.485	27729.1
579.845	27738.82
580.206	27757.58
580.566	27872.6
580.927	28025.36
581.287	28253.16
581.648	28219.94
582.008	28250.22
582.368	28235.53
582.728	28503.09
583.089	28512.13
583.449	28577.89
583.809	28787.38
584.169	28762.97
584.529	28776.98
584.889	29201.15
585.249	28988.5
585.609	29062.4
585.969	29303.52
586.329	29332
586.688	29589.62
587.048	29473.01
587.408	29550.52
587.768	29612.22
588.127	29747.13
588.487	29898.08
588.846	30082.26
589.206	30026.89
589.565	30195.93
589.925	30411.06
590.284	30283.38
590.643	30394.34
591.003	30547.56
591.362	31012.63
591.721	30836.59
592.08	30871.84
592.44	31052.4
592.799	31138.73
593.158	31143.47
593.517	31184.38
593.876	31480.87
594.235	31436.35
594.593	31667.08
594.952	31732.39
595.311	31681.99
595.67	31801.54
596.029	32117.69
596.387	32080.85
596.746	32211.02
597.104	32197.01
597.463	32285.59
597.822	32493.27
598.18	32403.33
598.538	32374.18
598.897	32791.34
599.255	32582.31
599.613	33145.91
599.972	32875.63
600.33	33204.89
600.688	32906.37
601.046	33170.54
601.404	33237.43
601.762	33430.87
602.12	33500.02
602.478	33683.52
602.836	33529.63
603.194	33541.38
603.552	33675.16
603.91	33622.73
604.268	33669.74
604.625	33843.97
604.983	34101.82
605.341	34034.25
605.698	34093.68
606.056	34254.58
606.413	34169.84
606.771	34467.46
607.128	34536.83
607.485	34397.85
607.843	34422.26
608.2	34638.75
608.557	34719.43
608.914	34815.47
609.272	35094.11
609.629	35096.59
609.986	35289.81
610.343	35188.57
610.7	35457.26
611.057	35384.95
611.414	35342.91
611.771	35557.37
612.127	35646.86
612.484	35752.39
612.841	35932.5
613.198	35704.94
613.554	35845.5
613.911	35974.08
614.267	35997.13
614.624	36008.43
614.98	36154.64
615.337	36406.84
615.693	36233.06
616.05	36184.92
616.406	36513.5
616.762	36518.7
617.118	36417.69
617.475	36464.69
617.831	36631.92
618.187	36708.53
618.543	36793.04
618.899	36985.81
619.255	36966.82
619.611	37013.38
619.967	37154.39
620.323	37162.3
620.678	37069.19
621.034	37069.87
621.39	37061.96
621.746	37076.88
622.101	37416.98
622.457	37163.88
622.812	37260.15
623.168	37510.09
623.523	37538.79
623.879	37655.39
624.234	37320.04
624.589	37487.71
624.945	37600.25
625.3	37618.33
625.655	37635.73
626.01	37615.85
626.365	37664.66
626.72	37593.47
627.075	37653.81
627.43	37537.21
627.785	37678.44
628.14	37685.45
628.495	37702.17
628.85	37601.16
629.205	37592.12
629.559	37787.82
629.914	37630.08
630.269	37760.02
630.623	37650.65
630.978	37635.51
631.332	37608.62
631.687	37689.52
632.041	37647.94
632.396	37735.39
632.75	37620.14
633.104	37765.22
633.459	37480.71
633.813	37590.54
634.167	37669.18
634.521	37670.53
634.875	37646.81
635.229	37531.56
635.583	37429.86
635.937	37465.12
636.291	37328.17
636.645	37454.27
636.999	37373.59
637.352	37494.72
637.706	37318.68
638.06	37462.63
638.413	37379.02
638.767	37229.19
639.121	37390.54
639.474	37235.97
639.828	37255.63
640.181	37216.31
640.534	37328.85
640.888	37139.93
641.241	36933.38
641.594	37174.28
641.947	37208.63
642.301	37049.31
642.654	37133.15
643.007	37268.74
643.36	37156.65
643.713	37005.92
644.066	37243.2
644.419	36926.37
644.771	36665.36
645.124	36407.29
645.477	36309.44
645.83	36097.47
646.182	35799.62
646.535	35822.22
646.888	35846.85
647.24	35724.37
647.593	35972.5
647.945	35743.35
648.298	35640.31
648.65	35625.16
649.002	35504.94
649.355	35773.41
649.707	35623.36
650.059	35831.04
650.411	36255.66
650.763	36208.65
651.115	36576.33
651.467	36454.3
651.819	36442.09
652.171	36371.59
652.523	36368.87
652.875	36380.63
653.227	36304.47
653.578	36494.52
653.93	36327.75
654.282	36197.81
654.633	36144.25
654.985	36145.15
655.337	36293.85
655.688	36118.71
656.039	36351.47
656.391	36020.41
656.742	36052.05
657.094	36155.09
657.445	36217.69
657.796	36156.45
658.147	35941.09
658.498	36031.48
658.849	36167.07
659.2	36125.72
659.551	36007.3
659.902	36113.29
660.253	36082.55
660.604	36119.62
660.955	36008.21
661.306	36062.22
661.656	36026.96
662.007	36030.58
662.358	35912.62
662.708	35928.89
663.059	36030.35
663.409	35745.61
663.76	36136.11
664.11	35990.81
664.461	35816.57
664.811	35950.35
665.161	35991.93
665.511	35878.72
665.862	35990.13
666.212	35981.31
666.562	35976.57
666.912	35944.03
667.262	35890.24
667.612	35717.37
667.962	35876.23
668.312	35812.5
668.662	35958.49
669.011	35861.09
669.361	35729.12
669.711	35788.1
670.06	35966.4
670.41	35670.81
670.76	35676.01
671.109	35822
671.459	35739.29
671.808	35595.11
672.157	35755.33
672.507	35461.55
672.856	35394.89
673.205	35573.41
673.554	35751.26
673.904	35582.91
674.253	35565.73
674.602	35552.4
674.951	35095.24
675.3	34902.7
675.649	35493.19
675.998	35477.82
676.346	35303.59
676.695	35441.89
677.044	35296.36
677.393	35436.7
677.741	35506.75
678.09	35218.85
678.438	35307.89
678.787	35174.33
679.135	35374.1
679.484	35050.26
679.832	35191.5
680.181	34983.15
680.529	35295.23
680.877	35002.58
681.225	34924.62
681.573	35145.63
681.922	34955.35
682.27	34756.94
682.618	34850.95
682.966	34629.03
683.314	34879.87
683.661	34696.6
684.009	34553.55
684.357	34483.73
684.705	34396.95
685.053	34518.98
685.4	34423.16
685.748	34294.35
686.095	34271.08
686.443	34204.86
686.79	34111.31
687.138	34230.85
687.485	34154.47
687.832	34005.77
688.18	34132.77
688.527	33842.61
688.874	33857.75
689.221	33844.42
689.568	33741.6
689.915	33645.56
690.262	33628.83
690.609	33455.73
690.956	33415.96
691.303	33350.65
691.65	33358.56
691.997	33244.44
692.344	33184.55
692.69	33069.53
693.037	32986.14
693.383	32877.21
693.73	32952.92
694.077	32701.85
694.423	32754.73
694.769	32634.51
695.116	32486.49
695.462	32609.88
695.808	32442.42
696.155	32376.89
696.501	32335.53
696.847	32172.15
697.193	31994.75
697.539	32170.11
697.885	31851.7
698.231	31842.44
698.577	31811.93
698.923	31765.61
699.269	31640.64
699.614	31477.25
699.96	31211.95
700.306	31394.54
700.651	31220.08
700.997	31164.72
701.342	31173.3
701.688	31151.16
702.033	30974.89
702.379	30983.71
702.724	30901.9
703.069	30980.09
703.415	30582.59
703.76	30576.48
704.105	30666.2
704.45	30510.27
704.795	30531.74
705.14	30271.18
705.485	30212.43
705.83	30213.78
706.175	30266.89
706.52	30017.85
706.865	29959.1
707.209	29967.69
707.554	29842.72
707.899	30009.27
708.243	29827.8
708.588	29693.34
708.932	29484.99
709.277	29563.63
709.621	29420.58
709.966	29330.87
710.31	29452.45
710.654	29216.07
710.998	29172.23
711.342	29237.08
711.687	29150.98
712.031	28982.63
712.375	28909.86
712.719	28788.28
713.063	28882.74
713.407	28963.87
713.75	28685.91
714.094	28641.62
714.438	28593.26
714.782	28593.49
715.125	28416.54
715.469	28463.77
715.812	28352.81
716.156	28209.54
716.499	28362.08
716.843	28259.71
717.186	28127.28
717.53	28169.09
717.873	28209.31
718.216	28126.83
718.559	27929.55
718.902	27733.62
719.246	27815.65
719.589	27713.73
719.932	27775.43
720.275	27723.23
720.617	27647.52
720.96	27574.08
721.303	27642.78
721.646	27609.33
721.989	27377.7
722.331	27396.45
722.674	27431.93
723.016	27480.07
723.359	27382.44
723.701	27345.61
724.044	27254.31
724.386	27096.12
724.729	27244.82
725.071	27086.63
725.413	27143.35
725.755	27057.25
726.097	27001.21
726.439	26798.96
726.782	26898.84
727.124	26898.39
727.465	26766.87
727.807	26780.43
728.149	26593.76
728.491	26683.25
728.833	26571.84
729.175	26552.64
729.516	26510.6
729.858	26542.47
730.199	26466.31
730.541	26492.52
730.882	26472.41
731.224	26399.64
731.565	26254.34
731.906	26228.58
732.248	26304.73
732.589	26049.37
732.93	26060.9
733.271	26126.66
733.612	26201.23
733.953	26129.37
734.294	25975.02
734.635	25924.86
734.976	25978.86
735.317	25761.92
735.658	25936.83
735.999	25817.51
736.339	25854.35
736.68	25836.95
737.021	25697.74
737.361	25775.48
737.702	25794.01
738.042	25663.84
738.383	25602.83
738.723	25570.06
739.063	25524.64
739.404	25580.91
739.744	25515.15
740.084	25340.46
740.424	25406.22
740.764	25345.66
741.104	25470.4
741.444	25207.13
741.784	25186.34
742.124	25313.35
742.464	25155.38
742.804	25103.18
743.143	25049.85
743.483	25039.23
743.823	24983.41
744.162	24951.1
744.502	24960.59
744.841	24855.96
745.181	24994.48
745.52	24815.51
745.86	24809.63
746.199	24770.99
746.538	24784.32
746.877	24853.24
747.216	24752.91
747.556	24680.14
747.895	24584.33
748.234	24487.83
748.573	24474.5
748.911	24463.2
749.25	24420.71
749.589	24312.69
749.928	24334.84
750.267	24440.37
750.605	24175.97
750.944	24275.41
751.283	24166.48
751.621	24219.59
751.96	24090.1
752.298	24095.52
752.636	24071.12
752.975	23837.45
753.313	23879.26
753.651	23912.25
753.989	23841.97
754.327	23790.22
754.666	23680.62
755.004	23694.86
755.342	23675.2
755.679	23602.66
756.017	23562.66
756.355	23549.1
756.693	23474.75
