Data from hue_230_FLMS001491_00023.txt Node
Date: Tue Feb 07 16:37:00 GMT 2017
User: dcchb
Spectrometer: FLMS00149
Trigger mode: 0
Integration Time (sec): 2.000000E-2
Scans to average: 10
Electric dark correction enabled: true
Nonlinearity correction enabled: false
Boxcar width: 0
XAxis mode: Wavelengths
Number of Pixels in Spectrum: 2048
>>>>>Begin Spectral Data<<<<<
341.393	-14.79
341.776	-14.79
342.16	-14.79
342.543	-60.89
342.927	-77.61
343.31	-81.45
343.693	-64.05
344.077	-73.32
344.46	-41.91
344.843	-57.27
345.226	-32.64
345.61	-52.75
345.993	-16.14
346.376	3.97
346.759	-8.01
347.142	13.69
347.525	48.49
347.908	68.83
348.291	76.96
348.674	111.31
349.057	104.31
349.44	102.5
349.823	141.59
350.206	148.37
350.588	181.82
350.971	173.68
351.354	204.87
351.737	208.71
352.119	231.99
352.502	259.78
352.884	247.13
353.267	266.79
353.65	283.51
354.032	288.93
354.414	300.68
354.797	299.78
355.179	302.49
355.562	306.56
355.944	291.42
356.326	321.47
356.709	319.21
357.091	328.71
357.473	342.49
357.855	332.55
358.238	321.47
358.62	339.78
359.002	337.97
359.384	330.97
359.766	325.09
360.148	318.99
360.53	303.4
360.912	317.18
361.294	315.15
361.676	317.41
362.057	310.4
362.439	318.54
362.821	299.78
363.203	303.85
363.584	300.68
363.966	307.46
364.348	318.54
364.729	310.18
365.111	298.42
365.493	300.91
365.874	292.77
366.256	284.19
366.637	301.59
367.019	315.15
367.4	303.4
367.781	293.9
368.163	297.29
368.544	277.63
368.925	298.88
369.306	306.79
369.688	300.91
370.069	276.73
370.45	283.51
370.831	327.12
371.212	274.47
371.593	296.39
371.974	288.26
372.355	303.4
372.736	314.02
373.117	293.45
373.498	299.33
373.879	312.44
374.26	305.88
374.641	275.15
375.021	311.76
375.402	310.85
375.783	304.98
376.163	316.95
376.544	312.66
376.925	311.53
377.305	324.19
377.686	321.47
378.066	320.34
378.447	306.11
378.827	323.96
379.208	318.31
379.588	312.44
379.968	332.1
380.349	316.05
380.729	329.16
381.109	329.16
381.489	337.97
381.87	334.13
382.25	333
382.63	335.26
383.01	318.54
383.39	328.03
383.77	329.16
384.15	332.32
384.53	345.65
384.91	329.61
385.29	318.54
385.67	321.47
386.049	324.41
386.429	306.79
386.809	326.45
387.189	341.14
387.568	341.14
387.948	338.2
388.328	358.08
388.707	321.93
389.087	348.14
389.466	351.08
389.846	354.24
390.225	341.36
390.605	356.95
390.984	322.38
391.363	367.35
391.743	361.7
392.122	372.32
392.501	334.81
392.881	360.34
393.26	368.48
393.639	360.12
394.018	367.35
394.397	351.53
394.776	386.11
395.155	389.27
395.534	373.45
395.913	378.87
396.292	379.33
396.671	372.32
397.05	368.25
397.429	386.11
397.808	379.1
398.186	390.4
398.565	386.56
398.944	388.82
399.323	411.19
399.701	399.44
400.08	398.08
400.458	391.3
400.837	416.84
401.215	409.61
401.594	416.61
401.972	377.97
402.351	409.38
402.729	418.42
403.107	412.09
403.486	417.97
403.864	419.78
404.242	410.06
404.62	420
404.999	431.98
405.377	444.18
405.755	437.63
406.133	399.66
406.511	451.19
406.889	440.79
407.267	451.87
407.645	456.16
408.023	443.73
408.401	462.26
408.779	460.23
409.156	469.95
409.534	470.4
409.912	499.1
410.29	485.09
410.667	489.38
411.045	505.88
411.422	492.54
411.8	507.23
412.178	529.38
412.555	521.02
412.933	539.1
413.31	543.39
413.687	544.52
414.065	562.82
414.442	573.9
414.819	553.56
415.197	547.01
415.574	582.48
415.951	567.34
416.328	587.46
416.705	598.08
417.082	589.94
417.46	622.94
417.837	608.02
418.214	606.66
418.591	623.16
418.967	639.66
419.344	644.63
419.721	653.44
420.098	624.97
420.475	660.9
420.852	651.86
421.228	679.21
421.605	692.09
421.982	716.49
422.358	711.29
422.735	696.38
423.111	744.51
423.488	731.86
423.864	731.86
424.241	758.75
424.617	779.99
424.994	768.69
425.37	763.5
425.746	781.35
426.123	816.83
426.499	831.74
426.875	822.48
427.251	821.35
427.627	824.51
428.003	854.79
428.379	851.4
428.756	888.24
429.132	889.82
429.507	859.77
429.883	885.08
430.259	914
430.635	930.72
431.011	927.33
431.387	945.64
431.763	946.77
432.138	970.27
432.514	979.76
432.89	979.76
433.265	1001.91
433.641	1015.92
434.016	1023.83
434.392	1053.43
434.767	1046.43
435.143	1088.46
435.518	1061.34
435.894	1116.48
436.269	1121.68
436.644	1138.85
437.02	1162.13
437.395	1179.98
437.77	1198.06
438.145	1195.58
438.52	1218.4
438.895	1245.29
439.271	1239.64
439.646	1290.94
440.021	1269.92
440.395	1281.45
440.77	1323.71
441.145	1328
441.52	1361
441.895	1345.18
442.27	1342.69
442.645	1389.02
443.019	1387.44
443.394	1403.93
443.769	1407.77
444.143	1408
444.518	1442.58
444.892	1421.78
445.267	1432.86
445.641	1468.11
446.016	1482.57
446.39	1502.46
446.764	1505.62
447.139	1502.69
447.513	1525.28
447.887	1514.44
448.262	1502.69
448.636	1546.53
449.01	1593.08
449.384	1558.28
449.758	1576.13
450.132	1612.51
450.506	1617.94
450.88	1621.33
451.254	1654.55
451.628	1637.82
452.002	1674.89
452.376	1687.09
452.75	1711.95
453.123	1695
453.497	1715.79
453.871	1731.83
454.244	1745.39
454.618	1775.9
454.992	1793.98
455.365	1813.19
455.739	1850.25
456.112	1844.37
456.486	1875.33
456.859	1887.54
457.232	1891.15
457.606	1872.17
457.979	1932.51
458.352	1968.44
458.725	2006.85
459.099	2033.07
459.472	2054.76
459.845	2041.66
460.218	2065.84
460.591	2061.99
460.964	2092.28
461.337	2130.01
461.71	2204.59
462.083	2212.05
462.456	2177.02
462.829	2212.95
463.201	2243.01
463.574	2226.96
463.947	2281.42
464.32	2300.86
464.692	2352.83
465.065	2339.27
465.438	2384.92
465.81	2411.82
466.183	2409.33
466.555	2469.21
466.928	2486.39
467.3	2468.08
467.672	2479.16
468.045	2569.55
468.417	2574.3
468.789	2640.96
469.161	2642.32
469.534	2686.61
469.906	2732.48
470.278	2715.54
470.65	2776.1
471.022	2816.55
471.394	2832.82
471.766	2852.26
472.138	2874.85
472.51	2937.9
472.882	3013.61
473.253	3007.51
473.625	3032.36
473.997	3108.07
474.369	3122.76
474.74	3123.89
475.112	3224
475.484	3205.47
475.855	3296.76
476.227	3336.54
476.598	3407.95
476.97	3385.35
477.341	3485.23
477.713	3523.88
478.084	3583.08
478.455	3605
478.827	3652.46
479.198	3707.15
479.569	3746.24
479.94	3847.03
480.311	3840.48
480.682	3915.73
481.053	4012.23
481.424	4040.92
481.795	4066.01
482.166	4145.1
482.537	4181.71
482.908	4237.98
483.279	4295.83
483.65	4357.53
484.021	4429.62
484.391	4480.46
484.762	4458.31
485.133	4504.42
485.503	4598.88
485.874	4674.58
486.244	4700.34
486.615	4764.75
486.985	4810.17
487.356	4891.98
487.726	4941.24
488.097	4979.21
488.467	5071.18
488.837	5082.03
489.207	5163.16
489.578	5254.45
489.948	5238.63
490.318	5277.73
490.688	5363.38
491.058	5408.57
491.428	5439.31
491.798	5507.33
492.168	5612.63
492.538	5580.32
492.908	5660.09
493.278	5702.8
493.648	5723.37
494.017	5785.06
494.387	5845.17
494.757	5819.18
495.126	5962
495.496	5883.36
495.866	5979.4
496.235	6007.2
496.605	6006.97
496.974	6073.87
497.344	6074.54
497.713	6117.71
498.082	6156.58
498.452	6208.1
498.821	6239.51
499.19	6196.57
499.559	6299.4
499.928	6329.23
500.298	6357.25
500.667	6364.71
501.036	6338.04
501.405	6460.3
501.774	6478.83
502.143	6510.92
502.512	6474.99
502.88	6561.76
503.249	6498.71
503.618	6566.51
503.987	6532.61
504.356	6561.31
504.724	6613.06
505.093	6656.22
505.462	6655.77
505.83	6723.11
506.199	6718.14
506.567	6764.02
506.936	6747.29
507.304	6810.57
507.672	6818.03
508.041	6848.08
508.409	6855.77
508.777	6932.6
509.145	6940.74
509.514	6957.23
509.882	6954.29
510.25	6989.55
510.618	7018.93
510.986	6989.55
511.354	7075.2
511.722	7086.72
512.09	7102.09
512.458	7062.31
512.826	7124.91
513.193	7125.14
513.561	7187.28
513.929	7187.06
514.297	7199.49
514.664	7217.79
515.032	7199.71
515.4	7285.13
515.767	7267.96
516.135	7310.67
516.502	7242.42
516.869	7309.54
517.237	7310.67
517.604	7291.46
517.972	7323.32
518.339	7327.84
518.706	7315.87
519.073	7355.41
519.44	7414.85
519.808	7399.71
520.175	7410.55
520.542	7470.44
520.909	7479.93
521.276	7438.12
521.643	7482.64
522.009	7504.79
522.376	7497.56
522.743	7535.52
523.11	7562.41
523.477	7622.3
523.843	7609.87
524.21	7619.14
524.577	7707.72
524.943	7711.11
525.31	7664.11
525.676	7650.32
526.043	7771.9
526.409	7745.46
526.776	7816.42
527.142	7749.98
527.508	7758.34
527.874	7761.96
528.241	7807.83
528.607	7888.28
528.973	7853.25
529.339	7821.84
529.705	7902.74
530.071	7870.65
530.437	7876.76
530.803	7883.76
531.169	7984.32
531.535	7897.32
531.901	7830.2
532.267	7876.3
532.632	7888.28
532.998	7901.84
533.364	7884.44
533.73	7875.63
534.095	7914.72
534.461	7922.18
534.826	7884.44
535.192	7909.3
535.557	7922.86
535.923	7925.12
536.288	7882.41
536.653	7886.25
537.019	7907.26
537.384	7854.38
537.749	7832.69
538.114	7886.7
538.479	7874.5
538.845	7829.53
539.21	7829.75
539.575	7793.59
539.94	7859.58
540.305	7853.93
540.67	7889.19
541.034	7824.78
541.399	7834.5
541.764	7807.38
542.129	7832.01
542.494	7749.75
542.858	7798.57
543.223	7755.4
543.587	7821.62
543.952	7771.67
544.316	7747.04
544.681	7735.52
545.045	7744.78
545.41	7791.56
545.774	7746.14
546.138	7730.32
546.503	7712.69
546.867	7711.11
547.231	7735.06
547.595	7648.74
547.959	7679.25
548.324	7681.51
548.688	7638.57
549.052	7652.81
549.416	7603.99
549.779	7583.66
550.143	7634.73
550.507	7652.13
550.871	7595.63
551.235	7616.88
551.599	7629.76
551.962	7561.74
552.326	7623.66
552.689	7667.5
553.053	7548.63
553.417	7667.5
553.78	7633.15
554.143	7568.74
554.507	7623.2
554.87	7586.59
555.234	7700.94
555.597	7538.23
555.96	7551.34
556.323	7587.5
556.686	7571.68
557.05	7562.19
557.413	7610.55
557.776	7614.62
558.139	7697.1
558.502	7622.3
558.865	7568.52
559.228	7674.73
559.59	7671.11
559.953	7612.58
560.316	7694.84
560.679	7676.99
561.041	7713.37
561.404	7715.18
561.767	7754.05
562.129	7697.78
562.492	7742.3
562.854	7766.7
563.217	7734.39
563.579	7766.25
563.941	7810.09
564.304	7840.82
564.666	7842.18
565.028	7819.58
565.39	7786.59
565.753	7886.93
566.115	7886.7
566.477	7966.47
566.839	7912.24
567.201	7973.93
567.563	7890.99
567.925	7966.25
568.287	7982.97
568.648	7994.04
569.01	8005.34
569.372	8054.15
569.734	8006.92
570.095	8063.42
570.457	8098.45
570.819	8118.78
571.18	8149.07
571.542	8145
571.903	8116.52
572.265	8129.86
572.626	8172.57
572.987	8193.36
573.349	8180.7
573.71	8234.49
574.071	8216.18
574.432	8299.57
574.794	8383.64
575.155	8326.24
575.516	8324.43
575.877	8334.15
576.238	8397.19
576.599	8309.97
576.96	8422.73
577.32	8414.6
577.681	8392
578.042	8489.62
578.403	8459.11
578.763	8427.7
579.124	8494.59
579.485	8565.33
579.845	8607.36
580.206	8520.36
580.566	8540.47
580.927	8551.31
581.287	8626.11
581.648	8554.48
582.008	8642.39
582.368	8629.5
582.728	8658.88
583.089	8636.06
583.449	8619.56
583.809	8674.48
584.169	8758.77
584.529	8693.68
584.889	8731.65
585.249	8673.12
585.609	8686.68
585.969	8749.28
586.329	8739.11
586.688	8823.4
587.048	8753.34
587.408	8798.54
587.768	8786.11
588.127	8798.09
588.487	8806.22
588.846	8854.58
589.206	8787.24
589.565	8780.91
589.925	8839.44
590.284	8852.55
590.643	8874.47
591.003	8931.42
591.362	8927.35
591.721	8980.91
592.08	8904.53
592.44	8970.74
592.799	8914.92
593.158	8868.37
593.517	8946.11
593.876	8984.75
594.235	8927.8
594.593	8968.25
594.952	9009.61
595.311	8879.22
595.67	8975.48
596.029	9033.11
596.387	9060.23
596.746	9135.48
597.104	8994.24
597.463	8998.76
597.822	9061.81
598.18	9062.26
598.538	9099.1
598.897	9064.52
599.255	9033.79
599.613	9142.71
599.972	9123.73
600.33	9082.83
600.688	9042.15
601.046	9194.91
601.404	9212.31
601.762	9164.86
602.12	9191.07
602.478	9215.25
602.836	9156.04
603.194	9173.45
603.552	9078.31
603.91	9191.75
604.268	9215.93
604.625	9152.43
604.983	9247.79
605.341	9212.54
605.698	9278.98
606.056	9215.03
606.413	9165.08
606.771	9292.99
607.128	9263.61
607.485	9198.3
607.843	9232.88
608.2	9342.03
608.557	9347
608.914	9212.77
609.272	9307.68
609.629	9314.01
609.986	9295.02
610.343	9318.53
610.7	9370.5
611.057	9368.47
611.414	9349.94
611.771	9330.5
612.127	9416.83
612.484	9358.53
612.841	9389.71
613.198	9364.63
613.554	9334.12
613.911	9393.55
614.267	9459.31
614.624	9378.41
614.98	9458.18
615.337	9411.18
615.693	9431.29
616.05	9360.11
616.406	9493.66
616.762	9469.93
617.118	9410.05
617.475	9501.8
617.831	9493.21
618.187	9428.58
618.543	9419.99
618.899	9588.8
619.255	9548.12
619.611	9505.19
619.967	9588.58
620.323	9524.85
620.678	9506.32
621.034	9463.61
621.39	9525.3
621.746	9539.54
622.101	9557.62
622.457	9500.89
622.812	9500.89
623.168	9521.91
623.523	9610.27
623.879	9571.4
624.234	9474.45
624.589	9566.66
624.945	9584.73
625.3	9582.7
625.655	9527.79
626.01	9485.53
626.365	9527.11
626.72	9502.02
627.075	9560.78
627.43	9494.34
627.785	9509.71
628.14	9527.79
628.495	9526.43
628.85	9550.38
629.205	9460.22
629.559	9585.64
629.914	9490.05
630.269	9513.1
630.623	9436.49
630.978	9454.34
631.332	9433.55
631.687	9493.66
632.041	9475.58
632.396	9465.41
632.75	9387.68
633.104	9451.4
633.459	9348.58
633.813	9375.02
634.167	9401.46
634.521	9396.94
634.875	9368.24
635.229	9360.11
635.583	9353.55
635.937	9320.56
636.291	9315.59
636.645	9316.49
636.999	9274.69
637.352	9299.77
637.706	9284.63
638.06	9267.68
638.413	9288.92
638.767	9269.04
639.121	9229.71
639.474	9200.11
639.828	9193.56
640.181	9252.54
640.534	9195.59
640.888	9180.68
641.241	9148.59
641.594	9180.45
641.947	9168.02
642.301	9128.02
642.654	9115.82
643.007	9169.38
643.36	9089.61
643.713	9062.71
644.066	9160.34
644.419	9104.07
644.771	9039.21
645.124	8909.72
645.477	8884.19
645.83	8910.4
646.182	8873.11
646.535	8768.48
646.888	8824.75
647.24	8800.57
647.593	8833.34
647.945	8815.94
648.298	8799.9
648.65	8765.77
649.002	8754.25
649.355	8860.23
649.707	8798.54
650.059	8776.17
650.411	8924.64
650.763	8916.95
651.115	8951.3
651.467	8917.18
651.819	8940.46
652.171	8949.95
652.523	8938.2
652.875	8953.79
653.227	8919.44
653.578	8931.42
653.93	9046.67
654.282	8934.13
654.633	8939.33
654.985	8909.05
655.337	8956.05
655.688	8958.31
656.039	8942.94
656.391	8928.93
656.742	8992.21
657.094	8933
657.445	8956.05
657.796	8929.38
658.147	8947.01
658.498	8862.27
658.849	8920.8
659.2	8948.82
659.551	8906.56
659.902	8925.54
660.253	8957.86
660.604	8956.5
660.955	8953.79
661.306	8928.25
661.656	8960.57
662.007	8930.74
662.358	8955.15
662.708	8906.33
663.059	8969.61
663.409	8904.3
663.76	8974.35
664.11	8908.82
664.461	8942.72
664.811	8987.46
665.161	8959.89
665.511	8924.64
665.862	8928.71
666.212	8966.9
666.562	8976.16
666.912	8914.24
667.262	8961.7
667.612	8901.81
667.962	8940.01
668.312	8982.72
668.662	8971.87
669.011	8921.7
669.361	8888.03
669.711	8862.27
670.06	8842.15
670.41	8959.44
670.76	8932.77
671.109	8911.31
671.459	8951.98
671.808	8854.81
672.157	8882.15
672.507	8848.26
672.856	8826.56
673.205	8816.17
673.554	8887.58
673.904	8796.96
674.253	8855.49
674.602	8845.54
674.951	8711.54
675.3	8636.51
675.649	8813.45
675.998	8829.5
676.346	8735.72
676.695	8789.73
677.044	8740.46
677.393	8702.5
677.741	8807.13
678.09	8724.87
678.438	8727.13
678.787	8784.08
679.135	8707.47
679.484	8687.13
679.832	8732.78
680.181	8610.3
680.529	8668.15
680.877	8660.69
681.225	8621.37
681.573	8692.1
681.922	8616.85
682.27	8603.74
682.618	8645.78
682.966	8582.27
683.314	8593.35
683.661	8508.83
684.009	8501.37
684.357	8461.6
684.705	8475.38
685.053	8479.23
685.4	8457.98
685.748	8426.8
686.095	8380.7
686.443	8362.85
686.79	8374.37
687.138	8354.48
687.485	8386.12
687.832	8364.2
688.18	8360.13
688.527	8312.45
688.874	8247.37
689.221	8221.83
689.568	8262.51
689.915	8226.8
690.262	8136.18
690.609	8161.49
690.956	8149.97
691.303	8105.22
691.65	8070.42
691.997	8040.82
692.344	7974.61
692.69	8059.12
693.037	8024.77
693.383	7971.22
693.73	7929.41
694.077	7892.12
694.423	7924.89
694.769	7899.58
695.116	7820.71
695.462	7928.73
695.808	7789.07
696.155	7826.81
696.501	7754.27
696.847	7697.1
697.193	7728.96
697.539	7654.39
697.885	7642.19
698.231	7600.61
698.577	7611.23
698.923	7599.25
699.269	7570.78
699.614	7562.64
699.96	7513.6
700.306	7552.92
700.651	7447.39
700.997	7465.92
701.342	7429.08
701.688	7390.44
702.033	7369.65
702.379	7294.4
702.724	7344.57
703.069	7311.35
703.415	7240.84
703.76	7213.72
704.105	7272.7
704.45	7215.98
704.795	7231.35
705.14	7168.75
705.485	7112.93
705.83	7086.49
706.175	7098.02
706.52	7095.99
706.865	7087.85
707.209	7044.69
707.554	7049.66
707.899	7070.9
708.243	6982.54
708.588	6984.12
708.932	6898.48
709.277	6912.49
709.621	6958.14
709.966	6876.33
710.31	6871.58
710.654	6813.96
710.998	6805.15
711.342	6811.93
711.687	6766.28
712.031	6756.11
712.375	6725.37
712.719	6724.92
713.063	6748.88
713.407	6807.41
713.75	6731.48
714.094	6709.33
714.438	6673.4
714.782	6673.4
715.125	6684.92
715.469	6707.97
715.812	6686.28
716.156	6573.51
716.499	6605.83
716.843	6625.04
717.186	6600.86
717.53	6589.33
717.873	6567.86
718.216	6542.78
718.559	6566.06
718.902	6516.57
719.246	6585.49
719.589	6533.51
719.932	6495.1
720.275	6528.09
720.617	6457.81
720.96	6476.57
721.303	6492.39
721.646	6496.45
721.989	6471.6
722.331	6486.96
722.674	6417.59
723.016	6469.34
723.359	6458.94
723.701	6459.39
724.044	6413.07
724.386	6371.71
724.729	6449.45
725.071	6416.46
725.413	6405.61
725.755	6439.51
726.097	6349.11
726.439	6365.38
726.782	6310.24
727.124	6406.29
727.465	6361.32
727.807	6360.19
728.149	6340.07
728.491	6342.11
728.833	6321.77
729.175	6330.58
729.516	6312.73
729.858	6322.67
730.199	6333.75
730.541	6378.72
730.882	6286.06
731.224	6321.99
731.565	6317.48
731.906	6315.44
732.248	6356.12
732.589	6231.15
732.93	6235.9
733.271	6308.21
733.612	6290.13
733.953	6309.57
734.294	6260.75
734.635	6323.35
734.976	6306.85
735.317	6314.31
735.658	6246.52
735.999	6252.84
736.339	6268.89
736.68	6305.05
737.021	6314.09
737.361	6272.05
737.702	6287.87
738.042	6359.28
738.383	6304.14
738.723	6271.6
739.063	6346.85
739.404	6321.77
739.744	6286.74
740.084	6315.44
740.424	6311.37
740.764	6353.86
741.104	6395.21
741.444	6382.78
741.784	6313.18
742.124	6370.36
742.464	6395.44
742.804	6382.11
743.143	6380.98
743.483	6419.62
743.823	6406.06
744.162	6406.96
744.502	6501.88
744.841	6434.76
745.181	6473.18
745.52	6537.36
745.86	6593.85
746.199	6543.23
746.538	6528.99
746.877	6639.05
747.216	6661.42
747.556	6701.65
747.895	6688.76
748.234	6683.57
748.573	6734.64
748.911	6788.2
749.25	6836.11
749.589	6880.85
749.928	6921.98
750.267	6981.86
750.605	7039.26
750.944	6974.18
751.283	7042.65
751.621	7164.46
751.96	7191.35
752.298	7237.68
752.636	7282.42
752.975	7326.71
753.313	7418.24
753.651	7512.25
753.989	7550.89
754.327	7676.31
754.666	7703.65
755.004	7830.43
755.342	7875.63
755.679	7973.25
756.017	8099.8
756.355	8163.98
756.693	8265.9
757.031	8349.51
757.368	8419.34
757.706	8476.51
758.044	8640.13
758.381	8747.24
758.719	8877.41
759.056	8992.43
759.394	9101.58
759.731	9125.08
760.068	9219.77
760.405	9408.47
760.743	9453.66
761.08	9628.57
761.417	9671.74
761.754	9838.96
762.091	10005.51
762.428	10080.54
762.765	10148.56
763.102	10303.81
763.438	10398.05
763.775	10504.26
764.112	10625.16
764.449	10843.01
764.785	10857.69
765.122	10983.79
765.458	11007.3
765.795	11147.63
766.131	11299.27
766.467	11357.34
766.804	11516.66
767.14	11559.15
767.476	11692.48
767.812	11712.36
768.148	11847.95
768.485	11839.59
768.821	11927.72
769.157	12047.49
