Data from hue_22_FLMS001491_00067.txt Node
Date: Tue Feb 07 17:10:29 GMT 2017
User: dcchb
Spectrometer: FLMS00149
Trigger mode: 0
Integration Time (sec): 2.000000E-2
Scans to average: 10
Electric dark correction enabled: true
Nonlinearity correction enabled: false
Boxcar width: 0
XAxis mode: Wavelengths
Number of Pixels in Spectrum: 2048
>>>>>Begin Spectral Data<<<<<
341.393	-3.63
341.776	-3.63
342.16	-3.63
342.543	-52.67
342.927	-61.48
343.31	-86.57
343.693	-59.67
344.077	-70.29
344.46	-66
344.843	-49.28
345.226	-33.91
345.61	-19.9
345.993	-16.06
346.376	11.96
346.759	-6.57
347.142	14.67
347.525	37.72
347.908	70.94
348.291	61.91
348.674	94.22
349.057	116.82
349.44	126.08
349.823	141.68
350.206	184.84
350.588	203.37
350.971	206.76
351.354	239.53
351.737	244.5
352.119	237.04
352.502	279.53
352.884	280.43
353.267	291.96
353.65	294.44
354.032	299.19
354.414	310.71
354.797	301.22
355.179	320.2
355.562	346.19
355.944	340.77
356.326	340.99
356.709	339.19
357.091	349.36
357.473	356.81
357.855	343.48
358.238	338.96
358.62	340.99
359.002	352.52
359.384	333.08
359.766	342.12
360.148	341.67
360.53	346.19
360.912	338.28
361.294	344.16
361.676	348.68
362.057	336.7
362.439	321.56
362.821	337.38
363.203	325.85
363.584	324.72
363.966	306.19
364.348	328.34
364.729	324.05
365.111	320.66
365.493	321.79
365.874	319.98
366.256	333.76
366.637	317.72
367.019	328.11
367.4	337.6
367.781	310.49
368.163	332.41
368.544	327.66
368.925	314.55
369.306	317.94
369.688	326.98
370.069	317.49
370.45	308.45
370.831	329.92
371.212	330.37
371.593	329.92
371.974	315.91
372.355	319.98
372.736	303.93
373.117	293.99
373.498	335.34
373.879	337.38
374.26	315.46
374.641	328.56
375.021	313.2
375.402	324.5
375.783	310.26
376.163	332.63
376.544	338.73
376.925	323.59
377.305	325.85
377.686	312.75
378.066	341.45
378.447	337.83
378.827	339.41
379.208	356.81
379.588	312.07
379.968	355.91
380.349	323.59
380.729	346.19
381.109	359.07
381.489	335.57
381.87	343.03
382.25	345.29
382.63	346.87
383.01	357.49
383.39	349.58
383.77	378.28
384.15	344.61
384.53	361.56
384.91	355
385.29	362.69
385.67	388.22
386.049	376.25
386.429	355.91
386.809	365.4
387.189	370.15
387.568	370.15
387.948	364.27
388.328	378.51
388.707	364.95
389.087	398.39
389.466	374.21
389.846	385.29
390.225	358.39
390.605	388.45
390.984	373.76
391.363	377.83
391.743	400.65
392.122	379.41
392.501	390.71
392.881	391.61
393.26	399.75
393.639	402.24
394.018	376.93
394.397	391.84
394.776	400.88
395.155	391.16
395.534	423.25
395.913	381.22
396.292	402.91
396.671	405.17
397.05	369.02
397.429	422.8
397.808	403.82
398.186	412.63
398.565	416.47
398.944	405.17
399.323	405.62
399.701	419.86
400.08	412.18
400.458	425.51
400.837	407.43
401.215	428.9
401.594	416.25
401.972	415.12
402.351	410.6
402.729	434.55
403.107	415.79
403.486	427.32
403.864	443.59
404.242	432.29
404.62	428.9
404.999	432.06
405.377	435.23
405.755	428.45
406.133	441.56
406.511	449.47
406.889	451.95
407.267	454.66
407.645	462.57
408.023	450.82
408.401	450.37
408.779	461.89
409.156	477.49
409.534	466.41
409.912	462.12
410.29	477.26
410.667	491.05
411.045	494.66
411.422	495.57
411.8	492.18
412.178	477.26
412.555	492.4
412.933	504.15
413.31	500.99
413.687	489.24
414.065	510.71
414.442	504.83
414.819	530.37
415.197	516.58
415.574	517.94
415.951	515.23
416.328	526.75
416.705	518.16
417.082	515
417.46	537.82
417.837	566.98
418.214	552.06
418.591	550.71
418.967	551.61
419.344	555.45
419.721	532.63
420.098	546.64
420.475	546.64
420.852	564.49
421.228	577.37
421.605	583.25
421.982	562.68
422.358	585.06
422.735	593.64
423.111	606.07
423.488	598.84
423.864	581.67
424.241	591.83
424.617	607.2
424.994	618.95
425.37	603.59
425.746	595
426.123	577.6
426.499	598.39
426.875	602.68
427.251	616.47
427.627	631.61
428.003	650.82
428.379	647.2
428.756	652.85
429.132	651.04
429.507	637.26
429.883	674.32
430.259	684.71
430.635	683.36
431.011	665.28
431.387	688.78
431.763	703.02
432.138	700.31
432.514	720.64
432.89	718.39
433.265	712.96
433.641	719.97
434.016	724.03
434.392	733.75
434.767	767.2
435.143	777.82
435.518	773.3
435.894	752.28
436.269	758.16
436.644	784.6
437.02	760.19
437.395	776.69
437.77	791.38
438.145	798.83
438.52	806.07
438.895	821.21
439.271	811.72
439.646	867.76
440.021	856.23
440.395	830.02
440.77	858.95
441.145	827.08
441.52	833.86
441.895	834.99
442.27	886.52
442.645	836.12
443.019	832.28
443.394	859.17
443.769	859.85
444.143	887.19
444.518	868.89
444.892	912.96
445.267	886.97
445.641	897.59
446.016	914.31
446.39	914.99
446.764	899.85
447.139	912.05
447.513	937.14
447.887	917.25
448.262	925.84
448.636	947.53
449.01	952.05
449.384	983.24
449.758	952.05
450.132	955.89
450.506	997.7
450.88	985.27
451.254	989.79
451.628	1001.32
452.002	983.69
452.376	1017.59
452.75	1017.59
453.123	1004.48
453.497	1033.86
453.871	1061.43
454.244	1080.64
454.618	1049
454.992	1055.33
455.365	1078.38
455.739	1109.11
456.112	1108.43
456.486	1104.82
456.859	1119.96
457.232	1133.97
457.606	1144.36
457.979	1132.16
458.352	1171.25
458.725	1189.11
459.099	1231.37
459.472	1250.12
459.845	1197.24
460.218	1229.56
460.591	1248.54
460.964	1261.42
461.337	1300.74
461.71	1323.79
462.083	1321.53
462.456	1310.91
462.829	1311.36
463.201	1358.82
463.574	1336.45
463.947	1362.21
464.32	1396.79
464.692	1423.9
465.065	1405.6
465.438	1419.84
465.81	1452.38
466.183	1485.14
466.555	1498.93
466.928	1496.9
467.3	1540.51
467.672	1526.95
468.045	1570.57
468.417	1558.36
468.789	1554.52
469.161	1595.42
469.534	1630.9
469.906	1629.55
470.278	1669.55
470.65	1702.31
471.022	1732.14
471.394	1759.71
471.766	1799.49
472.138	1773.27
472.51	1834.06
472.882	1836.1
473.253	1899.6
473.625	1897.34
473.997	1950.67
474.369	1962.87
474.74	1997.22
475.112	2048.07
475.484	2069.31
475.855	2095.3
476.227	2126.48
476.598	2179.59
476.97	2225.01
477.341	2269.3
477.713	2253.26
478.084	2300.04
478.455	2341.17
478.827	2392.24
479.198	2441.5
479.569	2489.64
479.94	2517.89
480.311	2563.53
480.682	2645.57
481.053	2705.45
481.424	2745.9
481.795	2777.31
482.166	2839.46
482.537	2909.29
482.908	2923.75
483.279	3003.52
483.65	3022.96
484.021	3101.83
484.391	3111.09
484.762	3189.05
485.133	3175.95
485.503	3278.09
485.874	3339.56
486.244	3388.82
486.615	3438.99
486.985	3502.94
487.356	3575.03
487.726	3592.43
488.097	3659.55
488.467	3703.39
488.837	3793.33
489.207	3796.04
489.578	3864.97
489.948	3941.8
490.318	4032.2
490.688	4060.22
491.058	4098.41
491.428	4172.08
491.798	4225.64
492.168	4287.33
492.538	4304.51
492.908	4390.6
493.278	4442.81
493.648	4443.03
494.017	4510.6
494.387	4584.72
494.757	4622.69
495.126	4662.69
495.496	4675.57
495.866	4711.05
496.235	4794.66
496.605	4825.62
496.974	4815.45
497.344	4933.64
497.713	4926.18
498.082	4988.1
498.452	5048.67
498.821	5078.72
499.19	5044.6
499.559	5170.7
499.928	5198.04
500.298	5181.32
500.667	5254.09
501.036	5257.25
501.405	5302.9
501.774	5285.04
502.143	5359.62
502.512	5382.9
502.88	5440.07
503.249	5442.33
503.618	5482.78
503.987	5542.66
504.356	5542.44
504.724	5603
505.093	5566.85
505.462	5600.06
505.83	5642.1
506.199	5679.38
506.567	5750.57
506.936	5754.18
507.304	5833.96
507.672	5847.06
508.041	5861.07
508.409	5889.32
508.777	5976.1
509.145	5944.69
509.514	6041.86
509.882	6094.06
510.25	6045.7
510.618	6068.53
510.986	6079.37
511.354	6170.22
511.722	6224
512.09	6253.38
512.458	6219.71
512.826	6254.74
513.193	6349.42
513.561	6352.59
513.929	6344
514.297	6406.6
514.664	6434.17
515.032	6465.8
515.4	6501.51
515.767	6564.56
516.135	6546.93
516.502	6493.15
516.869	6654.95
517.237	6648.4
517.604	6540.6
517.972	6689.98
518.339	6744.44
518.706	6721.17
519.073	6748.51
519.44	6743.99
519.808	6826.47
520.175	6826.93
520.542	6953.25
520.909	6945.34
521.276	6904.44
521.643	6968.39
522.009	7056.75
522.376	7064.88
522.743	7116.41
523.11	7213.13
523.477	7235.95
523.843	7184.2
524.21	7327.93
524.577	7321.6
524.943	7375.61
525.31	7416.06
525.676	7472.78
526.043	7506.46
526.409	7533.57
526.776	7594.14
527.142	7621.25
527.508	7654.93
527.874	7721.36
528.241	7801.59
528.607	7765.66
528.973	7868.25
529.339	7873.9
529.705	7991.41
530.071	7983.73
530.437	8051.3
530.803	8066.44
531.169	8145.76
531.535	8133.78
531.901	8108.25
532.267	8223.95
532.632	8235.02
532.998	8253.55
533.364	8374.91
533.73	8338.52
534.095	8412.19
534.461	8413.32
534.826	8397.73
535.192	8542.13
535.557	8571.74
535.923	8504.85
536.288	8613.54
536.653	8617.16
537.019	8614.45
537.384	8712.98
537.749	8695.58
538.114	8779.64
538.479	8780.55
538.845	8776.7
539.21	8724.05
539.575	8832.07
539.94	8886.31
540.305	8995
540.67	8904.16
541.034	9008.79
541.399	9023.48
541.764	9059.63
542.129	9172.63
542.494	9204.72
542.858	9146.41
543.223	9180.99
543.587	9302.57
543.952	9269.35
544.316	9325.84
544.681	9377.59
545.045	9364.03
545.41	9467.76
545.774	9460.75
546.138	9502.79
546.503	9538.49
546.867	9567.42
547.231	9618.72
547.595	9618.26
547.959	9651.94
548.324	9708.43
548.688	9687.64
549.052	9729.9
549.416	9804.93
549.779	9868.65
550.143	9856.22
550.507	9898.03
550.871	9960.4
551.235	9938.03
551.599	10017.58
551.962	10013.28
552.326	10029.33
552.689	10095.99
553.053	10061.87
553.417	10146.61
553.78	10247.85
554.143	10211.69
554.507	10216.44
554.87	10279.94
555.234	10404.91
555.597	10356.1
555.96	10302.54
556.323	10406.72
556.686	10399.49
557.05	10438.81
557.413	10578.01
557.776	10579.37
558.139	10614.17
558.502	10676.77
558.865	10639.25
559.228	10718.35
559.59	10705.02
559.953	10757.22
560.316	10877.44
560.679	10842.41
561.041	10867.27
561.404	10954.95
561.767	11021.62
562.129	11012.8
562.492	11089.64
562.854	11068.62
563.217	11108.17
563.579	11176.19
563.941	11232.68
564.304	11239.01
564.666	11282.85
565.028	11313.81
565.39	11359.24
565.753	11425.22
566.115	11445.11
566.477	11506.8
566.839	11525.78
567.201	11567.37
567.563	11548.83
567.925	11700.02
568.287	11678.77
568.648	11784.08
569.01	11830.41
569.372	11896.4
569.734	11862.05
570.095	11914.7
570.457	12007.81
570.819	12108.14
571.18	12015.04
571.542	12144.07
571.903	12175.94
572.265	12246.22
572.626	12274.47
572.987	12419.32
573.349	12336.84
573.71	12428.13
574.071	12502.03
574.432	12586.55
574.794	12626.32
575.155	12698.18
575.516	12705.64
575.877	12805.75
576.238	12883.04
576.599	12996.03
576.96	13132.07
577.32	13126.65
577.681	13276.25
578.042	13287.55
578.403	13351.73
578.763	13428.11
579.124	13603.7
579.485	13699.29
579.845	13881.2
580.206	13927.08
580.566	14012.5
580.927	14142.21
581.287	14379.95
581.648	14391.47
582.008	14666.72
582.368	14704.46
582.728	14907.84
583.089	15045.92
583.449	15155.97
583.809	15388.96
584.169	15562.51
584.529	15739.01
584.889	16055.16
585.249	16074.59
585.609	16263.51
585.969	16623.28
586.329	16781.01
586.688	17056.26
587.048	17246.76
587.408	17365.86
587.768	17589.81
588.127	17901.21
588.487	18192.95
588.846	18459.84
589.206	18643.11
589.565	19048.75
589.925	19257.11
590.284	19537.1
590.643	19717.66
591.003	20070.42
591.362	20379.56
591.721	20654.13
592.08	20945.42
592.44	21247.34
592.799	21539.31
593.158	21823.59
593.517	22204.37
593.876	22605.04
594.235	22776.79
594.593	23183.56
594.952	23548.97
595.311	23673.94
595.67	24093.14
596.029	24473.01
596.387	24926.34
596.746	25194.35
597.104	25472.54
597.463	25767.67
597.822	26285.4
598.18	26395.22
598.538	26684.03
598.897	27184.13
599.255	27360.17
599.613	28052.58
599.972	28031.79
600.33	28505.9
600.688	28652.57
601.046	29195.6
601.404	29647.34
601.762	29733.89
602.12	30227.44
602.478	30379.53
602.836	30697.71
603.194	30887.76
603.552	31204.82
603.91	31525.71
604.268	31829.21
604.625	32112.36
604.983	32560.71
605.341	32577.43
605.698	33104.2
606.056	33374.7
606.413	33577.18
606.771	34058.07
607.128	34194.34
607.485	34386.43
607.843	34610.83
608.2	35158.84
608.557	35507.98
608.914	35621.2
609.272	35918.36
609.629	36208.53
609.986	36522.87
610.343	36592.02
610.7	37113.81
611.057	37207.6
611.414	37421.83
611.771	37528.49
612.127	37895.49
612.484	38019.78
612.841	38370.05
613.198	38463.83
613.554	38656.82
613.911	39089.13
614.267	39205.28
614.624	39320.31
614.98	39539.06
615.337	39937.24
615.693	39987.64
616.05	40123.22
616.406	40490.9
616.762	40654.51
617.118	40670.33
617.475	40784.9
617.831	41192.12
618.187	41328.84
618.543	41413.59
618.899	41756.18
619.255	41792.33
619.611	41909.62
619.967	42284.98
620.323	42424.18
620.678	42359.1
621.034	42477.74
621.39	42544.63
621.746	42601.8
622.101	42984.39
622.457	43005.41
622.812	43092.41
623.168	43157.04
623.523	43413.31
623.879	43491.95
624.234	43369.69
624.589	43551.16
624.945	43763.58
625.3	43910.92
625.655	43855.78
626.01	43965.38
626.365	44052.61
626.72	44109.11
627.075	44101.2
627.43	44192.5
627.785	44139.84
628.14	44458.03
628.495	44388.2
628.85	44435.2
629.205	44496.22
629.559	44803.78
629.914	44561.07
630.269	44693.73
630.623	44714.52
630.978	44767.17
631.332	44936.88
631.687	45003.1
632.041	44802.2
632.396	44997.22
632.75	44860.73
633.104	44985.24
633.459	44754.06
633.813	44897.11
634.167	44970.33
634.521	44869.54
634.875	45123.09
635.229	45081.96
635.583	45029.31
635.937	44976.66
636.291	44946.6
636.645	44973.94
636.999	45014.62
637.352	45085.58
637.706	44906.6
638.06	45126.03
638.413	44881.29
638.767	44826.83
639.121	44969.65
639.474	44779.15
639.828	44866.38
640.181	44928.75
640.534	44939.37
640.888	44786.6
641.241	44755.87
641.594	44869.99
641.947	44982.31
642.301	44859.15
642.654	44965.13
643.007	44908.64
643.36	44963.55
643.713	44763.55
644.066	45075.64
644.419	44779.6
644.771	44545.26
645.124	44241.76
645.477	44054.87
645.83	43851.26
646.182	43761.1
646.535	43667.76
646.888	43794.54
647.24	43653.08
647.593	43822.34
647.945	43741.43
648.298	43520.42
648.65	43372.63
649.002	43578.28
649.355	43660.08
649.707	43686.07
650.059	43719.29
650.411	44273.85
650.763	44264.58
651.115	44657.79
651.467	44640.17
651.819	44571.24
652.171	44331.02
652.523	44406.95
652.875	44248.77
653.227	44321.76
653.578	44634.52
653.93	44498.93
654.282	44350.23
654.633	44317.69
654.985	44339.16
655.337	44220.29
655.688	44475.88
656.039	44560.4
656.391	44059.39
656.742	44310.23
657.094	44326.05
657.445	44284.7
657.796	44205.83
658.147	44245.15
658.498	44092.39
658.849	44291.93
659.2	44042.9
659.551	44127.41
659.902	44202.67
660.253	44213.06
660.604	44225.04
660.955	44138.71
661.306	44213.29
661.656	44129.67
662.007	44089.67
662.358	44266.39
662.708	44130.58
663.059	44159.05
663.409	43850.58
663.76	44193.4
664.11	43977.13
664.461	44175.77
664.811	44017.13
665.161	44137.81
665.511	44003.35
665.862	44088.32
666.212	44074.08
666.562	44353.4
666.912	44107.53
667.262	43973.29
667.612	43950.69
667.962	44101.65
668.312	44002.9
668.662	44244.02
669.011	44011.26
669.361	43997.93
669.711	43923.58
670.06	43884.26
670.41	43861.43
670.76	43766.74
671.109	43982.11
671.459	43926.06
671.808	43764.03
672.157	43893.3
672.507	43605.17
672.856	43655.11
673.205	43865.73
673.554	43941.2
673.904	43744.37
674.253	43933.07
674.602	43806.97
674.951	43219.64
675.3	43179.87
675.649	43660.76
675.998	43589.57
676.346	43566.3
676.695	43760.64
677.044	43553.19
677.393	43559.52
677.741	43623.7
678.09	43534.21
678.438	43519.75
678.787	43474.32
679.135	43529.69
679.484	43264.84
679.832	43413.31
680.181	43157.72
680.529	43265.29
680.877	43164.95
681.225	43050.38
681.573	43359.07
681.922	43050.15
682.27	42979.65
682.618	42910.95
682.966	42763.83
683.314	42924.73
683.661	42946.88
684.009	42578.3
684.357	42616.27
684.705	42550.05
685.053	42664.17
685.4	42572.88
685.748	42457.17
686.095	42376.27
686.443	42228.25
686.79	42194.58
687.138	42229.38
687.485	42214.02
687.832	42025.55
688.18	42077.98
688.527	41901.93
688.874	41986
689.221	41738.78
689.568	41796.4
689.915	41744.65
690.262	41753.24
690.609	41548.05
690.956	41295.85
691.303	41381.27
691.65	41144.89
691.997	41195.06
692.344	40929.98
692.69	40840.04
693.037	40771.8
693.383	40565.92
693.73	40738.8
694.077	40533.84
694.423	40421.97
694.769	40391.24
695.116	40330
695.462	40200.96
695.808	40053.17
696.155	40119.83
696.501	39957.13
696.847	39934.53
697.193	39756.45
697.539	39908.09
697.885	39667.64
698.231	39357.82
698.577	39487.76
698.923	39455.67
699.269	39203.02
699.614	38979.75
699.96	39222.68
700.306	38998.51
700.651	38827.21
700.997	38656.82
701.342	38752.87
701.688	38477.39
702.033	38499.09
702.379	38335.7
702.724	38381.8
703.069	38477.17
703.415	38037.4
703.76	37980.91
704.105	37963.06
704.45	37871.31
704.795	37784.3
705.14	37601.94
705.485	37749.73
705.83	37513.58
706.175	37506.34
706.52	37386.12
706.865	37355.61
707.209	37230.19
707.554	37110.65
707.899	37151.78
708.243	36897.77
708.588	36856.42
708.932	36658.23
709.277	36627.27
709.621	36708.17
709.966	36337.56
710.31	36492.36
710.654	36223.44
710.998	36400.84
711.342	36287.39
711.687	36103.22
712.031	35970.34
712.375	35857.57
712.719	35990.45
713.063	35876.1
713.407	35906.39
713.75	35719.95
714.094	35662.1
714.438	35578.03
714.782	35632.95
715.125	35473.18
715.469	35474.31
715.812	35380.98
716.156	35216.46
716.499	35140.3
716.843	35324.93
717.186	35017.37
717.53	35207.87
717.873	35065.05
718.216	35113.86
718.559	34930.59
718.902	34800.65
719.246	34769.69
719.589	34666.42
719.932	34526.08
720.275	34633.43
720.617	34485.63
720.96	34287.9
721.303	34441.34
721.646	34265.98
721.989	34101.01
722.331	34244.74
722.674	34137.39
723.016	34010.62
723.359	34125.87
723.701	34047
724.044	33894.24
724.386	33664.64
724.729	33893.11
725.071	33767.01
725.413	33881.58
725.755	33622.38
726.097	33631.87
726.439	33453.12
726.782	33469.16
727.124	33578.99
727.465	33366.57
727.807	33390.97
728.149	33253.35
728.491	33336.96
728.833	33322.5
729.175	33149.4
729.516	33106.69
729.858	33066.24
730.199	33127.93
730.541	32884.09
730.882	32997.08
731.224	32995.28
731.565	32765.45
731.906	32812.91
732.248	32802.51
732.589	32686.36
732.93	32528.85
733.271	32520.71
733.612	32602.07
733.953	32495.4
734.294	32417.21
734.635	32311
734.976	32341.96
735.317	32313.71
735.658	32359.14
735.999	32294.96
736.339	32192.81
736.68	32260.83
737.021	32135.41
737.361	32041.18
737.702	32111.01
738.042	32026.04
738.383	31885.7
738.723	32048.18
739.063	31880.5
739.404	31996.21
739.744	31803.67
740.084	31783.56
740.424	31734.97
740.764	31800.96
741.104	31766.16
741.444	31602.77
741.784	31613.17
742.124	31608.19
742.464	31606.16
742.804	31341.08
743.143	31420.85
743.483	31492.49
743.823	31233.74
744.162	31081.43
744.502	31165.72
744.841	31148.77
745.181	31236
745.52	31045.5
745.86	31102.9
746.199	31061.77
746.538	30993.52
746.877	31090.02
747.216	30947.87
747.556	30928.66
747.895	30905.39
748.234	30917.14
748.573	30746.52
748.911	30749.23
749.25	30726.18
749.589	30512.4
749.928	30552.63
750.267	30677.15
750.605	30597.83
750.944	30446.42
751.283	30356.48
751.621	30433.99
751.96	30306.08
752.298	30234.67
752.636	30265.86
752.975	30156.93
753.313	29947.9
753.651	30028.8
753.989	29886.66
754.327	29902.7
754.666	29910.16
755.004	29720.56
755.342	29702.48
755.679	29720.79
756.017	29572.99
756.355	29589.94
756.693	29429.95
757.031	29488.48
757.368	29356.95
757.706	29325.99
758.044	29284.64
758.381	29382.26
758.719	29219.33
759.056	29280.8
759.394	29144.76
