Data from hue_290_FLMS001491_00018.txt Node
Date: Tue Feb 07 15:52:23 GMT 2017
User: dcchb
Spectrometer: FLMS00149
Trigger mode: 0
Integration Time (sec): 2.000000E-2
Scans to average: 10
Electric dark correction enabled: true
Nonlinearity correction enabled: false
Boxcar width: 0
XAxis mode: Wavelengths
Number of Pixels in Spectrum: 2048
>>>>>Begin Spectral Data<<<<<
341.393	-19.11
341.776	-19.11
342.16	-19.11
342.543	-59.79
342.927	-73.12
343.31	-69.96
343.693	-62.05
344.077	-58.88
344.46	-59.79
344.843	-29.96
345.226	-50.07
345.61	-7.81
345.993	-2.84
346.376	-23.63
346.759	5.75
347.142	29.93
347.525	30.15
347.908	42.58
348.291	80.77
348.674	78.74
349.057	97.05
349.44	116.25
349.823	154.45
350.206	145.41
350.588	188.12
350.971	197.16
351.354	219.53
351.737	224.05
352.119	241
352.502	239.41
352.884	252.52
353.267	273.09
353.65	270.6
354.032	302.92
354.414	283.93
354.797	305.4
355.179	307.89
355.562	309.47
355.944	342.69
356.326	329.36
356.709	336.14
357.091	327.1
357.473	330.26
357.855	330.26
358.238	310.37
358.62	335.01
359.002	339.98
359.384	318.51
359.766	349.47
360.148	299.53
360.53	327.77
360.912	321.9
361.294	336.36
361.676	339.52
362.057	329.13
362.439	321.22
362.821	321.45
363.203	312.41
363.584	321.45
363.966	306.31
364.348	338.4
364.729	311.73
365.111	296.14
365.493	320.77
365.874	322.8
366.256	303.82
366.637	295.68
367.019	320.77
367.4	337.04
367.781	306.08
368.163	305.18
368.544	305.85
368.925	302.69
369.306	312.41
369.688	295.91
370.069	302.01
370.45	309.24
370.831	312.63
371.212	309.24
371.593	302.46
371.974	303.14
372.355	326.19
372.736	305.4
373.117	320.32
373.498	318.06
373.879	303.82
374.26	300.43
374.641	305.18
375.021	307.66
375.402	310.83
375.783	325.74
376.163	293.42
376.544	329.81
376.925	303.37
377.305	323.48
377.686	338.62
378.066	305.18
378.447	310.83
378.827	314.67
379.208	301.56
379.588	310.15
379.968	315.12
380.349	336.36
380.729	325.29
381.109	326.64
381.489	324.61
381.87	320.09
382.25	335.23
382.63	318.28
383.01	332.52
383.39	338.85
383.77	338.17
384.15	366.42
384.53	347.43
384.91	346.76
385.29	336.59
385.67	326.64
386.049	319.86
386.429	352.18
386.809	355.34
387.189	347.21
387.568	361.67
387.948	349.24
388.328	353.99
388.707	340.43
389.087	346.98
389.466	362.8
389.846	343.59
390.225	360.09
390.605	368.45
390.984	352.63
391.363	368.68
391.743	367.55
392.122	373.42
392.501	382.91
392.881	359.86
393.26	360.32
393.639	369.81
394.018	375.68
394.397	370.48
394.776	394.89
395.155	368.68
395.534	362.8
395.913	376.59
396.292	376.81
396.671	390.6
397.05	372.52
397.429	378.39
397.808	378.17
398.186	385.17
398.565	386.98
398.944	385.85
399.323	367.09
399.701	422.69
400.08	372.07
400.458	401.44
400.837	386.3
401.215	386.98
401.594	396.02
401.972	410.94
402.351	413.2
402.729	429.69
403.107	403.03
403.486	420.2
403.864	414.1
404.242	414.33
404.62	428.56
404.999	425.62
405.377	431.73
405.755	432.86
406.133	433.76
406.511	441.67
406.889	439.41
407.267	447.09
407.645	467.88
408.023	471.05
408.401	479.86
408.779	473.31
409.156	493.42
409.534	482.35
409.912	499.97
410.29	502.46
410.667	500.88
411.045	496.58
411.422	502.46
411.8	518.73
412.178	519.18
412.555	531.16
412.933	520.54
413.31	549.01
413.687	533.64
414.065	570.25
414.442	548.79
414.819	569.58
415.197	589.69
415.574	597.82
415.951	581.33
416.328	608.9
416.705	612.74
417.082	615.22
417.46	626.3
417.837	633.98
418.214	626.98
418.591	668.1
418.967	650.48
419.344	661.55
419.721	650.93
420.098	654.77
420.475	680.76
420.852	652.51
421.228	679.4
421.605	683.47
421.982	709.01
422.358	725.5
422.735	738.38
423.111	737.48
423.488	729.12
423.864	756.92
424.241	775.67
424.617	779.51
424.994	773.86
425.37	771.15
425.746	786.74
426.123	819.06
426.499	808.21
426.875	830.13
427.251	833.3
427.627	843.69
428.003	846.18
428.379	854.54
428.756	873.97
429.132	850.92
429.507	880.3
429.883	887.76
430.259	914.43
430.635	909.45
431.011	950.36
431.387	928.44
431.763	919.85
432.138	957.81
432.514	963.46
432.89	975.67
433.265	1001.88
433.641	1008.43
434.016	1021.99
434.392	1031.03
434.767	1040.07
435.143	1046.4
435.518	1083.69
435.894	1057.92
436.269	1082.33
436.644	1114.65
437.02	1104.25
437.395	1127.98
437.77	1129.56
438.145	1159.16
438.52	1165.49
438.895	1167.75
439.271	1175.89
439.646	1195.1
440.021	1212.72
440.395	1193.97
440.77	1198.49
441.145	1236.9
441.52	1254.08
441.895	1240.97
442.27	1261.31
442.645	1246.39
443.019	1271.48
443.394	1279.16
443.769	1283
444.143	1260.86
444.518	1329.1
444.892	1292.49
445.267	1295.66
445.641	1313.06
446.016	1327.07
446.39	1314.19
446.764	1335.66
447.139	1350.8
447.513	1319.39
447.887	1346.73
448.262	1333.62
448.636	1332.95
449.01	1378.82
449.384	1367.52
449.758	1383.57
450.132	1371.36
450.506	1403
450.88	1390.8
451.254	1404.13
451.628	1422.21
452.002	1416.11
452.376	1424.47
452.75	1401.42
453.123	1441.87
453.497	1453.62
453.871	1438.93
454.244	1484.58
454.618	1482.09
454.992	1520.96
455.365	1513.05
455.739	1556.89
456.112	1529.78
456.486	1548.53
456.859	1545.37
457.232	1590.11
457.606	1576.55
457.979	1568.42
458.352	1617.46
458.725	1667.63
459.099	1631.24
459.472	1689.32
459.845	1649.1
460.218	1685.48
460.591	1672.37
460.964	1697.23
461.337	1692.71
461.71	1713.27
462.083	1746.95
462.456	1764.35
462.829	1744.69
463.201	1770.67
463.574	1793.5
463.947	1814.51
464.32	1813.16
464.692	1852.93
465.065	1856.1
465.438	1836.21
465.81	1859.49
466.183	1891.12
466.555	1928.41
466.928	1942.87
467.3	1900.16
467.672	1947.62
468.045	1975.64
468.417	1981.97
468.789	1986.26
469.161	2018.8
469.534	2047.95
469.906	2098.8
470.278	2066.94
470.65	2120.5
471.022	2125.92
471.394	2160.27
471.766	2179.25
472.138	2196.88
472.51	2218.8
472.882	2214.96
473.253	2263.54
473.625	2279.81
473.997	2315.74
474.369	2309.42
474.74	2312.35
475.112	2373.6
475.484	2368.4
475.855	2416.53
476.227	2418.79
476.598	2474.16
476.97	2474.84
477.341	2533.59
477.713	2540.6
478.084	2559.13
478.455	2612.69
478.827	2602.74
479.198	2683.42
479.569	2697.66
479.94	2731.78
480.311	2748.95
480.682	2825.11
481.053	2854.26
481.424	2870.76
481.795	2864.2
482.166	2904.43
482.537	2908.27
482.908	2987.59
483.279	2993.92
483.65	3047.93
484.021	3119.79
484.391	3109.62
484.762	3143.07
485.133	3177.42
485.503	3194.59
485.874	3236.62
486.244	3257.19
486.615	3254.7
486.985	3325.89
487.356	3377.19
487.726	3366.79
488.097	3433.45
488.467	3454.92
488.837	3465.32
489.207	3515.94
489.578	3538.31
489.948	3540.57
490.318	3631.64
490.688	3633
491.058	3676.84
491.428	3705.31
491.798	3683.62
492.168	3819.89
492.538	3819.21
492.908	3788.7
493.278	3841.13
493.648	3827.34
494.017	3858.98
494.387	3920.67
494.757	3947.11
495.126	3942.37
495.496	3941.01
495.866	4021.24
496.235	4023.04
496.605	4062.36
496.974	4065.08
497.344	4098.75
497.713	4088.35
498.082	4107.79
498.452	4136.94
498.821	4145.3
499.19	4173.32
499.559	4211.51
499.928	4181.23
500.298	4251.51
500.667	4220.1
501.036	4242.47
501.405	4237.28
501.774	4257.16
502.143	4333.32
502.512	4322.25
502.88	4345.75
503.249	4380.32
503.618	4344.39
503.987	4390.04
504.356	4383.49
504.724	4430.49
505.093	4425.75
505.462	4384.84
505.83	4463.48
506.199	4469.81
506.567	4562.01
506.936	4510.26
507.304	4594.78
507.672	4562.24
508.041	4579.64
508.409	4559.53
508.777	4586.19
509.145	4642.46
509.514	4613.08
509.882	4651.73
510.25	4654.44
510.618	4654.89
510.986	4710.48
511.354	4713.65
511.722	4744.83
512.09	4749.35
512.458	4745.74
512.826	4778.05
513.193	4780.54
513.561	4738.05
513.929	4841.1
514.297	4852.17
514.664	4852.85
515.032	4847.2
515.4	4844.94
515.767	4882
516.135	4909.12
516.502	4874.55
516.869	4945.05
517.237	4915.22
517.604	4911.83
517.972	4936.47
518.339	4997.71
518.706	4974.66
519.073	5005.17
519.44	4983.47
519.808	4986.18
520.175	5058.5
520.542	5058.04
520.909	5135.11
521.276	5111.38
521.643	5109.57
522.009	5117.03
522.376	5187.53
522.743	5115.44
523.11	5210.13
523.477	5207.65
523.843	5216.46
524.21	5284.93
524.577	5298.26
524.943	5311.37
525.31	5313.63
525.676	5375.1
526.043	5404.25
526.409	5385.95
526.776	5390.24
527.142	5378.49
527.508	5465.49
527.874	5512.5
528.241	5509.56
528.607	5483.34
528.973	5540.97
529.339	5559.73
529.705	5598.6
530.071	5607.64
530.437	5634.98
530.803	5653.74
531.169	5672.27
531.535	5660.29
531.901	5642.66
532.267	5699.61
532.632	5779.61
532.998	5737.35
533.364	5806.27
533.73	5803.79
534.095	5845.59
534.461	5865.26
534.826	5867.74
535.192	5865.71
535.557	5936.67
535.923	5873.62
536.288	5918.59
536.653	5942.32
537.019	5920.4
537.384	5960.62
537.749	6004.01
538.114	6012.37
538.479	5965.82
538.845	6014.4
539.21	5996.78
539.575	6061.41
539.94	6082.42
540.305	6063.44
540.67	6095.76
541.034	6077
541.399	6073.16
541.764	6100.96
542.129	6187.73
542.494	6157.9
542.858	6162.42
543.223	6204.91
543.587	6225.02
543.952	6200.61
544.316	6267.05
544.681	6260.05
545.045	6239.26
545.41	6302.76
545.774	6274.51
546.138	6294.4
546.503	6362.64
546.867	6360.16
547.231	6387.5
547.595	6354.51
547.959	6370.78
548.324	6461.62
548.688	6452.36
549.052	6423.43
549.416	6442.64
549.779	6499.14
550.143	6455.97
550.507	6533.94
550.871	6495.3
551.235	6511.57
551.599	6540.27
551.962	6531.68
552.326	6559.25
552.689	6558.34
553.053	6552.92
553.417	6551.34
553.78	6618.23
554.143	6573.94
554.507	6674.95
554.87	6650.09
555.234	6672.47
555.597	6689.64
555.96	6662.3
556.323	6692.35
556.686	6732.8
557.05	6781.62
557.413	6763.31
557.776	6763.99
558.139	6795.4
558.502	6771.45
558.865	6871.1
559.228	6896.64
559.59	6859.58
559.953	6937.09
560.316	6963.31
560.679	6952.68
561.041	6937.77
561.404	6997.2
561.767	7042.4
562.129	7003.98
562.492	7132.34
562.854	7052.34
563.217	7070.2
563.579	7063.19
563.941	7116.75
564.304	7147.48
564.666	7177.99
565.028	7153.36
565.39	7156.07
565.753	7192.23
566.115	7272
566.477	7241.49
566.839	7290.3
567.201	7337.76
567.563	7333.24
567.925	7372.11
568.287	7387.7
568.648	7409.17
569.01	7451.88
569.372	7547.47
569.734	7500.24
570.095	7526
570.457	7583.18
570.819	7572.78
571.18	7562.16
571.542	7616.62
571.903	7638.09
572.265	7773
572.626	7743.17
572.987	7793.79
573.349	7792.89
573.71	7828.37
574.071	7851.42
574.432	7907.24
574.794	7989.49
575.155	7991.53
575.516	7980
575.877	7984.52
576.238	8095.48
576.599	8082.15
576.96	8156.95
577.32	8233.33
577.681	8213.44
578.042	8327.11
578.403	8384.96
578.763	8404.17
579.124	8432.42
579.485	8485.3
579.845	8633.32
580.206	8631.96
580.566	8689.14
580.927	8800.55
581.287	8922.35
581.648	8912.18
582.008	9038.73
582.368	9045.28
582.728	9164.83
583.089	9148.78
583.449	9377.03
583.809	9448.89
584.169	9543.35
584.529	9532.96
584.889	9808.88
585.249	9769.33
585.609	9870.35
585.969	10024.47
586.329	10134.75
586.688	10221.3
587.048	10255.65
587.408	10398.02
587.768	10557.11
588.127	10689.76
588.487	10714.85
588.846	10990.09
589.206	11010.2
589.565	11162.52
589.925	11305.11
590.284	11439.35
590.643	11541.94
591.003	11758.21
591.362	11875.94
591.721	12056.51
592.08	12112.77
592.44	12289.04
592.799	12453.33
593.158	12573.33
593.517	12651.74
593.876	12836.37
594.235	12880.89
594.593	13155.23
594.952	13199.53
595.311	13379.41
595.67	13432.51
596.029	13670.47
596.387	13795.44
596.746	13937.81
597.104	14053.06
597.463	14152.27
597.822	14332.83
598.18	14368.76
598.538	14531.47
598.897	14713.61
599.255	14689.88
599.613	15008.29
599.972	15013.72
600.33	15041.51
600.688	15225.46
601.046	15364.21
601.404	15504.55
601.762	15650.99
602.12	15866.57
602.478	15926.01
602.836	16019.34
603.194	16019.11
603.552	16153.12
603.91	16291.2
604.268	16283.29
604.625	16477.41
604.983	16568.93
605.341	16666.55
605.698	16776.61
606.056	16925.98
606.413	16933.44
606.771	17151.51
607.128	17129.37
607.485	17168.91
607.843	17264.73
608.2	17406.65
608.557	17526.19
608.914	17510.37
609.272	17758.5
609.629	17817.26
609.986	17885.5
610.343	17877.82
610.7	18059.29
611.057	18175.21
611.414	18139.96
611.771	18356.9
612.127	18309
612.484	18371.37
612.841	18495.66
613.198	18500.4
613.554	18513.06
613.911	18678.93
614.267	18768.19
614.624	18700.4
614.98	18848.87
615.337	19008.86
615.693	18917.79
616.05	19009.99
616.406	19073.72
616.762	19243.66
617.118	19203.44
617.475	19139.48
617.831	19310.78
618.187	19366.37
618.543	19350.32
618.899	19543.99
619.255	19509.64
619.611	19557.32
619.967	19555.29
620.323	19654.27
620.678	19603.2
621.034	19604.78
621.39	19694.72
621.746	19661.73
622.101	19978.1
622.457	19792.35
622.812	19908.28
623.168	19985.34
623.523	19972.91
623.879	20039.57
624.234	19904.43
624.589	20134.26
624.945	20042.96
625.3	20068.05
625.655	20138.1
626.01	20216.29
626.365	20259.23
626.72	20225.56
627.075	20264.88
627.43	20136.52
627.785	20232.79
628.14	20267.59
628.495	20210.41
628.85	20244.31
629.205	20209.51
629.559	20326.12
629.914	20140.59
630.269	20285.67
630.623	20188.27
630.978	20145.11
631.332	20362.28
631.687	20393.91
632.041	20223.75
632.396	20257.19
632.75	20195.5
633.104	20365.21
633.459	20185.56
633.813	20198.21
634.167	20242.73
634.521	20177.42
634.875	20250.19
635.229	20222.62
635.583	20207.93
635.937	20176.74
636.291	20143.98
636.645	20111.89
636.999	20061.72
637.352	20171.32
637.706	20046.8
638.06	20144.88
638.413	20052.9
638.767	19972.46
639.121	20145.33
639.474	20048.39
639.828	20079.12
640.181	19894.49
640.534	20042.06
640.888	19993.7
641.241	19988.5
641.594	19954.38
641.947	20012.68
642.301	19934.04
642.654	19925.9
643.007	20032.79
643.36	20059.01
643.713	19915.73
644.066	20045.67
644.419	19881.38
644.771	19842.51
645.124	19618.34
645.477	19606.81
645.83	19470.77
646.182	19496.54
646.535	19450.66
646.888	19341.51
647.24	19309.42
647.593	19421.96
647.945	19431.9
648.298	19225.81
648.65	19250.67
649.002	19271.46
649.355	19306.26
649.707	19424.22
650.059	19476.87
650.411	19612.24
650.763	19658.57
651.115	19924.77
651.467	19765.68
651.819	19766.13
652.171	19748.73
652.523	19776.75
652.875	19703.31
653.227	19614.27
653.578	19792.8
653.93	19726.81
654.282	19631.9
654.633	19656.98
654.985	19779.01
655.337	19745.34
655.688	19738.79
656.039	19860.37
656.391	19730.65
656.742	19689.07
657.094	19725.23
657.445	19854.49
657.796	19682.07
658.147	19661.95
658.498	19745.34
658.849	19713.93
659.2	19748.96
659.551	19730.2
659.902	19797.77
660.253	19760.26
660.604	19802.52
660.955	19668.51
661.306	19833.93
661.656	19772.69
662.007	19795.28
662.358	19791.44
662.708	19805.45
663.059	19783.08
663.409	19653.82
663.76	19892.91
664.11	19737.21
664.461	19861.27
664.811	20000.02
665.161	19801.61
665.511	19736.76
665.862	19916.41
666.212	19804.55
666.562	19908.5
666.912	19893.14
667.262	19742.63
667.612	19801.84
667.962	19922.74
668.312	19910.08
668.662	19946.69
669.011	19773.59
669.361	19858.11
669.711	19828.96
670.06	19779.01
670.41	19734.95
670.76	19692.69
671.109	19794.15
671.459	19799.58
671.808	19734.04
672.157	19871.67
672.507	19664.67
672.856	19699.69
673.205	19753.03
673.554	19790.31
673.904	19674.84
674.253	19869.86
674.602	19673.93
674.951	19384
675.3	19312.59
675.649	19574.05
675.998	19503.99
676.346	19673.03
676.695	19686.81
677.044	19487.5
677.393	19593.03
677.741	19554.39
678.09	19440.72
678.438	19344.45
678.787	19477.78
679.135	19504.22
679.484	19317.78
679.832	19468.74
680.181	19199.82
680.529	19357.78
680.877	19240.5
681.225	19249.31
681.573	19346.03
681.922	19212.93
682.27	19146.94
682.618	19207.05
682.966	19103.33
683.314	19183.78
683.661	19053.84
684.009	19080.95
684.357	18948.53
684.705	19024.91
685.053	19023.33
685.4	19001.63
685.748	18894.29
686.095	18727.29
686.443	18807.51
686.79	18716.22
687.138	18759.83
687.485	18670.34
687.832	18676.9
688.18	18640.29
688.527	18527.07
688.874	18609.1
689.221	18519.84
689.568	18443.46
689.915	18459.05
690.262	18303.57
690.609	18341.54
690.956	18306.28
691.303	18167.3
691.65	18154.42
691.997	18110.58
692.344	18048.89
692.69	17974.09
693.037	17937.93
693.383	17826.97
693.73	17877.59
694.077	17804.6
694.423	17760.54
694.769	17817.94
695.116	17718.73
695.462	17635.34
695.808	17667.2
696.155	17614.55
696.501	17364.16
696.847	17579.07
697.193	17330.26
697.539	17305.41
697.885	17172.3
698.231	17124.39
698.577	17145.41
698.923	17070.16
699.269	17033.78
699.614	16963.27
699.96	16928.02
700.306	16871.52
700.651	16731.86
700.997	16597.63
701.342	16667.91
701.688	16644.18
702.033	16621.13
702.379	16558.76
702.724	16522.6
703.069	16462.04
703.415	16331.19
703.76	16299.11
704.105	16274.93
704.45	16283.96
704.795	16073.8
705.14	16063.86
705.485	16076.96
705.83	15939.79
706.175	15933.24
706.52	15928.72
706.865	15925.33
707.209	15867.7
707.554	15776.18
707.899	15797.2
708.243	15668.84
708.588	15685.56
708.932	15540.26
709.277	15642.63
709.621	15656.64
709.966	15493.7
710.31	15542.29
710.654	15441.5
710.998	15462.52
711.342	15462.52
711.687	15400.37
712.031	15326.02
712.375	15203.54
712.719	15264.78
713.063	15194.73
713.407	15202.64
713.75	15160.38
714.094	15066.37
714.438	15092.13
714.782	15131
715.125	14972.13
715.469	14933.72
715.812	14934.4
716.156	14824.79
716.499	14826.6
716.843	14855.3
717.186	14715.64
717.53	14875.64
717.873	14805.13
718.216	14736.43
718.559	14724.68
718.902	14597.91
719.246	14624.8
719.589	14641.97
719.932	14535.76
720.275	14604.46
720.617	14592.03
720.96	14503.67
721.303	14515.88
721.646	14540.73
721.989	14517.91
722.331	14516.78
722.674	14481.75
723.016	14528.3
723.359	14408.31
723.701	14475.65
724.044	14321.53
724.386	14333.73
724.729	14357.91
725.071	14374.18
725.413	14384.81
725.755	14291.7
726.097	14198.6
726.439	14263.45
726.782	14294.86
727.124	14285.37
727.465	14179.39
727.807	14255.09
728.149	14177.58
728.491	14187.3
728.833	14203.12
729.175	14140.97
729.516	14147.75
729.858	14178.26
730.199	14162.21
730.541	14105.04
730.882	14091.48
731.224	14141.42
731.565	14098.49
731.906	14052.16
732.248	14116.11
732.589	14009.45
732.93	14005.61
733.271	14104.36
733.612	14053.29
733.953	14048.32
734.294	14014.19
734.635	14018.71
734.976	14089.67
735.317	14079.28
735.658	13946.62
735.999	13988.21
736.339	13944.59
736.68	14029.11
737.021	14006.74
737.361	13954.53
737.702	14008.32
738.042	13973.74
738.383	13978.04
738.723	14052.16
739.063	14038.83
739.404	14096.45
739.744	14001.54
740.084	13964.48
740.424	14072.05
740.764	14037.7
741.104	14086.96
741.444	14019.39
741.784	13984.14
742.124	14116.11
742.464	14102.1
742.804	14065.27
743.143	14038.83
743.483	14147.75
743.823	14013.29
744.162	14142.78
744.502	14166.51
744.841	14124.93
745.181	14204.92
745.52	14197.24
745.86	14247.86
746.199	14307.07
746.538	14242.89
746.877	14315.2
747.216	14447.63
747.556	14478.14
747.895	14499.6
748.234	14504.12
748.573	14443.11
748.911	14651.24
749.25	14661.63
749.589	14760.61
749.928	14806.49
750.267	14902.08
750.605	14895.07
750.944	15018.91
751.283	14933.49
751.621	15133.71
751.96	15131.23
752.298	15267.04
752.636	15336.42
752.975	15299.58
753.313	15332.58
753.651	15570.76
753.989	15594.27
754.327	15769.18
754.666	15689.18
755.004	15878.33
755.342	15997.42
755.679	16017.76
756.017	16041.03
756.355	16183.4
756.693	16345.21
757.031	16405.32
757.368	16554.47
757.706	16573.67
758.044	16723.95
758.381	16750.84
758.719	16847.34
759.056	16960.1
759.394	17039.42
759.731	17133.66
760.068	17210.27
