Data from hue_160_FLMS001491_00094.txt Node
Date: Tue Feb 07 16:51:57 GMT 2017
User: dcchb
Spectrometer: FLMS00149
Trigger mode: 0
Integration Time (sec): 2.000000E-2
Scans to average: 10
Electric dark correction enabled: true
Nonlinearity correction enabled: false
Boxcar width: 0
XAxis mode: Wavelengths
Number of Pixels in Spectrum: 2048
>>>>>Begin Spectral Data<<<<<
341.393	-16.36
341.776	-16.36
342.16	-16.36
342.543	-67.43
342.927	-74.21
343.31	-61.1
343.693	-71.95
344.077	-74.89
344.46	-47.09
344.843	-60.65
345.226	-47.54
345.61	-36.92
345.993	-27.2
346.376	-5.96
346.759	5.11
347.142	47.15
347.525	44.66
347.908	59.57
348.291	72.23
348.674	98.22
349.057	106.35
349.44	123.98
349.823	121.95
350.206	142.74
350.588	203.75
350.971	205.11
351.354	210.98
351.737	225.67
352.119	252.11
352.502	273.13
352.884	268.83
353.267	277.87
353.65	315.16
354.032	302.51
354.414	300.92
354.797	301.83
355.179	308.16
355.562	330.53
355.944	337.08
356.326	326.46
356.709	302.96
357.091	342.73
357.473	368.04
357.855	342.28
358.238	333.24
358.62	337.76
359.002	325.1
359.384	315.39
359.766	326.69
360.148	346.35
360.53	341.6
360.912	340.47
361.294	330.08
361.676	356.52
362.057	338.44
362.439	319.23
362.821	330.75
363.203	330.08
363.584	316.52
363.966	338.21
364.348	325.33
364.729	318.32
365.111	315.84
365.493	322.39
365.874	328.04
366.256	329.4
366.637	319.45
367.019	304.99
367.4	303.18
367.781	312
368.163	315.16
368.544	314.48
368.925	306.35
369.306	337.76
369.688	326.23
370.069	317.65
370.45	308.38
370.831	312.68
371.212	311.77
371.593	313.81
371.974	309.51
372.355	314.71
372.736	325.56
373.117	313.13
373.498	327.82
373.879	343.64
374.26	310.64
374.641	316.29
375.021	316.07
375.402	314.03
375.783	337.53
376.163	356.74
376.544	328.27
376.925	325.78
377.305	335.5
377.686	335.73
378.066	327.59
378.447	325.78
378.827	320.36
379.208	320.81
379.588	327.14
379.968	339.79
380.349	334.82
380.729	341.38
381.109	319.91
381.489	331.21
381.87	340.7
382.25	309.51
382.63	347.25
383.01	345.44
383.39	344.31
383.77	330.08
384.15	343.86
384.53	349.28
384.91	359
385.29	356.97
385.67	344.76
386.049	372.11
386.429	374.59
386.809	329.62
387.189	353.35
387.568	353.8
387.948	356.52
388.328	357.42
388.707	349.74
389.087	355.84
389.466	356.97
389.846	357.42
390.225	395.61
390.605	371.88
390.984	357.65
391.363	368.04
391.743	382.73
392.122	352.9
392.501	356.29
392.881	375.95
393.26	365.1
393.639	378.66
394.018	385.89
394.397	388.15
394.776	393.58
395.155	381.15
395.534	362.62
395.913	363.75
396.292	405.55
396.671	381.37
397.05	384.54
397.429	370.75
397.808	401.71
398.186	405.33
398.565	408.94
398.944	413.46
399.323	398.32
399.701	407.59
400.08	385.89
400.458	376.63
400.837	416.18
401.215	399.45
401.594	406.68
401.972	406.91
402.351	402.62
402.729	394.48
403.107	401.71
403.486	420.02
403.864	406.91
404.242	408.94
404.62	422.05
404.999	432.22
405.377	415.72
405.755	410.75
406.133	420.7
406.511	442.39
406.889	429.06
407.267	430.19
407.645	429.96
408.023	435.16
408.401	444.2
408.779	443.29
409.156	434.25
409.534	446.46
409.912	447.14
410.29	451.65
410.667	454.14
411.045	468.6
411.422	465.67
411.8	462.95
412.178	481.48
412.555	479.9
412.933	490.07
413.31	487.13
413.687	467.7
414.065	484.87
414.442	506.79
414.819	499.79
415.197	491.88
415.574	513.35
415.951	521.71
416.328	486.46
416.705	511.99
417.082	520.81
417.46	506.12
417.837	530.97
418.214	495.95
418.591	512.22
418.967	525.55
419.344	523.52
419.721	552.67
420.098	535.72
420.475	554.25
420.852	546.57
421.228	562.61
421.605	543.86
421.982	557.64
422.358	584.53
422.735	558.77
423.111	582.05
423.488	561.03
423.864	560.13
424.241	578.21
424.617	588.37
424.994	571.2
425.37	595.61
425.746	595.38
426.123	601.93
426.499	596.06
426.875	614.81
427.251	618.2
427.627	636.28
428.003	616.17
428.379	646.45
428.756	634.47
429.132	647.81
429.507	631.99
429.883	633.57
430.259	645.55
430.635	665.89
431.011	665.66
431.387	691.42
431.763	696.85
432.138	697.3
432.514	688.48
432.89	695.72
433.265	723.29
433.641	696.62
434.016	721.03
434.392	718.54
434.767	749.27
435.143	737.97
435.518	740.23
435.894	745.66
436.269	752.44
436.644	767.58
437.02	764.19
437.395	775.49
437.77	772.32
438.145	799.89
438.52	790.85
438.895	791.76
439.271	840.57
439.646	803.74
440.021	824.98
440.395	823.4
440.77	809.61
441.145	848.03
441.52	840.35
441.895	840.57
442.27	865.43
442.645	867.46
443.019	852.1
443.394	862.49
443.769	873.11
444.143	893
444.518	888.93
444.892	869.72
445.267	887.58
445.641	890.29
446.016	913.56
446.39	897.52
446.764	932.32
447.139	907.91
447.513	930.06
447.887	926.22
448.262	949.27
448.636	935.48
449.01	963.05
449.384	952.21
449.758	980.91
450.132	978.65
450.506	1000.79
450.88	1009.61
451.254	1001.24
451.628	1022.04
452.002	1028.81
452.376	1025.2
452.75	1036.05
453.123	1046.89
453.497	1062.49
453.871	1064.75
454.244	1077.85
454.618	1072.88
454.992	1104.97
455.365	1130.96
455.739	1129.38
456.112	1140.9
456.486	1142.71
456.859	1181.81
457.232	1184.29
457.606	1183.84
457.979	1169.83
458.352	1233.56
458.725	1216.83
459.099	1234.91
459.472	1260.45
459.845	1254.12
460.218	1294.12
460.591	1297.96
460.964	1315.59
461.337	1356.26
461.71	1327.56
462.083	1375.47
462.456	1378.18
462.829	1381.12
463.201	1429.93
463.574	1444.62
463.947	1467.45
464.32	1461.35
464.692	1492.31
465.065	1518.97
465.438	1524.85
465.81	1526.2
466.183	1545.86
466.555	1601.68
466.928	1633.77
467.3	1613.43
467.672	1671.51
468.045	1708.12
468.417	1732.75
468.789	1730.04
469.161	1770.26
469.534	1813.43
469.906	1830.6
470.278	1883.93
470.65	1870.37
471.022	1904.27
471.394	1978.39
471.766	2001.67
472.138	2031.05
472.51	2078.73
472.882	2137.49
473.253	2152.63
473.625	2217.03
473.997	2241.66
474.369	2287.09
474.74	2323.47
475.112	2388.1
475.484	2417.25
475.855	2501.77
476.227	2556.46
476.598	2631.71
476.97	2672.61
477.341	2758.49
477.713	2800.52
478.084	2875.55
478.455	2965.94
478.827	3038.93
479.198	3108.08
479.569	3135.65
479.94	3273.73
480.311	3313.05
480.682	3416.77
481.053	3519.14
481.424	3584
481.795	3692.02
482.166	3756.43
482.537	3841.4
482.908	3984.67
483.279	4096.08
483.65	4184.66
484.021	4299.24
484.391	4399.12
484.762	4459.23
485.133	4520.47
485.503	4681.37
485.874	4818.09
486.244	4885.66
486.615	5019.9
486.985	5096.5
487.356	5275.48
487.726	5369.49
488.097	5563.38
488.467	5594.57
488.837	5783.72
489.207	5917.5
489.578	5991.4
489.948	6140.32
490.318	6319.3
490.688	6348
491.058	6522.91
491.428	6701.43
491.798	6755.67
492.168	6947.08
492.538	7105.49
492.908	7128.99
493.278	7337.8
493.648	7383.45
494.017	7614.63
494.387	7670.22
494.757	7772.37
495.126	7879.03
495.496	7998.57
495.866	8121.96
496.235	8185.91
496.605	8374.38
496.974	8424.78
497.344	8519.24
497.713	8598.11
498.082	8784.32
498.452	8899.57
498.821	9018.44
499.19	9007.81
499.559	9140.24
499.928	9239.45
500.298	9292.1
500.667	9507.01
501.036	9456.39
501.405	9721.02
501.774	9633.11
502.143	9753.56
502.512	9817.74
502.88	9932.54
503.249	10060.22
503.618	10101.57
503.987	10154
504.356	10178.18
504.724	10296.82
505.093	10351.28
505.462	10450.49
505.83	10469.7
506.199	10623.59
506.567	10708.11
506.936	10734.55
507.304	10787.2
507.672	10888.44
508.041	10895.9
508.409	11002.11
508.777	11062
509.145	11249.79
509.514	11139.06
509.882	11163.92
510.25	11239.62
510.618	11316.23
510.986	11314.65
511.354	11405.94
511.722	11531.82
512.09	11568.42
512.458	11633.96
512.826	11582.44
513.193	11664.02
513.561	11685.71
513.929	11742.66
514.297	11847.06
514.664	11841.41
515.032	11862.2
515.4	12001.86
515.767	11970.22
516.135	12085.02
516.502	11918.47
516.869	12177.22
517.237	12155.53
517.604	12055.19
517.972	12175.64
518.339	12258.35
518.706	12244.57
519.073	12286.82
519.44	12311.46
519.808	12400.04
520.175	12358.69
520.542	12384.9
520.909	12494.95
521.276	12406.14
521.643	12525.01
522.009	12540.38
522.376	12581.28
522.743	12619.92
523.11	12710.32
523.477	12657.44
523.843	12716.42
524.21	12790.09
524.577	12823.31
524.943	12838
525.31	12893.59
525.676	12937.65
526.043	12877.54
526.409	12951.21
526.776	13021.95
527.142	12937.88
527.508	12979.23
527.874	13032.79
528.241	13055.39
528.607	13042.96
528.973	12992.57
529.339	13101.49
529.705	13088.38
530.071	13151.89
530.437	13179
530.803	13122.28
531.169	13206.35
531.535	13057.88
531.901	13103.07
532.267	13091.77
532.632	13083.41
532.998	13074.37
533.364	13100.14
533.73	13096.97
534.095	13100.36
534.461	13119.34
534.826	13163.64
535.192	13024.43
535.557	13048.61
535.923	13022.85
536.288	13016.52
536.653	13065.79
537.019	12935.62
537.384	12905.79
537.749	12951.67
538.114	12926.81
538.479	12880.71
538.845	12861.95
539.21	12769.97
539.575	12821.27
539.94	12737.89
540.305	12819.69
540.67	12665.57
541.034	12670.54
541.399	12759.58
541.764	12550.09
542.129	12658.79
542.494	12571.11
542.858	12620.37
543.223	12464.67
543.587	12515.52
543.952	12465.35
544.316	12400.72
544.681	12466.48
545.045	12400.49
545.41	12414.05
545.774	12336.99
546.138	12281.85
546.503	12306.71
546.867	12271.01
547.231	12354.84
547.595	12278.69
547.959	12272.81
548.324	12138.35
548.688	12136.77
549.052	12172.7
549.416	12085.02
549.779	12081.63
550.143	12014.06
550.507	12024.01
550.871	12025.14
551.235	11913.95
551.599	11942.2
551.962	11912.37
552.326	11813.16
552.689	11909.43
553.053	11860.62
553.417	11814.97
553.78	11894.97
554.143	11817.23
554.507	11809.55
554.87	11788.98
555.234	11836.67
555.597	11802.54
555.96	11722.09
556.323	11733.39
556.686	11754.63
557.05	11725.03
557.413	11757.8
557.776	11668.76
558.139	11667.41
558.502	11675.54
558.865	11637.12
559.228	11718.7
559.59	11721.19
559.953	11649.55
560.316	11731.58
560.679	11690.23
561.041	11747.63
561.404	11648.87
561.767	11686.84
562.129	11636.67
562.492	11719.83
562.854	11670.34
563.217	11706.27
563.579	11647.74
563.941	11711.25
564.304	11788.76
564.666	11718.93
565.028	11783.79
565.39	11740.62
565.753	11787.63
566.115	11790.11
566.477	11775.88
566.839	11757.8
567.201	11887.29
567.563	11817.01
567.925	11872.37
568.287	11830.79
568.648	11910.34
569.01	11961.63
569.372	11984.23
569.734	11876.89
570.095	11904.01
570.457	11915.99
570.819	11945.14
571.18	11891.13
571.542	11941.97
571.903	11937.91
572.265	11938.81
572.626	11989.43
572.987	11973.16
573.349	11956.89
573.71	12064.68
574.071	12061.07
574.432	12088.64
574.794	12144.68
575.155	12044.34
575.516	12034.4
575.877	12070.78
576.238	12088.64
576.599	12063.1
576.96	12101.97
577.32	12161.18
577.681	12235.53
578.042	12138.58
578.403	12155.53
578.763	12108.98
579.124	12091.57
579.485	12132.25
579.845	12234.17
580.206	12139.03
580.566	12110.78
580.927	12069.2
581.287	12156.88
581.648	12121.86
582.008	12141.74
582.368	12106.94
582.728	12056.1
583.089	12150.1
583.449	12048.86
583.809	12150.78
584.169	12119.82
584.529	12018.81
584.889	12170.44
585.249	12128.18
585.609	11976.32
585.969	12093.16
586.329	12105.13
586.688	12066.04
587.048	11980.17
587.408	12014.74
587.768	12024.46
588.127	11948.98
588.487	11931.58
588.846	12076.43
589.206	11941.52
589.565	11984.91
589.925	12051.35
590.284	11996.21
590.643	11979.49
591.003	11953.73
591.362	12002.54
591.721	12012.03
592.08	11969.77
592.44	11967.28
592.799	11943.33
593.158	11875.08
593.517	11932.71
593.876	11977
594.235	11882.54
594.593	11839.38
594.952	11922.77
595.311	11853.16
595.67	11910.56
596.029	11904.69
596.387	11920.05
596.746	11876.21
597.104	11867.4
597.463	11909.21
597.822	11905.36
598.18	11852.71
598.538	11895.65
598.897	11861.3
599.255	11830.11
599.613	11917.34
599.972	11786.95
600.33	11905.59
600.688	11826.95
601.046	11852.48
601.404	11856.1
601.762	11918.92
602.12	11948.3
602.478	11794.18
602.836	11846.84
603.194	11782.66
603.552	11783.79
603.91	11785.82
604.268	11878.47
604.625	11834.63
604.983	11830.79
605.341	11822.43
605.698	11947.85
606.056	11869.66
606.413	11818.36
606.771	11899.04
607.128	12022.65
607.485	11878.92
607.843	11964.12
608.2	11890.68
608.557	11952.14
608.914	11947.17
609.272	11951.92
609.629	11991.69
609.986	11978.81
610.343	11949.88
610.7	12046.83
611.057	12043.67
611.414	11982.43
611.771	11969.32
612.127	12034.85
612.484	12046.83
612.841	12126.83
613.198	11980.17
613.554	12040.95
613.911	12052.03
614.267	12102.2
614.624	11994.63
614.98	12040.5
615.337	12149.65
615.693	12120.27
616.05	12076.43
616.406	12105.36
616.762	12121.4
617.118	12132.25
617.475	12089.31
617.831	12193.04
618.187	12167.5
618.543	12194.85
618.899	12287.73
619.255	12099.48
619.611	12254.73
619.967	12233.94
620.323	12294.96
620.678	12258.8
621.034	12208.86
621.39	12209.31
621.746	12094.74
622.101	12261.74
622.457	12228.52
622.812	12212.7
623.168	12154.17
623.523	12200.72
623.879	12298.12
624.234	12173.15
624.589	12141.29
624.945	12205.02
625.3	12206.83
625.655	12140.84
626.01	12190.33
626.365	12291.8
626.72	12235.75
627.075	12198.24
627.43	12182.42
627.785	12215.64
628.14	12226.26
628.495	12252.25
628.85	12146.71
629.205	12117.79
629.559	12219.71
629.914	12158.24
630.269	12111.91
630.623	12085.02
630.978	12067.85
631.332	12117.79
631.687	12238.24
632.041	12112.14
632.396	12111.91
632.75	12030.79
633.104	12085.7
633.459	12057.9
633.813	11920.28
634.167	12052.03
634.521	12014.97
634.875	11993.95
635.229	11992.82
635.583	11920.73
635.937	11909.66
636.291	11845.71
636.645	11875.08
636.999	11862.65
637.352	11892.03
637.706	11816.33
638.06	11845.03
638.413	11832.82
638.767	11863.56
639.121	11859.49
639.474	11825.14
639.828	11764.13
640.181	11829.66
640.534	11765.48
640.888	11766.16
641.241	11732.26
641.594	11801.41
641.947	11746.27
642.301	11751.02
642.654	11784.01
643.007	11639.38
643.36	11707.4
643.713	11662.21
644.066	11685.71
644.419	11616.78
644.771	11558.48
645.124	11431.25
645.477	11437.35
645.83	11339.73
646.182	11381.31
646.535	11355.77
646.888	11401.65
647.24	11258.83
647.593	11352.84
647.945	11332.5
648.298	11219.96
648.65	11217.02
649.002	11207.08
649.355	11331.82
649.707	11285.04
650.059	11275.78
650.411	11436.22
650.763	11507.64
651.115	11599.38
651.467	11566.84
651.819	11523.45
652.171	11513.06
652.523	11467.86
652.875	11481.2
653.227	11467.18
653.578	11494.75
653.93	11539.72
654.282	11482.78
654.633	11424.7
654.985	11565.71
655.337	11603
655.688	11487.07
656.039	11533.17
656.391	11448.43
656.742	11474.64
657.094	11429.45
657.445	11603.9
657.796	11542.66
658.147	11583.79
658.498	11479.16
658.849	11515.54
659.2	11490.69
659.551	11483.46
659.902	11586.5
660.253	11474.87
660.604	11574.53
660.955	11486.39
661.306	11512.15
661.656	11560.97
662.007	11581.76
662.358	11559.39
662.708	11552.83
663.059	11546.28
663.409	11459.5
663.76	11590.57
664.11	11520.06
664.461	11550.57
664.811	11603.9
665.161	11570.23
665.511	11458.82
665.862	11544.24
666.212	11567.97
666.562	11594.64
666.912	11597.8
667.262	11499.95
667.612	11540.85
667.962	11586.5
668.312	11502.66
668.662	11593.51
669.011	11494.08
669.361	11543.11
669.711	11564.81
670.06	11534.75
670.41	11519.16
670.76	11523.45
671.109	11635.77
671.459	11479.61
671.808	11477.13
672.157	11489.56
672.507	11470.57
672.856	11453.63
673.205	11450.01
673.554	11412.04
673.904	11445.94
674.253	11466.96
674.602	11469.67
674.951	11320.52
675.3	11234.42
675.649	11359.62
675.998	11452.72
676.346	11344.02
676.695	11392.38
677.044	11295.66
677.393	11295.21
677.741	11399.39
678.09	11329.79
678.438	11297.02
678.787	11306.51
679.135	11346.28
679.484	11232.39
679.832	11240.07
680.181	11218.15
680.529	11231.26
680.877	11171.82
681.225	11213.86
681.573	11204.59
681.922	11178.15
682.27	11128.89
682.618	11150.13
682.966	11041.21
683.314	11108.1
683.661	11074.2
684.009	10999.63
684.357	10993.3
684.705	10980.19
685.053	10954.2
685.4	10948.1
685.748	10886.63
686.095	10874.21
686.443	10883.92
686.79	10910.59
687.138	10913.98
687.485	10835.79
687.832	10762.8
688.18	10732.97
688.527	10668.11
688.874	10783.59
689.221	10764.38
689.568	10627.43
689.915	10664.49
690.262	10602.35
690.609	10503.59
690.956	10504.05
691.303	10537.94
691.65	10413.65
691.997	10422.24
692.344	10363.03
692.69	10329.36
693.037	10338.63
693.383	10289.81
693.73	10305.18
694.077	10239.19
694.423	10212.08
694.769	10249.59
695.116	10146.32
695.462	10149.7
695.808	10073.55
696.155	10113.1
696.501	9989.26
696.847	9967.34
697.193	9903.38
697.539	9957.85
697.885	9909.03
698.231	9873.55
698.577	9801.24
698.923	9816.83
699.269	9779.09
699.614	9661.13
699.96	9651.19
700.306	9641.92
700.651	9559.44
700.997	9604.18
701.342	9520.79
701.688	9491.19
702.033	9454.13
702.379	9466.33
702.724	9434.92
703.069	9442.83
703.415	9330.07
703.76	9332.78
704.105	9270.18
704.45	9335.26
704.795	9206.9
705.14	9229.73
705.485	9174.82
705.83	9194.7
706.175	9202.16
706.52	9114.7
706.865	9072.67
707.209	9067.7
707.554	9107.7
707.899	9071.54
708.243	9032.9
708.588	8966.91
708.932	8957.87
709.277	8975.95
709.621	8883.3
709.966	8803.98
710.31	8889.4
710.654	8796.97
710.998	8793.13
711.342	8793.36
711.687	8747.26
712.031	8710.87
712.375	8661.61
712.719	8669.29
713.063	8692.57
713.407	8666.35
713.75	8632.46
714.094	8612.57
714.438	8606.69
714.782	8534.15
715.125	8590.65
715.469	8579.35
715.812	8515.85
716.156	8501.61
716.499	8528.28
716.843	8540.26
717.186	8491.44
717.53	8482.63
717.873	8512.91
718.216	8493.25
718.559	8406.93
718.902	8327.15
719.246	8388.85
719.589	8396.53
719.932	8370.54
720.275	8323.99
720.617	8313.14
720.96	8304.56
721.303	8313.59
721.646	8296.19
721.989	8285.35
722.331	8303.2
722.674	8264.78
723.016	8290.09
723.359	8225.46
723.701	8262.75
724.044	8214.84
724.386	8174.62
724.729	8201.06
725.071	8282.64
725.413	8196.08
725.755	8216.65
726.097	8188.4
726.439	8186.37
726.782	8166.48
727.124	8167.84
727.465	8207.16
727.807	8192.47
728.149	8118.35
728.491	8127.16
728.833	8196.31
729.175	8107.05
729.516	8111.11
729.858	8070.66
730.199	8216.42
730.541	8106.14
730.882	8170.55
731.224	8161.73
731.565	8126.93
731.906	8133.26
732.248	8074.51
732.589	8101.4
732.93	8029.76
733.271	8087.61
733.612	8092.13
733.953	8087.61
734.294	8086.93
734.635	8075.41
734.976	8090.55
735.317	8072.25
735.658	8074.05
735.999	8108.18
736.339	8098.01
736.68	8120.83
737.021	8098.91
737.361	8051.68
737.702	8146.14
738.042	8105.46
738.383	8131.23
738.723	8138.46
739.063	8145.24
739.404	8180.72
739.744	8171.9
740.084	8153.6
740.424	8167.84
740.764	8157.44
741.104	8202.86
741.444	8151.57
741.784	8167.61
742.124	8238.79
742.464	8185.69
742.804	8258.46
743.143	8200.38
743.483	8321.05
743.823	8271.79
744.162	8322.18
744.502	8349.3
744.841	8392.24
745.181	8395.63
745.52	8422.97
745.86	8469.3
746.199	8519.47
746.538	8471.56
746.877	8545.91
747.216	8651.44
747.556	8698.22
747.895	8663.42
748.234	8742.74
748.573	8730.08
748.911	8791.55
749.25	8817.99
749.589	8881.72
749.928	8978.44
750.267	9044.65
750.605	9027.47
750.944	9185.44
751.283	9170.07
751.621	9277.19
751.96	9354.92
752.298	9448.48
752.636	9595.37
752.975	9605.09
753.313	9696.16
753.651	9803.95
753.989	9920.78
754.327	10044.17
754.666	10086.43
755.004	10196.48
755.342	10371.17
755.679	10433.54
756.017	10611.84
756.355	10713.08
756.693	10794.89
757.031	11025.39
757.368	11080.08
757.706	11199.39
758.044	11281.2
758.381	11448.65
758.719	11589.89
759.056	11787.85
759.394	11890.22
