Data from hue_30_FLMS001491_43.txt Node
Date: Mon Feb 06 15:05:22 GMT 2017
User: dcchb
Spectrometer: FLMS00149
Trigger mode: 0
Integration Time (sec): 2.000000E-2
Scans to average: 10
Electric dark correction enabled: true
Nonlinearity correction enabled: false
Boxcar width: 0
XAxis mode: Wavelengths
Number of Pixels in Spectrum: 2048
>>>>>Begin Spectral Data<<<<<
341.393	5.45
341.776	5.45
342.16	5.45
342.543	-49.24
342.927	-51.27
343.31	-57.37
343.693	-68.44
344.077	-81.33
344.46	-55.79
344.843	-45.39
345.226	-59.18
345.61	-28.22
345.993	-24.15
346.376	4.1
346.759	26.24
347.142	31.44
347.525	36.64
347.908	60.14
348.291	66.69
348.674	85.68
349.057	108.95
349.44	132.91
349.823	160.93
350.206	154.6
350.588	188.95
350.971	205.9
351.354	212
351.737	242.51
352.119	258.1
352.502	262.17
352.884	281.15
353.267	280.47
353.65	298.55
354.032	299.91
354.414	293.58
354.797	306.69
355.179	317.31
355.562	319.79
355.944	300.81
356.326	337.42
356.709	331.54
357.091	356.63
357.473	351.43
357.855	347.14
358.238	349.4
358.62	350.08
359.002	332.9
359.384	336.29
359.766	361.83
360.148	335.84
360.53	342.62
360.912	342.39
361.294	351.21
361.676	341.71
362.057	327.25
362.439	357.08
362.821	327.03
363.203	325.22
363.584	326.35
363.966	341.49
364.348	325.67
364.729	332.67
365.111	330.64
365.493	315.05
365.874	299.91
366.256	335.84
366.637	339.68
367.019	313.47
367.4	316.86
367.781	336.52
368.163	325.67
368.544	320.47
368.925	322.96
369.306	327.48
369.688	311.66
370.069	306.23
370.45	324.54
370.831	320.7
371.212	338.1
371.593	304.65
371.974	319.34
372.355	322.51
372.736	310.3
373.117	319.34
373.498	329.29
373.879	317.76
374.26	311.43
374.641	330.87
375.021	322.73
375.402	336.97
375.783	324.31
376.163	335.16
376.544	341.94
376.925	332.45
377.305	307.59
377.686	325.22
378.066	327.25
378.447	333.8
378.827	331.32
379.208	346.46
379.588	330.42
379.968	341.49
380.349	346.91
380.729	326.8
381.109	333.58
381.489	320.7
381.87	331.54
382.25	350.3
382.63	327.25
383.01	331.32
383.39	337.42
383.77	345.33
384.15	314.14
384.53	350.3
384.91	350.08
385.29	352.34
385.67	345.56
386.049	350.08
386.429	345.78
386.809	374.48
387.189	347.14
387.568	349.85
387.948	339.45
388.328	349.4
388.707	357.76
389.087	375.84
389.466	353.47
389.846	355.5
390.225	365.22
390.605	381.26
390.984	375.61
391.363	372
391.743	357.53
392.122	368.61
392.501	371.32
392.881	393.24
393.26	371.54
393.639	376.97
394.018	367.02
394.397	381.71
394.776	357.08
395.155	397.98
395.534	376.97
395.913	371.32
396.292	396.85
396.671	389.4
397.05	385.55
397.429	402.73
397.808	370.87
398.186	404.76
398.565	382.84
398.944	355.27
399.323	390.07
399.701	407.02
400.08	377.42
400.458	380.13
400.837	375.16
401.215	395.72
401.594	420.36
401.972	391.88
402.351	403.86
402.729	388.72
403.107	405.67
403.486	412.67
403.864	420.81
404.242	419.45
404.62	406.8
404.999	402.28
405.377	407.7
405.755	425.55
406.133	417.42
406.511	411.32
406.889	419.68
407.267	407.25
407.645	425.78
408.023	426.23
408.401	420.13
408.779	434.59
409.156	433.01
409.534	431.2
409.912	450.86
410.29	453.12
410.667	446.34
411.045	454.93
411.422	443.86
411.8	430.75
412.178	461.71
412.555	470.07
412.933	455.84
413.31	472.11
413.687	461.71
414.065	485.44
414.442	452.45
414.819	458.1
415.197	468.49
415.574	475.04
415.951	492.9
416.328	494.03
416.705	479.11
417.082	503.97
417.46	485.67
417.837	517.08
418.214	490.64
418.591	472.33
418.967	491.77
419.344	502.84
419.721	514.82
420.098	501.71
420.475	529.05
420.852	510.52
421.228	510.3
421.605	520.47
421.982	536.96
422.358	520.69
422.735	517.08
423.111	516.4
423.488	532.9
423.864	539.45
424.241	545.78
424.617	545.1
424.994	533.57
425.37	537.42
425.746	551.43
426.123	555.72
426.499	552.78
426.875	563.18
427.251	552.56
427.627	580.58
428.003	561.14
428.379	575.61
428.756	597.3
429.132	574.48
429.507	584.65
429.883	595.49
430.259	599.79
430.635	600.92
431.011	598.88
431.387	629.62
431.763	614.48
432.138	603.85
432.514	624.87
432.89	620.8
433.265	652.44
433.641	667.13
434.016	661.03
434.392	653.8
434.767	638.88
435.143	627.13
435.518	668.71
435.894	664.42
436.269	677.52
436.644	697.19
437.02	686.79
437.395	691.54
437.77	694.47
438.145	688.15
438.52	685.43
438.895	707.58
439.271	715.04
439.646	716.17
440.021	738.31
440.395	703.51
440.77	705.09
441.145	734.25
441.52	753.45
441.895	743.96
442.27	745.09
442.645	760.46
443.019	779.22
443.394	742.83
443.769	730.63
444.143	776.51
444.518	761.14
444.892	773.12
445.267	768.82
445.641	764.08
446.016	775.83
446.39	793
446.764	785.09
447.139	786.22
447.513	783.74
447.887	784.87
448.262	796.17
448.636	801.36
449.01	803.62
449.384	816.05
449.758	825.77
450.132	814.7
450.506	858.54
450.88	859.21
451.254	856.73
451.628	861.7
452.002	867.58
452.376	845.88
452.75	873.68
453.123	873.9
453.497	894.24
453.871	869.61
454.244	918.65
454.618	898.99
454.992	906.67
455.365	899.21
455.739	936.95
456.112	940.12
456.486	954.35
456.859	975.14
457.232	929.72
457.606	943.51
457.979	959.33
458.352	989.83
458.725	981.92
459.099	997.29
459.472	1002.26
459.845	1017.18
460.218	1028.7
460.591	1011.3
460.964	1050.4
461.337	1078.64
461.71	1074.58
462.083	1101.24
462.456	1103.95
462.829	1101.47
463.201	1114.8
463.574	1149.15
463.947	1130.17
464.32	1142.37
464.692	1137.85
465.065	1185.08
465.438	1173.56
465.81	1216.04
466.183	1221.47
466.555	1242.26
466.928	1241.8
467.3	1231.41
467.672	1280.9
468.045	1268.02
468.417	1300.79
468.789	1314.12
469.161	1341.01
469.534	1372.2
469.906	1355.25
470.278	1379.43
470.65	1409.03
471.022	1414.68
471.394	1454.68
471.766	1468.69
472.138	1484.28
472.51	1527.9
472.882	1529.25
473.253	1564.73
473.625	1583.94
473.997	1601.57
474.369	1642.02
474.74	1666.2
475.112	1687.89
475.484	1729.93
475.855	1763.15
476.227	1781.45
476.598	1762.69
476.97	1816.03
477.341	1857.15
477.713	1925.63
478.084	1934.21
478.455	2008.79
478.827	2000.88
479.198	2067.77
479.569	2089.01
479.94	2143.02
480.311	2169.69
480.682	2226.18
481.053	2256.92
481.424	2330.14
481.795	2337.82
482.166	2365.84
482.537	2456.23
482.908	2505.5
483.279	2523.58
483.65	2593.86
484.021	2683.8
484.391	2712.5
484.762	2742.1
485.133	2762.67
485.503	2843.34
485.874	2923.34
486.244	2977.13
486.615	3030.01
486.985	3082.89
487.356	3144.35
487.726	3200.4
488.097	3230.68
488.467	3287.17
488.837	3377.11
489.207	3420.28
489.578	3486.26
489.948	3522.42
490.318	3589.76
490.688	3646.26
491.058	3713.15
491.428	3726.26
491.798	3837.67
492.168	3884.22
492.538	3934.61
492.908	4012.35
493.278	4098
493.648	4108.85
494.017	4151.56
494.387	4201.5
494.757	4264.55
495.126	4325.11
495.496	4373.92
495.866	4447.14
496.235	4439.46
496.605	4524.43
496.974	4545.67
497.344	4600.13
497.713	4609.62
498.082	4697.31
498.452	4735.5
498.821	4829.51
499.19	4825.44
499.559	4829.96
499.928	4921.48
500.298	4987.47
500.667	5008.48
501.036	5038.54
501.405	5073.57
501.774	5124.87
502.143	5135.03
502.512	5201.47
502.88	5214.35
503.249	5243.96
503.618	5296.16
503.987	5330.74
504.356	5311.75
504.724	5396.27
505.093	5385.42
505.462	5441.24
505.83	5479.66
506.199	5525.76
506.567	5595.81
506.936	5599.43
507.304	5641.46
507.672	5701.35
508.041	5685.3
508.409	5763.94
508.777	5812.53
509.145	5875.35
509.514	5872.87
509.882	5845.75
510.25	5928.46
510.618	5960.78
510.986	6007.78
511.354	6056.59
511.722	6064.95
512.09	6135.46
512.458	6121.22
512.826	6151.73
513.193	6196.7
513.561	6270.15
513.929	6254.33
514.297	6278.73
514.664	6327.77
515.032	6338.17
515.4	6392.4
515.767	6391.27
516.135	6393.31
516.502	6416.36
516.869	6555.11
517.237	6516.47
517.604	6539.74
517.972	6604.6
518.339	6626.75
518.706	6617.26
519.073	6615
519.44	6709.91
519.808	6743.35
520.175	6746.52
520.542	6806.4
520.909	6774.77
521.276	6812.5
521.643	6873.07
522.009	6925.72
522.376	6973.4
522.743	7018.6
523.11	7065.61
523.477	7077.36
523.843	7144.7
524.21	7225.83
524.577	7237.58
524.943	7278.03
525.31	7284.81
525.676	7399.83
526.043	7362.09
526.409	7476.22
526.776	7542.43
527.142	7460.85
527.508	7567.06
527.874	7616.33
528.241	7614.52
528.607	7658.58
528.973	7744.01
529.339	7772.71
529.705	7779.71
530.071	7874.85
530.437	7960.72
530.803	7927.28
531.169	7964.11
531.535	7912.36
531.901	8011.79
532.267	8059.03
532.632	8107.84
532.998	8107.61
533.364	8176.54
533.73	8167.27
534.095	8234.61
534.461	8243.43
534.826	8278.23
535.192	8331.11
535.557	8439.81
535.923	8417.43
536.288	8405
536.653	8458.56
537.019	8518.67
537.384	8551.44
537.749	8519.8
538.114	8667.37
538.479	8572.68
538.845	8670.53
539.21	8684.09
539.575	8777.42
539.94	8750.76
540.305	8807.25
540.67	8840.93
541.034	8817.2
541.399	8922.51
541.764	8954.37
542.129	8892.68
542.494	8948.27
542.858	8980.58
543.223	8985.1
543.587	9111.65
543.952	9091.54
544.316	9178.09
544.681	9173.57
545.045	9250.63
545.41	9324.75
545.774	9370.18
546.138	9344.64
546.503	9402.49
546.867	9428.93
547.231	9445.43
547.595	9478.88
547.959	9564.52
548.324	9513.9
548.688	9591.19
549.052	9609.49
549.416	9638.87
549.779	9641.58
550.143	9707.57
550.507	9738.76
550.871	9839.09
551.235	9777.4
551.599	9859.66
551.962	9954.57
552.326	9870.73
552.689	9967
553.053	9924.06
553.417	9948.24
553.78	10076.37
554.143	10025.75
554.507	10156.82
554.87	10136.48
555.234	10185.75
555.597	10121.12
555.96	10210.16
556.323	10230.72
556.686	10203.15
557.05	10249.7
557.413	10340.1
557.776	10335.12
558.139	10438.4
558.502	10462.8
558.865	10452.41
559.228	10524.05
559.59	10555.23
559.953	10622.57
560.316	10685.4
560.679	10665.96
561.041	10768.56
561.404	10750.93
561.767	10793.64
562.129	10766.52
562.492	10907.76
562.854	10894.88
563.217	10840.65
563.579	10975.78
563.941	11019.17
564.304	11007.65
564.666	11078.61
565.028	11048.33
565.39	11120.87
565.753	11214.87
566.115	11216
566.477	11267.53
566.839	11300.97
567.201	11338.49
567.563	11392.72
567.925	11396.79
568.287	11406.06
568.648	11430.01
569.01	11457.13
569.372	11618.48
569.734	11620.06
570.095	11697.35
570.457	11783.45
570.819	11798.81
571.18	11726.95
571.542	11839.72
571.903	11883.33
572.265	11975.76
572.626	12011.01
572.987	12059.82
573.349	12177.79
573.71	12268.63
574.071	12229.99
574.432	12312.92
574.794	12503.2
575.155	12488.97
575.516	12488.97
575.877	12630.43
576.238	12718.79
576.599	12792.46
576.96	12866.13
577.32	12919.24
577.681	12991.33
578.042	13103.86
578.403	13208.04
578.763	13293.24
579.124	13405.78
579.485	13526.45
579.845	13594.47
580.206	13689.16
580.566	13818.2
580.927	13929.15
581.287	14152.65
581.648	14225.42
582.008	14445.75
582.368	14476.71
582.728	14738.4
583.089	14808
583.449	15028.33
583.809	15222.68
584.169	15404.82
584.529	15513.74
584.889	15798.48
585.249	15844.58
585.609	15945.6
585.969	16240.73
586.329	16401.63
586.688	16587.39
587.048	16912.8
587.408	17021.5
587.768	17292.23
588.127	17430.76
588.487	17675.04
588.846	18026.67
589.206	18069.61
589.565	18365.87
589.925	18592.76
590.284	18829.14
590.643	19115.68
591.003	19425.51
591.362	19576.46
591.721	19862.56
592.08	20092.16
592.44	20366.27
592.799	20606.27
593.158	20795.19
593.517	21046.71
593.876	21359.47
594.235	21543.42
594.593	21766.46
594.952	22008.72
595.311	22274.24
595.67	22568.47
596.029	22834
596.387	23217.72
596.746	23307.21
597.104	23580.43
597.463	23816.8
597.822	24101.54
598.18	24261.09
598.538	24516.22
598.897	24793.05
599.255	24929.09
599.613	25385.12
599.972	25398.46
600.33	25703.31
600.688	25857.88
601.046	26287.7
601.404	26534.47
601.762	26764.97
602.12	27039.32
602.478	27293.32
602.836	27517.04
603.194	27539.87
603.552	27807.66
603.91	27970.14
604.268	28288.55
604.625	28407.42
604.983	28690.8
605.341	28677.69
605.698	29051.47
606.056	29217.11
606.413	29424.79
606.771	29719.25
607.128	29822.75
607.485	29927.83
607.843	30086.02
608.2	30426.57
608.557	30749.28
608.914	30727.81
609.272	30966.22
609.629	31276.72
609.986	31403.72
610.343	31434.91
610.7	31819.98
611.057	31833.77
611.414	31967.32
611.771	32200.76
612.127	32351.72
612.484	32535.44
612.841	32786.96
613.198	32609.57
613.554	32851.82
613.911	33240.74
614.267	33217.46
614.624	33349.66
614.98	33499.03
615.337	33760.27
615.693	33762.76
616.05	33884.56
616.406	34202.97
616.762	34136.76
617.118	34166.59
617.475	34247.49
617.831	34568.61
618.187	34544.43
618.543	34663.3
618.899	35062.61
619.255	34856.29
619.611	34917.53
619.967	35143.74
620.323	35440.23
620.678	35277.07
621.034	35323.39
621.39	35513.44
621.746	35553.22
622.101	35911.63
622.457	35769.03
622.812	35895.58
623.168	36037.27
623.523	36006.99
623.879	36091.51
624.234	35948.01
624.589	36220.09
624.945	36300.32
625.3	36429.35
625.655	36330.82
626.01	36472.52
626.365	36472.06
626.72	36476.58
627.075	36628.9
627.43	36672.06
627.785	36553.64
628.14	36812.39
628.495	36939.62
628.85	36724.03
629.205	36625.28
629.559	36949.79
629.914	36788.67
630.269	36845.16
630.623	36897.14
630.978	36721.55
631.332	36874.54
631.687	37129.9
632.041	36940.98
632.396	37007.87
632.75	36930.81
633.104	37107.53
633.459	36786.18
633.813	36892.39
634.167	36977.14
634.521	36940.53
634.875	37176.23
635.229	37055.33
635.583	36895.78
635.937	37009
636.291	36923.13
636.645	37038.83
636.999	36831.38
637.352	36929.68
637.706	36893.75
638.06	36998.83
638.413	37003.35
638.767	36816.69
639.121	36896.46
639.474	36664.6
639.828	36843.81
640.181	36794.77
640.534	36893.07
640.888	36776.91
641.241	36662.12
641.594	36835.44
641.947	36879.06
642.301	36674.32
642.654	36882.9
643.007	36764.03
643.36	36696.24
643.713	36658.27
644.066	36826.18
644.419	36475.45
644.771	36347.77
645.124	36047.89
645.477	35844.74
645.83	35772.65
646.182	35730.39
646.535	35482.03
646.888	35726.09
647.24	35513.67
647.593	35570.39
647.945	35545.08
648.298	35458.53
648.65	35507.12
649.002	35248.82
649.355	35547.57
649.707	35412.2
650.059	35606.1
650.411	36051.28
650.763	36160.89
651.115	36349.35
651.467	36314.78
651.819	36292.41
652.171	36295.57
652.523	36287.66
652.875	36244.27
653.227	36126.99
653.578	36527.88
653.93	36203.82
654.282	36095.8
654.633	36017.84
654.985	36157.72
655.337	36000.89
655.688	36166.31
656.039	36186.87
656.391	36004.73
656.742	36058.74
657.094	35981.68
657.445	36032.75
657.796	36051.06
658.147	35902.36
658.498	35902.36
658.849	35973.77
659.2	35886.32
659.551	35679.32
659.902	35941
660.253	35820.78
660.604	35981.91
660.955	35791.4
661.306	35838.63
661.656	35867.56
662.007	35913.89
662.358	35893.32
662.708	35744.85
663.059	35792.31
663.409	35745.08
663.76	35812.87
664.11	35882.93
664.461	35826.2
664.811	35791.86
665.161	35981.68
665.511	35621.92
665.862	35820.56
666.212	35802.93
666.562	35748.01
666.912	35819.2
667.262	35702.59
667.612	35700.33
667.962	35622.82
668.312	35779.88
668.662	35889.03
669.011	35799.31
669.361	35730.39
669.711	35626.89
670.06	35669.82
670.41	35705.76
670.76	35607.91
671.109	35773.78
671.459	35694.91
671.808	35724.74
672.157	35720.22
672.507	35532.2
672.856	35556.61
673.205	35523.39
673.554	35496.5
673.904	35399.78
674.253	35698.3
674.602	35505.31
674.951	35084.08
675.3	34933.35
675.649	35582.37
675.998	35378.31
676.346	35390.74
676.695	35562.48
677.044	35195.94
677.393	35415.37
677.741	35422.37
678.09	35271.87
678.438	35117.97
678.787	35314.13
679.135	35109.84
679.484	34960.92
679.832	35102.38
680.181	34906.46
680.529	35009.5
680.877	35057.19
681.225	34929.05
681.573	35101.25
681.922	34817.42
682.27	34711.88
682.618	34807.25
682.966	34667.14
683.314	34691.09
683.661	34628.5
684.009	34516.41
684.357	34437.31
684.705	34332.23
685.053	34390.08
685.4	34365.45
685.748	34172.46
686.095	34166.59
686.443	34138.34
686.79	34133.82
687.138	34216.53
687.485	34147.83
687.832	33936.54
688.18	33993.71
688.527	33733.15
688.874	33899.48
689.221	33760.72
689.568	33657.9
689.915	33670.1
690.262	33542.2
690.609	33415.19
690.956	33323.67
691.303	33343.33
691.65	33201.87
691.997	33279.61
692.344	33066.28
692.69	33021.98
693.037	32952.61
693.383	32893.63
693.73	32780.18
694.077	32640.07
694.423	32613.86
694.769	32559.17
695.116	32441.44
695.462	32402.79
695.808	32413.87
696.155	32353.53
696.501	32239.41
696.847	32115.34
697.193	31865.86
697.539	32085.51
697.885	31910.6
698.231	31748.12
698.577	31820.21
698.923	31621.12
699.269	31510.39
699.614	31333.89
699.96	31342.71
700.306	31328.24
700.651	31259.77
700.997	31174.58
701.342	31066.1
701.688	30910.85
702.033	30826.11
702.379	30927.35
702.724	30719.67
703.069	30830.63
703.415	30584.53
703.76	30548.83
704.105	30529.4
704.45	30483.29
704.795	30168.95
705.14	30166.92
705.485	30100.71
705.83	30032.68
706.175	30182.51
706.52	30098.22
706.865	29948.39
707.209	29840.83
707.554	29733.26
707.899	29834.95
708.243	29683.54
708.588	29526.26
708.932	29377.11
709.277	29446.71
709.621	29526.26
709.966	29213.05
710.31	29171.01
710.654	29085.14
710.998	29212.37
711.342	29119.49
711.687	29041.07
712.031	28914.75
712.375	28807.86
712.719	28898.03
713.063	28791.59
713.407	28783.45
713.75	28579.16
714.094	28658.71
714.438	28622.1
714.782	28571.25
715.125	28397.02
715.469	28444.7
715.812	28278.38
716.156	28259.4
716.499	28056.92
716.843	28188.44
717.186	28000.87
717.53	28123.81
717.873	28145.5
718.216	28057.82
718.559	27848.79
718.902	27692.18
719.246	27869.58
719.589	27719.53
719.932	27632.3
720.275	27729.02
720.617	27715.01
720.96	27567.89
721.303	27508.01
721.646	27641.56
721.989	27368.12
722.331	27507.55
722.674	27458.52
723.016	27417.61
723.359	27291.29
723.701	27202.93
724.044	27058.98
724.386	26988.92
724.729	27125.87
725.071	27044.97
725.413	27068.02
725.755	27063.05
726.097	26899.21
726.439	26837.06
726.782	26703.51
727.124	26866.89
727.465	26711.19
727.807	26623.73
728.149	26656.28
728.491	26583.74
728.833	26518.43
729.175	26574.24
729.516	26314.59
729.858	26421.71
730.199	26444.3
730.541	26369.05
730.882	26422.84
731.224	26474.81
731.565	26351.43
731.906	26226.46
732.248	26317.08
732.589	26173.13
732.93	25996.86
733.271	26089.96
733.612	26064.88
733.953	26013.13
734.294	26108.72
734.635	25874.6
734.976	26011.1
735.317	25838.9
735.658	25819.24
735.999	25791.21
736.339	25797.09
736.68	25719.13
737.021	25723.65
737.361	25646.59
737.702	25673.93
738.042	25565.46
738.383	25595.74
738.723	25608.39
739.063	25465.35
739.404	25494.05
739.744	25490.21
740.084	25376.08
740.424	25325.24
740.764	25351.23
741.104	25432.58
741.444	25170.21
741.784	25146.49
742.124	25284.56
742.464	25179.93
742.804	25172.02
743.143	25073.72
743.483	25103.55
743.823	24965.7
744.162	24895.19
744.502	25020.84
744.841	24970.9
745.181	24940.62
745.52	24825.82
745.86	24866.72
746.199	24761.64
746.538	24726.61
746.877	24860.17
747.216	24829.66
747.556	24675.54
747.895	24624.01
748.234	24499.27
748.573	24585.82
748.911	24597.57
749.25	24495.88
749.589	24411.59
749.928	24495.2
750.267	24464.47
750.605	24412.49
750.944	24380.18
751.283	24230.8
751.621	24421.76
751.96	24231.03
752.298	24233.06
752.636	24212.72
752.975	24156.68
753.313	23970.92
753.651	24302.44
753.989	24065.38
754.327	23970.92
754.666	23854.32
755.004	24046.18
755.342	23927.99
755.679	23942.22
756.017	23698.84
756.355	23757.14
756.693	23657.71
757.031	23624.72
757.368	23538.84
757.706	23485.96
758.044	23428.79
758.381	23447.1
758.719	23403.93
759.056	23444.84
759.394	23345.18
759.731	23148.12
