Data from hue_28_FLMS001491_00051.txt Node
Date: Tue Feb 07 17:17:27 GMT 2017
User: dcchb
Spectrometer: FLMS00149
Trigger mode: 0
Integration Time (sec): 2.000000E-2
Scans to average: 10
Electric dark correction enabled: true
Nonlinearity correction enabled: false
Boxcar width: 0
XAxis mode: Wavelengths
Number of Pixels in Spectrum: 2048
>>>>>Begin Spectral Data<<<<<
341.393	6.5
341.776	6.5
342.16	6.5
342.543	-49.09
342.927	-36.67
343.31	-45.48
343.693	-81.86
344.077	-61.52
344.46	-46.83
344.843	-68.98
345.226	-24.01
345.61	-35.99
345.993	-5.71
346.376	7.17
346.759	2.88
347.142	27.51
347.525	55.31
347.908	41.52
348.291	48.53
348.674	84.91
349.057	102.54
349.44	136.44
349.823	135.53
350.206	165.14
350.588	205.81
350.971	198.36
351.354	247.85
351.737	255.76
352.119	263.67
352.502	274.74
352.884	285.59
353.267	303.44
353.65	309.09
354.032	307.28
354.414	320.39
354.797	319.94
355.179	327.17
355.562	333.72
355.944	324.68
356.326	356.32
356.709	342.31
357.091	321.97
357.473	347.05
357.855	348.63
358.238	369.65
358.62	352.7
359.002	349.09
359.384	344.34
359.766	358.35
360.148	333.72
360.53	322.87
360.912	362.65
361.294	343.89
361.676	324.45
362.057	352.48
362.439	357.9
362.821	324.23
363.203	346.15
363.584	342.08
363.966	330.56
364.348	350.44
364.729	326.04
365.111	316.32
365.493	332.14
365.874	337.34
366.256	328.97
366.637	339.14
367.019	356.32
367.4	323.55
367.781	318.13
368.163	318.35
368.544	324
368.925	311.57
369.306	331.46
369.688	316.55
370.069	321.52
370.45	313.83
370.831	309.54
371.212	323.78
371.593	330.78
371.974	332.14
372.355	316.32
372.736	307.96
373.117	332.36
373.498	318.35
373.879	334.17
374.26	335.3
374.641	319.03
375.021	321.07
375.402	325.36
375.783	338.01
376.163	329.2
376.544	334.4
376.925	319.03
377.305	342.31
377.686	347.05
378.066	319.26
378.447	335.3
378.827	321.29
379.208	349.09
379.588	325.36
379.968	331.46
380.349	335.3
380.729	318.81
381.109	345.92
381.489	358.58
381.87	343.21
382.25	352.02
382.63	334.62
383.01	357.67
383.39	355.19
383.77	351.12
384.15	350.22
384.53	335.75
384.91	361.06
385.29	357.45
385.67	348.86
386.049	363.78
386.429	351.35
386.809	360.39
387.189	363.78
387.568	332.59
387.948	361.97
388.328	356.77
388.707	349.09
389.087	378.46
389.466	372.82
389.846	355.87
390.225	362.87
390.605	362.19
390.984	354.74
391.363	374.17
391.743	376.88
392.122	375.75
392.501	389.31
392.881	356.54
393.26	383.21
393.639	380.5
394.018	387.28
394.397	386.37
394.776	382.53
395.155	389.76
395.534	386.83
395.913	386.6
396.292	404.23
396.671	359.03
397.05	386.6
397.429	389.76
397.808	421.4
398.186	404
398.565	384.79
398.944	393.83
399.323	398.8
399.701	407.16
400.08	410.1
400.458	416.88
400.837	411.01
401.215	407.16
401.594	409.2
401.972	401.97
402.351	408.52
402.729	409.88
403.107	413.72
403.486	406.03
403.864	398.13
404.242	407.62
404.62	416.2
404.999	413.27
405.377	419.82
405.755	420.72
406.133	432.47
406.511	418.69
406.889	421.63
407.267	440.61
407.645	428.18
408.023	428.63
408.401	424.79
408.779	463.21
409.156	447.62
409.534	436.32
409.912	430.21
410.29	440.61
410.667	435.64
411.045	458.01
411.422	457.78
411.8	455.75
412.178	451.01
412.555	467.95
412.933	458.91
413.31	478.8
413.687	451.01
414.065	461.85
414.442	476.54
414.819	479.7
415.197	484.45
415.574	479.48
415.951	475.86
416.328	495.07
416.705	486.71
417.082	481.51
417.46	470.89
417.837	497.78
418.214	504.79
418.591	493.72
418.967	498.24
419.344	505.92
419.721	506.6
420.098	508.63
420.475	536.65
420.852	533.94
421.228	517.9
421.605	502.3
421.982	515.86
422.358	522.19
422.735	552.7
423.111	526.26
423.488	543.21
423.864	538.46
424.241	553.38
424.617	551.57
424.994	542.75
425.37	542.53
425.746	575.07
426.123	562.87
426.499	536.65
426.875	563.32
427.251	578.91
427.627	568.29
428.003	583.21
428.379	583.43
428.756	577.1
429.132	570.55
429.507	587.72
429.883	607.39
430.259	613.71
430.635	597.22
431.011	595.41
431.387	614.16
431.763	642.86
432.138	619.81
432.514	651.68
432.89	635.18
433.265	646.93
433.641	647.61
434.016	638.57
434.392	625.69
434.767	658.91
435.143	657.55
435.518	676.31
435.894	662.52
436.269	681.51
436.644	698.23
437.02	669.98
437.395	671.56
437.77	685.8
438.145	696.87
438.52	705.69
438.895	699.13
439.271	713.82
439.646	728.06
440.021	712.24
440.395	735.74
440.77	726.25
441.145	714.95
441.52	732.58
441.895	732.13
442.27	742.75
442.645	735.29
443.019	756.08
443.394	767.83
443.769	756.99
444.143	753.82
444.518	766.93
444.892	752.69
445.267	796.08
445.641	789.08
446.016	777.1
446.39	793.37
446.764	774.84
447.139	804.22
447.513	797.89
447.887	799.24
448.262	799.02
448.636	806.93
449.01	829.75
449.384	817.55
449.758	812.13
450.132	816.19
450.506	829.53
450.88	822.97
451.254	828.85
451.628	843.99
452.002	849.19
452.376	862.75
452.75	879.47
453.123	885.57
453.497	892.35
453.871	891.67
454.244	902.52
454.618	898.9
454.992	919.02
455.365	928.28
455.739	928.73
456.112	918.34
456.486	932.57
456.859	938.22
457.232	960.14
457.606	956.75
457.979	953.82
458.352	980.26
458.725	985.45
459.099	978.9
459.472	1023.19
459.845	1042.18
460.218	1052.12
460.591	1052.12
460.964	1062.74
461.337	1057.77
461.71	1061.38
462.083	1083.3
462.456	1102.51
462.829	1098.9
463.201	1133.25
463.574	1107.26
463.947	1141.16
464.32	1174.38
464.692	1154.49
465.065	1183.64
465.438	1177.09
465.81	1168.95
466.183	1220.93
466.555	1223.64
466.928	1251.21
467.3	1254.37
467.672	1259.12
468.045	1283.3
468.417	1301.15
468.789	1310.19
469.161	1310.42
469.534	1337.08
469.906	1343.86
470.278	1379.12
470.65	1396.97
471.022	1434.93
471.394	1432.9
471.766	1455.95
472.138	1515.61
472.51	1509.06
472.882	1536.85
473.253	1517.64
473.625	1558.32
473.997	1597.19
474.369	1629.05
474.74	1606.23
475.112	1683.52
475.484	1740.46
475.855	1730.29
476.227	1764.42
476.598	1809.84
476.97	1817.75
477.341	1896.39
477.713	1899.33
478.084	1919.67
478.455	1970.06
478.827	2017.74
479.198	2081.47
479.569	2091.64
479.94	2153.33
480.311	2174.58
480.682	2230.62
481.053	2288.7
481.424	2306.55
481.795	2337.06
482.166	2407.79
482.537	2455.25
482.908	2530.05
483.279	2536.37
483.65	2589.48
484.021	2651.85
484.391	2719.42
484.762	2763.49
485.133	2742.7
485.503	2837.83
485.874	2914.67
486.244	2955.12
486.615	2996.93
486.985	3082.35
487.356	3137.94
487.726	3189.01
488.097	3235.56
488.467	3288.44
488.837	3342
489.207	3410.7
489.578	3486.41
489.948	3563.47
490.318	3591.94
490.688	3622.9
491.058	3692.5
491.428	3724.37
491.798	3792.84
492.168	3889.78
492.538	3905.38
492.908	3955.55
493.278	4013.85
493.648	4060.85
494.017	4090.91
494.387	4167.52
494.757	4227.63
495.126	4273.28
495.496	4323.22
495.866	4348.3
496.235	4405.7
496.605	4533.61
496.974	4505.36
497.344	4523.89
497.713	4583.33
498.082	4629.88
498.452	4651.12
498.821	4699.03
499.19	4743.55
499.559	4758.69
499.928	4803.43
500.298	4902.64
500.667	4904.9
501.036	4903.77
501.405	4962.3
501.774	4979.7
502.143	5016.08
502.512	5080.94
502.88	5083.2
503.249	5100.6
503.618	5172.01
503.987	5206.59
504.356	5251.78
504.724	5255.17
505.093	5279.13
505.462	5303.98
505.83	5365.23
506.199	5421.5
506.567	5454.04
506.936	5428.5
507.304	5543.53
507.672	5520.7
508.041	5532.91
508.409	5583.98
508.777	5613.58
509.145	5642.28
509.514	5732.67
509.882	5672.34
510.25	5749.17
510.618	5779.45
510.986	5797.31
511.354	5800.02
511.722	5835.5
512.09	5914.82
512.458	5910.97
512.826	5946
513.193	5973.35
513.561	5995.94
513.929	5965.66
514.297	6053.57
514.664	6133.12
515.032	6089.27
515.4	6127.24
515.767	6165.43
516.135	6169.72
516.502	6100.35
516.869	6268.93
517.237	6247.01
517.604	6189.61
517.972	6311.64
518.339	6373.34
518.706	6394.58
519.073	6355.71
519.44	6389.15
519.808	6455.82
520.175	6429.6
520.542	6522.94
520.909	6513.9
521.276	6508.02
521.643	6589.6
522.009	6616.49
522.376	6660.79
522.743	6619.2
523.11	6697.39
523.477	6761.35
523.843	6799.99
524.21	6840.44
524.577	6899.42
524.943	6911.85
525.31	6919.54
525.676	6992.53
526.043	7038.18
526.409	7061.23
526.776	7068.91
527.142	7094.67
527.508	7225.97
527.874	7162.47
528.241	7257.83
528.607	7261.22
528.973	7246.98
529.339	7340.09
529.705	7388.9
530.071	7427.09
530.437	7429.8
530.803	7496.47
531.169	7595.22
531.535	7524.49
531.901	7546.86
532.267	7575.56
532.632	7672.74
532.998	7619.86
533.364	7745.73
533.73	7686.52
534.095	7783.02
534.461	7830.92
534.826	7891.26
535.192	7871.37
535.557	7990.47
535.923	7940.98
536.288	7962.67
536.653	8010.58
537.019	8022.33
537.384	8019.62
537.749	8091.26
538.114	8128.32
538.479	8139.62
538.845	8219.84
539.21	8143.46
539.575	8250.8
539.94	8281.08
540.305	8318.14
540.67	8299.39
541.034	8330.8
541.399	8437.01
541.764	8408.08
542.129	8434.98
542.494	8525.6
542.858	8551.58
543.223	8520.62
543.587	8618.02
543.952	8626.16
544.316	8689.88
544.681	8641.75
545.045	8799.71
545.41	8748.64
545.774	8866.83
546.138	8810.79
546.503	8903.44
546.867	8913.38
547.231	8973.94
547.595	8895.08
547.959	9048.97
548.324	9030.44
548.688	9070.21
549.052	9121.06
549.416	9135.07
549.779	9160.61
550.143	9139.82
550.507	9245.35
550.871	9266.37
551.235	9265.46
551.599	9301.17
551.962	9284.22
552.326	9354.05
552.689	9421.39
553.053	9384.56
553.417	9408.51
553.78	9566.7
554.143	9507.72
554.507	9519.02
554.87	9547.72
555.234	9659.8
555.597	9598.56
555.96	9712.68
556.323	9688.28
556.686	9768.95
557.05	9762.17
557.413	9784.32
557.776	9766.01
558.139	9852.57
558.502	9843.3
558.865	9846.46
559.228	9981.6
559.59	9966.01
559.953	10045.56
560.316	10093.24
560.679	10070.64
561.041	10152.44
561.404	10133.24
561.767	10228.15
562.129	10235.38
562.492	10322.16
562.854	10215.27
563.217	10317.19
563.579	10306.11
563.941	10430.4
564.304	10389.27
564.666	10512.21
565.028	10522.83
565.39	10483.06
565.753	10544.98
566.115	10592.21
566.477	10695.03
566.839	10700.68
567.201	10783.16
567.563	10757.85
567.925	10899.32
568.287	10890.96
568.648	10869.94
569.01	10924.18
569.372	10976.6
569.734	11025.87
570.095	11048.47
570.457	11151.74
570.819	11122.59
571.18	11154
571.542	11203.04
571.903	11270.61
572.265	11393.77
572.626	11426.99
572.987	11457.5
573.349	11503.14
573.71	11548.79
574.071	11690.26
574.432	11751.05
574.794	11861.1
575.155	11910.82
575.516	11941.78
575.877	11941.1
576.238	12096.12
576.599	12185.39
576.96	12271.26
577.32	12398.04
577.681	12502.21
578.042	12567.3
578.403	12803
578.763	12819.04
579.124	12925.93
579.485	13037.57
579.845	13111.24
580.206	13348.97
580.566	13425.81
580.927	13565.46
581.287	13658.34
581.648	13808.62
582.008	14075.51
582.368	14196.41
582.728	14400.02
583.089	14555.49
583.449	14781.02
583.809	14937.4
584.169	15160.67
584.529	15317.96
584.889	15673.88
585.249	15794.33
585.609	15946.64
585.969	16371.94
586.329	16492.62
586.688	16822.1
587.048	16979.61
587.408	17216.67
587.768	17446.94
588.127	17837.67
588.487	18070.88
588.846	18457.31
589.206	18613.01
589.565	18852.78
589.925	19328.93
590.284	19546.32
590.643	19756.03
591.003	20213.2
591.362	20511.27
591.721	20791.71
592.08	21144.7
592.44	21534.29
592.799	21668.75
593.158	22070.78
593.517	22327.04
593.876	22751.66
594.235	23068.26
594.593	23458.31
594.952	23767.23
595.311	23879.99
595.67	24357.95
596.029	24842.45
596.387	25267.53
596.746	25515.88
597.104	25729.66
597.463	26048.07
597.822	26402.64
598.18	26762.18
598.538	26968.05
598.897	27466.57
599.255	27647.13
599.613	28344.28
599.972	28497.73
600.33	28853.65
600.688	29032.17
601.046	29384.03
601.404	29737.01
601.762	30072.83
602.12	30423.55
602.478	30705.12
602.836	31001.16
603.194	31190.99
603.552	31619.23
603.91	31730.18
604.268	32221.47
604.625	32281.13
604.983	32832.07
605.341	32842.92
605.698	33188.22
606.056	33677.48
606.413	33848.32
606.771	34222.32
607.128	34517.91
607.485	34619.6
607.843	34688.97
608.2	35330.31
608.557	35484.21
608.914	35575.05
609.272	35966.23
609.629	36331.87
609.986	36645.76
610.343	36757.85
610.7	37079.65
611.057	37260.88
611.414	37536.81
611.771	37718.73
612.127	37958.27
612.484	38197.58
612.841	38403.91
613.198	38483.45
613.554	38541.3
613.911	39035.08
614.267	39181.06
614.624	39466.48
614.98	39570.2
615.337	39841.38
615.693	39916.86
616.05	39983.75
616.406	40355.04
616.762	40454.7
617.118	40586.45
617.475	40654.47
617.831	40972.43
618.187	41158.86
618.543	41206.77
618.899	41602.92
619.255	41609.47
619.611	41547.78
619.967	41852.4
620.323	42140.76
620.678	42084.71
621.034	42167.42
621.39	42203.81
621.746	42241.32
622.101	42795.88
622.457	42556.11
622.812	42677.24
623.168	42958.81
623.523	42931.92
623.879	43147.28
624.234	42974.86
624.589	43194.29
624.945	43364
625.3	43430.89
625.655	43464.34
626.01	43570.55
626.365	43550.44
626.72	43657.1
627.075	43644.9
627.43	43682.18
627.785	43672.92
628.14	43818.68
628.495	43955.4
628.85	43856.42
629.205	43879.69
629.559	44181.15
629.914	44046.02
630.269	44275.16
630.623	44148.16
630.978	44225.9
631.332	44355.16
631.687	44567.81
632.041	44232.68
632.396	44377.76
632.75	44322.62
633.104	44513.12
633.459	44311.77
633.813	44270.87
634.167	44317.2
634.521	44332.11
634.875	44477.19
635.229	44386.8
635.583	44367.59
635.937	44356.07
636.291	44262.51
636.645	44394.26
636.999	44316.52
637.352	44539.56
637.706	44308.61
638.06	44477.42
638.413	44293.92
638.767	44367.59
639.121	44370.3
639.474	44201.49
639.828	44197.65
640.181	44340.47
640.534	44285.56
640.888	44268.84
641.241	44143.42
641.594	44375.95
641.947	44395.84
642.301	44160.14
642.654	44303.19
643.007	44396.97
643.36	44302.28
643.713	44104.09
644.066	44373.92
644.419	44216.63
644.771	43840.82
645.124	43539.14
645.477	43500.04
645.83	43121.52
646.182	43004.69
646.535	43118.13
646.888	43171.24
647.24	42956.78
647.593	43319.48
647.945	42985.48
648.298	42804.69
648.65	42807.63
649.002	42696.67
649.355	42889.21
649.707	42887.4
650.059	43033.39
650.411	43460.5
650.763	43575.52
651.115	43860.26
651.467	43727.38
651.819	43913.82
652.171	43657.78
652.523	43633.37
652.875	43703.65
653.227	43572.36
653.578	43811.45
653.93	43715.18
654.282	43444.22
654.633	43489.42
654.985	43583.88
655.337	43567.84
655.688	43664.78
656.039	43821.84
656.391	43405.13
656.742	43511.12
657.094	43542.3
657.445	43754.05
657.796	43587.05
658.147	43545.47
658.498	43377.11
658.849	43523.09
659.2	43493.26
659.551	43456.2
659.902	43610.1
660.253	43381.85
660.604	43611.45
660.955	43341.63
661.306	43482.64
661.656	43398.8
662.007	43474.28
662.358	43547.5
662.708	43446.26
663.059	43429.99
663.409	43115.19
663.76	43455.75
664.11	43309.09
664.461	43564.45
664.811	43304.34
665.161	43380.05
665.511	43331.23
665.862	43304.57
666.212	43556.76
666.562	43490.1
666.912	43361.29
667.262	43301.86
667.612	43277.22
667.962	43307.96
668.312	43267.28
668.662	43372.81
669.011	43317.67
669.361	43233.38
669.711	43249.65
670.06	43155.64
670.41	43070.9
670.76	43119.71
671.109	43256.89
671.459	43234.06
671.808	43073.84
672.157	43257.11
672.507	42882.88
672.856	43061.86
673.205	42934.41
673.554	43081.97
673.904	42959.27
674.253	43152.48
674.602	43013.28
674.951	42435.44
675.3	42149.34
675.649	43003.56
675.998	42767.86
676.346	42799.5
676.695	42958.59
677.044	42678.6
677.393	42791.36
677.741	42835.65
678.09	42740.29
678.438	42640.86
678.787	42791.13
679.135	42734.64
679.484	42452.84
679.832	42618.71
680.181	42426.85
680.529	42554.53
680.877	42360.86
681.225	42429.34
681.573	42716.11
681.922	42292.84
682.27	42188.66
682.618	42172.39
682.966	42069.12
683.314	42283.8
683.661	42081.32
684.009	41905.96
684.357	41803.82
684.705	41835.45
685.053	41925.17
685.4	41794.55
685.748	41491.51
686.095	41692.86
686.443	41466.65
686.79	41511.85
687.138	41406.31
687.485	41591.84
687.832	41278.41
688.18	41283.83
688.527	41132.65
688.874	41225.75
689.221	41017.4
689.568	40951.86
689.915	40778.76
690.262	40817.4
690.609	40623.51
690.956	40670.74
691.303	40565.88
691.65	40471.2
691.997	40344.65
692.344	40105.1
692.69	40246.34
693.037	40118.44
693.383	39819.01
693.73	40041.83
694.077	39757.32
694.423	39795.51
694.769	39536.53
695.116	39688.84
695.462	39505.57
695.808	39403.2
696.155	39508.96
696.501	39017.45
696.847	39186.48
697.193	38837.34
697.539	39047.05
697.885	38673.5
698.231	38711.02
698.577	38763.67
698.923	38655.42
699.269	38356.9
699.614	38277.58
699.96	38276.23
700.306	38221.54
700.651	38057.47
700.997	37892.28
701.342	38051.6
701.688	37810.93
702.033	37839.4
702.379	37805.96
702.724	37659.29
703.069	37597.37
703.415	37317.38
703.76	37310.15
704.105	37418.17
704.45	37290.94
704.795	37051.17
705.14	36941.57
705.485	36831.07
705.83	36725.98
706.175	36773.67
706.52	36748.81
706.865	36526.67
707.209	36587.68
707.554	36467.23
707.899	36533.9
708.243	36295.94
708.588	36285.32
708.932	35954.7
709.277	35989.73
709.621	35997.64
709.966	35769.17
710.31	35850.98
710.654	35472.23
710.998	35583.19
711.342	35665.67
711.687	35498.9
712.031	35441.05
712.375	35204.44
712.719	35305
713.063	35218.23
713.407	35318.11
713.75	35098
714.094	35065.24
714.438	34969.87
714.782	34924
715.125	34845.58
715.469	34962.64
715.812	34699.82
716.156	34493.73
716.499	34508.64
716.843	34552.93
717.186	34372.15
717.53	34417.34
717.873	34377.8
718.216	34354.52
718.559	34217.57
718.902	34001.76
719.246	33921.76
719.589	33922.89
719.932	33904.81
720.275	33837.7
720.617	33836.79
720.96	33759.28
721.303	33721.09
721.646	33704.14
721.989	33510.7
722.331	33532.17
722.674	33456.69
723.016	33560.19
723.359	33470.25
723.701	33552.73
724.044	33264.38
724.386	33053.54
724.729	33285.85
725.071	33254.66
725.413	33164.04
725.755	33093.76
726.097	33044.5
726.439	32772.87
726.782	32782.58
727.124	33011.05
727.465	32829.59
727.807	32740.33
728.149	32618.07
728.491	32660.33
728.833	32702.81
729.175	32516.38
729.516	32572.19
729.858	32493.1
730.199	32482.03
730.541	32347.79
730.882	32277.51
731.224	32469.37
731.565	32066.67
731.906	32200.23
732.248	32190.51
732.589	32030.51
732.93	31778.32
733.271	31972.44
733.612	31992.32
733.953	32028.71
734.294	31818.54
734.635	31732.89
734.976	31720.92
735.317	31599.79
735.658	31710.52
735.999	31721.82
736.339	31600.92
736.68	31699
737.021	31601.37
737.361	31420.13
737.702	31637.08
738.042	31373.81
738.383	31382.17
738.723	31442.73
739.063	31227.15
739.404	31355.96
739.744	31103.31
740.084	31004.33
740.424	31147.37
740.764	31050.2
741.104	31127.49
741.444	30960.49
741.784	30932.24
742.124	30797.78
742.464	30830.32
742.804	30788.74
743.143	30692.24
743.483	30784.67
743.823	30557.56
744.162	30514.62
744.502	30616.77
744.841	30364.79
745.181	30569.08
745.52	30422.42
745.86	30455.19
746.199	30277.11
746.538	30281.41
746.877	30455.64
747.216	30390.1
747.556	30241.86
747.895	30268.3
748.234	30177
748.573	30086.16
748.911	30070.79
749.25	29990.12
749.589	29936.11
749.928	30006.84
750.267	29998.48
750.605	29750.35
750.944	29858.59
751.283	29683
751.621	29845.03
751.96	29624.25
752.298	29560.07
752.636	29589.9
752.975	29516.46
753.313	29373.18
753.651	29566.17
753.989	29334.31
754.327	29315.33
754.666	29045.51
755.004	29043.02
755.342	29262.22
755.679	29113.08
756.017	28946.3
756.355	28961.89
756.693	28893.87
757.031	28871.95
757.368	28775.01
757.706	28740.2
758.044	28596.25
758.381	28576.82
758.719	28453.43
759.056	28584.28
759.394	28427.9
759.731	28292.98
760.068	28187.9
760.405	28075.36
