Data from hue_320_FLMS001491_11.txt Node
Date: Mon Feb 06 15:46:46 GMT 2017
User: dcchb
Spectrometer: FLMS00149
Trigger mode: 0
Integration Time (sec): 2.000000E-2
Scans to average: 10
Electric dark correction enabled: true
Nonlinearity correction enabled: false
Boxcar width: 0
XAxis mode: Wavelengths
Number of Pixels in Spectrum: 2048
>>>>>Begin Spectral Data<<<<<
341.393	-9.53
341.776	-9.53
342.16	-9.53
342.543	-49.08
342.927	-76.42
343.31	-60.15
343.693	-75.97
344.077	-70.55
344.46	-64.22
344.843	-50.44
345.226	-24.45
345.61	-41.17
345.993	-23.09
346.376	2.22
346.759	13.06
347.142	12.61
347.525	34.53
347.908	74.31
348.291	56
348.674	88.32
349.057	128.99
349.44	130.35
349.823	129.9
350.206	162.89
350.588	189.56
350.971	213.29
351.354	243.12
351.737	243.57
352.119	250.8
352.502	262.78
352.884	284.02
353.267	278.82
353.65	283.11
354.032	294.87
354.414	325.82
354.797	309.33
355.179	323.79
355.562	313.4
355.944	354.75
356.326	330.34
356.709	332.83
357.091	336.45
357.473	325.15
357.855	340.29
358.238	342.77
358.62	340.51
359.002	350.46
359.384	340.29
359.766	344.36
360.148	331.7
360.53	307.97
360.912	325.82
361.294	306.39
361.676	321.08
362.057	334.19
362.439	322.89
362.821	320.63
363.203	302.1
363.584	327.86
363.966	334.86
364.348	313.17
364.729	315.43
365.111	326.5
365.493	332.15
365.874	328.54
366.256	315.43
366.637	294.41
367.019	309.33
367.4	312.27
367.781	310.91
368.163	305.49
368.544	307.29
368.925	334.86
369.306	323.79
369.688	286.73
370.069	321.98
370.45	314.07
370.831	304.13
371.212	313.4
371.593	326.5
371.974	321.98
372.355	325.37
372.736	300.97
373.117	319.05
373.498	314.98
373.879	311.59
374.26	316.11
374.641	305.49
375.021	296.45
375.402	312.27
375.783	334.64
376.163	338.03
376.544	311.81
376.925	306.62
377.305	332.38
377.686	297.8
378.066	326.73
378.447	338.48
378.827	313.62
379.208	325.37
379.588	319.27
379.968	324.02
380.349	358.37
380.729	307.29
381.109	329.44
381.489	334.41
381.87	323.79
382.25	338.48
382.63	338.93
383.01	352.26
383.39	333.06
383.77	335.77
384.15	324.02
384.53	340.97
384.91	323.79
385.29	345.94
385.67	324.92
386.049	346.84
386.429	344.36
386.809	329.89
387.189	340.97
387.568	343.23
387.948	326.73
388.328	360.4
388.707	378.93
389.087	370.57
389.466	364.47
389.846	369.44
390.225	371.02
390.605	362.66
390.984	362.21
391.363	368.54
391.743	356.78
392.122	367.18
392.501	374.64
392.881	371.47
393.26	364.24
393.639	384.58
394.018	369.67
394.397	366.73
394.776	380.51
395.155	387.97
395.534	382.09
395.913	397.69
396.292	372.6
396.671	384.35
397.05	385.71
397.429	384.81
397.808	390.68
398.186	364.47
398.565	396.56
398.944	400.17
399.323	400.17
399.701	395.43
400.08	404.24
400.458	403.79
400.837	408.53
401.215	412.15
401.594	399.95
401.972	415.09
402.351	426.84
402.729	431.58
403.107	433.17
403.486	425.71
403.864	410.57
404.242	416.9
404.62	413.73
404.999	443.56
405.377	419.83
405.755	432.26
406.133	425.03
406.511	448.08
406.889	420.96
407.267	440.4
407.645	453.05
408.023	488.08
408.401	469.32
408.779	450.79
409.156	473.39
409.534	451.47
409.912	478.14
410.29	487.63
410.667	505.71
411.045	494.18
411.422	492.37
411.8	502.09
412.178	493.5
412.555	525.37
412.933	531.92
413.31	526.27
413.687	544.12
414.065	536.67
414.442	519.94
414.819	535.08
415.197	567.85
415.574	566.95
415.951	584.12
416.328	564.01
416.705	561.98
417.082	607.17
417.46	592.48
417.837	608.3
418.214	610.11
418.591	588.87
418.967	639.26
419.344	653.95
419.721	634.97
420.098	625.25
420.475	643.56
420.852	647.4
421.228	669.54
421.605	677
421.982	671.58
422.358	687.85
422.735	669.54
423.111	683.1
423.488	704.8
423.864	686.27
424.241	691.01
424.617	715.87
424.994	712.03
425.37	714.74
425.746	717.45
426.123	751.58
426.499	744.8
426.875	725.14
427.251	764.68
427.627	769.43
428.003	771.24
428.379	792.93
428.756	790.22
429.132	777.79
429.507	802.42
429.883	822.76
430.259	823.89
430.635	852.82
431.011	857.79
431.387	846.04
431.763	840.16
432.138	891.01
432.514	910.22
432.89	884
433.265	902.76
433.641	913.38
434.016	930.55
434.392	939.59
434.767	957.22
435.143	913.15
435.518	971.01
435.894	962.64
436.269	951.57
436.644	1001.06
437.02	1032.92
437.395	998.35
437.77	1031.12
438.145	1033.38
438.52	1021.17
438.895	1062.08
439.271	1042.19
439.646	1074.51
440.021	1051.46
440.395	1083.32
440.77	1081.74
441.145	1044.68
441.52	1079.48
441.895	1089.87
442.27	1100.72
442.645	1106.82
443.019	1100.27
443.394	1119.93
443.769	1102.75
444.143	1098.91
444.518	1121.51
444.892	1130.78
445.267	1152.02
445.641	1131.68
446.016	1168.74
446.39	1161.28
446.764	1134.84
447.139	1177.33
447.513	1172.81
447.887	1178.91
448.262	1177.78
448.636	1166.25
449.01	1195.18
449.384	1179.36
449.758	1195.86
450.132	1211.45
450.506	1192.92
450.88	1190.43
451.254	1232.69
451.628	1215.29
452.002	1253.48
452.376	1255.74
452.75	1243.31
453.123	1257.55
453.497	1258.68
453.871	1268.62
454.244	1281.05
454.618	1302.07
454.992	1305.46
455.365	1319.02
455.739	1340.94
456.112	1332.8
456.486	1339.81
456.859	1335.06
457.232	1373.71
457.606	1366.25
457.979	1362.63
458.352	1380.94
458.725	1371.9
459.099	1393.14
459.472	1437.43
459.845	1443.08
460.218	1487.38
460.591	1431.56
460.964	1448.28
461.337	1480.37
461.71	1508.62
462.083	1524.21
462.456	1525.12
462.829	1504.78
463.201	1518.56
463.574	1524.66
463.947	1569.86
464.32	1606.24
464.692	1589.75
465.065	1585.23
465.438	1617.54
465.81	1605.34
466.183	1659.35
466.555	1655.28
466.928	1675.85
467.3	1639.24
467.672	1682.85
468.045	1697.54
468.417	1724.21
468.789	1733.47
469.161	1746.8
469.534	1758.1
469.906	1810.53
470.278	1781.83
470.65	1804.88
471.022	1847.59
471.394	1862.51
471.766	1878.1
472.138	1910.64
472.51	1920.59
472.882	1968.95
473.253	1963.07
473.625	2004.65
473.997	1997.65
474.369	2000.58
474.74	2042.39
475.112	2068.83
475.484	2052.33
475.855	2109.96
476.227	2112.67
476.598	2149.28
476.97	2135.27
477.341	2192.67
477.713	2236.96
478.084	2229.96
478.455	2301.82
478.827	2298.2
479.198	2334.59
479.569	2324.42
479.94	2389.27
480.311	2430.63
480.682	2450.06
481.053	2501.81
481.424	2542.94
481.795	2547.01
482.166	2553.56
482.537	2595.82
482.908	2616.84
483.279	2616.84
483.65	2684.18
484.021	2732.99
484.391	2724.18
484.762	2773.22
485.133	2822.71
485.503	2818.64
485.874	2846.66
486.244	2874.46
486.615	2914.68
486.985	2931.86
487.356	3006.43
487.726	2999.88
488.097	3061.12
488.467	3038.97
488.837	3117.39
489.207	3115.58
489.578	3162.81
489.948	3204.39
490.318	3251.85
490.688	3243.49
491.058	3301.11
491.428	3346.99
491.798	3340.43
492.168	3398.06
492.538	3388.8
492.908	3396.25
493.278	3468.34
493.648	3507.89
494.017	3504.5
494.387	3552.41
494.757	3527.55
495.126	3587.66
495.496	3562.12
495.866	3622.46
496.235	3609.58
496.605	3646.19
496.974	3648
497.344	3692.06
497.713	3679.18
498.082	3730.48
498.452	3749.01
498.821	3759.41
499.19	3793.53
499.559	3813.19
499.928	3799.18
500.298	3855.22
500.667	3897.71
501.036	3846.18
501.405	3901.32
501.774	3872.85
502.143	3942.9
502.512	3957.59
502.88	3944.26
503.249	3986.52
503.618	3999.85
503.987	3967.08
504.356	4037.82
504.724	4060.64
505.093	4067.2
505.462	4058.61
505.83	4096.8
506.199	4093.86
506.567	4100.87
506.936	4123.24
507.304	4167.08
507.672	4155.1
508.041	4184.93
508.409	4220.41
508.777	4215.67
509.145	4229.68
509.514	4233.74
509.882	4284.82
510.25	4283.01
510.618	4252.5
510.986	4285.27
511.354	4341.54
511.722	4341.54
512.09	4350.58
512.458	4321.65
512.826	4365.49
513.193	4393.06
513.561	4363.91
513.929	4443.46
514.297	4424.93
514.664	4427.86
515.032	4469.9
515.4	4451.59
515.767	4510.35
516.135	4482.1
516.502	4501.31
516.869	4498.14
517.237	4553.28
517.604	4518.71
517.972	4574.98
518.339	4577.24
518.706	4588.76
519.073	4593.51
519.44	4603.23
519.808	4626.5
520.175	4651.13
520.542	4690.23
520.909	4701.53
521.276	4711.47
521.643	4686.84
522.009	4735.2
522.376	4764.13
522.743	4777.69
523.11	4817.46
523.477	4842.09
523.843	4845.03
524.21	4879.6
524.577	4880.06
524.943	4880.96
525.31	4938.13
525.676	4937.68
526.043	4994.4
526.409	4998.47
526.776	5050.45
527.142	5079.82
527.508	5080.05
527.874	5085.47
528.241	5067.4
528.607	5136.55
528.973	5168.41
529.339	5200.72
529.705	5239.14
530.071	5250.89
530.437	5273.94
530.803	5293.6
531.169	5353.26
531.535	5317.78
531.901	5350.1
532.267	5362.53
532.632	5395.75
532.998	5414.96
533.364	5425.8
533.73	5468.74
534.095	5481.17
534.461	5492.24
534.826	5506.25
535.192	5548.96
535.557	5569.53
535.923	5578.12
536.288	5579.47
536.653	5597.78
537.019	5645.01
537.384	5642.07
537.749	5670.99
538.114	5685.23
538.479	5701.73
538.845	5759.35
539.21	5740.37
539.575	5777.21
539.94	5830.09
540.305	5876.41
540.67	5820.37
541.034	5896.75
541.399	5877.09
541.764	5966.81
542.129	5940.14
542.494	5988.73
542.858	6071.89
543.223	6047.03
543.587	6064.66
543.952	6045.67
544.316	6090.64
544.681	6087.03
545.045	6173.58
545.41	6222.62
545.774	6178.1
546.138	6236.4
546.503	6245.44
546.867	6282.73
547.231	6337.19
547.595	6290.19
547.959	6379.45
548.324	6335.38
548.688	6376.74
549.052	6447.7
549.416	6417.42
549.779	6448.38
550.143	6456.06
550.507	6497.64
550.871	6523.63
551.235	6567.02
551.599	6574.93
551.962	6578.99
552.326	6567.47
552.689	6650.18
553.053	6543.29
553.417	6660.35
553.78	6694.02
554.143	6669.39
554.507	6672.32
554.87	6748.25
555.234	6827.57
555.597	6721.81
555.96	6796.84
556.323	6842.04
556.686	6805.2
557.05	6830.29
557.413	6884.3
557.776	6895.6
558.139	6934.46
558.502	6953
558.865	6971.98
559.228	6957.97
559.59	7006.55
559.953	7022.6
560.316	7071.64
560.679	7124.29
561.041	7151.18
561.404	7180.79
561.767	7243.38
562.129	7143.95
562.492	7211.97
562.854	7228.47
563.217	7237.96
563.579	7270.73
563.941	7312.31
564.304	7302.14
564.666	7378.75
565.028	7398.41
565.39	7337.62
565.753	7492.42
566.115	7470.04
566.477	7456.26
566.839	7513.66
567.201	7524.51
567.563	7550.95
567.925	7586.42
568.287	7615.58
568.648	7658.97
569.01	7667.1
569.372	7672.98
569.734	7737.16
570.095	7731.96
570.457	7736.03
570.819	7824.16
571.18	7844.5
571.542	7925.85
571.903	7919.3
572.265	7933.99
572.626	8005.4
572.987	8090.14
573.349	8140.31
573.71	8170.59
574.071	8182.79
574.432	8237.93
574.794	8291.04
575.155	8394.31
575.516	8373.07
575.877	8459.62
576.238	8569.68
576.599	8648.54
576.96	8610.8
577.32	8702.78
577.681	8761.08
578.042	8871.59
578.403	9043.34
578.763	9059.15
579.124	9159.72
579.485	9213.05
579.845	9433.38
580.206	9471.12
580.566	9624.79
580.927	9655.07
581.287	9903.43
581.648	9975.29
582.008	10142.74
582.368	10217.77
582.728	10392
583.089	10519.68
583.449	10630.86
583.809	10900.69
584.169	11008.26
584.529	11243.05
584.889	11462.71
585.249	11528.69
585.609	11658.63
585.969	12019.75
586.329	12195.8
586.688	12471.04
587.048	12700.19
587.408	12965.94
587.768	13115.32
588.127	13396.44
588.487	13649.54
588.846	13976.54
589.206	14122.98
589.565	14400.03
589.925	14734.26
590.284	14900.36
590.643	15166.79
591.003	15481.81
591.362	15919.31
591.721	16131.96
592.08	16392.07
592.44	16670.25
592.799	16977.14
593.158	17267.75
593.517	17561.98
593.876	17869.32
594.235	18091.01
594.593	18442.86
594.952	18807.15
595.311	19000.81
595.67	19253.69
596.029	19603.51
596.387	20023.84
596.746	20349.25
597.104	20608.68
597.463	20823.36
597.822	21220.64
598.18	21438.26
598.538	21726.39
598.897	22148.3
599.255	22258.81
599.613	22911.45
599.972	22958.22
600.33	23260.81
600.688	23563.86
601.046	23929.72
601.404	24315.02
601.762	24528.35
602.12	24892.86
602.478	25205.85
602.836	25439.97
603.194	25630.24
603.552	25911.37
603.91	26083.57
604.268	26495.98
604.625	26684.23
604.983	27096.87
605.341	27130.32
605.698	27595.39
606.056	27858.66
606.413	27989.96
606.771	28505.87
607.128	28622.93
607.485	28801.23
607.843	29073.77
608.2	29274.89
608.557	29648.44
608.914	29754.66
609.272	30164.59
609.629	30386.73
609.986	30561.19
610.343	30754.18
610.7	31145.13
611.057	31217.22
611.414	31377.44
611.771	31668.05
612.127	32042.96
612.484	31997.99
612.841	32388.48
613.198	32380.12
613.554	32516.39
613.911	32886.78
614.267	33163.61
614.624	33227.11
614.98	33323.6
615.337	33739.86
615.693	33753.65
616.05	33947.99
616.406	34336.23
616.762	34240.41
617.118	34359.73
617.475	34542.78
617.831	34820.74
618.187	34909.32
618.543	35069.54
618.899	35288.07
619.255	35408.97
619.611	35494.84
619.967	35728.06
620.323	35896.64
620.678	35834.72
621.034	35976.19
621.39	36030.87
621.746	36076.75
622.101	36536.4
622.457	36473.57
622.812	36735.26
623.168	36894.58
623.523	36947.01
623.879	37181.8
624.234	36916.5
624.589	37175.7
624.945	37230.84
625.3	37354.68
625.655	37428.35
626.01	37456.83
626.365	37572.76
626.72	37555.35
627.075	37649.14
627.43	37573.43
627.785	37676.71
628.14	37811.17
628.495	37918.28
628.85	37959.41
629.205	37832.41
629.559	38039.64
629.914	38036.92
630.269	38182.46
630.623	37995.12
630.978	38100.2
631.332	38263.36
631.687	38324.6
632.041	38175.68
632.396	38336.8
632.75	38099.75
633.104	38410.25
633.459	38284.37
633.813	38415.9
634.167	38302.68
634.521	38283.47
634.875	38497.93
635.229	38386.74
635.583	38322.11
635.937	38313.53
636.291	38290.25
636.645	38558.49
636.999	38396.46
637.352	38479.85
637.706	38220.42
638.06	38435.56
638.413	38391.26
638.767	38295.22
639.121	38514.43
639.474	38327.31
639.828	38297.93
640.181	38463.13
640.534	38525.05
640.888	38419.51
641.241	38239.18
641.594	38227.2
641.947	38491.37
642.301	38306.52
642.654	38389.46
643.007	38271.72
643.36	38347.42
643.713	38316.46
644.066	38454.09
644.419	38176.81
644.771	37985.85
645.124	37636.03
645.477	37665.63
645.83	37523.04
646.182	37358.75
646.535	37194.91
646.888	37249.6
647.24	37198.08
647.593	37290.5
647.945	37167.79
648.298	36998.31
648.65	36956.5
649.002	36923.28
649.355	37208.7
649.707	37081.69
650.059	37182.48
650.411	37638.06
650.763	37603.71
651.115	38041.9
651.467	37816.82
651.819	37987.21
652.171	37877.38
652.523	37849.36
652.875	37719.42
653.227	37626.76
653.578	37978.85
653.93	37834.9
654.282	37784.73
654.633	37605.97
654.985	37794.67
655.337	37773.43
655.688	37638.06
656.039	37840.09
656.391	37495.69
656.742	37696.37
657.094	37626.99
657.445	37666.54
657.796	37629.7
658.147	37473.1
658.498	37422.02
658.849	37586.31
659.2	37591.29
659.551	37532.08
659.902	37610.49
660.253	37522.36
660.604	37663.15
660.955	37555.13
661.306	37613.88
661.656	37565.98
662.007	37577.27
662.358	37436.04
662.708	37530.04
663.059	37453.21
663.409	37294.12
663.76	37511.74
664.11	37352.2
664.461	37514.68
664.811	37580.44
665.161	37521.46
665.511	37454.34
665.862	37427.22
666.212	37526.43
666.562	37471.29
666.912	37430.84
667.262	37400.56
667.612	37415.47
667.962	37485.53
668.312	37337.51
668.662	37636.48
669.011	37403.72
669.361	37417.05
669.711	37317.17
670.06	37156.04
670.41	37378.41
670.76	37212.09
671.109	37365.98
671.459	37291.18
671.808	37181.35
672.157	37316.26
672.507	37089.38
672.856	37184.52
673.205	37139.77
673.554	37233.55
673.904	37071.75
674.253	37350.39
674.602	37318.07
674.951	36687.81
675.3	36601.48
675.649	37130.96
675.998	37174.57
676.346	37157.62
676.695	37175.7
677.044	36817.29
677.393	37035.37
677.741	36945.2
678.09	37027.68
678.438	36969.83
678.787	36869.04
679.135	36973.22
679.484	36616.17
679.832	36907.24
680.181	36646.68
680.529	36608.03
680.877	36691.42
681.225	36640.58
681.573	36761.48
681.922	36602.16
682.27	36437.19
682.618	36540.47
682.966	36215.73
683.314	36439.9
683.661	36377.98
684.009	36196.97
684.357	36202.62
684.705	36040.59
685.053	36181.15
685.4	36137.54
685.748	35906.36
686.095	35905.23
686.443	35887.38
686.79	35876.98
687.138	35791.11
687.485	35765.34
687.832	35567.38
688.18	35783.65
688.527	35527.61
688.874	35480.61
689.221	35330.1
689.568	35400.16
689.915	35256.66
690.262	35211.46
690.609	35203.33
690.956	34975.99
691.303	34888.98
691.65	34903.9
691.997	34868.87
692.344	34700.06
692.69	34539.84
693.037	34684.47
693.383	34337.81
693.73	34509.78
694.077	34443.8
694.423	34402.89
694.769	34242.67
695.116	34114.54
695.462	34027.76
695.808	33990.93
696.155	33986.63
696.501	33653.99
696.847	33805.17
697.193	33466.87
697.539	33597.27
697.885	33444.95
698.231	33345.07
698.577	33342.13
698.923	33414.22
699.269	33174.23
699.614	33073.21
699.96	32990.95
700.306	33021.46
700.651	32855.36
700.997	32714.13
701.342	32693.34
701.688	32728.59
702.033	32584.64
702.379	32530.85
702.724	32457.86
703.069	32514.13
703.415	32197.76
703.76	32206.79
704.105	32167.93
704.45	32071.66
704.795	31881.83
705.14	31807.03
705.485	31753.92
705.83	31694.04
706.175	31798.9
706.52	31712.34
706.865	31438.45
707.209	31520.71
707.554	31353.26
707.899	31539.69
708.243	31237.33
708.588	31287.72
708.932	30953.49
709.277	30952.82
709.621	31025.13
709.966	30800.05
710.31	30855.87
710.654	30680.05
710.998	30633.5
711.342	30598.48
711.687	30588.76
712.031	30464.47
712.375	30355.09
712.719	30377.01
713.063	30264.25
713.407	30400.97
713.75	30109.67
714.094	30350.12
714.438	30080.97
714.782	30040.3
715.125	29913.3
715.469	30125.95
715.812	29788.78
716.156	29627.88
716.499	29760.76
716.843	29746.52
717.186	29544.72
717.53	29673.3
717.873	29530.03
718.216	29703.58
718.559	29398.05
718.902	29300.43
719.246	29353.08
719.589	29242.8
719.932	29149.93
720.275	29174.33
720.617	29168.23
720.96	29034.22
721.303	28992.19
721.646	29068.8
721.989	28923.72
722.331	28969.59
722.674	28750.84
723.016	28850.27
723.359	28787
723.701	28848.46
724.044	28639.43
724.386	28505.87
724.729	28642.59
725.071	28526.67
725.413	28448.25
725.755	28455.25
726.097	28400.79
726.439	28271.08
726.782	28233.79
727.124	28334.13
727.465	28152.66
727.807	28107.69
728.149	28158.54
728.491	28055.49
728.833	28079.9
729.175	27950.64
729.516	27901.6
729.858	27812.79
730.199	27880.35
730.541	27783.63
730.882	27800.13
731.224	27918.09
731.565	27569.85
731.906	27580.93
732.248	27742.96
732.589	27528.27
732.93	27395.85
733.271	27488.05
733.612	27500.25
733.953	27413.7
734.294	27381.16
734.635	27264.78
734.976	27317.88
735.317	27203.54
735.658	27249.41
735.999	27129.41
736.339	27081.73
736.68	27173.71
737.021	27065.91
737.361	26914.73
737.702	27089.87
738.042	26995.63
738.383	26882.64
738.723	26997.21
739.063	26785.92
739.404	26862.75
739.744	26731.91
740.084	26467.74
740.424	26752.25
740.764	26672.02
741.104	26749.76
741.444	26534.4
741.784	26454.86
742.124	26539.6
742.464	26365.59
742.804	26392.71
743.143	26297.35
743.483	26306.38
743.823	26285.37
744.162	26265.03
744.502	26430.9
744.841	26191.81
745.181	26284.01
745.52	26169.21
745.86	26214.64
746.199	26170.79
746.538	26032.95
746.877	26093.51
747.216	26070.01
747.556	25994.08
747.895	25949.11
748.234	25833.4
748.573	25823.69
748.911	25713.41
749.25	25732.61
749.589	25574.2
749.928	25719.51
750.267	25593.86
750.605	25568.32
750.944	25417.37
751.283	25289.69
751.621	25466.41
751.96	25201.1
752.298	25356.35
752.636	25286.75
752.975	25006.08
753.313	25003.14
753.651	25120.2
753.989	25003.59
754.327	24863.71
754.666	24843.82
755.004	24893.09
755.342	24918.62
755.679	24703.94
756.017	24600.21
756.355	24707.56
756.693	24543.72
757.031	24578.07
757.368	24322.93
757.706	24426.21
758.044	24280.68
758.381	24422.37
758.719	24315.48
759.056	24244.29
759.394	24155.71
