Data from hue_230_FLMS001491_00040.txt Node
Date: Tue Feb 07 16:37:09 GMT 2017
User: dcchb
Spectrometer: FLMS00149
Trigger mode: 0
Integration Time (sec): 2.000000E-2
Scans to average: 10
Electric dark correction enabled: true
Nonlinearity correction enabled: false
Boxcar width: 0
XAxis mode: Wavelengths
Number of Pixels in Spectrum: 2048
>>>>>Begin Spectral Data<<<<<
341.393	-4.9
341.776	-4.9
342.16	-4.9
342.543	-65.92
342.927	-48.97
343.31	-68.18
343.693	-73.83
344.077	-72.92
344.46	-34.73
344.843	-46.71
345.226	-34.73
345.61	-29.53
345.993	-10.32
346.376	-29.31
346.759	1.65
347.142	36.23
347.525	43.01
347.908	50.69
348.291	69.22
348.674	87.75
349.057	111.71
349.44	134.3
349.823	148.54
350.206	162.78
350.588	189.44
350.971	212.72
351.354	238.71
351.737	227.64
352.119	264.92
352.502	247.07
352.884	258.37
353.267	267.41
353.65	283.9
354.032	306.05
354.414	287.97
354.797	279.16
355.179	302.66
355.562	323
355.944	332.94
356.326	340.85
356.709	343.79
357.091	316.22
357.473	361.42
357.855	338.37
358.238	353.51
358.62	330.23
359.002	337.46
359.384	349.21
359.766	327.07
360.148	349.44
360.53	344.92
360.912	329.1
361.294	334.3
361.676	318.25
362.057	317.35
362.439	334.53
362.821	321.42
363.203	323.68
363.584	318.25
363.966	313.28
364.348	318.03
364.729	316.9
365.111	310.34
365.493	316.22
365.874	308.76
366.256	310.34
366.637	312.83
367.019	302.21
367.4	314.86
367.781	314.19
368.163	314.41
368.544	316.9
368.925	301.98
369.306	315.99
369.688	310.12
370.069	299.95
370.45	325.26
370.831	307.86
371.212	303.11
371.593	304.47
371.974	316.67
372.355	302.66
372.736	308.76
373.117	310.34
373.498	311.47
373.879	313.06
374.26	311.7
374.641	313.06
375.021	315.99
375.402	315.99
375.783	326.16
376.163	316.22
376.544	315.32
376.925	348.54
377.305	323.9
377.686	312.83
378.066	314.41
378.447	319.61
378.827	320.51
379.208	318.03
379.588	319.38
379.968	335.66
380.349	331.36
380.729	321.64
381.109	317.35
381.489	332.04
381.87	342.66
382.25	336.78
382.63	349.67
383.01	341.76
383.39	344.02
383.77	329.55
384.15	347.86
384.53	352.6
384.91	358.48
385.29	342.66
385.67	347.86
386.049	358.48
386.429	325.03
386.809	359.38
387.189	358.71
387.568	362.77
387.948	334.98
388.328	365.71
388.707	351.25
389.087	350.57
389.466	363.9
389.846	355.32
390.225	357.58
390.605	334.3
390.984	343.34
391.363	367.74
391.743	360.51
392.122	358.93
392.501	365.71
392.881	390.34
393.26	369.1
393.639	362.55
394.018	359.84
394.397	358.71
394.776	375.43
395.155	381.98
395.534	394.64
395.913	376.11
396.292	368.2
396.671	400.51
397.05	415.43
397.429	405.03
397.808	369.55
398.186	401.19
398.565	390.57
398.944	381.98
399.323	380.63
399.701	376.56
400.08	394.41
400.458	411.36
400.837	424.92
401.215	404.81
401.594	395.54
401.972	395.31
402.351	415.43
402.729	414.75
403.107	404.13
403.486	423.34
403.864	411.81
404.242	420.85
404.62	419.04
404.999	441.41
405.377	430.12
405.755	422.21
406.133	442.54
406.511	441.19
406.889	426.95
407.267	446.61
407.645	456.56
408.023	445.48
408.401	467.4
408.779	468.98
409.156	468.98
409.534	491.58
409.912	493.84
410.29	494.97
410.667	509.44
411.045	500.85
411.422	504.46
411.8	502.2
412.178	517.57
412.555	515.99
412.933	560.06
413.31	531.58
413.687	585.37
414.065	562.99
414.442	563.22
414.819	574.97
415.197	587.63
415.574	612.26
415.951	597.34
416.328	597.34
416.705	601.41
417.082	597.57
417.46	613.16
417.837	623.78
418.214	629.88
418.591	643.22
418.967	644.57
419.344	630.11
419.721	652.93
420.098	675.53
420.475	680.96
420.852	687.06
421.228	668.75
421.605	675.08
421.982	704.23
422.358	716.89
422.735	708.07
423.111	748.75
423.488	752.59
423.864	750.33
424.241	782.42
424.617	781.07
424.994	775.87
425.37	796.43
425.746	794.4
426.123	834.85
426.499	818.58
426.875	833.5
427.251	853.61
427.627	868.3
428.003	853.38
428.379	856.55
428.756	893.15
429.132	902.19
429.507	901.52
429.883	916.88
430.259	918.24
430.635	909.43
431.011	922.76
431.387	931.12
431.763	948.97
432.138	953.72
432.514	963.21
432.89	1014.06
433.265	992.59
433.641	1027.61
434.016	1052.25
434.392	1051.79
434.767	1086.82
435.143	1082.53
435.518	1113.26
435.894	1150.55
436.269	1142.87
436.644	1152.13
437.02	1176.31
437.395	1176.31
437.77	1181.06
438.145	1218.57
438.52	1224.45
438.895	1263.77
439.271	1249.08
439.646	1290.43
440.021	1272.35
440.395	1305.35
440.77	1319.13
441.145	1323.65
441.52	1366.59
441.895	1345.12
442.27	1378.11
442.645	1347.15
443.019	1373.82
443.394	1366.14
443.769	1403.2
444.143	1392.8
444.518	1474.83
444.892	1454.27
445.267	1447.49
445.641	1492.69
446.016	1474.61
446.39	1456.76
446.764	1500.6
447.139	1518.9
447.513	1533.14
447.887	1524.78
448.262	1544.21
448.636	1515.51
449.01	1571.55
449.384	1584.21
449.758	1586.02
450.132	1590.09
450.506	1632.57
450.88	1625.56
451.254	1629.41
451.628	1657.88
452.002	1681.61
452.376	1652.68
452.75	1697.65
453.123	1688.39
453.497	1696.52
453.871	1740.59
454.244	1768.39
454.618	1778.1
454.992	1795.73
455.365	1770.65
455.739	1823.98
456.112	1868.95
456.486	1866.01
456.859	1890.87
457.232	1944.43
457.606	1898.33
457.979	1922.05
458.352	1981.26
458.725	1969.51
459.099	1984.65
459.472	1993.46
459.845	2050.86
460.218	2066.23
460.591	2056.06
460.964	2085.67
461.337	2133.12
461.71	2179.22
462.083	2162.05
462.456	2192.33
462.829	2214.7
463.201	2264.19
463.574	2259.67
463.947	2267.13
464.32	2303.06
464.692	2352.33
465.065	2313.91
465.438	2374.92
465.81	2428.03
466.183	2454.92
466.555	2460.12
466.928	2490.4
467.3	2500.34
467.672	2545.31
468.045	2580.57
468.417	2564.97
468.789	2605.2
469.161	2647.91
469.534	2687.68
469.906	2746.67
470.278	2763.16
470.65	2753.67
471.022	2794.12
471.394	2830.96
471.766	2856.72
472.138	2926.77
472.51	2921.35
472.882	3005.87
473.253	2990.73
473.625	3016.26
473.997	3091.51
474.369	3114.79
474.74	3118.63
475.112	3192.08
475.484	3211.74
475.855	3259.19
476.227	3308.91
476.598	3414.9
476.97	3430.04
477.341	3479.08
477.713	3500.09
478.084	3553.2
478.455	3649.92
478.827	3649.92
479.198	3709.58
479.569	3758.39
479.94	3805.39
480.311	3840.42
480.682	3958.61
481.053	4049
481.424	4041.09
481.795	4098.27
482.166	4153.63
482.537	4172.16
482.908	4225.5
483.279	4303.23
483.65	4359.73
484.021	4383.01
484.391	4490.8
484.762	4492.16
485.133	4533.96
485.503	4606.96
485.874	4681.08
486.244	4695.54
486.615	4761.75
486.985	4837.91
487.356	4882.88
487.726	4897.34
488.097	5018.92
488.467	5011.46
488.837	5116.09
489.207	5183.44
489.578	5248.07
489.948	5253.49
490.318	5353.15
490.688	5314.96
491.058	5394.73
491.428	5478.57
491.798	5499.81
492.168	5627.49
492.538	5590.21
492.908	5663.42
493.278	5714.5
493.648	5711.78
494.017	5840.14
494.387	5785.68
494.757	5876.98
495.126	5928.73
495.496	5960.14
495.866	5966.24
496.235	5995.39
496.605	6021.16
496.974	6120.36
497.344	6156.97
497.713	6176.63
498.082	6218.44
498.452	6272.9
498.821	6271.32
499.19	6334.82
499.559	6284.2
499.928	6370.75
500.298	6383.86
500.667	6448.04
501.036	6449.84
501.405	6471.76
501.774	6481.93
502.143	6533.01
502.512	6556.28
502.88	6565.77
503.249	6524.87
503.618	6585.43
503.987	6628.6
504.356	6668.82
504.724	6696.62
505.093	6694.36
505.462	6672.89
505.83	6769.84
506.199	6785.2
506.567	6832.43
506.936	6817.52
507.304	6855.03
507.672	6869.72
508.041	6942.94
508.409	6925.99
508.777	6937.74
509.145	7010.73
509.514	6998.3
509.882	6998.53
510.25	6989.94
510.618	7079.43
510.986	7086.44
511.354	7131.41
511.722	7134.8
512.09	7205.08
512.458	7179.99
512.826	7193.78
513.193	7227.45
513.561	7220.9
513.929	7271.07
514.297	7292.31
514.664	7355.13
515.032	7260.9
515.4	7316.49
515.767	7343.61
516.135	7389.25
516.502	7328.92
516.869	7367.11
517.237	7410.27
517.604	7412.53
517.972	7450.72
518.339	7442.36
518.706	7428.58
519.073	7386.09
519.44	7509.25
519.808	7514
520.175	7509.93
520.542	7573.66
520.909	7579.98
521.276	7518.07
521.643	7583.6
522.009	7599.19
522.376	7646.42
522.743	7674.22
523.11	7638.29
523.477	7700.21
523.843	7730.94
524.21	7737.04
524.577	7833.08
524.943	7853.65
525.31	7784.27
525.676	7825.18
526.043	7870.37
526.409	7879.41
526.776	7894.55
527.142	7915.12
527.508	7890.26
527.874	7941.33
528.241	7955.34
528.607	7940.2
528.973	8000.99
529.339	7904.27
529.705	8029.46
530.071	8021.1
530.437	7974.78
530.803	8036.92
531.169	8037.37
531.535	7968.45
531.901	8024.72
532.267	7959.18
532.632	8036.24
532.998	8043.25
533.364	8048.67
533.73	8098.84
534.095	8051.16
534.461	8069.46
534.826	8055.9
535.192	8079.18
535.557	8058.84
535.923	7998.96
536.288	8034.89
536.653	8045.06
537.019	7984.72
537.384	7975.23
537.749	7977.71
538.114	8016.13
538.479	7959.86
538.845	8010.71
539.21	7940.88
539.575	7979.3
539.94	7913.76
540.305	7937.72
540.67	7977.04
541.034	7925.96
541.399	7920.09
541.764	7909.02
542.129	7930.26
542.494	7923.25
542.858	7902.46
543.223	7854.55
543.587	7872.86
543.952	7863.14
544.316	7906.08
544.681	7884.16
545.045	7891.84
545.41	7897.04
545.774	7831.96
546.138	7827.66
546.503	7831.05
546.867	7812.07
547.231	7820.88
547.595	7792.18
547.959	7826.31
548.324	7772.75
548.688	7704.05
549.052	7773.2
549.416	7731.17
549.779	7714.67
550.143	7683.03
550.507	7710.38
550.871	7710.6
551.235	7683.94
551.599	7689.36
551.962	7647.1
552.326	7628.12
552.689	7672.86
553.053	7623.37
553.417	7652.07
553.78	7695.69
554.143	7655.69
554.507	7665.63
554.87	7612.3
555.234	7653.88
555.597	7654.33
555.96	7598.06
556.323	7638.74
556.686	7600.55
557.05	7683.94
557.413	7633.99
557.776	7608.91
558.139	7609.36
558.502	7670.15
558.865	7604.16
559.228	7666.99
559.59	7684.84
559.953	7637.38
560.316	7707.44
560.679	7675.35
561.041	7688.46
561.404	7701.34
561.767	7726.42
562.129	7660.43
562.492	7746.08
562.854	7676.25
563.217	7731.17
563.579	7737.95
563.941	7795.57
564.304	7801
564.666	7804.39
565.028	7788.57
565.39	7841.67
565.753	7816.81
566.115	7847.77
566.477	7860.88
566.839	7903.14
567.201	7904.5
567.563	7927.09
567.925	7957.83
568.287	7925.74
568.648	7938.17
569.01	7953.99
569.372	8079.86
569.734	8001.44
570.095	7971.61
570.457	8028.56
570.819	8048.9
571.18	8028.79
571.542	8070.14
571.903	8041.22
572.265	8091.16
572.626	8123.02
572.987	8103.36
573.349	8131.16
573.71	8143.59
574.071	8106.75
574.432	8175.22
574.794	8228.33
575.155	8271.94
575.516	8221.78
575.877	8254.54
576.238	8276.24
576.599	8297.25
576.96	8245.28
577.32	8349.46
577.681	8320.98
578.042	8372.05
578.403	8318.04
578.763	8372.51
579.124	8418.83
579.485	8429.91
579.845	8523.46
580.206	8425.39
580.566	8499.96
580.927	8464.48
581.287	8518.72
581.648	8523.69
582.008	8558.04
582.368	8520.07
582.728	8603.23
583.089	8575.21
583.449	8588.55
583.809	8570.01
584.169	8614.08
584.529	8622.44
584.889	8701.31
585.249	8592.16
585.609	8617.7
585.969	8653.4
586.329	8643.91
586.688	8734.98
587.048	8666.96
587.408	8718.94
587.768	8703.34
588.127	8697.24
588.487	8718.26
588.846	8784.47
589.206	8723.91
589.565	8753.29
589.925	8809.56
590.284	8714.19
590.643	8769.33
591.003	8822.66
591.362	8862.66
591.721	8819.27
592.08	8815.43
592.44	8869.22
592.799	8888.88
593.158	8872.61
593.517	8905.6
593.876	8899.05
594.235	8877.13
594.593	8829.22
594.952	8941.08
595.311	8884.13
595.67	8892.72
596.029	8933.85
596.387	9019.04
596.746	9033.05
597.104	9025.6
597.463	8913.73
597.822	9010
598.18	8920.06
598.538	8967.97
598.897	8987.63
599.255	8929.55
599.613	9013.17
599.972	8966.39
600.33	9005.03
600.688	9036.44
601.046	9067.85
601.404	9130.68
601.762	9087.29
602.12	9105.14
602.478	9154.86
602.836	9038.7
603.194	9040.28
603.552	9033.96
603.91	9006.16
604.268	9074.18
604.625	9082.77
604.983	9069.44
605.341	8992.6
605.698	9062.21
606.056	9169.1
606.413	9086.16
606.771	9107.18
607.128	9126.38
607.485	9119.15
607.843	9125.93
608.2	9149.43
608.557	9184.46
608.914	9136.55
609.272	9198.25
609.629	9254.97
609.986	9267.17
610.343	9176.33
610.7	9253.61
611.057	9231.01
611.414	9249.09
611.771	9214.97
612.127	9283.22
612.484	9324.35
612.841	9242.09
613.198	9324.12
613.554	9257.23
613.911	9276.21
614.267	9309.88
614.624	9303.33
614.98	9292.93
615.337	9351.92
615.693	9404.57
616.05	9295.87
616.406	9481.86
616.762	9285.25
617.118	9377.23
617.475	9377.23
617.831	9356.89
618.187	9368.86
618.543	9365.93
618.899	9410.67
619.255	9476.66
619.611	9437.56
619.967	9473.27
620.323	9448.41
620.678	9469.88
621.034	9455.19
621.39	9408.64
621.746	9412.7
622.101	9438.92
622.457	9375.42
622.812	9443.21
623.168	9486.6
623.523	9445.92
623.879	9522.08
624.234	9399.15
624.589	9449.09
624.945	9461.29
625.3	9518.92
625.655	9463.32
626.01	9528.41
626.365	9466.71
626.72	9385.36
627.075	9385.59
627.43	9441.63
627.785	9409.54
628.14	9461.52
628.495	9462.87
628.85	9421.97
629.205	9415.64
629.559	9489.54
629.914	9359.15
630.269	9430.33
630.623	9328.19
630.978	9391.46
631.332	9398.47
631.687	9437.11
632.041	9406.38
632.396	9377.68
632.75	9365.7
633.104	9352.82
633.459	9311.92
633.813	9278.47
634.167	9293.84
634.521	9277.11
634.875	9312.14
635.229	9309.66
635.583	9233.73
635.937	9227.17
636.291	9250.67
636.645	9266.72
636.999	9170
637.352	9227.62
637.706	9204.12
638.06	9197.57
638.413	9201.86
638.767	9152.37
639.121	9161.41
639.474	9064.92
639.828	9125.48
640.181	9159.83
640.534	9184.24
640.888	9050.68
641.241	9062.88
641.594	9097.91
641.947	9122.09
642.301	9098.36
642.654	9083.67
643.007	9083
643.36	9024.69
643.713	9072.15
644.066	9151.02
644.419	9049.55
644.771	9000.96
645.124	8904.02
645.477	8903.79
645.83	8883.23
646.182	8824.92
646.535	8751.03
646.888	8737.69
647.24	8733.63
647.593	8772.72
647.945	8733.85
648.298	8801.87
648.65	8701.31
649.002	8678.26
649.355	8776.56
649.707	8717.81
650.059	8787.18
650.411	8861.31
650.763	8888.88
651.115	8962.77
651.467	8959.38
651.819	8872.61
652.171	8966.84
652.523	8917.35
652.875	8903.79
653.227	8846.84
653.578	8891.14
653.93	8950.57
654.282	8856.11
654.633	8855.66
654.985	8895.43
655.337	8847.97
655.688	8898.82
656.039	8972.26
656.391	8853.4
656.742	8892.72
657.094	8823.12
657.445	8918.71
657.796	8922.55
658.147	8838.26
658.498	8831.48
658.849	8936.78
659.2	8888.65
659.551	8855.21
659.902	8890.46
660.253	8907.18
660.604	8868.31
660.955	8931.36
661.306	8901.76
661.656	8882.55
662.007	8891.59
662.358	8976.11
662.708	8879.16
663.059	8967.29
663.409	8929.1
663.76	8945.6
664.11	8917.58
664.461	8963
664.811	8921.64
665.161	8920.97
665.511	8957.8
665.862	8878.93
666.212	8918.93
666.562	8949.44
666.912	8946.28
667.262	8935.88
667.612	8888.88
667.962	8992.6
668.312	8905.83
668.662	8864.02
669.011	8915.32
669.361	8901.08
669.711	8861.98
670.06	8927.29
670.41	8836
670.76	8848.65
671.109	8887.75
671.459	8865.15
671.808	8850.23
672.157	8854.75
672.507	8792.83
672.856	8843.68
673.205	8836
673.554	8908.31
673.904	8785.83
674.253	8855.43
674.602	8810.46
674.951	8704.93
675.3	8633.74
675.649	8792.61
675.998	8772.72
676.346	8825.38
676.695	8753.06
677.044	8700.41
677.393	8714.87
677.741	8773.63
678.09	8737.69
678.438	8713.06
678.787	8693.18
679.135	8740.63
679.484	8699.05
679.832	8699.28
680.181	8625.61
680.529	8669.22
680.877	8649.79
681.225	8664.25
681.573	8682.1
681.922	8654.98
682.27	8538.6
682.618	8558.26
682.966	8528.21
683.314	8532.73
683.661	8527.98
684.009	8505.38
684.357	8434.2
684.705	8460.19
685.053	8491.6
685.4	8436.46
685.748	8389.91
686.095	8394.2
686.443	8364.82
686.79	8364.14
687.138	8299.29
687.485	8340.64
687.832	8322.11
688.18	8314.65
688.527	8244.83
688.874	8261.55
689.221	8264.26
689.568	8197.37
689.915	8231.49
690.262	8178.16
690.609	8199.18
690.956	8122.57
691.303	8123.47
691.65	8072.17
691.997	8052.51
692.344	8000.54
692.69	7984.04
693.037	7968.9
693.383	7944.27
693.73	7929.35
694.077	7906.76
694.423	7931.39
694.769	7834.21
695.116	7839.41
695.462	7765.97
695.808	7781.79
696.155	7701.34
696.501	7732.97
696.847	7707.44
697.193	7682.35
697.539	7686.65
697.885	7641
698.231	7636.25
698.577	7545.86
698.923	7530.04
699.269	7500.21
699.614	7488.91
699.96	7475.35
700.306	7435.13
700.651	7418.86
700.997	7395.58
701.342	7366.43
701.688	7339.09
702.033	7300.22
702.379	7280.78
702.724	7317.62
703.069	7345.19
703.415	7205.08
703.76	7210.28
704.105	7250.73
704.45	7176.38
704.795	7055.03
705.14	7132.09
705.485	7053.67
705.83	7069.94
706.175	7052.54
706.52	7042.6
706.865	6986.78
707.209	7016.16
707.554	6965.54
707.899	6944.29
708.243	6947.46
708.588	6949.04
708.932	6834.47
709.277	6798.08
709.621	6869.27
709.966	6817.97
710.31	6855.94
710.654	6757.86
710.998	6822.94
711.342	6761.93
711.687	6757.63
712.031	6685.54
712.375	6726.67
712.719	6727.58
713.063	6659.78
713.407	6709.72
713.75	6708.82
714.094	6658.43
714.438	6632.44
714.782	6637.18
715.125	6617.3
715.469	6626.11
715.812	6528.49
716.156	6546.34
716.499	6619.78
716.843	6559.45
717.186	6492.56
717.53	6543.18
717.873	6504.98
718.216	6532.33
718.559	6517.19
718.902	6447.58
719.246	6445.1
719.589	6482.39
719.932	6399.22
720.275	6403.07
720.617	6451.2
720.96	6442.84
721.303	6361.94
721.646	6398.32
721.989	6395.61
722.331	6442.84
722.674	6409.62
723.016	6426.79
723.359	6395.38
723.701	6344.99
724.044	6330.07
724.386	6335.27
724.729	6377.53
725.071	6375.5
725.413	6322.16
725.755	6326.01
726.097	6305.44
726.439	6295.27
726.782	6297.98
727.124	6321.03
727.465	6241.04
727.807	6261.37
728.149	6309.28
728.491	6251.21
728.833	6205.78
729.175	6231.09
729.516	6253.92
729.858	6224.77
730.199	6226.57
730.541	6273.58
730.882	6284.88
731.224	6223.86
731.565	6188.61
731.906	6233.81
732.248	6266.35
732.589	6225.9
732.93	6202.17
733.271	6199.91
733.612	6246.01
733.953	6194.71
734.294	6267.25
734.635	6246.69
734.976	6216.18
735.317	6230.64
735.658	6231.09
735.999	6268.83
736.339	6189.51
736.68	6278.1
737.021	6273.13
737.361	6217.08
737.702	6284.88
738.042	6200.59
738.383	6279
738.723	6288.49
739.063	6274.48
739.404	6279.45
739.744	6361.26
740.084	6297.76
740.424	6321.03
740.764	6284.88
741.104	6310.41
741.444	6307.7
741.784	6321.49
742.124	6318.1
742.464	6333.46
742.804	6303.41
743.143	6323.07
743.483	6376.4
743.823	6373.91
744.162	6390.64
744.502	6397.64
744.841	6441.26
745.181	6499.56
745.52	6468.6
745.86	6512.67
746.199	6514.48
746.538	6548.15
746.877	6598.99
747.216	6659.1
747.556	6670.63
747.895	6719.22
748.234	6674.47
748.573	6760.34
748.911	6811.19
749.25	6792.43
749.589	6813.22
749.928	6869.27
750.267	6949.27
750.605	7022.03
750.944	7006.67
751.283	7131.41
751.621	7152.88
751.96	7193.78
752.298	7333.44
752.636	7323.49
752.975	7372.76
753.313	7450.95
753.651	7557.61
753.989	7599.19
754.327	7718.96
754.666	7753.77
755.004	7906.98
755.342	7996.47
755.679	8118.5
756.017	8142.23
756.355	8255.67
756.693	8312.39
757.031	8444.37
757.368	8507.42
757.706	8603.01
758.044	8695.21
758.381	8813.17
758.719	8930.68
759.056	9075.99
759.394	9152.6
759.731	9207.74
760.068	9350.79
760.405	9434.62
760.743	9517.79
761.08	9616.31
761.417	9814.28
761.754	9904.67
762.091	9991.9
762.428	10062.86
762.765	10181.27
763.102	10330.87
763.438	10434.6
763.775	10510.98
764.112	10600.24
764.449	10776.74
764.785	10827.58
765.122	10934.25
765.458	11047.24
765.795	11124.3
766.131	11251.98
766.467	11392.77
766.804	11369.49
767.14	11468.02
767.476	11566.55
767.812	11614
768.148	11772.64
768.485	11818.97
768.821	11871.62
769.157	11928.12
