Data from hue_38_FLMS001491_00048.txt Node
Date: Tue Feb 07 17:31:34 GMT 2017
User: dcchb
Spectrometer: FLMS00149
Trigger mode: 0
Integration Time (sec): 2.000000E-2
Scans to average: 10
Electric dark correction enabled: true
Nonlinearity correction enabled: false
Boxcar width: 0
XAxis mode: Wavelengths
Number of Pixels in Spectrum: 2048
>>>>>Begin Spectral Data<<<<<
341.393	-18.64
341.776	-18.64
342.16	-18.64
342.543	-68.13
342.927	-66.55
343.31	-90.28
343.693	-70.85
344.077	-66.33
344.46	-71.3
344.843	-59.09
345.226	-27.46
345.61	-25.42
345.993	-23.84
346.376	19.1
346.759	11.86
347.142	13.9
347.525	46.21
347.908	57.29
348.291	63.84
348.674	118.3
349.057	104.07
349.44	128.25
349.823	169.37
350.206	197.4
350.588	205.08
350.971	216.15
351.354	218.41
351.737	244.63
352.119	271.07
352.502	252.76
352.884	281.91
353.267	291.4
353.65	299.09
354.032	328.69
354.414	319.43
354.797	335.7
355.179	319.65
355.562	330.5
355.944	324.85
356.326	335.02
356.709	339.09
357.091	351.29
357.473	361.23
357.855	345.87
358.238	347
358.62	353.1
359.002	386.77
359.384	367.56
359.766	347.67
360.148	342.25
360.53	358.97
360.912	337.05
361.294	341.35
361.676	342.93
362.057	342.25
362.439	336.38
362.821	328.92
363.203	338.86
363.584	320.33
363.966	321.91
364.348	334.79
364.729	318.52
365.111	314
365.493	311.07
365.874	331.18
366.256	318.07
366.637	326.88
367.019	350.16
367.4	321.91
367.781	321.91
368.163	307.68
368.544	316.04
368.925	316.26
369.306	329.14
369.688	333.89
370.069	304.29
370.45	324.17
370.831	327.11
371.212	308.13
371.593	335.02
371.974	318.3
372.355	297.05
372.736	348.35
373.117	337.96
373.498	323.27
373.879	327.34
374.26	333.44
374.641	320.33
375.021	335.25
375.402	321.23
375.783	320.56
376.163	331.18
376.544	319.88
376.925	330.27
377.305	324.17
377.686	322.82
378.066	342.7
378.447	304.74
378.827	337.05
379.208	331.63
379.588	345.41
379.968	330.27
380.349	326.88
380.729	331.86
381.109	346.77
381.489	336.83
381.87	347.9
382.25	346.77
382.63	345.64
383.01	344.06
383.39	360.78
383.77	332.53
384.15	342.25
384.53	342.93
384.91	349.71
385.29	353.55
385.67	365.3
386.049	345.87
386.429	359.88
386.809	357.39
387.189	363.04
387.568	385.64
387.948	366.43
388.328	375.47
388.707	371.18
389.087	363.72
389.466	386.54
389.846	367.79
390.225	358.07
390.605	368.69
390.984	375.7
391.363	396.94
391.743	372.76
392.122	391.74
392.501	370.95
392.881	362.59
393.26	371.85
393.639	389.93
394.018	371.18
394.397	363.04
394.776	379.99
395.155	397.84
395.534	391.74
395.913	384.96
396.292	374.57
396.671	413.21
397.05	401.68
397.429	381.8
397.808	354.45
398.186	398.29
398.565	402.36
398.944	414.57
399.323	398.75
399.701	418.86
400.08	394.9
400.458	388.35
400.837	396.49
401.215	400.1
401.594	426.09
401.972	422.47
402.351	420.67
402.729	413.66
403.107	410.27
403.486	398.52
403.864	424.51
404.242	413.44
404.62	404.17
404.999	416.83
405.377	422.47
405.755	424.28
406.133	415.7
406.511	433.55
406.889	445.75
407.267	445.98
407.645	455.47
408.023	456.15
408.401	430.38
408.779	435.58
409.156	430.84
409.534	455.24
409.912	438.97
410.29	453.89
410.667	467.9
411.045	468.35
411.422	476.71
411.8	457.73
412.178	458.18
412.555	481.68
412.933	441.68
413.31	486.2
413.687	485.3
414.065	479.65
414.442	477.84
414.819	515.81
415.197	505.86
415.574	492.53
415.951	500.44
416.328	485.75
416.705	511.29
417.082	500.21
417.46	503.38
417.837	514.68
418.214	523.94
418.591	499.76
418.967	476.26
419.344	521.91
419.721	526.65
420.098	513.55
420.475	545.18
420.852	513.77
421.228	542.47
421.605	535.01
421.982	539.99
422.358	566.65
422.735	543.83
423.111	555.13
423.488	565.3
423.864	541.12
424.241	574.34
424.617	561.91
424.994	561
425.37	563.71
425.746	580.66
426.123	567.33
426.499	584.5
426.875	566.65
427.251	604.62
427.627	589.48
428.003	598.52
428.379	615.24
428.756	598.97
429.132	621.11
429.507	614.11
429.883	623.37
430.259	628.12
430.635	611.17
431.011	630.15
431.387	638.29
431.763	643.94
432.138	636.71
432.514	664.95
432.89	674.45
433.265	658.4
433.641	673.99
434.016	663.6
434.392	680.55
434.767	682.35
435.143	666.99
435.518	687.1
435.894	677.84
436.269	695.24
436.644	706.99
437.02	706.31
437.395	697.27
437.77	729.59
438.145	720.77
438.52	719.64
438.895	725.97
439.271	722.58
439.646	724.16
440.021	762.58
440.395	758.51
440.77	729.36
441.145	757.16
441.52	756.93
441.895	778.17
442.27	764.16
442.645	779.53
443.019	779.3
443.394	780.21
443.769	779.3
444.143	773.2
444.518	811.39
444.892	812.97
445.267	802.58
445.641	792.41
446.016	787.21
446.39	802.58
446.764	802.35
447.139	848.68
447.513	835.12
447.887	828.79
448.262	844.61
448.636	843.93
449.01	854.33
449.384	850.94
449.758	865.17
450.132	856.81
450.506	871.5
450.88	882.12
451.254	854.33
451.628	885.97
452.002	918.05
452.376	868.79
452.75	917.38
453.123	905.4
453.497	927.32
453.871	930.03
454.244	933.2
454.618	941.33
454.992	941.33
455.365	960.31
455.739	961.22
456.112	990.82
456.486	988.34
456.859	1023.36
457.232	1020.2
457.606	1024.49
457.979	1019.07
458.352	1059.07
458.725	1055.9
459.099	1049.12
459.472	1067.66
459.845	1113.53
460.218	1092.97
460.591	1104.04
460.964	1094.77
461.337	1109.01
461.71	1136.81
462.083	1138.84
462.456	1172.51
462.829	1184.49
463.201	1176.35
463.574	1207.54
463.947	1189.46
464.32	1236.69
464.692	1265.39
465.065	1235.79
465.438	1282.57
465.81	1309.23
466.183	1311.26
466.555	1343.58
466.928	1355.11
467.3	1360.98
467.672	1351.26
468.045	1391.26
468.417	1389.23
468.789	1415.22
469.161	1469.9
469.534	1491.6
469.906	1496.12
470.278	1504.25
470.65	1524.59
471.022	1567.98
471.394	1626.06
471.766	1607.3
472.138	1649.11
472.51	1679.16
472.882	1717.81
473.253	1754.19
473.625	1792.61
473.997	1825.83
474.369	1813.62
474.74	1869.22
475.112	1938.14
475.484	1942.43
475.855	2024.24
476.227	2028.76
476.598	2114.86
476.97	2162.32
477.341	2182.88
477.713	2254.52
478.084	2271.92
478.455	2326.15
478.827	2398.92
479.198	2466.71
479.569	2488.18
479.94	2619.93
480.311	2621.96
480.682	2687.5
481.053	2790.1
481.424	2915.74
481.795	2936.31
482.166	2982.86
482.537	3031.45
482.908	3170.2
483.279	3252.91
483.65	3313.7
484.021	3412.23
484.391	3479.34
484.762	3536.29
485.133	3600.47
485.503	3716.85
485.874	3866
486.244	3929.05
486.615	4011.98
486.985	4120.23
487.356	4221.7
487.726	4289.72
488.097	4427.79
488.467	4487.68
488.837	4590.95
489.207	4708.69
489.578	4797.95
489.948	4907.1
490.318	5053.09
490.688	5065.97
491.058	5236.13
491.428	5329.69
491.798	5405.17
492.168	5573.75
492.538	5616.01
492.908	5754.09
493.278	5911.82
493.648	5911.37
494.017	6079.5
494.387	6238.82
494.757	6298.48
495.126	6367.86
495.496	6447.4
495.866	6585.25
496.235	6701.41
496.605	6774.62
496.974	6924.68
497.344	6960.38
497.713	7076.54
498.082	7145.69
498.452	7290.99
498.821	7381.39
499.19	7468.62
499.559	7535.96
499.928	7671.78
500.298	7756.97
500.667	7834.03
501.036	7917.42
501.405	7982.05
501.774	8067.25
502.143	8136.62
502.512	8219.56
502.88	8308.6
503.249	8371.64
503.618	8474.01
503.987	8586.1
504.356	8647.8
504.724	8769.37
505.093	8871.97
505.462	8891.4
505.83	8961.46
506.199	9037.39
506.567	9221.57
506.936	9224.73
507.304	9382.92
507.672	9360.09
508.041	9431.28
508.409	9533.2
508.777	9649.12
509.145	9713.3
509.514	9727.99
509.882	9833.3
510.25	9875.79
510.618	9966.86
510.986	10028.1
511.354	10126.17
511.722	10287.07
512.09	10367.52
512.458	10341.31
512.826	10435.09
513.193	10404.81
513.561	10547.41
513.929	10668.99
514.297	10688.42
514.664	10751.47
515.032	10929.09
515.4	10924.57
515.767	10957.56
516.135	11090.67
516.502	11047.51
516.869	11214.28
517.237	11280.04
517.604	11307.61
517.972	11349.87
518.339	11504.9
518.706	11560.49
519.073	11553.03
519.44	11644.33
519.808	11783.31
520.175	11812.01
520.542	11881.61
520.909	11994.37
521.276	12020.14
521.643	12104.88
522.009	12159.79
522.376	12292.67
522.743	12348.71
523.11	12453.12
523.477	12509.16
523.843	12635.04
524.21	12741.92
524.577	12727.69
524.943	12898.08
525.31	12893.56
525.676	13147.34
526.043	13099.66
526.409	13117.96
526.776	13331.74
527.142	13358.86
527.508	13407.67
527.874	13546.2
528.241	13613.99
528.607	13649.25
528.973	13797.49
529.339	13790.03
529.705	13940.31
530.071	14004.49
530.437	14061.89
530.803	14179.18
531.169	14264.82
531.535	14267.08
531.901	14339.62
532.267	14346.18
532.632	14439.51
532.998	14573.06
533.364	14628.88
533.73	14646.51
534.095	14782.32
534.461	14839.04
534.826	14857.8
535.192	14957.91
535.557	14949.1
535.923	15058.25
536.288	15137.79
536.653	15197.45
537.019	15155.19
537.384	15258.02
537.749	15348.64
538.114	15439.48
538.479	15459.59
538.845	15648.06
539.21	15513.15
539.575	15706.59
539.94	15756.31
540.305	15818.68
540.67	15850.09
541.034	15883.99
541.399	15937.32
541.764	15962.41
542.129	16125.11
542.494	16118.79
542.858	16128.95
543.223	16186.81
543.587	16272.23
543.952	16309.29
544.316	16376.41
544.681	16439.45
545.045	16463.41
545.41	16599.22
545.774	16707.92
546.138	16757.41
546.503	16729.39
546.867	16732.33
547.231	16917.41
547.595	16873.34
547.959	16971.87
548.324	17005.54
548.688	17123.28
549.052	17192.88
549.416	17217.74
549.779	17170.73
550.143	17292.77
550.507	17328.92
550.871	17523.72
551.235	17395.36
551.599	17605.98
551.962	17608.46
552.326	17671.96
552.689	17775.69
553.053	17655.47
553.417	17791.96
553.78	17991.73
554.143	17962.13
554.507	18068.11
554.87	18069.92
555.234	18289.12
555.597	18147.43
555.96	18168.45
556.323	18427.88
556.686	18411.61
557.05	18588.32
557.413	18545.16
557.776	18646.63
558.139	18681.88
558.502	18720.75
558.865	18738.83
559.228	18981.53
559.59	18933.63
559.953	18938.82
560.316	19224.69
560.679	19226.73
561.041	19291.13
561.404	19318.48
561.767	19504.01
562.129	19410.68
562.492	19760.72
562.854	19646.38
563.217	19694.51
563.579	19744.68
563.941	19852.92
564.304	19853.38
564.666	20042.52
565.028	20061.28
565.39	20097.21
565.753	20209.98
566.115	20227.6
566.477	20337.66
566.839	20364.55
567.201	20501.04
567.563	20577.43
567.925	20715.5
568.287	20766.35
568.648	20786.46
569.01	20849.28
569.372	21080.24
569.734	21055.83
570.095	21164.75
570.457	21213.57
570.819	21287.46
571.18	21324.07
571.542	21536.27
571.903	21638.19
572.265	21642.93
572.626	21794.57
572.987	21768.81
573.349	21836.83
573.71	21919.08
574.071	22000.66
574.432	22140.32
574.794	22428.68
575.155	22386.19
575.516	22428
575.877	22578.05
576.238	22726.07
576.599	22841.09
576.96	22898.27
577.32	22997.93
577.681	23086.74
578.042	23287.41
578.403	23429.33
578.763	23557.46
579.124	23729.66
579.485	23906.15
579.845	24086.49
580.206	24097.11
580.566	24311.34
580.927	24426.36
581.287	24631.1
581.648	24623.65
582.008	24950.64
582.368	24981.6
582.728	25298.43
583.089	25262.05
583.449	25378.43
583.809	25723.28
584.169	25910.62
584.529	25964.4
584.889	26355.13
585.249	26388.12
585.609	26539.08
585.969	26979.52
586.329	27049.35
586.688	27364.82
587.048	27419.51
587.408	27534.98
587.768	27772.94
588.127	27874.41
588.487	28101.07
588.846	28569.53
589.206	28493.83
589.565	28766.59
589.925	29000.71
590.284	29271.21
590.643	29600.01
591.003	29774.02
591.362	29911.87
591.721	29897.41
592.08	30281.12
592.44	30449.03
592.799	30759.76
593.158	30871.17
593.517	31073.19
593.876	31385.5
594.235	31394.32
594.593	31686.29
594.952	31899.39
595.311	32006.96
595.67	32208.31
596.029	32544.34
596.387	32822.75
596.746	32980.04
597.104	32978.68
597.463	33140.48
597.822	33490.08
598.18	33658.66
598.538	33757.64
598.897	34201.47
599.255	33996.06
599.613	34675.13
599.972	34667.9
600.33	34890.5
600.688	34974.33
601.046	35263.82
601.404	35408.67
601.762	35512.85
602.12	35779.06
602.478	35944.03
602.836	36059.5
603.194	36061.99
603.552	36353.28
603.91	36379.5
604.268	36671.01
604.625	36604.8
604.983	36897.45
605.341	36927.28
605.698	37080.72
606.056	37338.79
606.413	37340.15
606.771	37762.06
607.128	37853.13
607.485	37723.64
607.843	37912.11
608.2	38078.43
608.557	38367.69
608.914	38322.72
609.272	38603.84
609.629	38687.91
609.986	39120.21
610.343	38931.07
610.7	39345.07
611.057	39312.75
611.414	39380.32
611.771	39507.1
612.127	39751.38
612.484	39665.06
612.841	39916.58
613.198	39932.4
613.554	39875
613.911	40343.46
614.267	40451.93
614.624	40394.98
614.98	40530.35
615.337	40846.95
615.693	40765.37
616.05	40843.33
616.406	41113.83
616.762	40975.76
617.118	41039.94
617.475	41281.74
617.831	41401.96
618.187	41511.56
618.543	41566.25
618.899	41829.3
619.255	41785
619.611	41696.19
619.967	41990.87
620.323	41992
620.678	41933.7
621.034	41896.86
621.39	41963.3
621.746	42024.77
622.101	42538.2
622.457	42242.17
622.812	42351.09
623.168	42607.58
623.523	42391.77
623.879	42734.81
624.234	42526
624.589	42567.58
624.945	42662.27
625.3	42751.53
625.655	42862.49
626.01	42827.01
626.365	42931.41
626.72	42822.94
627.075	42832.66
627.43	42987.01
627.785	42844.18
628.14	43029.72
628.495	42958.98
628.85	43055.93
629.205	42930.06
629.559	43226.1
629.914	42952.88
630.269	42976.84
630.623	42983.16
630.978	42931.87
631.332	43103.84
631.687	43133.22
632.041	43107.23
632.396	43123.27
632.75	43020
633.104	43178.86
633.459	42993.33
633.813	43007.34
634.167	43021.58
634.521	43107.23
634.875	43186.77
635.229	43172.54
635.583	42997.63
635.937	42963.28
636.291	42982.26
636.645	42951.3
636.999	42841.47
637.352	42980
637.706	42731.42
638.06	43030.85
638.413	42861.36
638.767	42690.52
639.121	42878.31
639.474	42585.43
639.828	42768.48
640.181	42816.84
640.534	42811.64
640.888	42705.88
641.241	42589.28
641.594	42628.37
641.947	42740.46
642.301	42534.81
642.654	42660.01
643.007	42789.72
643.36	42598.31
643.713	42457.3
644.066	42686.67
644.419	42540.01
644.771	42231.77
645.124	41809.41
645.477	41667.27
645.83	41544.11
646.182	41377.1
646.535	41367.61
646.888	41604.89
647.24	41200.39
647.593	41503.65
647.945	41478.57
648.298	41239.71
648.65	41223.89
649.002	41034.51
649.355	41194.96
649.707	41168.75
650.059	41427.72
650.411	41838.79
650.763	41870.42
651.115	42260.7
651.467	42062.74
651.819	42213.92
652.171	41952.68
652.523	41937.77
652.875	41926.92
653.227	41803.53
653.578	42173.92
653.93	41973.25
654.282	41828.39
654.633	41783.87
654.985	41823.42
655.337	41852.8
655.688	41966.47
656.039	41900.71
656.391	41657.1
656.742	41664.1
657.094	41758.79
657.445	41909.29
657.796	41841.05
658.147	41667.27
658.498	41663.2
658.849	41724.44
659.2	41806.92
659.551	41620.04
659.902	41820.93
660.253	41653.71
660.604	41723.54
660.955	41562.18
661.306	41696.64
661.656	41662.29
662.007	41647.15
662.358	41615.06
662.708	41585.46
663.059	41614.61
663.409	41331.68
663.76	41773.25
664.11	41567.61
664.461	41599.25
664.811	41643.09
665.161	41619.58
665.511	41416.43
665.862	41576.42
666.212	41577.32
666.562	41517.44
666.912	41561.73
667.262	41351.79
667.612	41554.73
667.962	41586.59
668.312	41452.36
668.662	41642.86
669.011	41526.03
669.361	41455.75
669.711	41494.39
670.06	41477.89
670.41	41338.91
670.76	41273.38
671.109	41356.09
671.459	41436.31
671.808	41201.06
672.157	41451.45
672.507	41274.73
672.856	41202.87
673.205	41183.21
673.554	41272.25
673.904	41274.06
674.253	41341.85
674.602	41435.86
674.951	40742.77
675.3	40537.35
675.649	41125.13
675.998	41105.92
676.346	41179.37
676.695	41295.07
677.044	41006.49
677.393	41088.75
677.741	41134.4
678.09	40984.8
678.438	40834.52
678.787	41029.09
679.135	41017.34
679.484	40703.45
679.832	40941.64
680.181	40611.47
680.529	40862.54
680.877	40638.59
681.225	40507.52
681.573	40771.92
681.922	40419.62
682.27	40437.24
682.618	40394.08
682.966	40362.67
683.314	40292.84
683.661	40290.13
684.009	40164.48
684.357	39963.58
684.705	40076.57
685.053	40136.91
685.4	39955.67
685.748	39826.18
686.095	39811.5
686.443	39647.66
686.79	39714.1
687.138	39759.75
687.485	39703.48
687.832	39592.52
688.18	39657.6
688.527	39448.57
688.874	39244.96
689.221	39126.77
689.568	39198.18
689.915	39050.84
690.262	39175.35
690.609	39009.93
690.956	38828.02
691.303	38828.24
691.65	38630.06
691.997	38665.31
692.344	38474.13
692.69	38472.1
693.037	38505.77
693.383	38185.55
693.73	38334.7
694.077	38128.38
694.423	38082.05
694.769	37971.54
695.116	37858.1
695.462	37783.3
695.808	37557.32
696.155	37849.74
696.501	37386.02
696.847	37561.61
697.193	37277.55
697.539	37487.04
697.885	37023.77
698.231	37095.63
698.577	37010.89
698.923	37123.43
699.269	36866.04
699.614	36682.31
699.96	36612.48
700.306	36612.94
700.651	36466.27
700.997	36314.19
701.342	36165.72
701.688	36380.4
702.033	36184.25
702.379	36042.56
702.724	35961.88
703.069	36048.2
703.415	35607.31
703.76	35708.55
704.105	35808.66
704.45	35601.89
704.795	35430.82
705.14	35309.92
705.485	35177.72
705.83	35183.82
706.175	35168.91
706.52	34967.78
706.865	34958.06
707.209	34833.32
707.554	34671.74
707.899	34849.59
708.243	34669.26
708.588	34659.77
708.932	34476.49
709.277	34391.3
709.621	34467.91
709.966	34163.28
710.31	34248.93
710.654	34039.67
710.998	34084.87
711.342	34031.76
711.687	33980.46
712.031	33719.23
712.375	33629.96
712.719	33771.43
713.063	33740.24
713.407	33643.52
713.75	33655.05
714.094	33440.14
714.438	33347.48
714.782	33491.66
715.125	33212.12
715.469	33375.28
715.812	33093.71
716.156	33077.66
716.499	32961.51
716.843	33015.52
717.186	32866.14
717.53	32937.78
717.873	32951.79
718.216	32810.55
718.559	32625.7
718.902	32517.68
719.246	32441.52
719.589	32388.19
719.932	32317.68
720.275	32318.81
720.617	32227.51
720.96	32158.14
721.303	32168.76
721.646	32384.57
721.989	31912.72
722.331	32144.35
722.674	31971.7
723.016	31992.94
723.359	31972.15
723.701	32012.83
724.044	31677.92
724.386	31650.58
724.729	31835.89
725.071	31693.74
725.413	31669.56
725.755	31626.63
726.097	31517.02
726.439	31415.33
726.782	31423.02
727.124	31422.56
727.465	31213.3
727.807	31361.1
728.149	31186.19
728.491	31110.93
728.833	31300.31
729.175	31186.64
729.516	30992.07
729.858	30932.86
730.199	30943.48
730.541	30866.65
730.882	30868.23
731.224	30955.46
731.565	30756.59
731.906	30722.02
732.248	30700.77
732.589	30568.57
732.93	30491.29
733.271	30463.72
733.612	30549.59
733.953	30566.99
734.294	30411.97
734.635	30254.01
734.976	30359.31
735.317	30284.74
735.658	30306.43
735.999	30246.55
736.339	30076.16
736.68	30240
737.021	30035.71
737.361	29956.61
737.702	30075.03
738.042	29960
738.383	29936.73
738.723	29883.62
739.063	29870.06
739.404	29744.42
739.744	29701.48
740.084	29652.89
740.424	29699.22
740.764	29669.84
741.104	29738.77
741.444	29542.39
741.784	29467.36
742.124	29453.12
742.464	29459.23
742.804	29435.27
743.143	29310.75
743.483	29368.83
743.823	29146.47
744.162	29232.56
744.502	29227.37
744.841	29079.12
745.181	29235.28
745.52	29014.94
745.86	29120.03
746.199	29082.29
746.538	28927.94
746.877	29079.12
747.216	28958.67
747.556	28877.55
747.895	28841.61
748.234	28772.92
748.573	28700.6
748.911	28724.56
749.25	28705.57
749.589	28552.81
749.928	28492.25
750.267	28527.95
750.605	28433.94
750.944	28375.19
751.283	28307.39
751.621	28348.52
751.96	28174.06
752.298	28126.61
752.636	28222.87
752.975	28070.56
753.313	27887.29
753.651	28162.08
753.989	27824.47
754.327	27801.42
754.666	27779.72
755.004	27841.19
755.342	27828.53
755.679	27708.99
756.017	27508.54
756.355	27491.59
756.693	27680.52
757.031	27455.89
