Data from hue_310_FLMS001491_29.txt Node
Date: Mon Feb 06 15:49:20 GMT 2017
User: dcchb
Spectrometer: FLMS00149
Trigger mode: 0
Integration Time (sec): 2.000000E-2
Scans to average: 10
Electric dark correction enabled: true
Nonlinearity correction enabled: false
Boxcar width: 0
XAxis mode: Wavelengths
Number of Pixels in Spectrum: 2048
>>>>>Begin Spectral Data<<<<<
341.393	-22.82
341.776	-22.82
342.16	-22.82
342.543	-88.13
342.927	-66.21
343.31	-75.03
343.693	-63.05
344.077	-60.34
344.46	-54.46
344.843	-54.01
345.226	-41.35
345.61	-32.99
345.993	-30.96
346.376	2.71
346.759	0
347.142	24.86
347.525	45.87
347.908	58.76
348.291	73.67
348.674	94.46
349.057	111.86
349.44	115.7
349.823	143.5
350.206	162.26
350.588	186.21
350.971	198.41
351.354	212.42
351.737	241.35
352.119	257.17
352.502	243.38
352.884	265.3
353.267	282.7
353.65	304.4
354.032	291.52
354.414	303.95
354.797	301.46
355.179	325.64
355.562	318.18
355.944	333.1
356.326	312.53
356.709	346.43
357.091	312.76
357.473	322.25
357.855	333.78
358.238	345.75
358.62	334
359.002	318.41
359.384	329.48
359.766	322.48
360.148	331.06
360.53	345.08
360.912	336.26
361.294	320.67
361.676	345.3
362.057	336.94
362.439	321.12
362.821	322.93
363.203	321.8
363.584	329.93
363.966	308.69
364.348	308.47
364.729	332.42
365.111	323.16
365.493	316.6
365.874	305.53
366.256	312.53
366.637	308.01
367.019	294
367.4	317.51
367.781	317.05
368.163	279.77
368.544	308.92
368.925	313.21
369.306	299.2
369.688	310.73
370.069	304.17
370.45	295.13
370.831	320.22
371.212	314.57
371.593	319.09
371.974	300.56
372.355	316.83
372.736	343.04
373.117	315.92
373.498	315.25
373.879	316.15
374.26	305.08
374.641	312.31
375.021	318.41
375.402	303.27
375.783	325.19
376.163	323.83
376.544	324.51
376.925	301.69
377.305	334
377.686	318.41
378.066	352.76
378.447	330.16
378.827	333.32
379.208	328.35
379.588	324.29
379.968	314.79
380.349	322.7
380.729	340.1
381.109	325.19
381.489	348.69
381.87	342.14
382.25	341.69
382.63	307.11
383.01	333.55
383.39	321.12
383.77	327.45
384.15	315.92
384.53	336.94
384.91	332.87
385.29	332.87
385.67	341.69
386.049	367
386.429	344.17
386.809	339.88
387.189	362.25
387.568	322.48
387.948	362.7
388.328	331.97
388.707	352.53
389.087	353.66
389.466	366.32
389.846	331.29
390.225	372.87
390.605	363.38
390.984	360.44
391.363	353.21
391.743	358.41
392.122	365.87
392.501	353.66
392.881	355.02
393.26	359.09
393.639	358.41
394.018	385.98
394.397	376.04
394.776	362.7
395.155	362.7
395.534	375.58
395.913	397.5
396.292	390.5
396.671	388.92
397.05	387.79
397.429	380.33
397.808	388.92
398.186	393.89
398.565	395.02
398.944	390.95
399.323	397.73
399.701	386.43
400.08	381.23
400.458	397.96
400.837	406.54
401.215	391.4
401.594	400.22
401.972	405.87
402.351	414
402.729	413.55
403.107	425.3
403.486	413.55
403.864	408.35
404.242	417.39
404.62	430.72
404.999	427.11
405.377	430.72
405.755	425.3
406.133	438.63
406.511	439.31
406.889	454.68
407.267	439.31
407.645	438.86
408.023	440.89
408.401	465.52
408.779	465.98
409.156	476.37
409.534	466.88
409.912	449.93
410.29	505.75
410.667	491.96
411.045	484.51
411.422	499.65
411.8	500.1
412.178	533.32
412.555	533.77
412.933	552.98
413.31	529.25
413.687	549.59
414.065	555.69
414.442	534.68
414.819	545.3
415.197	566.09
415.574	550.95
415.951	596.82
416.328	599.31
416.705	599.53
417.082	616.71
417.46	630.49
417.837	624.84
418.214	625.52
418.591	624.84
418.967	638.63
419.344	627.33
419.721	638.18
420.098	650.6
420.475	649.7
420.852	657.61
421.228	674.56
421.605	671.85
421.982	680.89
422.358	696.7
422.735	722.47
423.111	729.47
423.488	719.3
423.864	728.34
424.241	762.24
424.617	770.15
424.994	737.61
425.37	743.26
425.746	759.08
426.123	773.54
426.499	790.94
426.875	770.15
427.251	812.63
427.627	796.59
428.003	820.77
428.379	808.57
428.756	813.99
429.132	839.53
429.507	840.43
429.883	873.88
430.259	879.07
430.635	880.2
431.011	878.85
431.387	908.9
431.763	936.7
432.138	915.46
432.514	926.98
432.89	932.86
433.265	959.52
433.641	956.59
434.016	970.37
434.392	992.97
434.767	1028.67
435.143	1011.05
435.518	1001.56
435.894	1043.59
436.269	1032.97
436.644	1049.24
437.02	1053.53
437.395	1052.18
437.77	1073.87
438.145	1094.66
438.52	1085.62
438.895	1105.73
439.271	1092.63
439.646	1114.32
440.021	1115.68
440.395	1122
440.77	1131.5
441.145	1137.6
441.52	1152.96
441.895	1162.91
442.27	1179.86
442.645	1167.2
443.019	1163.36
443.394	1182.57
443.769	1179.4
444.143	1189.8
444.518	1190.93
444.892	1185.05
445.267	1221.89
445.641	1223.47
446.016	1223.02
446.39	1213.3
446.764	1218.27
447.139	1269.12
447.513	1219.85
447.887	1245.62
448.262	1257.14
448.636	1241.32
449.01	1272.96
449.384	1262.34
449.758	1269.57
450.132	1291.27
450.506	1277.25
450.88	1298.04
451.254	1302.79
451.628	1305.05
452.002	1334.43
452.376	1322
452.75	1341.89
453.123	1323.81
453.497	1340.76
453.871	1334.88
454.244	1375.11
454.618	1383.69
454.992	1378.95
455.365	1379.17
455.739	1399.29
456.112	1406.06
456.486	1371.72
456.859	1430.92
457.232	1421.88
457.606	1472.96
457.979	1452.17
458.352	1464.82
458.725	1463.69
459.099	1500.75
459.472	1513.18
459.845	1533.07
460.218	1522.22
460.591	1549.79
460.964	1544.37
461.337	1569.22
461.71	1577.36
462.083	1571.48
462.456	1574.65
462.829	1576.68
463.201	1589.11
463.574	1609.68
463.947	1617.13
464.32	1684.25
464.692	1650.58
465.065	1678.37
465.438	1686.06
465.81	1686.96
466.183	1700.52
466.555	1747.07
466.928	1724.25
467.3	1742.78
467.672	1772.38
468.045	1766.28
468.417	1759.05
468.789	1810.35
469.161	1799.95
469.534	1850.12
469.906	1849.22
470.278	1856.9
470.65	1863.68
471.022	1907.29
471.394	1953.17
471.766	1955.2
472.138	1996.78
472.51	1987.29
472.882	2011.7
473.253	2008.08
473.625	2048.53
473.997	2057.8
474.369	2077.91
474.74	2086.05
475.112	2112.49
475.484	2136.44
475.855	2164.24
476.227	2183.22
476.598	2231.13
476.97	2232.48
477.341	2281.07
477.713	2277.45
478.084	2272.71
478.455	2351.35
478.827	2386.15
479.198	2387.73
479.569	2389.77
479.94	2450.56
480.311	2455.3
480.682	2522.42
481.053	2548.86
481.424	2579.59
481.795	2577.56
482.166	2598.12
482.537	2629.99
482.908	2660.5
483.279	2721.06
483.65	2737.56
484.021	2745.01
484.391	2776.88
484.762	2788.63
485.133	2793.37
485.503	2838.34
485.874	2889.87
486.244	2893.26
486.615	2955.85
486.985	2941.39
487.356	2982.97
487.726	3006.7
488.097	3084.21
488.467	3070.65
488.837	3130.77
489.207	3136.19
489.578	3157.21
489.948	3207.83
490.318	3229.52
490.688	3239.24
491.058	3279.91
491.428	3318.1
491.798	3326.69
492.168	3399.01
492.538	3376.18
492.908	3368.72
493.278	3452.79
493.648	3436.07
494.017	3490.3
494.387	3512
494.757	3547.25
495.126	3571.66
495.496	3523.52
495.866	3556.06
496.235	3596.52
496.605	3603.75
496.974	3626.57
497.344	3660.69
497.713	3650.53
498.082	3700.24
498.452	3716.96
498.821	3755.38
499.19	3747.25
499.559	3776.85
499.928	3784.76
500.298	3763.97
500.667	3828.15
501.036	3822.5
501.405	3842.84
501.774	3876.51
502.143	3878.54
502.512	3868.15
502.88	3915.15
503.249	3901.59
503.618	3951.08
503.987	3961.93
504.356	3920.57
504.724	3920.8
505.093	3980.23
505.462	3998.76
505.83	4012.55
506.199	3992.44
506.567	4047.8
506.936	4088.71
507.304	4132.55
507.672	4088.93
508.041	4128.48
508.409	4154.69
508.777	4116.5
509.145	4171.64
509.514	4215.48
509.882	4153.34
510.25	4177.74
510.618	4206.67
510.986	4251.19
511.354	4230.62
511.722	4272.88
512.09	4279.21
512.458	4275.82
512.826	4276.27
513.193	4318.53
513.561	4366.21
513.929	4347.23
514.297	4356.27
514.664	4387.68
515.032	4359.66
515.4	4408.25
515.767	4405.53
516.135	4400.56
516.502	4380.68
516.869	4465.65
517.237	4484.85
517.604	4461.8
517.972	4517.85
518.339	4484.85
518.706	4488.47
519.073	4500.67
519.44	4539.32
519.808	4576.15
520.175	4564.17
520.542	4583.61
520.909	4568.47
521.276	4618.41
521.643	4642.36
522.009	4671.74
522.376	4652.08
522.743	4671.52
523.11	4684.17
523.477	4703.38
523.843	4714
524.21	4772.3
524.577	4776.15
524.943	4788.35
525.31	4770.95
525.676	4857.73
526.043	4834.22
526.409	4884.62
526.776	4895.46
527.142	4913.54
527.508	4958.97
527.874	5001.22
528.241	4968.46
528.607	5003.48
528.973	5069.47
529.339	5005.29
529.705	5088.45
530.071	5103.59
530.437	5111.73
530.803	5146.98
531.169	5153.76
531.535	5128.9
531.901	5193.76
532.267	5226.3
532.632	5302.69
532.998	5268.56
533.364	5315.79
533.73	5310.59
534.095	5391.04
534.461	5358.96
534.826	5418.61
535.192	5475.11
535.557	5488.67
535.923	5476.24
536.288	5438.5
536.653	5528.44
537.019	5528.22
537.384	5571.83
537.749	5575.22
538.114	5572.28
538.479	5555.56
538.845	5616.58
539.21	5644.82
539.575	5640.3
539.94	5702
540.305	5727.31
540.67	5757.14
541.034	5762.56
541.399	5785.38
541.764	5807.3
542.129	5861.77
542.494	5866.06
542.858	5835.55
543.223	5908.77
543.587	5898.83
543.952	5944.25
544.316	5923.69
544.681	5954.87
545.045	5991.93
545.41	6016.34
545.774	6039.16
546.138	6108.77
546.503	6106.73
546.867	6125.94
547.231	6214.98
547.595	6196
547.959	6183.11
548.324	6177.46
548.688	6171.59
549.052	6265.37
549.416	6278.25
549.779	6273.96
550.143	6332.94
550.507	6334.3
550.871	6365.03
551.235	6363.45
551.599	6385.37
551.962	6398.93
552.326	6469.66
552.689	6410.45
553.053	6443.67
553.417	6466.95
553.78	6532.26
554.143	6534.07
554.507	6516.21
554.87	6492.26
555.234	6618.81
555.597	6566.16
555.96	6642.54
556.323	6661.75
556.686	6612.93
557.05	6696.55
557.413	6682.54
557.776	6690.9
558.139	6712.59
558.502	6723.21
558.865	6815.64
559.228	6799.82
559.59	6798.69
559.953	6867.39
560.316	6934.73
560.679	6914.17
561.041	6931.12
561.404	6946.48
561.767	6958.01
562.129	6919.37
562.492	7027.84
562.854	7020.38
563.217	7038.91
563.579	7019.93
563.941	7084.56
564.304	7131.79
564.666	7095.86
565.028	7142.86
565.39	7123.65
565.753	7193.48
566.115	7155.52
566.477	7265.57
566.839	7263.31
567.201	7328.85
567.563	7290.88
567.925	7402.29
568.287	7409.52
568.648	7447.04
569.01	7464.44
569.372	7471.67
569.734	7431.44
570.095	7520.48
570.457	7612.68
570.819	7634.38
571.18	7590.31
571.542	7702.4
571.903	7681.38
572.265	7735.84
572.626	7748.27
572.987	7875.27
573.349	7835.95
573.71	7923.18
574.071	7985.1
574.432	7990.07
574.794	8071.65
575.155	8152.55
575.516	8135.15
575.877	8265.55
576.238	8318.43
576.599	8417.86
576.96	8423.73
577.32	8477.97
577.681	8557.52
578.042	8599.77
578.403	8754.35
578.763	8797.73
579.124	8883.38
579.485	8935.36
579.845	9116.82
580.206	9229.81
580.566	9374.22
580.927	9432.29
581.287	9589.35
581.648	9632.06
582.008	9839.06
582.368	9966.07
582.728	10110.47
583.089	10260.97
583.449	10388.2
583.809	10628.2
584.169	10705.03
584.529	11000.39
584.889	11169.65
585.249	11286.71
585.609	11514.95
585.969	11733.48
586.329	11922.85
586.688	12130.3
587.048	12317.42
587.408	12524.42
587.768	12784.97
588.127	12959.21
588.487	13227.9
588.846	13481.45
589.206	13681
589.565	13935
589.925	14306.74
590.284	14477.36
590.643	14757.58
591.003	15046.84
591.362	15344.91
591.721	15559.82
592.08	15826.48
592.44	16112.57
592.799	16373.58
593.158	16676.4
593.517	16891.76
593.876	17259.21
594.235	17523.16
594.593	17774.45
594.952	18119.98
595.311	18364.49
595.67	18612.84
596.029	19052.83
596.387	19246.5
596.746	19633.61
597.104	19821.17
597.463	20119.24
597.822	20471.55
598.18	20601.27
598.538	20915.83
598.897	21344.52
599.255	21448.02
599.613	22117.61
599.972	22164.61
600.33	22522.35
600.688	22791.72
601.046	23039.39
601.404	23299.05
601.762	23583.56
602.12	23905.36
602.478	24263.09
602.836	24484.78
603.194	24716.19
603.552	24967.25
603.91	25079.34
604.268	25484.53
604.625	25667.12
604.983	25946.66
605.341	26143.72
605.698	26478.63
606.056	26801.33
606.413	26980.99
606.771	27329.45
607.128	27509.33
607.485	27509.11
607.843	27826.16
608.2	28112.48
608.557	28485.13
608.914	28495.07
609.272	28880.6
609.629	29136.18
609.986	29415.5
610.343	29550.64
610.7	29758.54
611.057	30011.64
611.414	30306.77
611.771	30318.75
612.127	30726.2
612.484	30832.64
612.841	31051.61
613.198	31233.08
613.554	31384.94
613.911	31547.87
614.267	31776.34
614.624	31867.18
614.98	32152.83
615.337	32431.24
615.693	32369.54
616.05	32396.44
616.406	32761.17
616.762	32930.89
617.118	33073.03
617.475	33132.24
617.831	33327.94
618.187	33514.6
618.543	33689.74
618.899	33901.71
619.255	34062.16
619.611	34076.84
619.967	34342.37
620.323	34372.88
620.678	34425.76
621.034	34491.3
621.39	34588.24
621.746	34682.7
622.101	35093.09
622.457	34931.74
622.812	35117.72
623.168	35212.86
623.523	35393.42
623.879	35493.98
624.234	35280.65
624.589	35715.9
624.945	35692.39
625.3	35793.18
625.655	35801.54
626.01	35930.13
626.365	35953.86
626.72	36065.94
627.075	36118.82
627.43	36189.78
627.785	36231.14
628.14	36283.79
628.495	36362.66
628.85	36315.43
629.205	36390
629.559	36800.84
629.914	36530.11
630.269	36683.1
630.623	36561.3
630.978	36562.88
631.332	36718.13
631.687	36897.11
632.041	36758.13
632.396	36904.79
632.75	36740.95
633.104	36814.17
633.459	36716.32
633.813	36803.78
634.167	36799.03
634.521	36832.7
634.875	36910.22
635.229	36848.52
635.583	36820.27
635.937	36791.57
636.291	36850.56
636.645	36925.58
636.999	36834.06
637.352	36939.59
637.706	36847.62
638.06	37027.73
638.413	36881.97
638.767	36844.68
639.121	36920.61
639.474	36639.71
639.828	36830.44
640.181	36869.31
640.534	36977.11
640.888	36818.24
641.241	36658.7
641.594	36819.14
641.947	36912.02
642.301	36789.54
642.654	36819.37
643.007	36922.42
643.36	36849.2
643.713	36729.43
644.066	36714.06
644.419	36698.92
644.771	36472.94
645.124	36155.21
645.477	36114.3
645.83	35870.7
646.182	35844.48
646.535	35636.58
646.888	35811.71
647.24	35571.72
647.593	35716.57
647.945	35712.51
648.298	35678.61
648.65	35477.26
649.002	35401.78
649.355	35555.68
649.707	35546.64
650.059	35754.09
650.411	36094.87
650.763	36180.07
651.115	36523.11
651.467	36474.75
651.819	36505.93
652.171	36444.69
652.523	36371.47
652.875	36347.07
653.227	36188.88
653.578	36468.19
653.93	36413.96
654.282	36220.29
654.633	36270.23
654.985	36338.03
655.337	36229.33
655.688	36316.33
656.039	36481.3
656.391	36037.47
656.742	36143.23
657.094	36096.9
657.445	36335.32
657.796	36108.88
658.147	36065.27
658.498	36113.85
658.849	36198.37
659.2	36114.3
659.551	36096.45
659.902	36255.32
660.253	36141.87
660.604	36201.08
660.955	36014.19
661.306	36152.95
661.656	36017.36
662.007	36197.01
662.358	36180.07
662.708	36063.91
663.059	35965.83
663.409	35835.67
663.76	36214.87
664.11	35983.69
664.461	36014.19
664.811	36005.38
665.161	35881.32
665.511	36033.18
665.862	36098.71
666.212	36168.77
666.562	35980.3
666.912	35974.2
667.262	35918.15
667.612	35916.57
667.962	35940.07
668.312	35992.27
668.662	36154.53
669.011	35844.48
669.361	35839.96
669.711	35854.88
670.06	35834.76
670.41	35778.27
670.76	35795.22
671.109	35960.86
671.459	35839.28
671.808	35900.98
672.157	35886.29
672.507	35696.69
672.856	35742.34
673.205	35776.91
673.554	35893.29
673.904	35594.77
674.253	35960.41
674.602	35760.42
674.951	35275.46
675.3	35110.26
675.649	35686.75
675.998	35656.69
676.346	35679.06
676.695	35806.97
677.044	35463.25
677.393	35713.19
677.741	35589.12
678.09	35618.5
678.438	35511.16
678.787	35538.27
679.135	35558.16
679.484	35348
679.832	35471.84
680.181	35105.07
680.529	35447.43
680.877	35169.02
681.225	35234.1
681.573	35382.12
681.922	35106.65
682.27	35101.22
682.618	35140.32
682.966	34964.73
683.314	35059.19
683.661	35015.58
684.009	34813.55
684.357	34722.93
684.705	34698.52
685.053	34791.85
685.4	34601.8
685.748	34461.01
686.095	34529.49
686.443	34467.79
686.79	34412.65
687.138	34395.71
687.485	34388.02
687.832	34197.52
688.18	34364.97
688.527	34153.9
688.874	34145.09
689.221	34001.37
689.568	34019.67
689.915	33960.91
690.262	33914.81
690.609	33802.28
690.956	33642.28
691.303	33701.03
691.65	33551.66
691.997	33585.78
692.344	33344.66
692.69	33304.21
693.037	33306.02
693.383	33210.88
693.73	33222.18
694.077	33028.74
694.423	33099.47
694.769	32900.15
695.116	32854.28
695.462	32741.06
695.808	32736.09
696.155	32636.2
696.501	32507.85
696.847	32618.8
697.193	32279.6
697.539	32541.07
697.885	32191.24
698.231	31957.35
698.577	32184.24
698.923	32021.53
699.269	31834.19
699.614	31664.48
699.96	31611.82
700.306	31766.4
700.651	31585.84
700.997	31518.49
701.342	31408.89
701.688	31253.87
702.033	31203.7
702.379	31266.52
702.724	31178.16
703.069	31240.08
703.415	30802.58
703.76	30865.63
704.105	30911.05
704.45	30843.03
704.795	30657.5
705.14	30689.36
705.485	30560.33
705.83	30399.88
706.175	30423.61
706.52	30501.34
706.865	30335.93
707.209	30253.89
707.554	30168.25
707.899	30116.04
708.243	29993.11
708.588	29997.4
708.932	29781.14
709.277	29744.3
709.621	29847.8
709.966	29561.93
710.31	29723.51
710.654	29416.63
710.998	29431.54
711.342	29456.85
711.687	29277.65
712.031	29234.03
712.375	29083.98
712.719	29226.8
713.063	29130.53
713.407	29250.98
713.75	29013.7
714.094	29037.88
714.438	28847.15
714.782	28979.13
715.125	28804.89
715.469	28815.97
715.812	28638.57
716.156	28491.23
716.499	28598.34
716.843	28693.93
717.186	28402.19
717.53	28558.57
717.873	28543.2
718.216	28440.61
718.559	28300.72
718.902	28128.3
719.246	28210.33
719.589	28130.56
719.932	28082.65
720.275	28006.5
720.617	27976.89
720.96	28070.67
721.303	27933.28
721.646	27864.35
721.989	27742.55
722.331	27809.44
722.674	27743
723.016	27826.39
723.359	27747.52
723.701	27778.93
724.044	27469.56
724.386	27429.34
724.729	27471.59
725.071	27571.93
725.413	27454.19
725.755	27289
726.097	27315.89
726.439	27172.39
726.782	27140.98
727.124	27277.02
727.465	27076.58
727.807	27156.57
728.149	27047.65
728.491	27016.24
728.833	27018.72
729.175	26877.26
729.516	26851.5
729.858	26735.79
730.199	26827.77
730.541	26787.54
730.882	26754.78
731.224	26783.48
731.565	26542.13
731.906	26633.2
732.248	26635.01
732.589	26493.77
732.93	26421.23
733.271	26453.32
733.612	26445.41
733.953	26484.73
734.294	26329.7
734.635	26335.8
734.976	26390.94
735.317	26192.76
735.658	26138.07
735.999	26205.86
736.339	26019.88
736.68	26152.31
737.021	26034.57
737.361	25968.36
737.702	26109.14
738.042	25999.77
738.383	25903.73
738.723	25914.12
739.063	25756.84
739.404	25847.68
739.744	25771.07
740.084	25567.46
740.424	25665.09
740.764	25653.79
741.104	25760
741.444	25529.27
741.784	25423.51
742.124	25506.22
742.464	25398.2
742.804	25463.51
743.143	25348.03
743.483	25418.99
743.823	25170.41
744.162	25160.92
744.502	25289.96
744.841	25130.86
745.181	25241.82
745.52	25212.67
745.86	25187.36
746.199	25082.28
746.538	25089.51
746.877	25119.57
747.216	25035.27
747.556	24875.05
747.895	25003.86
748.234	24771.33
748.573	24956.86
748.911	24781.72
749.25	24752.34
749.589	24612.69
749.928	24703.76
750.267	24703.98
750.605	24591.67
750.944	24654.49
751.283	24560.71
751.621	24514.84
751.96	24433.26
752.298	24338.8
752.636	24403.2
752.975	24215.63
753.313	24153.26
753.651	24264.9
753.989	24110.55
754.327	24073.72
754.666	23973.38
755.004	24054.96
755.342	24044.34
755.679	24020.84
756.017	23784.91
756.355	23833.05
756.693	23802.99
757.031	23805.02
757.368	23629.21
757.706	23605.48
758.044	23476.9
758.381	23528.65
758.719	23290.01
759.056	23467.63
759.394	23337.69
759.731	23215.89
760.068	23206.4
760.405	22972.5
