Data from hue_310_FLMS001491_51.txt Node
Date: Mon Feb 06 15:49:52 GMT 2017
User: dcchb
Spectrometer: FLMS00149
Trigger mode: 0
Integration Time (sec): 2.000000E-2
Scans to average: 10
Electric dark correction enabled: true
Nonlinearity correction enabled: false
Boxcar width: 0
XAxis mode: Wavelengths
Number of Pixels in Spectrum: 2048
>>>>>Begin Spectral Data<<<<<
341.393	-20.66
341.776	-20.66
342.16	-20.66
342.543	-47.56
342.927	-66.99
343.31	-70.83
343.693	-56.14
344.077	-62.47
344.46	-60.44
344.843	-70.83
345.226	-45.97
345.61	-38.97
345.993	-17.73
346.376	14.14
346.759	1.26
347.142	36.96
347.525	38.77
347.908	61.82
348.291	79
348.674	93.23
349.057	98.2
349.44	137.3
349.823	145.89
350.206	158.09
350.588	209.84
350.971	204.19
351.354	219.56
351.737	248.03
352.119	258.2
352.502	269.95
352.884	274.02
353.267	258.43
353.65	297.75
354.032	298.65
354.414	295.03
354.797	340.46
355.179	328.25
355.562	318.76
355.944	326.67
356.326	345.43
356.709	332.77
357.091	328.03
357.473	332.55
357.855	356.28
358.238	340.23
358.62	343.85
359.002	347.91
359.384	335.03
359.766	357.63
360.148	348.82
360.53	335.26
360.912	329.38
361.294	319.89
361.676	333.9
362.057	323.06
362.439	329.38
362.821	320.57
363.203	348.82
363.584	342.49
363.966	299.1
364.348	321.7
364.729	339.55
365.111	330.06
365.493	324.19
365.874	342.49
366.256	311.98
366.637	331.42
367.019	305.66
367.4	321.25
367.781	309.95
368.163	304.07
368.544	311.98
368.925	311.76
369.306	307.24
369.688	311.98
370.069	341.36
370.45	301.59
370.831	315.15
371.212	325.32
371.593	304.3
371.974	328.25
372.355	327.58
372.736	330.51
373.117	321.25
373.498	331.64
373.879	323.96
374.26	321.25
374.641	295.26
375.021	327.35
375.402	321.7
375.783	327.12
376.163	331.19
376.544	328.93
376.925	335.71
377.305	330.51
377.686	327.35
378.066	352.66
378.447	333
378.827	343.39
379.208	335.03
379.588	319.44
379.968	348.14
380.349	332.32
380.729	331.87
381.109	352.21
381.489	328.48
381.87	343.17
382.25	331.19
382.63	345.88
383.01	373.68
383.39	361.93
383.77	313.79
384.15	328.93
384.53	342.94
384.91	345.88
385.29	348.14
385.67	365.54
386.049	357.41
386.429	349.72
386.809	368.25
387.189	368.7
387.568	334.58
387.948	347.69
388.328	350.63
388.707	356.28
389.087	366.45
389.466	344.52
389.846	350.63
390.225	375.71
390.605	357.41
390.984	384.52
391.363	386.78
391.743	377.07
392.122	383.39
392.501	390.63
392.881	386.11
393.26	377.52
393.639	380.91
394.018	373.9
394.397	382.26
394.776	393.11
395.155	388.37
395.534	392.89
395.913	401.25
396.292	389.5
396.671	393.79
397.05	400.12
397.429	407.12
397.808	420.23
398.186	402.15
398.565	392.21
398.944	408.48
399.323	397.86
399.701	391.76
400.08	410.29
400.458	415.71
400.837	408.48
401.215	413.68
401.594	428.14
401.972	441.47
402.351	411.87
402.729	412.09
403.107	455.26
403.486	433.11
403.864	424.3
404.242	433.56
404.62	453.22
404.999	453
405.377	460.45
405.755	460.23
406.133	453.67
406.511	483.05
406.889	479.21
407.267	479.21
407.645	488.93
408.023	475.59
408.401	461.58
408.779	498.87
409.156	457.52
409.534	495.71
409.912	489.38
410.29	501.36
410.667	510.85
411.045	532.32
411.422	522.37
411.8	536.61
412.178	521.7
412.555	539.77
412.933	543.62
413.31	562.6
413.687	592.43
414.065	584.29
414.442	579.77
414.819	595.82
415.197	613.44
415.574	612.77
415.951	610.28
416.328	617.96
416.705	615.7
417.082	631.07
417.46	650.05
417.837	639.43
418.214	663.61
418.591	682.6
418.967	684.63
419.344	678.08
419.721	686.44
420.098	710.16
420.475	727.57
420.852	712.65
421.228	737.51
421.605	737.06
421.982	747
422.358	758.98
422.735	761.24
423.111	766.89
423.488	794.46
423.864	772.99
424.241	790.61
424.617	829.94
424.994	804.85
425.37	839.43
425.746	852.53
426.123	848.69
426.499	808.69
426.875	859.31
427.251	882.82
427.627	858.41
428.003	892.53
428.379	917.39
428.756	893.44
429.132	888.69
429.507	916.04
429.883	937.96
430.259	958.29
430.635	984.73
431.011	970.72
431.387	976.82
431.763	996.03
432.138	1011.63
432.514	1037.16
432.89	1013.21
433.265	1044.85
433.641	1055.92
434.016	1071.74
434.392	1080.78
434.767	1096.6
435.143	1079.87
435.518	1088.23
435.894	1130.04
436.269	1150.15
436.644	1143.37
437.02	1143.83
437.395	1149.25
437.77	1185.18
438.145	1166.42
438.52	1205.97
438.895	1189.7
439.271	1188.12
439.646	1229.93
440.021	1261.56
440.395	1261.34
440.77	1251.39
441.145	1267.89
441.52	1275.35
441.895	1252.75
442.27	1303.82
442.645	1291.62
443.019	1309.92
443.394	1303.6
443.769	1312.86
444.143	1310.38
444.518	1323.26
444.892	1302.69
445.267	1339.07
445.641	1346.08
446.016	1354.89
446.39	1327.1
446.764	1344.95
447.139	1361.45
447.513	1358.28
447.887	1381.79
448.262	1371.84
448.636	1371.39
449.01	1364.84
449.384	1404.84
449.758	1384.05
450.132	1405.29
450.506	1402.35
450.88	1433.31
451.254	1426.76
451.628	1408.23
452.002	1455
452.376	1438.73
452.75	1468.34
453.123	1466.98
453.497	1483.25
453.871	1483.25
454.244	1524.83
454.618	1480.09
454.992	1534.32
455.365	1567.77
455.739	1560.76
456.112	1559.18
456.486	1579.75
456.859	1573.87
457.232	1628.33
457.606	1598.28
457.979	1624.04
458.352	1655.45
458.725	1636.92
459.099	1632.63
459.472	1690.25
459.845	1667.88
460.218	1698.61
460.591	1685.73
460.964	1695
461.337	1720.08
461.71	1779.74
462.083	1789.01
462.456	1762.34
462.829	1769.12
463.201	1790.81
463.574	1786.29
463.947	1860.64
464.32	1822.9
464.692	1844.37
465.065	1867.65
465.438	1892.96
465.81	1911.49
466.183	1934.09
466.555	1915.56
466.928	1959.62
467.3	1946.29
467.672	1972.05
468.045	1993.97
468.417	2006.85
468.789	2018.15
469.161	2040.75
469.534	2045.95
469.906	2059.28
470.278	2078.26
470.65	2096.57
471.022	2112.39
471.394	2174.08
471.766	2184.48
472.138	2185.15
472.51	2257.69
472.882	2229.9
473.253	2258.37
473.625	2308.32
473.997	2280.52
474.369	2332.72
474.74	2320.97
475.112	2366.39
475.484	2345.38
475.855	2427.63
476.227	2396
476.598	2460.18
476.97	2491.36
477.341	2541.3
477.713	2554.41
478.084	2556.44
478.455	2618.82
478.827	2613.84
479.198	2685.03
479.569	2687.06
479.94	2726.61
480.311	2792.82
480.682	2812.26
481.053	2869.43
481.424	2853.84
481.795	2906.72
482.166	2939.71
482.537	2915.53
482.908	2968.18
483.279	3055.41
483.65	3057.22
484.021	3101.51
484.391	3133.38
484.762	3130.44
485.133	3166.6
485.503	3210.21
485.874	3245.01
486.244	3279.59
486.615	3296.99
486.985	3370.66
487.356	3422.18
487.726	3383.54
488.097	3415.4
488.467	3455.63
488.837	3503.76
489.207	3559.36
489.578	3564.78
489.948	3603.65
490.318	3656.75
490.688	3659.47
491.058	3682.29
491.428	3730.65
491.798	3728.16
492.168	3800.25
492.538	3774.27
492.908	3839.12
493.278	3877.54
493.648	3830.08
494.017	3899.46
494.387	3985.56
494.757	4000.47
495.126	3990.08
495.496	4024.65
495.866	4080.25
496.235	4048.83
496.605	4088.61
496.974	4104.43
497.344	4106.91
497.713	4159.79
498.082	4191.66
498.452	4195.05
498.821	4181.49
499.19	4206.57
499.559	4240.24
499.928	4271.2
500.298	4282.95
500.667	4327.47
501.036	4282.73
501.405	4337.19
501.774	4334.25
502.143	4418.32
502.512	4377.41
502.88	4413.12
503.249	4378.54
503.618	4445.89
503.987	4478.43
504.356	4450.63
504.724	4476.17
505.093	4551.19
505.462	4505.09
505.83	4484.3
506.199	4568.14
506.567	4600.23
506.936	4560.91
507.304	4637.75
507.672	4663.06
508.041	4642.94
508.409	4690.63
508.777	4699.21
509.145	4712.55
509.514	4713.68
509.882	4753.45
510.25	4764.3
510.618	4792.77
510.986	4774.92
511.354	4808.59
511.722	4811.53
512.09	4854.46
512.458	4849.94
512.826	4892.2
513.193	4862.37
513.561	4881.58
513.929	4956.38
514.297	4972.43
514.664	4972.88
515.032	4980.11
515.4	5018.75
515.767	4958.19
516.135	5000.45
516.502	4972.65
516.869	5049.03
517.237	5034.57
517.604	5075.25
517.972	5064.4
518.339	5100.33
518.706	5097.85
519.073	5131.52
519.44	5158.41
519.808	5130.16
520.175	5167.45
520.542	5246.32
520.909	5202.93
521.276	5174.91
521.643	5236.6
522.009	5268.24
522.376	5247.67
522.743	5294.45
523.11	5364.73
523.477	5337.16
523.843	5422.13
524.21	5397.5
524.577	5447.22
524.943	5458.97
525.31	5513.43
525.676	5529.47
526.043	5545.29
526.409	5580.77
526.776	5620.77
527.142	5651.28
527.508	5646.76
527.874	5652.63
528.241	5669.81
528.607	5702.8
528.973	5757.72
529.339	5755.68
529.705	5797.71
530.071	5854.21
530.437	5851.72
530.803	5902.8
531.169	5940.54
531.535	5912.29
531.901	5933.3
532.267	5977.15
532.632	6008.78
532.998	6027.31
533.364	6085.16
533.73	6057.82
534.095	6128.33
534.461	6103.92
534.826	6147.76
535.192	6212.62
535.557	6247.65
535.923	6240.19
536.288	6322.22
536.653	6282.9
537.019	6288.1
537.384	6279.28
537.749	6330.81
538.114	6325.16
538.479	6404.25
538.845	6451.26
539.21	6419.85
539.575	6402.22
539.94	6482.89
540.305	6480.86
540.67	6452.61
541.034	6562.67
541.399	6580.75
541.764	6591.82
542.129	6594.08
542.494	6585.04
542.858	6718.59
543.223	6696.22
543.587	6757.46
543.952	6759.05
544.316	6772.15
544.681	6811.25
545.045	6856.9
545.41	6851.92
545.774	6914.75
546.138	6933.73
546.503	6930.79
546.867	6924.01
547.231	7065.93
547.595	7085.82
547.959	7066.16
548.324	7062.54
548.688	7082.65
549.052	7172.14
549.416	7161.52
549.779	7166.49
550.143	7190.67
550.507	7243.1
550.871	7228.19
551.235	7258.24
551.599	7296.43
551.962	7338.01
552.326	7325.58
552.689	7405.13
553.053	7380.05
553.417	7415.75
553.78	7528.06
554.143	7464.34
554.507	7488.97
554.87	7519.7
555.234	7581.62
555.597	7474.28
555.96	7568.52
556.323	7583.43
556.686	7608.51
557.05	7633.6
557.413	7639.25
557.776	7666.59
558.139	7702.98
558.502	7725.35
558.865	7709.53
559.228	7811.67
559.59	7730.55
559.953	7823.65
560.316	7879.24
560.679	7795.85
561.041	7905
561.404	7911.11
561.767	8032.91
562.129	7986.58
562.492	7999.01
562.854	7966.25
563.217	8041.72
563.579	8010.09
563.941	8080.82
564.304	8068.62
564.666	8204.21
565.028	8210.53
565.39	8181.38
565.753	8256.41
566.115	8280.81
566.477	8251.44
566.839	8305.9
567.201	8327.82
567.563	8346.8
567.925	8389.74
568.287	8395.61
568.648	8437.19
569.01	8518.77
569.372	8563.29
569.734	8508.15
570.095	8631.99
570.457	8621.14
570.819	8636.51
571.18	8653.91
571.542	8734.59
571.903	8792.89
572.265	8856.62
572.626	8899.1
572.987	8901.59
573.349	8951.98
573.71	9037.86
574.071	9056.39
574.432	9098.19
574.794	9294.57
575.155	9209.38
575.516	9251.86
575.877	9353.33
576.238	9447.56
576.599	9494.11
576.96	9547.22
577.32	9609.37
577.681	9728.68
578.042	9874.9
578.403	9928.91
578.763	9966.42
579.124	10078.73
579.485	10142.69
579.845	10368.67
580.206	10461.09
580.566	10580.19
580.927	10686.63
581.287	10815.66
581.648	10977.92
582.008	11158.03
582.368	11248.87
582.728	11418.13
583.089	11537.68
583.449	11678.01
583.809	11903.54
584.169	12143.54
584.529	12336.98
584.889	12532.68
585.249	12692.22
585.609	12941.26
585.969	13098.99
586.329	13291.98
586.688	13571.3
587.048	13776.04
587.408	14061.23
587.768	14262.35
588.127	14512.74
588.487	14677.71
588.846	15105.04
589.206	15244.7
589.565	15515.2
589.925	15876.32
590.284	16016.2
590.643	16420.03
591.003	16704.77
591.362	16958.1
591.721	17350.18
592.08	17565.54
592.44	17878.08
592.799	18214.79
593.158	18439.87
593.517	18739.07
593.876	19044.6
594.235	19420.18
594.593	19669.67
594.952	20082.31
595.311	20229.65
595.67	20598.91
596.029	21107.37
596.387	21334.71
596.746	21738.54
597.104	21937.86
597.463	22111.18
597.822	22619.87
598.18	22800.88
598.538	23133.98
598.897	23559.28
599.255	23713.85
599.613	24280.62
599.972	24382.08
600.33	24693.94
600.688	24995.18
601.046	25389.06
601.404	25747.25
601.762	25933
602.12	26389.94
602.478	26597.39
602.836	26842.36
603.194	27004.61
603.552	27394.21
603.91	27517.6
604.268	27791.94
604.625	28043.91
604.983	28366.16
605.341	28642.09
605.698	28931.8
606.056	29177.89
606.413	29499.46
606.771	29831.89
607.128	30026
607.485	30028.72
607.843	30456.95
608.2	30706.44
608.557	31143.26
608.914	31215.13
609.272	31615.79
609.629	31839.29
609.986	32117.02
610.343	32152.95
610.7	32613.05
611.057	32742.77
611.414	32806.5
611.771	33018.92
612.127	33301.4
612.484	33558.79
612.841	33848.5
613.198	33810.31
613.554	34100.25
613.911	34406.45
614.267	34503.63
614.624	34690.51
614.98	34859.1
615.337	35278.75
615.693	35352.42
616.05	35410.95
616.406	35624.5
616.762	35780.2
617.118	35799.41
617.475	35889.35
617.831	36256.57
618.187	36362.33
618.543	36586.28
618.899	36926.84
619.255	36848.42
619.611	36984.01
619.967	37178.81
620.323	37431.23
620.678	37290.67
621.034	37378.13
621.39	37581.96
621.746	37579.03
622.101	38223.75
622.457	37908.28
622.812	38015.17
623.168	38234.6
623.523	38272.34
623.879	38404.54
624.234	38388.72
624.589	38557.98
624.945	38536.74
625.3	38795.04
625.655	38790.52
626.01	38856.28
626.365	39008.82
626.72	39066.22
627.075	39047.01
627.43	39105.99
627.785	39097.18
628.14	39324.97
628.495	39500.78
628.85	39412.42
629.205	39264.86
629.559	39701.23
629.914	39458.52
630.269	39564.28
630.623	39551.63
630.978	39562.48
631.332	39782.81
631.687	39962.69
632.041	39725.18
632.396	39958.4
632.75	39673.89
633.104	39734.68
633.459	39807.67
633.813	39777.61
634.167	39809.7
634.521	39778.52
634.875	39888.34
635.229	39904.61
635.583	39699.2
635.937	39864.39
636.291	39753.43
636.645	39856.03
636.999	39869.81
637.352	40000.66
637.706	39738.74
638.06	39959.53
638.413	39835.92
638.767	39752.3
639.121	39864.16
639.474	39699.65
639.828	39759.08
640.181	39641.34
640.534	39785.3
640.888	39688.58
641.241	39522.93
641.594	39636.83
641.947	39760.89
642.301	39720.89
642.654	39649.71
643.007	39776.71
643.36	39699.2
643.713	39603.61
644.066	39892.19
644.419	39565.19
644.771	39298.98
645.124	39056.73
645.477	38973.79
645.83	38819.67
646.182	38636.63
646.535	38576.74
646.888	38608.83
647.24	38459.45
647.593	38719.11
647.945	38630.98
648.298	38314.83
648.65	38279.8
649.002	38336.29
649.355	38445.44
649.707	38423.98
650.059	38573.58
650.411	38901.93
650.763	39130.85
651.115	39495.13
651.467	39381.24
651.819	39334.46
652.171	39281.13
652.523	39190.96
652.875	39266.67
653.227	39098.99
653.578	39329.49
653.93	39340.79
654.282	39168.14
654.633	39045.65
654.985	39106.44
655.337	39074.35
655.688	39117.74
656.039	39148.93
656.391	38806.79
656.742	39096.05
657.094	39065.77
657.445	39176.5
657.796	39033.23
658.147	38917.97
658.498	39025.99
658.849	39101.02
659.2	38975.6
659.551	38911.42
659.902	38950.29
660.253	39020.12
660.604	39016.95
660.955	38819.9
661.306	39026.67
661.656	38905.32
662.007	38882.27
662.358	38752.1
662.708	38906.9
663.059	38871.2
663.409	38680.01
663.76	38995.26
664.11	38809.05
664.461	38965.88
664.811	38911.19
665.161	38912.1
665.511	38833.91
665.862	38856.51
666.212	38908.93
666.562	38964.98
666.912	38896.05
667.262	38785.32
667.612	38777.64
667.962	38848.15
668.312	38891.53
668.662	38883.85
669.011	38834.13
669.361	38753.91
669.711	38728.6
670.06	38829.16
670.41	38644.31
670.76	38604.99
671.109	38970.18
671.459	38788.94
671.808	38797.07
672.157	38754.14
672.507	38543.29
672.856	38589.39
673.205	38467.36
673.554	38806.34
673.904	38640.92
674.253	38700.13
674.602	38600.02
674.951	38125.9
675.3	37739.02
675.649	38480.02
675.998	38433.01
676.346	38388.72
676.695	38613.35
677.044	38214.04
677.393	38241.16
677.741	38376.07
678.09	38318.44
678.438	38237.09
678.787	38381.49
679.135	38395.05
679.484	38150.54
679.832	38192.57
680.181	38051.78
680.529	38130.88
680.877	37930.66
681.225	38051.56
681.573	38127.49
681.922	37966.59
682.27	37917.1
682.618	37851.56
682.966	37648.18
683.314	37746.25
683.661	37707.84
684.009	37477.79
684.357	37526.37
684.705	37463.77
685.053	37621.96
685.4	37434.62
685.748	37214.97
686.095	37258.81
686.443	37144.91
686.79	37056.1
687.138	37253.16
687.485	37111.02
687.832	37037.12
688.18	37089.1
688.527	36837.8
688.874	36804.81
689.221	36741.08
689.568	36659.73
689.915	36619.5
690.262	36634.87
690.609	36415.67
690.956	36390.13
691.303	36402.33
691.65	36217.03
691.997	36058.61
692.344	35961.67
692.69	35927.77
693.037	35962.12
693.383	35802.8
693.73	35861.56
694.077	35550.38
694.423	35584.95
694.769	35571.4
695.116	35332.08
695.462	35432.87
695.808	35248.47
696.155	35397.84
696.501	34987.23
696.847	35077.17
697.193	34837.18
697.539	35078.98
697.885	34711.53
698.231	34561.48
698.577	34503.4
698.923	34517.41
699.269	34390.41
699.614	34202.39
699.96	34229.74
700.306	34261.37
700.651	34064.09
700.997	33978.22
701.342	33965.56
701.688	33889.86
702.033	33750.65
702.379	33829.29
702.724	33539.58
703.069	33624.78
703.415	33216.2
703.76	33283.09
704.105	33401.73
704.45	33273.83
704.795	33104.57
705.14	33003.1
705.485	32980.5
705.83	32814.63
706.175	32830.22
706.52	32852.82
706.865	32599.72
707.209	32639.72
707.554	32591.59
707.899	32587.52
708.243	32394.76
708.588	32448.77
708.932	32233.63
709.277	32106.18
709.621	32157.25
709.966	32031.6
710.31	32088.32
710.654	31838.61
710.998	31905.95
711.342	31794.77
711.687	31771.72
712.031	31590.48
712.375	31525.63
712.719	31498.06
713.063	31493.08
713.407	31562.91
713.75	31427.32
714.094	31372.18
714.438	31216.26
714.782	31311.62
715.125	31134.22
715.469	31221.45
715.812	30974.23
716.156	30921.35
716.499	30871.18
716.843	30855.14
717.186	30705.76
717.53	30943.95
717.873	30713.67
718.216	30659.21
718.559	30538.08
718.902	30316.39
719.246	30491.08
719.589	30379.89
719.932	30202.5
720.275	30363.85
720.617	30207.02
720.96	30235.49
721.303	30141.03
721.646	30117.08
721.989	30148.49
722.331	29997.53
722.674	29966.12
723.016	29967.02
723.359	29858.55
723.701	29993.46
724.044	29680.7
724.386	29524.55
724.729	29776.07
725.071	29638.22
725.413	29560.48
725.755	29586.69
726.097	29460.14
726.439	29285.23
726.782	29294.72
727.124	29516.64
727.465	29252.24
727.807	29248.4
728.149	29242.07
728.491	29138.8
728.833	29027.61
729.175	28922.76
729.516	28882.31
729.858	29050.44
730.199	28937.67
730.541	28897.67
730.882	28791.01
731.224	28863.32
731.565	28707.39
731.906	28788.97
732.248	28645.7
732.589	28636.66
732.93	28442.54
733.271	28607.28
733.612	28543.11
733.953	28468.08
734.294	28234.41
734.635	28412.94
734.976	28469.89
735.317	28265.82
735.658	28256.33
735.999	28153.06
736.339	28137.01
736.68	28162.78
737.021	28094.98
737.361	27977.47
737.702	28050.01
738.042	28050.46
738.383	28032.38
738.723	27932.27
739.063	27889.56
739.404	27816.57
739.744	27865.38
740.084	27732.51
740.424	27824.71
740.764	27760.3
741.104	27799.62
741.444	27620.42
741.784	27617.03
742.124	27651.83
742.464	27541.1
742.804	27410.25
743.143	27394.44
743.483	27379.75
743.823	27271.73
744.162	27233.31
744.502	27320.31
744.841	27130.26
745.181	27195.12
745.52	27115.57
745.86	27069.92
746.199	27063.14
746.538	26953.99
746.877	26994.45
747.216	26963.94
747.556	26950.15
747.895	26878.06
748.234	26810.95
748.573	26793.77
748.911	26662.93
749.25	26672.42
749.589	26610.95
749.928	26590.84
750.267	26639.2
750.605	26419.55
750.944	26451.86
751.283	26361.24
751.621	26458.87
751.96	26276.27
752.298	26207.8
752.636	26314.24
752.975	26076.28
753.313	26018.65
753.651	26266.1
753.989	25994.7
754.327	25952.89
754.666	25799
755.004	25851.42
755.342	25844.65
755.679	25835.15
756.017	25648.72
756.355	25721.03
756.693	25648.04
757.031	25568.04
757.368	25407.14
757.706	25476.75
758.044	25418.44
758.381	25308.61
758.719	25267.71
759.056	25189.52
759.394	25098
