Data from hue_90_FLMS001491_42.txt Node
Date: Mon Feb 06 15:25:11 GMT 2017
User: dcchb
Spectrometer: FLMS00149
Trigger mode: 0
Integration Time (sec): 2.000000E-2
Scans to average: 10
Electric dark correction enabled: true
Nonlinearity correction enabled: false
Boxcar width: 0
XAxis mode: Wavelengths
Number of Pixels in Spectrum: 2048
>>>>>Begin Spectral Data<<<<<
341.393	-25.69
341.776	-25.69
342.16	-25.69
342.543	-68.18
342.927	-62.3
343.31	-81.96
343.693	-69.98
344.077	-67.05
344.46	-86.03
344.843	-42.19
345.226	-44.67
345.61	-23.43
345.993	-10.55
346.376	-6.71
346.759	13.18
347.142	19.51
347.525	31.03
347.908	61.99
348.291	92.5
348.674	110.35
349.057	104.02
349.44	129.56
349.823	165.26
350.206	173.63
350.588	191.93
350.971	212.95
351.354	208.43
351.737	234.19
352.119	250.01
352.502	267.86
352.884	270.8
353.267	284.13
353.65	291.36
354.032	323
354.414	306.5
354.797	314.64
355.179	311.93
355.562	337.91
355.944	323.9
356.326	345.37
356.709	347.86
357.091	325.71
357.473	315.09
357.855	353.06
358.238	325.71
358.62	336.78
359.002	331.36
359.384	331.59
359.766	346.73
360.148	336.11
360.53	357.12
360.912	335.66
361.294	324.13
361.676	325.26
362.057	324.13
362.439	326.16
362.821	325.71
363.203	316.67
363.584	327.52
363.966	332.49
364.348	332.49
364.729	319.61
365.111	298.82
365.493	318.71
365.874	310.57
366.256	332.94
366.637	325.94
367.019	330.46
367.4	314.19
367.781	317.8
368.163	295.2
368.544	328.42
368.925	325.26
369.306	334.75
369.688	318.03
370.069	333.4
370.45	286.84
370.831	322.1
371.212	333.62
371.593	336.56
371.974	315.54
372.355	329.55
372.736	325.49
373.117	316.22
373.498	314.41
373.879	324.81
374.26	315.54
374.641	319.84
375.021	323.68
375.402	331.36
375.783	337.91
376.163	329.1
376.544	324.13
376.925	345.15
377.305	351.47
377.686	321.19
378.066	300.63
378.447	343.11
378.827	343.11
379.208	334.53
379.588	333.85
379.968	350.34
380.349	349.67
380.729	341.3
381.109	346.95
381.489	336.11
381.87	337.91
382.25	355.09
382.63	350.12
383.01	356.67
383.39	355.99
383.77	350.34
384.15	349.44
384.53	347.18
384.91	340.4
385.29	357.12
385.67	348.31
386.049	370.91
386.429	356.9
386.809	367.74
387.189	355.99
387.568	340.85
387.948	365.94
388.328	366.61
388.707	336.11
389.087	353.28
389.466	367.29
389.846	366.61
390.225	369.1
390.605	365.71
390.984	357.12
391.363	387.63
391.743	381.53
392.122	365.03
392.501	377.91
392.881	384.02
393.26	389.21
393.639	382.89
394.018	367.29
394.397	392.15
394.776	398.03
395.155	390.12
395.534	395.54
395.913	384.02
396.292	398.7
396.671	398.48
397.05	409.78
397.429	382.89
397.808	382.66
398.186	377.24
398.565	397.8
398.944	381.3
399.323	407.74
399.701	404.13
400.08	402.77
400.458	390.79
400.837	396.22
401.215	413.85
401.594	422.43
401.972	422.21
402.351	414.07
402.729	426.05
403.107	415.2
403.486	422.43
403.864	413.85
404.242	419.49
404.62	422.66
404.999	426.05
405.377	426.27
405.755	424.01
406.133	419.49
406.511	443.45
406.889	437.12
407.267	459.72
407.645	410.68
408.023	452.49
408.401	436.9
408.779	479.83
409.156	452.26
409.534	451.36
409.912	464.24
410.29	470.79
410.667	467.18
411.045	475.09
411.422	463.11
411.8	479.38
412.178	491.81
412.555	477.57
412.933	459.04
413.31	515.31
413.687	475.54
414.065	489.1
414.442	487.06
414.819	499.49
415.197	535.2
415.574	483.67
415.951	519.15
416.328	490
416.705	497.91
417.082	517.12
417.46	514.63
417.837	513.05
418.214	501.07
418.591	530.68
418.967	553.73
419.344	517.12
419.721	538.81
420.098	519.38
420.475	546.95
420.852	527.51
421.228	540.17
421.605	562.32
421.982	529.1
422.358	533.16
422.735	546.72
423.111	559.6
423.488	563.67
423.864	561.64
424.241	568.87
424.617	595.76
424.994	591.92
425.37	569.32
425.746	572.94
426.123	579.72
426.499	587.4
426.875	586.04
427.251	597.57
427.627	614.07
428.003	590.79
428.379	614.29
428.756	637.79
429.132	636.44
429.507	634.18
429.883	634.18
430.259	647.96
430.635	654.74
431.011	638.47
431.387	636.21
431.763	652.03
432.138	673.05
432.514	652.48
432.89	687.96
433.265	694.29
433.641	688.87
434.016	680.05
434.392	713.72
434.767	711.46
435.143	704.68
435.518	705.81
435.894	726.38
436.269	706.72
436.644	740.84
437.02	737
437.395	744.91
437.77	736.32
438.145	743.1
438.52	751.92
438.895	753.72
439.271	767.28
439.646	780.16
440.021	783.33
440.395	792.59
440.77	788.3
441.145	798.92
441.52	787.85
441.895	803.44
442.27	820.61
442.645	804.57
443.019	818.58
443.394	850.9
443.769	830.56
444.143	839.82
444.518	835.08
444.892	820.61
445.267	840.95
445.641	844.57
446.016	845.7
446.39	859.03
446.764	855.87
447.139	877.11
447.513	865.81
447.887	858.58
448.262	870.33
448.636	876.88
449.01	896.32
449.384	925.02
449.758	910.56
450.132	918.69
450.506	894.96
450.88	929.76
451.254	951.68
451.628	951.46
452.002	939.48
452.376	939.71
452.75	970.44
453.123	955.53
453.497	986.49
453.871	980.38
454.244	996.88
454.618	997.56
454.992	1028.74
455.365	1044.34
455.739	1061.74
456.112	1048.63
456.486	1033.72
456.859	1062.42
457.232	1080.04
457.606	1099.25
457.979	1109.42
458.352	1125.69
458.725	1123.43
459.099	1143.32
459.472	1176.54
459.845	1161.17
460.218	1188.06
460.591	1190.77
460.964	1209.53
461.337	1170.89
461.71	1244.11
462.083	1249.3
462.456	1268.51
462.829	1310.54
463.201	1275.52
463.574	1275.97
463.947	1334.27
464.32	1342.86
464.692	1355.29
465.065	1360.71
465.438	1402.29
465.81	1422.86
466.183	1449.07
466.555	1496.53
466.928	1446.59
467.3	1452.24
467.672	1493.59
468.045	1563.65
468.417	1553.93
468.789	1566.36
469.161	1604.55
469.534	1642.51
469.906	1654.26
470.278	1717.54
470.65	1722.96
471.022	1753.24
471.394	1786.69
471.766	1823.98
472.138	1861.04
472.51	1889.74
472.882	1916.18
473.253	1962.28
473.625	2021.03
473.997	2030.98
474.369	2080.69
474.74	2083.86
475.112	2164.31
475.484	2219.67
475.855	2277.75
476.227	2311.87
476.598	2395.94
476.97	2428.03
477.341	2508.25
477.713	2590.74
478.084	2584.64
478.455	2679.32
478.827	2743.05
479.198	2824.86
479.569	2891.75
479.94	3001.35
480.311	3007.68
480.682	3131.74
481.053	3249.25
481.424	3334.67
481.795	3437.95
482.166	3477.04
482.537	3570.6
482.908	3685.85
483.279	3789.35
483.65	3887.65
484.021	4009.46
484.391	4087.42
484.762	4170.36
485.133	4278.6
485.503	4351.37
485.874	4485.38
486.244	4606.73
486.615	4717.46
486.985	4875.87
487.356	5018.47
487.726	5155.19
488.097	5304.56
488.467	5361.96
488.837	5570.55
489.207	5650.77
489.578	5817.09
489.948	5869.52
490.318	6055.05
490.688	6124.66
491.058	6293.01
491.428	6392.22
491.798	6550.63
492.168	6784.52
492.538	6844.41
492.908	6998.08
493.278	7142.26
493.648	7238.75
494.017	7391.97
494.387	7518.97
494.757	7615.69
495.126	7762.13
495.496	7900.88
495.866	8062.46
496.235	8218.39
496.605	8311.26
496.974	8374.54
497.344	8512.84
497.713	8603.69
498.082	8704.7
498.452	8834.87
498.821	8951.47
499.19	9034.41
499.559	9193.05
499.928	9208.19
500.298	9343.78
500.667	9542.19
501.036	9563.66
501.405	9682.75
501.774	9762.3
502.143	9962.52
502.512	9927.27
502.88	10129.52
503.249	10137.66
503.618	10225.34
503.987	10233.25
504.356	10362.51
504.724	10471.66
505.093	10578.1
505.462	10574.48
505.83	10729.73
506.199	10800.01
506.567	10876.39
506.936	10927.47
507.304	11066.67
507.672	11159.33
508.041	11216.05
508.409	11297.17
508.777	11309.83
509.145	11474.35
509.514	11415.36
509.882	11548.24
510.25	11608.58
510.618	11584.4
510.986	11721.57
511.354	11888.8
511.722	11889.25
512.09	11963.82
512.458	11987.33
512.826	12092.41
513.193	12046.31
513.561	12131.28
513.929	12113.65
514.297	12246.08
514.664	12430.48
515.032	12368.78
515.4	12485.17
515.767	12449.01
516.135	12475
516.502	12367.2
516.869	12657.82
517.237	12594.32
517.604	12493.08
517.972	12686.06
518.339	12689.91
518.706	12676.35
519.073	12794.08
519.44	12747.31
519.808	12849.68
520.175	12845.83
520.542	12987.3
520.909	12994.76
521.276	12918.38
521.643	13072.04
522.009	13082.66
522.376	13133.28
522.743	13207.86
523.11	13250.57
523.477	13397.23
523.843	13379.15
524.21	13427.97
524.577	13420.28
524.943	13423.45
525.31	13535.99
525.676	13552.03
526.043	13671.8
526.409	13605.36
526.776	13594.97
527.142	13664.8
527.508	13716.77
527.874	13605.81
528.241	13740.95
528.607	13728.98
528.973	13713.61
529.339	13664.12
529.705	13802.87
530.071	13804.23
530.437	13765.36
530.803	13861.18
531.169	13834.96
531.535	13747.05
531.901	13768.75
532.267	13775.3
532.632	13846.49
532.998	13801.29
533.364	13802.65
533.73	13813.27
534.095	13905.02
534.461	13837.67
534.826	13801.29
535.192	13835.87
535.557	13846.71
535.923	13723.55
536.288	13762.19
536.653	13788.63
537.019	13683.1
537.384	13687.85
537.749	13726.04
538.114	13651.01
538.479	13612.82
538.845	13653.95
539.21	13552.71
539.575	13599.94
539.94	13536.66
540.305	13520.62
540.67	13541.86
541.034	13513.39
541.399	13478.36
541.764	13404.69
542.129	13459.83
542.494	13353.62
542.858	13381.19
543.223	13298.7
543.587	13396.33
543.952	13266.61
544.316	13219.16
544.681	13234.75
545.045	13175.09
545.41	13213.06
545.774	13189.1
546.138	13141.87
546.503	13113.4
546.867	13052.61
547.231	13144.36
547.595	13074.3
547.959	13036.34
548.324	12984.14
548.688	12942.78
549.052	12965.38
549.416	12952.72
549.779	12887.19
550.143	12815.78
550.507	12933.97
550.871	12740.07
551.235	12792.28
551.599	12802.22
551.962	12747.08
552.326	12703.47
552.689	12703.24
553.053	12634.09
553.417	12635.44
553.78	12755.89
554.143	12603.36
554.507	12657.14
554.87	12493.75
555.234	12628.67
555.597	12521.1
555.96	12554.77
556.323	12515.22
556.686	12494.21
557.05	12408.78
557.413	12570.36
557.776	12529.91
558.139	12523.58
558.502	12479.06
558.865	12512.51
559.228	12546.63
559.59	12523.81
559.953	12503.92
560.316	12469.57
560.679	12520.87
561.041	12483.81
561.404	12475.45
561.767	12531.94
562.129	12467.09
562.492	12605.39
562.854	12553.86
563.217	12564.26
563.579	12530.36
563.941	12630.25
564.304	12607.2
564.666	12635.9
565.028	12599.97
565.39	12580.53
565.753	12745.5
566.115	12563.81
566.477	12648.33
566.839	12707.31
567.201	12714.76
567.563	12692.17
567.925	12687.19
568.287	12723.58
568.648	12685.61
569.01	12759.74
569.372	12816.91
569.734	12755.67
570.095	12787.98
570.457	12789.56
570.819	12817.59
571.18	12777.14
571.542	12910.47
571.903	12869.79
572.265	12962.44
572.626	12860.98
572.987	12861.65
573.349	12855.33
573.71	12960.41
574.071	12856.23
574.432	12901.88
574.794	13029.11
575.155	12965.15
575.516	12901.88
575.877	13012.84
576.238	13025.94
576.599	12905.27
576.96	12910.69
577.32	12910.69
577.681	12948.88
578.042	13020.52
578.403	12878.15
578.763	12950.24
579.124	13035.66
579.485	13060.29
579.845	13021.88
580.206	12994.53
580.566	13012.84
580.927	12966.06
581.287	12990.92
581.648	12984.14
582.008	13080.4
582.368	13031.14
582.728	13005.38
583.089	12982.33
583.449	12910.92
583.809	12994.08
584.169	12861.43
584.529	12921.99
584.889	12986.85
585.249	12841.31
585.609	12844.7
585.969	13006.73
586.329	12815.1
586.688	12978.71
587.048	12851.94
587.408	12886.06
587.768	12796.34
588.127	12792.5
588.487	12790.24
588.846	12854.65
589.206	12779.4
589.565	12779.17
589.925	12877.92
590.284	12830.47
590.643	12803.8
591.003	12844.03
591.362	12849.45
591.721	12733.3
592.08	12778.72
592.44	12838.38
592.799	12829.11
593.158	12843.35
593.517	12738.27
593.876	12834.99
594.235	12661.88
594.593	12712.28
594.952	12708.21
595.311	12632.96
595.67	12671.15
596.029	12819.39
596.387	12784.37
596.746	12750.92
597.104	12722.45
597.463	12678.38
597.822	12666.63
598.18	12662.34
598.538	12604.71
598.897	12764.03
599.255	12604.94
599.613	12757.25
599.972	12701.88
600.33	12631.38
600.688	12658.72
601.046	12687.19
601.404	12724.93
601.762	12650.13
602.12	12701.88
602.478	12720.87
602.836	12701.88
603.194	12669.57
603.552	12604.03
603.91	12607.65
604.268	12656.01
604.625	12672.96
604.983	12705.95
605.341	12630.02
605.698	12696.01
606.056	12737.36
606.413	12616.24
606.771	12760.64
607.128	12751.83
607.485	12730.36
607.843	12672.96
608.2	12678.83
608.557	12758.15
608.914	12691.94
609.272	12739.62
609.629	12778.94
609.986	12814.87
610.343	12729.68
610.7	12856.91
611.057	12814.42
611.414	12776.46
611.771	12820.3
612.127	12815.55
612.484	12830.69
612.841	12901.2
613.198	12846.51
613.554	12862.11
613.911	12870.92
614.267	12862.33
614.624	12865.72
614.98	12940.3
615.337	12982.55
615.693	12981.42
616.05	12949.11
616.406	12959.5
616.762	12926.28
617.118	12940.97
617.475	12911.37
617.831	12953.4
618.187	12981.88
618.543	12975.77
618.899	13059.61
619.255	13025.94
619.611	13037.47
619.967	13040.86
620.323	13098.03
620.678	13040.63
621.034	13045.38
621.39	12906.17
621.746	13030.69
622.101	13128.31
622.457	13043.34
622.812	13001.99
623.168	13128.31
623.523	13079.05
623.879	13111.36
624.234	12966.51
624.589	12982.33
624.945	13104.81
625.3	13067.98
625.655	13052.38
626.01	13022.33
626.365	13113.62
626.72	13014.42
627.075	12970.35
627.43	13083.79
627.785	13070.69
628.14	13004.7
628.495	12952.95
628.85	13009.9
629.205	12872.73
629.559	13069.11
629.914	12940.97
630.269	12965.83
630.623	12986.17
630.978	12953.85
631.332	12942.1
631.687	12985.94
632.041	12933.52
632.396	12904.59
632.75	12876.34
633.104	12909.79
633.459	12879.73
633.813	12865.95
634.167	12858.94
634.521	12869.34
634.875	12859.85
635.229	12806.51
635.583	12809.45
635.937	12779.85
636.291	12828.89
636.645	12769.23
636.999	12709.79
637.352	12780.3
637.706	12639.51
638.06	12686.29
638.413	12617.82
638.767	12576.69
639.121	12622.79
639.474	12537.82
639.828	12670.92
640.181	12593.19
640.534	12603.36
640.888	12511.61
641.241	12480.19
641.594	12508.67
641.947	12547.76
642.301	12464.83
642.654	12498.95
643.007	12522.68
643.36	12413.53
643.713	12446.3
644.066	12491.72
644.419	12428.22
644.771	12369.46
645.124	12276.58
645.477	12237.04
645.83	12158.39
646.182	12055.57
646.535	12091.5
646.888	12133.31
647.24	11990.72
647.593	12235
647.945	12144.61
648.298	12077.04
648.65	12018.06
649.002	12082.46
649.355	12069.58
649.707	12061.22
650.059	12124.05
650.411	12279.3
650.763	12230.94
651.115	12417.6
651.467	12343.93
651.819	12353.42
652.171	12338.5
652.523	12300.31
652.875	12250.6
653.227	12251.95
653.578	12312.97
653.93	12300.76
654.282	12233.42
654.633	12218.28
654.985	12224.61
655.337	12262.12
655.688	12330.59
656.039	12340.99
656.391	12232.52
656.742	12210.6
657.094	12266.19
657.445	12330.37
657.796	12237.04
658.147	12299.41
658.498	12291.5
658.849	12371.5
659.2	12382.12
659.551	12331.05
659.902	12333.31
660.253	12316.36
660.604	12316.36
660.955	12260.31
661.306	12352.29
661.656	12292.18
662.007	12368.11
662.358	12325.4
662.708	12315.9
663.059	12352.51
663.409	12311.39
663.76	12359.75
664.11	12353.87
664.461	12397.26
664.811	12383.7
665.161	12367.88
665.511	12334.44
665.862	12387.32
666.212	12409.24
666.562	12492.62
666.912	12381.21
667.262	12382.34
667.612	12402.68
667.962	12405.85
668.312	12301.44
668.662	12447.88
669.011	12422.12
669.361	12420.31
669.711	12380.08
670.06	12329.01
670.41	12426.64
670.76	12366.98
671.109	12372.17
671.459	12364.04
671.808	12336.02
672.157	12429.12
672.507	12282.23
672.856	12257.83
673.205	12330.14
673.554	12384.38
673.904	12271.61
674.253	12348.67
674.602	12346.64
674.951	12131.05
675.3	12068
675.649	12235
675.998	12195.46
676.346	12239.3
676.695	12227.09
677.044	12182.8
677.393	12154.33
677.741	12232.07
678.09	12179.64
678.438	12120.88
678.787	12137.38
679.135	12231.84
679.484	12083.59
679.832	12046.31
680.181	12032.3
680.529	12135.34
680.877	12082.01
681.225	11983.03
681.573	12058.74
681.922	12018.29
682.27	11981.9
682.618	11882.7
682.966	11903.49
683.314	11945.07
683.661	11877.5
684.009	11837.95
684.357	11774.9
684.705	11780.1
685.053	11732.64
685.4	11778.29
685.748	11608.35
686.095	11658.97
686.443	11632.53
686.79	11651.97
687.138	11633.44
687.485	11661.01
687.832	11547.56
688.18	11502.37
688.527	11523.84
688.874	11522.03
689.221	11510.05
689.568	11416.27
689.915	11470.28
690.262	11355.93
690.609	11314.12
690.956	11288.14
691.303	11252.43
691.65	11152.77
691.997	11190.96
692.344	11101.93
692.69	11127.46
693.037	11134.02
693.383	10990.06
693.73	11039.78
694.077	10918.43
694.423	10953.23
694.769	10849.73
695.116	10877.52
695.462	10819.22
695.808	10762.27
696.155	10776.96
696.501	10606.57
696.847	10680.92
697.193	10681.37
697.539	10637.31
697.885	10560.7
698.231	10518.66
698.577	10483.41
698.923	10502.85
699.269	10439.57
699.614	10323.87
699.96	10374.49
700.306	10311.66
700.651	10327.93
700.997	10272.57
701.342	10292.23
701.688	10196.86
702.033	10125.68
702.379	10126.13
702.724	10057.89
703.069	10086.36
703.415	9945.8
703.76	10033.93
704.105	10013.14
704.45	9879.13
704.795	9851.34
705.14	9845.24
705.485	9753.49
705.83	9775.18
706.175	9733.83
706.52	9775.18
706.865	9701.96
707.209	9678.91
707.554	9633.72
707.899	9691.57
708.243	9553.27
708.588	9583.77
708.932	9500.39
709.277	9486.37
709.621	9548.29
709.966	9418.81
710.31	9426.94
710.654	9335.42
710.998	9315.53
711.342	9350.33
711.687	9350.79
712.031	9280.05
712.375	9229.66
712.719	9237.57
713.063	9255.42
713.407	9289.54
713.75	9234.86
714.094	9277.57
714.438	9102.2
714.782	9174.29
715.125	9164.12
715.469	9124.8
715.812	9084.58
716.156	9078.93
716.499	9094.97
716.843	9124.8
717.186	9001.19
717.53	9099.72
717.873	9094.75
718.216	9066.5
718.559	8978.14
718.902	8937.91
719.246	8978.37
719.589	8937.01
719.932	8948.99
720.275	8936.11
720.617	8894.98
720.96	8894.07
721.303	8874.41
721.646	8867.18
721.989	8839.39
722.331	8854.53
722.674	8861.76
723.016	8767.3
723.359	8832.15
723.701	8813.62
724.044	8752.83
724.386	8773.63
724.729	8779.5
725.071	8720.52
725.413	8754.87
725.755	8776.56
726.097	8632.16
726.439	8634.42
726.782	8705.83
727.124	8730.69
727.465	8634.19
727.807	8684.81
728.149	8672.84
728.491	8626.06
728.833	8665.83
729.175	8661.31
729.516	8682.33
729.858	8678.26
730.199	8629
730.541	8666.28
730.882	8680.29
731.224	8773.85
731.565	8629.45
731.906	8633.29
732.248	8688.43
732.589	8615.66
732.93	8636.45
733.271	8657.7
733.612	8602.1
733.953	8644.59
734.294	8660.41
734.635	8651.14
734.976	8606.17
735.317	8609.34
735.658	8657.47
735.999	8629
736.339	8655.66
736.68	8629.22
737.021	8582.22
737.361	8604.82
737.702	8665.83
738.042	8597.58
738.383	8656.34
738.723	8680.75
739.063	8632.39
739.404	8668.77
739.744	8624.93
740.084	8658.6
740.424	8696.79
740.764	8694.53
741.104	8691.82
741.444	8649.79
741.784	8624.02
742.124	8704.7
742.464	8725.26
742.804	8735.66
743.143	8749.22
743.483	8822.66
743.823	8803.68
744.162	8833.96
744.502	8927.07
744.841	8882.32
745.181	8941.3
745.52	8965.71
745.86	9037.12
746.199	9059.72
746.538	9009.55
746.877	9098.36
747.216	9154.41
747.556	9178.13
747.895	9311.46
748.234	9286.61
748.573	9346.49
748.911	9396.43
749.25	9399.6
749.589	9407.51
749.928	9517.56
750.267	9655.86
750.605	9656.99
750.944	9798.01
751.283	9757.33
751.621	9937.66
751.96	10049.07
752.298	10017.89
752.636	10188.5
752.975	10201.61
753.313	10254.94
753.651	10464.43
753.989	10459
754.327	10620.58
754.666	10640.47
755.004	10890.63
755.342	11050.85
755.679	11052.66
756.017	11129.95
756.355	11375.14
756.693	11352.99
757.031	11585.75
757.368	11715.47
757.706	11882.24
758.044	11944.62
758.381	12134.21
758.719	12186.64
759.056	12478.39
