Data from hue_20_FLMS001491_47.txt Node
Date: Mon Feb 06 15:34:11 GMT 2017
User: dcchb
Spectrometer: FLMS00149
Trigger mode: 0
Integration Time (sec): 2.000000E-2
Scans to average: 10
Electric dark correction enabled: true
Nonlinearity correction enabled: false
Boxcar width: 0
XAxis mode: Wavelengths
Number of Pixels in Spectrum: 2048
>>>>>Begin Spectral Data<<<<<
341.393	-2.23
341.776	-2.23
342.16	-2.23
342.543	-52.85
342.927	-66.86
343.31	-75.45
343.693	-61.44
344.077	-57.37
344.46	-67.54
344.843	-46.07
345.226	-37.03
345.61	-39.29
345.993	3.87
346.376	5.68
346.759	23.98
347.142	29.63
347.525	12.01
347.908	65.11
348.291	46.58
348.674	78.9
349.057	118.44
349.44	136.07
349.823	135.39
350.206	181.94
350.588	193.7
350.971	204.09
351.354	218.33
351.737	249.06
352.119	251.55
352.502	266.01
352.884	275.28
353.267	294.03
353.65	322.05
354.032	302.39
354.414	280.25
354.797	320.47
355.179	335.61
355.562	326.12
355.944	322.51
356.326	337.42
356.709	329.96
357.091	348.72
357.473	345.56
357.855	364.09
358.238	345.56
358.62	355.73
359.002	357.08
359.384	355.05
359.766	347.59
360.148	365.22
360.53	356.86
360.912	370.19
361.294	327.93
361.676	341.49
362.057	338.78
362.439	335.61
362.821	349.4
363.203	330.87
363.584	345.33
363.966	342.17
364.348	343.07
364.729	327.03
365.111	332.67
365.493	334.71
365.874	328.38
366.256	322.73
366.637	323.86
367.019	334.03
367.4	324.99
367.781	329.74
368.163	328.83
368.544	329.29
368.925	324.31
369.306	315.73
369.688	307.36
370.069	322.96
370.45	327.7
370.831	329.74
371.212	319.12
371.593	325.9
371.974	325.9
372.355	343.75
372.736	330.64
373.117	323.64
373.498	318.44
373.879	320.92
374.26	299.91
374.641	299
375.021	335.61
375.402	324.54
375.783	320.25
376.163	332
376.544	333.58
376.925	339.45
377.305	339.68
377.686	323.86
378.066	336.74
378.447	342.84
378.827	326.35
379.208	344.43
379.588	339.45
379.968	337.42
380.349	347.59
380.729	351.21
381.109	324.09
381.489	349.62
381.87	324.31
382.25	364.76
382.63	350.75
383.01	362.73
383.39	362.96
383.77	349.4
384.15	364.54
384.53	370.87
384.91	366.35
385.29	366.12
385.67	340.58
386.049	368.83
386.429	363.63
386.809	359.11
387.189	361.15
387.568	369.51
387.948	363.41
388.328	365.22
388.707	369.51
389.087	376.29
389.466	396.85
389.846	389.17
390.225	378.78
390.605	346.01
390.984	357.53
391.363	395.72
391.743	386.68
392.122	369.06
392.501	384.42
392.881	388.27
393.26	375.16
393.639	399.11
394.018	382.17
394.397	386.46
394.776	382.84
395.155	395.72
395.534	388.94
395.913	392.56
396.292	390.98
396.671	381.26
397.05	386.23
397.429	385.55
397.808	414.71
398.186	400.92
398.565	428.49
398.944	426.23
399.323	428.27
399.701	411.77
400.08	416.06
400.458	420.81
400.837	419.68
401.215	417.64
401.594	417.64
401.972	410.41
402.351	427.14
402.729	414.25
403.107	439.56
403.486	433.69
403.864	421.71
404.242	430.3
404.62	440.69
404.999	452.67
405.377	427.36
405.755	447.7
406.133	432.79
406.511	458.77
406.889	467.13
407.267	460.13
407.645	439.79
408.023	472.56
408.401	454.25
408.779	449.73
409.156	475.95
409.534	463.74
409.912	489.28
410.29	483.63
410.667	468.94
411.045	470.98
411.422	490.41
411.8	496.29
412.178	501.71
412.555	504.87
412.933	506.68
413.31	500.81
413.687	480.92
414.065	527.92
414.442	525.44
414.819	514.82
415.197	501.03
415.574	517.98
415.951	547.13
416.328	524.53
416.705	501.03
417.082	529.05
417.46	522.5
417.837	544.42
418.214	542.84
418.591	556.62
418.967	554.14
419.344	522.95
419.721	545.32
420.098	571.76
420.475	571.09
420.852	541.71
421.228	548.94
421.605	550.3
421.982	554.36
422.358	567.47
422.735	586.23
423.111	588.71
423.488	598.43
423.864	576.74
424.241	602.05
424.617	595.49
424.994	602.05
425.37	594.14
425.746	610.18
426.123	609.05
426.499	611.09
426.875	630.52
427.251	631.42
427.627	629.84
428.003	630.75
428.379	628.94
428.756	640.46
429.132	660.12
429.507	676.17
429.883	657.41
430.259	666.9
430.635	662.38
431.011	693.8
431.387	690.41
431.763	706
432.138	709.84
432.514	693.8
432.89	703.74
433.265	707.58
433.641	733.57
434.016	706.45
434.392	748.94
434.767	769.27
435.143	757.3
435.518	756.17
435.894	760.69
436.269	760.23
436.644	770.18
437.02	787.8
437.395	791.19
437.77	762.04
438.145	785.54
438.52	835.03
438.895	789.61
439.271	817.18
439.646	829.16
440.021	842.49
440.395	832.55
440.77	805.88
441.145	800.23
441.52	848.14
441.895	841.36
442.27	835.03
442.645	842.04
443.019	873.45
443.394	859.67
443.769	849.95
444.143	854.02
444.518	879.55
444.892	886.56
445.267	888.82
445.641	888.59
446.016	895.15
446.39	914.13
446.764	891.53
447.139	890.17
447.513	938.08
447.887	917.74
448.262	896.5
448.636	896.05
449.01	946.44
449.384	935.6
449.758	936.5
450.132	942.38
450.506	938.53
450.88	953.68
451.254	962.94
451.628	990.28
452.002	989.83
452.376	985.09
452.75	985.54
453.123	1005.88
453.497	1031.19
453.871	1029.83
454.244	1042.94
454.618	1030.74
454.992	1066.67
455.365	1070.06
455.739	1067.34
456.112	1086.33
456.486	1103.5
456.859	1111.64
457.232	1105.99
457.606	1115.48
457.979	1125.87
458.352	1157.74
458.725	1155.25
459.099	1177.17
459.472	1165.2
459.845	1195.93
460.218	1203.39
460.591	1221.92
460.964	1222.14
461.337	1231.18
461.71	1260.79
462.083	1308.24
462.456	1263.05
462.829	1298.3
463.201	1294.46
463.574	1294.68
463.947	1298.75
464.32	1336.49
464.692	1354.34
465.065	1381.91
465.438	1413.78
465.81	1379.43
466.183	1415.58
466.555	1443.15
466.928	1462.36
467.3	1463.94
467.672	1496.49
468.045	1517.5
468.417	1531.97
468.789	1529.48
469.161	1543.26
469.534	1587.33
469.906	1616.48
470.278	1618.52
470.65	1653.32
471.022	1673.43
471.394	1710.27
471.766	1732.19
472.138	1732.19
472.51	1775.57
472.882	1781.45
473.253	1800.88
473.625	1818.96
473.997	1905.51
474.369	1908.23
474.74	1900.77
475.112	1948
475.484	1970.37
475.855	2007.43
476.227	2029.13
476.598	2099.41
476.97	2128.56
477.341	2138.5
477.713	2191.16
478.084	2192.06
478.455	2233.19
478.827	2273.19
479.198	2313.87
479.569	2371.72
479.94	2410.36
480.311	2449.46
480.682	2517.48
481.053	2572.39
481.424	2632.95
481.795	2662.78
482.166	2704.59
482.537	2716.34
482.908	2773.97
483.279	2811.03
483.65	2881.31
484.021	2941.19
484.391	2972.15
484.762	2986.62
485.133	3018.48
485.503	3102.09
485.874	3160.85
486.244	3187.74
486.615	3245.59
486.985	3260.51
487.356	3352.71
487.726	3390.67
488.097	3462.08
488.467	3476.32
488.837	3549.77
489.207	3581.85
489.578	3670.21
489.948	3708.41
490.318	3763.55
490.688	3785.69
491.058	3867.72
491.428	3915.41
491.798	3957.66
492.168	4051.67
492.538	4037.89
492.908	4101.84
493.278	4165.12
493.648	4168.51
494.017	4248.05
494.387	4268.84
494.757	4262.97
495.126	4363.76
495.496	4385.68
495.866	4421.83
496.235	4475.16
496.605	4533.24
496.974	4546.12
497.344	4607.14
497.713	4640.58
498.082	4633.8
498.452	4732.33
498.821	4721.71
499.19	4801.26
499.559	4765.33
499.928	4823.4
500.298	4853.91
500.667	4943.4
501.036	4900.01
501.405	4951.08
501.774	4958.32
502.143	5048.94
502.512	5054.36
502.88	5106.56
503.249	5136.39
503.618	5151.53
503.987	5195.37
504.356	5203.96
504.724	5230.63
505.093	5223.62
505.462	5274.69
505.83	5274.47
506.199	5337.97
506.567	5441.47
506.936	5397.85
507.304	5455.25
507.672	5459.09
508.041	5511.07
508.409	5503.61
508.777	5561.24
509.145	5606.21
509.514	5573.89
509.882	5650.73
510.25	5631.97
510.618	5663.16
510.986	5723.04
511.354	5751.74
511.722	5777.73
512.09	5836.71
512.458	5878.74
512.826	5884.39
513.193	5885.07
513.561	5943.37
513.929	5999.19
514.297	6042.58
514.664	6113.99
515.032	6050.26
515.4	6097.5
515.767	6105.4
516.135	6134.1
516.502	6088.23
516.869	6205.74
517.237	6153.09
517.604	6199.64
517.972	6244.16
518.339	6287.09
518.706	6348.34
519.073	6410.93
519.44	6377.04
519.808	6435.57
520.175	6414.32
520.542	6517.6
520.909	6574.09
521.276	6542.46
521.643	6616.13
522.009	6573.64
522.376	6642.11
522.743	6711.72
523.11	6734.54
523.477	6794.43
523.843	6842.11
524.21	6921.43
524.577	6909.68
524.943	6954.2
525.31	7018.83
525.676	7038.94
526.043	7116.45
526.409	7091.82
526.776	7164.81
527.142	7214.08
527.508	7261.08
527.874	7301.76
528.241	7322.32
528.607	7355.99
528.973	7364.35
529.339	7364.81
529.705	7510.11
530.071	7518.7
530.437	7568.64
530.803	7656.78
531.169	7625.36
531.535	7625.82
531.901	7675.76
532.267	7743.55
532.632	7810.67
532.998	7787.17
533.364	7857
533.73	7886.15
534.095	7929.99
534.461	7958.24
534.826	7943.32
535.192	8089.08
535.557	8036.43
535.923	8096.31
536.288	8063.55
536.653	8122.07
537.019	8109.19
537.384	8156.88
537.749	8208.85
538.114	8267.83
538.479	8281.62
538.845	8305.8
539.21	8280.71
539.575	8315.74
539.94	8390.99
540.305	8442.74
540.67	8462.86
541.034	8453.59
541.399	8546.02
541.764	8501.27
542.129	8666.24
542.494	8630.08
542.858	8685.9
543.223	8727.26
543.587	8762.51
543.952	8807.48
544.316	8764.54
544.681	8834.6
545.045	8859.46
545.41	8902.85
545.774	8918.44
546.138	8959.57
546.503	8949.62
546.867	8995.95
547.231	9089.51
547.595	9079.11
547.959	9155.49
548.324	9217.41
548.688	9194.81
549.052	9240.92
549.416	9232.33
549.779	9257.86
550.143	9332.21
550.507	9315.26
550.871	9422.15
551.235	9368.6
551.599	9469.84
551.962	9442.72
552.326	9470.51
552.689	9611.53
553.053	9505.99
553.417	9592.32
553.78	9631.41
554.143	9595.71
554.507	9671.19
554.87	9650.85
555.234	9829.83
555.597	9730.39
555.96	9795.7
556.323	9912.76
556.686	9801.58
557.05	9967.9
557.413	9941.69
557.776	9988.01
558.139	10025.75
558.502	10085.64
558.865	10040.89
559.228	10168.8
559.59	10196.6
559.953	10227.56
560.316	10312.07
560.679	10275.46
561.041	10349.81
561.404	10457.15
561.767	10481.33
562.129	10385.74
562.492	10532.18
562.854	10471.39
563.217	10518.85
563.579	10564.95
563.941	10627.09
564.304	10620.77
564.666	10664.61
565.028	10694.21
565.39	10746.19
565.753	10784.83
566.115	10823.02
566.477	10890.59
566.839	10856.92
567.201	10946.63
567.563	11003.13
567.925	11045.84
568.287	11087.42
568.648	11049.23
569.01	11178.94
569.372	11160.19
569.734	11266.17
570.095	11403.57
570.457	11363.57
570.819	11449.9
571.18	11370.58
571.542	11515.66
571.903	11461.87
572.265	11614.64
572.626	11638.59
572.987	11646.28
573.349	11652.6
573.71	11835.42
574.071	11834.07
574.432	11917.46
574.794	11994.74
575.155	12012.82
575.516	12027.06
575.877	12071.35
576.238	12168.3
576.599	12254.4
576.96	12281.74
577.32	12436.09
577.681	12550.43
578.042	12584.78
578.403	12634.5
578.763	12670.43
579.124	12770.99
579.485	12911.33
579.845	13027.93
580.206	13095.96
580.566	13222.05
580.927	13330.98
581.287	13500.92
581.648	13549.05
582.008	13721.7
582.368	13854.81
582.728	13998.3
583.089	14127.57
583.449	14266.77
583.809	14444.39
584.169	14601.9
584.529	14708.57
584.889	14996.24
585.249	15073.53
585.609	15191.72
585.969	15459.96
586.329	15688.88
586.688	15863.11
587.048	16118.25
587.408	16284.8
587.768	16426.94
588.127	16733.83
588.487	16948.28
588.846	17256.52
589.206	17470.98
589.565	17680.02
589.925	17991.87
590.284	18152.55
590.643	18592.31
591.003	18750.95
591.362	19161.56
591.721	19409.01
592.08	19647.87
592.44	19966.96
592.799	20284.01
593.158	20508.42
593.517	20830.89
593.876	21107.5
594.235	21373.93
594.593	21788.38
594.952	22024.31
595.311	22261.14
595.67	22610.96
596.029	23081.68
596.387	23381.33
596.746	23568.22
597.104	23815.22
597.463	24184.93
597.822	24678.93
598.18	24815.42
598.538	25120.27
598.897	25523.42
599.255	25676.64
599.613	26328.6
599.972	26440.01
600.33	26889.49
600.688	27034.57
601.046	27514.11
601.404	27848.34
601.762	28140.53
602.12	28503.91
602.478	28888.31
602.836	29130.56
603.194	29288.07
603.552	29419.14
603.91	29753.37
604.268	30160.59
604.625	30319.46
604.983	30748.37
605.341	30860.01
605.698	31230.39
606.056	31629.71
606.413	31856.37
606.771	32318.27
607.128	32520.76
607.485	32522.56
607.843	32920.52
608.2	33266.95
608.557	33634.17
608.914	33802.08
609.272	34073.26
609.629	34513.25
609.986	34781.71
610.343	34754.59
610.7	35286.78
611.057	35444.75
611.414	35532.2
611.771	35823.49
612.127	36057.39
612.484	36366.3
612.841	36566.75
613.198	36742.11
613.554	36909.34
613.911	37313.62
614.267	37567.85
614.624	37633.61
614.98	37780.28
615.337	38048.52
615.693	38281.51
616.05	38270.89
616.406	38619.13
616.762	38752.46
617.118	38914.49
617.475	39014.82
617.831	39348.6
618.187	39617.97
618.543	39763.95
618.899	40047.56
619.255	40099.31
619.611	40107.9
619.967	40401.23
620.323	40692.74
620.678	40561.67
621.034	40489.13
621.39	40781.33
621.746	40710.37
622.101	41384.02
622.457	41138.38
622.812	41268.1
623.168	41434.87
623.523	41512.16
623.879	41765.71
624.234	41577.69
624.589	41756.9
624.945	41802.09
625.3	42111.01
625.655	42164.12
626.01	42197.79
626.365	42407.95
626.72	42299.93
627.075	42513.03
627.43	42395.52
627.785	42525.46
628.14	42552.81
628.495	42755.29
628.85	42714.39
629.205	42726.81
629.559	43131.78
629.914	42859.69
630.269	42900.37
630.623	42834.83
630.978	43060.59
631.332	43073.47
631.687	43226.24
632.041	43070.76
632.396	43324.99
632.75	43092.23
633.104	43286.35
633.459	42998.9
633.813	43053.36
634.167	43188.27
634.521	43144.66
634.875	43167.71
635.229	43201.15
635.583	43032.34
635.937	43127.71
636.291	43157.09
636.645	43167.93
636.999	43155.28
637.352	43372.67
637.706	43115.28
638.06	43397.08
638.413	43121.83
638.767	43122.06
639.121	43392.11
639.474	43042.74
639.828	43208.84
640.181	43188.95
640.534	43291.55
640.888	43163.41
641.241	42944.89
641.594	43194.15
641.947	43170.19
642.301	43029.86
642.654	43193.24
643.007	43132.45
643.36	43181.72
643.713	43014.49
644.066	43188.5
644.419	42959.58
644.771	42700.15
645.124	42291.57
645.477	42399.37
645.83	42092.71
646.182	41915.08
646.535	41826.05
646.888	41866.27
647.24	41647.52
647.593	41990.56
647.945	41788.76
648.298	41662.21
648.65	41634.19
649.002	41628.99
649.355	41771.13
649.707	41758.25
650.059	41949.89
650.411	42417.67
650.763	42589.19
651.115	42899.01
651.467	42610.89
651.819	42661.28
652.171	42573.37
652.523	42606.37
652.875	42609.53
653.227	42446.82
653.578	42722.75
653.93	42586.71
654.282	42397.11
654.633	42408.63
654.985	42488.63
655.337	42463.32
655.688	42430.1
656.039	42599.59
656.391	42205.47
656.742	42228.52
657.094	42333.6
657.445	42533.6
657.796	42311.91
658.147	42277.33
658.498	42369.99
658.849	42312.36
659.2	42249.31
659.551	42162.99
659.902	42309.42
660.253	42312.36
660.604	42343.32
660.955	42019.94
661.306	42315.75
661.656	42313.49
662.007	42180.84
662.358	42184.46
662.708	42209.31
663.059	42336.54
663.409	41965.48
663.76	42287.73
664.11	42240.73
664.461	42108.53
664.811	42167.06
665.161	42106.27
665.511	41970
665.862	42161.63
666.212	42259.48
666.562	42182.65
666.912	42083.22
667.262	42016.32
667.612	41954.63
667.962	41979.49
668.312	42016.78
668.662	42207.28
669.011	42096.55
669.361	41983.78
669.711	41859.49
670.06	41765.71
670.41	41783.79
670.76	41897.23
671.109	41943.33
671.459	42035.08
671.808	41823.79
672.157	42040.05
672.507	41823.79
672.856	41850.68
673.205	41897.23
673.554	41930.45
673.904	41817.91
674.253	42219.03
674.602	41797.35
674.951	41234.88
675.3	41242.33
675.649	41754.41
675.998	41719.38
676.346	41816.56
676.695	41708.54
677.044	41494.76
677.393	41560.97
677.741	41644.81
678.09	41449.79
678.438	41422.22
678.787	41497.47
679.135	41570.69
679.484	41219.74
679.832	41302.67
680.181	41181.77
680.529	41346.74
680.877	41309.45
681.225	41204.14
681.573	41349.9
681.922	41145.84
682.27	40978.84
682.618	41113.3
682.966	40786.53
683.314	40996.69
683.661	40775.68
684.009	40714.89
684.357	40557.15
684.705	40554.22
685.053	40711.27
685.4	40743.59
685.748	40369.14
686.095	40415.01
686.443	40330.95
686.79	40196.94
687.138	40374.33
687.485	40250.04
687.832	40074.45
688.18	40167.33
688.527	39917.85
688.874	39949.71
689.221	39810.28
689.568	39751.53
689.915	39721.92
690.262	39665.88
690.609	39450.06
690.956	39372.1
691.303	39353.34
691.65	39122.16
691.997	39335.04
692.344	38952.45
692.69	38985.9
693.037	39058.89
693.383	38610.99
693.73	38855.5
694.077	38516.76
694.423	38689.86
694.769	38438.57
695.116	38403.31
695.462	38365.35
695.808	38189.08
696.155	38213.49
696.501	37943.66
696.847	38028.63
697.193	37674.74
697.539	37856.89
697.885	37685.82
698.231	37523.34
698.577	37506.61
698.923	37468.42
699.269	37393.85
699.614	37064.14
699.96	36987.3
700.306	37126.28
700.651	36906.4
700.997	36875.44
701.342	36751.6
701.688	36777.37
702.033	36670.7
702.379	36631.83
702.724	36454.44
703.069	36523.14
703.415	36082.47
703.76	36286.31
704.105	36176.03
704.45	36152.07
704.795	35819.43
705.14	35793.66
705.485	35742.37
705.83	35573.1
706.175	35677.06
706.52	35442.03
706.865	35369.95
707.209	35383.73
707.554	35330.62
707.899	35334.01
708.243	35163.17
708.588	35179.22
708.932	34821.94
709.277	34913.01
709.621	34961.14
709.966	34662.85
710.31	34663.52
710.654	34397.32
710.998	34571.77
711.342	34555.28
711.687	34360.48
712.031	34280.03
712.375	34137.21
712.719	34144.44
713.063	34073.26
713.407	34275.06
713.75	33988.97
714.094	33973.82
714.438	33807.95
714.782	33929.31
715.125	33710.33
715.469	33648.86
715.812	33540.16
716.156	33289.32
716.499	33512.14
716.843	33403.9
717.186	33390.79
717.53	33427.17
717.873	33315.99
718.216	33344.24
718.559	33061.76
718.902	32938.82
719.246	32960.52
719.589	32867.86
719.932	32960.29
720.275	32850.01
720.617	32711.94
720.96	32711.71
721.303	32659.28
721.646	32676.01
721.989	32399.63
722.331	32568.44
722.674	32499.74
723.016	32547.65
723.359	32484.82
723.701	32420.87
724.044	32124.83
724.386	32095.91
724.729	32234.21
725.071	32063.14
725.413	32014.1
725.755	32140.43
726.097	31891.17
726.439	31799.42
726.782	31693.43
727.124	31889.13
727.465	31693.21
727.807	31709.03
728.149	31661.34
728.491	31521.23
728.833	31657.73
729.175	31523.27
729.516	31415.25
729.858	31263.61
730.199	31480.56
730.541	31291.86
730.882	31258.64
731.224	31330.28
731.565	31124.63
731.906	31163.05
732.248	31287.12
732.589	30974.58
732.93	30904.3
733.271	30851.65
733.612	31049.16
733.953	31020.46
734.294	30771.87
734.635	30696.17
734.976	30864.08
735.317	30473.35
735.658	30630.86
735.999	30626.12
736.339	30577.76
736.68	30663.18
737.021	30434.93
737.361	30336.18
737.702	30543.41
738.042	30445.56
738.383	30308.61
738.723	30253.7
739.063	30156.3
739.404	30246.01
739.744	30100.03
740.084	30165.79
740.424	30028.62
740.764	30063.42
741.104	30051.89
741.444	30019.8
741.784	29723.99
742.124	29832.24
742.464	29695.74
742.804	29707.72
743.143	29700.94
743.483	29772.35
743.823	29517.67
744.162	29638.57
744.502	29591.34
744.841	29518.8
745.181	29462.08
745.52	29455.07
745.86	29506.37
746.199	29337.34
746.538	29387.96
746.877	29394.96
747.216	29268.64
747.556	29260.05
747.895	29237
748.234	29099.15
748.573	29045.82
748.911	29096.66
749.25	29105.93
749.589	28881.3
749.928	28934.18
750.267	28914.3
750.605	28769.44
750.944	28850.34
751.283	28619.39
751.621	28728.09
751.96	28599.5
752.298	28616.68
752.636	28529.9
752.975	28449.45
753.313	28330.13
753.651	28505.27
753.989	28294.43
754.327	28318.83
754.666	28197.93
755.004	28135.56
755.342	28177.82
755.679	28050.59
756.017	27979.63
756.355	28067.99
756.693	27952.06
757.031	28020.31
757.368	27748
757.706	27772.63
758.044	27684.27
758.381	27737.6
758.719	27663.93
759.056	27594.33
