Data from hue_100_FLMS001491_00019.txt Node
Date: Tue Feb 07 17:02:44 GMT 2017
User: dcchb
Spectrometer: FLMS00149
Trigger mode: 0
Integration Time (sec): 2.000000E-2
Scans to average: 10
Electric dark correction enabled: true
Nonlinearity correction enabled: false
Boxcar width: 0
XAxis mode: Wavelengths
Number of Pixels in Spectrum: 2048
>>>>>Begin Spectral Data<<<<<
341.393	-18.06
341.776	-18.06
342.16	-18.06
342.543	-54.45
342.927	-86.54
343.31	-59.87
343.693	-66.2
344.077	-87.44
344.46	-62.81
344.843	-53.77
345.226	-39.98
345.61	-24.84
345.993	-24.17
346.376	4.08
346.759	19.67
347.142	3.86
347.525	60.13
347.908	44.53
348.291	67.36
348.674	92.22
349.057	127.24
349.44	120.91
349.823	141.48
350.206	158.2
350.588	191.87
350.971	213.34
351.354	203.17
351.737	215.15
352.119	258.76
352.502	248.37
352.884	262.15
353.267	297.41
353.65	286.79
354.032	306.67
354.414	319.1
354.797	290.63
355.179	309.61
355.562	314.81
355.944	322.94
356.326	336.05
356.709	336.28
357.091	318.88
357.473	336.05
357.855	351.19
358.238	333.79
358.62	328.59
359.002	339.21
359.384	341.93
359.766	345.32
360.148	347.58
360.53	349.84
360.912	348.25
361.294	336.05
361.676	324.53
362.057	332.43
362.439	341.7
362.821	331.98
363.203	339.44
363.584	328.14
363.966	325.88
364.348	310.51
364.729	315.49
365.111	314.13
365.493	327.01
365.874	300.8
366.256	321.14
366.637	325.2
367.019	305.54
367.4	306.9
367.781	333.79
368.163	320.23
368.544	301.93
368.925	300.57
369.306	304.64
369.688	322.27
370.069	319.33
370.45	315.71
370.831	304.64
371.212	324.98
371.593	331.76
371.974	314.36
372.355	316.84
372.736	332.43
373.117	307.12
373.498	311.64
373.879	323.17
374.26	324.98
374.641	317.75
375.021	321.59
375.402	312.32
375.783	319.55
376.163	313.9
376.544	333.56
376.925	341.93
377.305	334.92
377.686	318.65
378.066	330.63
378.447	311.87
378.827	354.81
379.208	330.63
379.588	340.34
379.968	357.97
380.349	336.28
380.729	361.36
381.109	345.77
381.489	330.17
381.87	329.05
382.25	332.66
382.63	336.73
383.01	347.58
383.39	335.37
383.77	360.91
384.15	340.57
384.53	319.78
384.91	326.56
385.29	350.29
385.67	355.71
386.049	365.43
386.429	367.24
386.809	352.77
387.189	352.32
387.568	344.19
387.948	345.99
388.328	360
388.707	357.52
389.087	361.59
389.466	357.74
389.846	349.84
390.225	372.43
390.605	359.1
390.984	371.08
391.363	377.63
391.743	359.55
392.122	384.64
392.501	386.44
392.881	390.51
393.26	388.93
393.639	386.44
394.018	386.44
394.397	392.09
394.776	381.02
395.155	390.51
395.534	386.67
395.913	398.42
396.292	395.71
396.671	404.75
397.05	392.32
397.429	413.11
397.808	410.17
398.186	376.73
398.565	396.61
398.944	411.53
399.323	425.54
399.701	414.47
400.08	420.12
400.458	414.69
400.837	424.41
401.215	419.89
401.594	422.15
401.972	428.25
402.351	396.61
402.729	412.43
403.107	433.68
403.486	434.58
403.864	432.77
404.242	447.46
404.62	447.01
404.999	442.26
405.377	433
405.755	441.58
406.133	441.36
406.511	433
406.889	448.36
407.267	440
407.645	449.95
408.023	463.73
408.401	453.56
408.779	434.13
409.156	496.05
409.534	460.57
409.912	481.36
410.29	498.08
410.667	489.94
411.045	457.4
411.422	455.37
411.8	469.83
412.178	496.95
412.555	505.31
412.933	517.51
413.31	507.8
413.687	500.11
414.065	520.45
414.442	515.93
414.819	520
415.197	510.51
415.574	519.1
415.951	531.53
416.328	507.8
416.705	528.59
417.082	528.59
417.46	529.72
417.837	544.18
418.214	531.53
418.591	556.84
418.967	558.87
419.344	553.9
419.721	571.3
420.098	561.81
420.475	545.08
420.852	545.08
421.228	563.16
421.605	582.37
421.982	561.36
422.358	589.83
422.735	585.99
423.111	577.4
423.488	614.01
423.864	603.16
424.241	605.65
424.617	591.86
424.994	620.79
425.37	596.16
425.746	630.05
426.123	626.89
426.499	647.23
426.875	630.73
427.251	639.09
427.627	642.71
428.003	660.11
428.379	655.82
428.756	658.53
429.132	665.99
429.507	671.41
429.883	684.29
430.259	667.79
430.635	674.57
431.011	701.69
431.387	702.82
431.763	712.31
432.138	712.09
432.514	726.77
432.89	724.29
433.265	746.89
433.641	739.2
434.016	752.99
434.392	756.6
434.767	765.87
435.143	752.08
435.518	772.65
435.894	778.98
436.269	804.29
436.644	772.65
437.02	787.11
437.395	824.17
437.77	787.34
438.145	815.13
438.52	853.55
438.895	824.63
439.271	857.39
439.646	847
440.021	870.95
440.395	865.75
440.77	855.36
441.145	871.86
441.52	875.7
441.895	890.39
442.27	894
442.645	883.61
443.019	905.53
443.394	905.98
443.769	914.34
444.143	912.31
444.518	926.09
444.892	933.55
445.267	943.04
445.641	930.84
446.016	939.2
446.39	936.26
446.764	944.4
447.139	968.58
447.513	966.77
447.887	975.81
448.262	968.12
448.636	980.78
449.01	996.15
449.384	985.98
449.758	986.43
450.132	1033.21
450.506	1011.74
450.88	1024.17
451.254	1046.77
451.628	1026.88
452.002	1071.4
452.376	1053.77
452.75	1067.1
453.123	1063.94
453.497	1088.57
453.871	1114.11
454.244	1143.03
454.618	1144.62
454.992	1133.32
455.365	1143.71
455.739	1178.29
456.112	1167.89
456.486	1180.32
456.859	1208.8
457.232	1222.81
457.606	1227.55
457.979	1249.25
458.352	1271.17
458.725	1299.64
459.099	1297.61
459.472	1305.06
459.845	1327.89
460.218	1335.12
460.591	1353.65
460.964	1377.83
461.337	1374.89
461.71	1409.47
462.083	1455.57
462.456	1413.99
462.829	1442.46
463.201	1460.77
463.574	1478.39
463.947	1501.44
464.32	1549.8
464.692	1584.38
465.065	1558.39
465.438	1593.19
465.81	1603.59
466.183	1647.43
466.555	1669.8
466.928	1694.88
467.3	1681.55
467.672	1730.36
468.045	1777.59
468.417	1800.87
468.789	1797.93
469.161	1826.86
469.534	1867.76
469.906	1921.77
470.278	1931.94
470.65	1975.56
471.022	2020.98
471.394	2061.43
471.766	2093.97
472.138	2100.75
472.51	2166.51
472.882	2223.68
473.253	2253.74
473.625	2312.5
473.997	2405.37
474.369	2406.05
474.74	2399.5
475.112	2513.62
475.484	2563.11
475.855	2629.32
476.227	2652.37
476.598	2721.98
476.97	2816.21
477.341	2894.63
477.713	2963.33
478.084	3022.53
478.455	3107.28
478.827	3180.04
479.198	3288.97
479.569	3343.66
479.94	3451.9
480.311	3540.71
480.682	3625.68
481.053	3781.84
481.424	3817.31
481.795	3940.93
482.166	4055.27
482.537	4152.45
482.908	4256.17
483.279	4366
483.65	4478.09
484.021	4659.33
484.391	4745.43
484.762	4825.65
485.133	4921.47
485.503	5069.03
485.874	5242.59
486.244	5290.72
486.615	5484.62
486.985	5589.02
487.356	5758.51
487.726	5855
488.097	6127.76
488.467	6193.98
488.837	6342.67
489.207	6494.08
489.578	6644.13
489.948	6833.73
490.318	6988.08
490.688	7004.12
491.058	7207.06
491.428	7389.2
491.798	7609.31
492.168	7782.63
492.538	7854.27
492.908	8070.08
493.278	8203.41
493.648	8317.31
494.017	8515.95
494.387	8593.01
494.757	8772.66
495.126	8971.08
495.496	9023.28
495.866	9162.71
496.235	9289.04
496.605	9539.2
496.974	9621.23
497.344	9791.4
497.713	9885.63
498.082	9949.58
498.452	10192.51
498.821	10295.34
499.19	10363.81
499.559	10510.92
499.928	10665.27
500.298	10776.68
500.667	10947.3
501.036	10914.08
501.405	11089.21
501.774	11211.92
502.143	11350.68
502.512	11407.4
502.88	11525.13
503.249	11589.99
503.618	11719.71
503.987	11899.59
504.356	11930.55
504.724	12056.65
505.093	12078.34
505.462	12255.06
505.83	12293.93
506.199	12409.18
506.567	12552
506.936	12588.16
507.304	12756.29
507.672	12762.62
508.041	12888.71
508.409	13084.42
508.777	13114.25
509.145	13160.35
509.514	13222.27
509.882	13384.07
510.25	13256.84
510.618	13412.32
510.986	13419.55
511.354	13570.73
511.722	13666.77
512.09	13822.48
512.458	13853.21
512.826	13921.46
513.193	13935.01
513.561	13979.53
513.929	14140.43
514.297	14177.04
514.664	14202.35
515.032	14248.45
515.4	14356.92
515.767	14429.69
516.135	14450.03
516.502	14367.32
516.869	14666.52
517.237	14585.17
517.604	14499.75
517.972	14702.68
518.339	14730.47
518.706	14823.13
519.073	14795.11
519.44	14793.75
519.808	14989.68
520.175	14952.39
520.542	15091.82
520.909	15165.27
521.276	15043.91
521.643	15128.2
522.009	15211.82
522.376	15352.38
522.743	15376.56
523.11	15398.25
523.477	15433.05
523.843	15586.27
524.21	15623.33
524.577	15681.64
524.943	15648.19
525.31	15769.77
525.676	15722.31
526.043	15830.33
526.409	15916.88
526.776	15970.22
527.142	15969.31
527.508	15909.43
527.874	16000.5
528.241	16034.62
528.607	15977
528.973	16078.69
529.339	15979.25
529.705	16150.55
530.071	16208.63
530.437	16196.2
530.803	16287.04
531.169	16254.5
531.535	16186.26
531.901	16100.16
532.267	16179.25
532.632	16167.05
532.998	16185.13
533.364	16143.09
533.73	16246.14
534.095	16292.24
534.461	16174.96
534.826	16315.07
535.192	16197.1
535.557	16257.21
535.923	16177.89
536.288	16199.36
536.653	16105.81
537.019	16108.74
537.384	16093.6
537.749	16163.88
538.114	16123.43
538.479	16128.18
538.845	16068.52
539.21	15976.54
539.575	16024.23
539.94	16015.41
540.305	16064.22
540.67	15908.3
541.034	15834.4
541.399	15909.88
541.764	15898.58
542.129	15824.46
542.494	15851.35
542.858	15787.17
543.223	15738.81
543.587	15762.99
543.952	15675.53
544.316	15750.33
544.681	15611.13
545.045	15617
545.41	15628.3
545.774	15614.07
546.138	15526.39
546.503	15470.34
546.867	15458.36
547.231	15572.26
547.595	15419.95
547.959	15444.13
548.324	15386.05
548.688	15360.06
549.052	15351.02
549.416	15275.09
549.779	15284.13
550.143	15241.87
550.507	15297.69
550.871	15202.78
551.235	15198.26
551.599	15205.04
551.962	15132.05
552.326	15210.46
552.689	15171.82
553.053	15064.02
553.417	15023.12
553.78	15144.93
554.143	15007.53
554.507	14982.22
554.87	15093.4
555.234	15062.22
555.597	15014.76
555.96	14966.85
556.323	14968.43
556.686	14918.49
557.05	14977.02
557.413	14946.97
557.776	14945.84
558.139	14941.99
558.502	14894.31
558.865	14870.81
559.228	14978.6
559.59	14907.87
559.953	14830.36
560.316	14964.82
560.679	15006.17
561.041	14926.18
561.404	15067.19
561.767	15131.82
562.129	14938.6
562.492	15083.91
562.854	15042.1
563.217	14973.86
563.579	15033.52
563.941	15053.86
564.304	14956.01
564.666	15226.51
565.028	15157.13
565.39	15132.72
565.753	15125.49
566.115	15167.98
566.477	15239.39
566.839	15143.8
567.201	15259.95
567.563	15122.1
567.925	15327.97
568.287	15235.32
568.648	15339.27
569.01	15333.17
569.372	15423.34
569.734	15326.84
570.095	15359.16
570.457	15320.52
570.819	15432.38
571.18	15380.17
571.542	15394.41
571.903	15420.4
572.265	15464.47
572.626	15519.83
572.987	15492.04
573.349	15508.08
573.71	15525.48
574.071	15537.01
574.432	15624.24
574.794	15549.44
575.155	15636.67
575.516	15448.65
575.877	15548.98
576.238	15562.09
576.599	15602.32
576.96	15505.6
577.32	15564.12
577.681	15697.23
578.042	15683.67
578.403	15642.54
578.763	15582.43
579.124	15586.95
579.485	15677.34
579.845	15672.37
580.206	15624.01
580.566	15587.4
580.927	15705.36
581.287	15685.93
581.648	15614.97
582.008	15727.51
582.368	15669.43
582.728	15665.82
583.089	15504.24
583.449	15622.2
583.809	15537.46
584.169	15579.94
584.529	15503.11
584.889	15605.71
585.249	15528.19
585.609	15490.45
585.969	15565.48
586.329	15544.01
586.688	15545.59
587.048	15533.39
587.408	15502.66
587.768	15482.77
588.127	15419.5
588.487	15469.66
588.846	15529.78
589.206	15497.69
589.565	15471.92
589.925	15552.37
590.284	15450.46
590.643	15332.04
591.003	15484.13
591.362	15535.42
591.721	15452.04
592.08	15450.46
592.44	15471.7
592.799	15366.16
593.158	15345.15
593.517	15320.52
593.876	15398.71
594.235	15379.27
594.593	15376.56
594.952	15398.71
595.311	15270.57
595.67	15416.78
596.029	15395.09
596.387	15546.05
596.746	15390.57
597.104	15312.83
597.463	15334.98
597.822	15383.79
598.18	15353.73
598.538	15373.62
598.897	15391.02
599.255	15254.08
599.613	15450.91
599.972	15269.22
600.33	15317.35
600.688	15272.15
601.046	15278.03
601.404	15327.52
601.762	15296.11
602.12	15367.75
602.478	15348.09
602.836	15284.36
603.194	15318.48
603.552	15327.75
603.91	15261.76
604.268	15346.5
604.625	15273.51
604.983	15344.92
605.341	15298.37
605.698	15353.96
606.056	15327.97
606.413	15370.91
606.771	15493.62
607.128	15503.34
607.485	15374.3
607.843	15435.09
608.2	15376.11
608.557	15456.78
608.914	15380.4
609.272	15392.15
609.629	15438.93
609.986	15496.1
610.343	15417.46
610.7	15486.84
611.057	15475.09
611.414	15544.24
611.771	15514.41
612.127	15558.7
612.484	15450.68
612.841	15580.85
613.198	15447.74
613.554	15566.84
613.911	15667.4
614.267	15576.55
614.624	15536.1
614.98	15589.43
615.337	15724.8
615.693	15626.27
616.05	15649.32
616.406	15680.05
616.762	15649.09
617.118	15667.85
617.475	15593.28
617.831	15681.18
618.187	15764.35
618.543	15745.36
618.899	15780.39
619.255	15737.45
619.611	15681.18
619.967	15772.48
620.323	15779.26
620.678	15817.23
621.034	15765.02
621.39	15678.02
621.746	15763.22
622.101	15829.43
622.457	15755.31
622.812	15804.34
623.168	15851.57
623.523	15822.42
623.879	15812.03
624.234	15780.16
624.589	15771.35
624.945	15736.32
625.3	15756.21
625.655	15795.08
626.01	15815.19
626.365	15776.32
626.72	15774.51
627.075	15782.65
627.43	15769.32
627.785	15779.49
628.14	15756.44
628.495	15795.53
628.85	15855.42
629.205	15748.98
629.559	15801.63
629.914	15692.71
630.269	15738.13
630.623	15672.6
630.978	15579.49
631.332	15619.94
631.687	15715.08
632.041	15627.4
632.396	15673.05
632.75	15550.79
633.104	15626.04
633.459	15526.39
633.813	15479.83
634.167	15516.44
634.521	15495.65
634.875	15520.28
635.229	15435.99
635.583	15433.96
635.937	15395.99
636.291	15410
636.645	15418.14
636.999	15350.12
637.352	15421.53
637.706	15340.4
638.06	15349.89
638.413	15314.87
638.767	15259.27
639.121	15240.74
639.474	15243.68
639.828	15236.9
640.181	15235.32
640.534	15237.58
640.888	15127.53
641.241	15116.9
641.594	15127.98
641.947	15219.05
642.301	15066.96
642.654	15100.18
643.007	15188.54
643.36	15122.78
643.713	15096.79
644.066	15129.56
644.419	15082.78
644.771	15040.97
645.124	14836.69
645.477	14803.47
645.83	14667.65
646.182	14627.65
646.535	14691.15
646.888	14732.28
647.24	14511.27
647.593	14639.63
647.945	14645.28
648.298	14578.16
648.65	14561.67
649.002	14510.59
649.355	14542.91
649.707	14613.42
650.059	14668.1
650.411	14814.09
650.763	14803.24
651.115	15023.8
651.467	14911.26
651.819	14903.58
652.171	14955.1
652.523	14893.18
652.875	14837.82
653.227	14794.43
653.578	14967.98
653.93	15003.91
654.282	14895.89
654.633	14789.91
654.985	14952.39
655.337	14910.13
655.688	14943.8
656.039	15002.78
656.391	14795.11
656.742	14839.62
657.094	14911.03
657.445	14866.97
657.796	14852.5
658.147	14864.48
658.498	14902.9
658.849	14943.58
659.2	14811.15
659.551	14884.37
659.902	14961.2
660.253	14930.92
660.604	15001.2
660.955	14953.75
661.306	14990.35
661.656	14992.61
662.007	14911.26
662.358	14958.49
662.708	14984.7
663.059	15015.21
663.409	14900.41
663.76	14983.12
664.11	14963.69
664.461	14979.06
664.811	14950.36
665.161	14993.29
665.511	14889.11
665.862	14959.85
666.212	14939.28
666.562	15098.37
666.912	14940.86
667.262	15012.27
667.612	14974.31
667.962	14989.22
668.312	14888.66
668.662	14988.55
669.011	14954.65
669.361	14900.19
669.711	14908.77
670.06	14962.78
670.41	14908.1
670.76	15008.21
671.109	14999.39
671.459	14977.7
671.808	14858.15
672.157	14890.24
672.507	14828.55
672.856	14805.5
673.205	14846.86
673.554	14855.44
673.904	14810.02
674.253	14925.95
674.602	14779.06
674.951	14594.43
675.3	14557.82
675.649	14784.94
675.998	14650.93
676.346	14724.15
676.695	14762.56
677.044	14679.85
677.393	14752.17
677.741	14761.89
678.09	14684.83
678.438	14636.69
678.787	14685.96
679.135	14629.91
679.484	14567.54
679.832	14562.34
680.181	14473.08
680.529	14486.41
680.877	14459.52
681.225	14411.84
681.573	14528.22
681.922	14408
682.27	14342.01
682.618	14459.52
682.966	14365.74
683.314	14348.34
683.661	14325.29
684.009	14191.96
684.357	14172.75
684.705	14229.02
685.053	14191.51
685.4	14170.49
685.748	14111.06
686.095	14119.87
686.443	14048.23
686.79	13972.53
687.138	14042.81
687.485	14016.82
687.832	13936.6
688.18	13996.48
688.527	13861.34
688.874	13819.31
689.221	13776.83
689.568	13759.88
689.915	13765.53
690.262	13707.45
690.609	13640.33
690.956	13570.05
691.303	13590.39
691.65	13587.45
691.997	13516.04
692.344	13434.46
692.69	13433.56
693.037	13420.45
693.383	13297.52
693.73	13376.84
694.077	13257.97
694.423	13184.3
694.769	13203.73
695.116	13082.16
695.462	13092.55
695.808	13072.66
696.155	13034.93
696.501	12958.32
696.847	12932.33
697.193	12804.2
697.539	12888.04
697.885	12727.82
698.231	12754.93
698.577	12690.75
698.923	12628.16
699.269	12572.56
699.614	12572.34
699.96	12465.9
700.306	12453.47
700.651	12459.35
700.997	12394.94
701.342	12286.7
701.688	12352.68
702.033	12246.47
702.379	12240.82
702.724	12145.46
703.069	12147.27
703.415	12081.28
703.76	12068.85
704.105	12024.33
704.45	11975.29
704.795	11902.07
705.14	11896.2
705.485	11776.43
705.83	11852.58
706.175	11780.5
706.52	11747.05
706.865	11674.74
707.209	11690.33
707.554	11658.24
707.899	11715.86
708.243	11564.23
708.588	11518.13
708.932	11479.26
709.277	11472.93
709.621	11470.45
709.966	11402.65
710.31	11460.96
710.654	11324.91
710.998	11291.24
711.342	11263.9
711.687	11227.06
712.031	11176.67
712.375	11139.83
712.719	11193.84
713.063	11205.37
713.407	11204.69
713.75	11059.84
714.094	11117.24
714.438	11052.83
714.782	11027.07
715.125	11049.67
715.469	11105.48
715.812	11006.05
716.156	10910.24
716.499	10862.1
716.843	10954.53
717.186	10829.11
717.53	10943
717.873	10982.78
718.216	10822.1
718.559	10794.31
718.902	10815.32
719.246	10793.4
719.589	10800.63
719.932	10729.68
720.275	10714.76
720.617	10743.69
720.96	10670.92
721.303	10698.04
721.646	10685.61
721.989	10629.57
722.331	10717.92
722.674	10709.34
723.016	10613.52
723.359	10657.36
723.701	10637.02
724.044	10590.02
724.386	10531.49
724.729	10602.67
725.071	10616.46
725.413	10539.4
725.755	10605.38
726.097	10526.07
726.439	10478.83
726.782	10458.95
727.124	10540.98
727.465	10481.55
727.807	10495.78
728.149	10444.71
728.491	10439.29
728.833	10504.82
729.175	10468.89
729.516	10468.89
729.858	10445.62
730.199	10465.73
730.541	10432.28
730.882	10415.79
731.224	10461.43
731.565	10417.14
731.906	10456.69
732.248	10408.1
732.589	10431.83
732.93	10355.9
733.271	10382.79
733.612	10397.25
733.953	10405.84
734.294	10349.8
734.635	10356.13
734.976	10413.07
735.317	10344.15
735.658	10331.27
735.999	10442.23
736.339	10376.46
736.68	10326.07
737.021	10367.65
737.361	10368.78
737.702	10380.53
738.042	10324.49
738.383	10445.16
738.723	10467.08
739.063	10408.33
739.404	10446.75
739.744	10407.65
740.084	10401.1
740.424	10447.88
740.764	10428.44
741.104	10578.27
741.444	10511.38
741.784	10522.9
742.124	10525.16
742.464	10509.34
742.804	10552.05
743.143	10613.29
743.483	10585.5
743.823	10637.93
744.162	10583.69
744.502	10746.17
744.841	10682.45
745.181	10793.85
745.52	10772.16
745.86	10846.96
746.199	10879.28
746.538	10910.91
746.877	10931.25
747.216	10999.05
747.556	11025.03
747.895	11077.24
748.234	11142.09
748.573	11139.83
748.911	11232.26
749.25	11279.94
749.589	11280.62
749.928	11492.14
750.267	11579.37
750.605	11542.99
750.944	11663.44
751.283	11685.36
751.621	11869.53
751.96	11958.12
752.298	12034.95
752.636	12201.05
752.975	12169.19
753.313	12303.65
753.651	12510.65
753.989	12463.64
754.327	12696.18
754.666	12718.55
755.004	12951.99
755.342	13088.26
755.679	13172.1
756.017	13237.41
756.355	13506.33
