Data from hue_350_FLMS001491_40.txt Node
Date: Mon Feb 06 15:37:57 GMT 2017
User: dcchb
Spectrometer: FLMS00149
Trigger mode: 0
Integration Time (sec): 2.000000E-2
Scans to average: 10
Electric dark correction enabled: true
Nonlinearity correction enabled: false
Boxcar width: 0
XAxis mode: Wavelengths
Number of Pixels in Spectrum: 2048
>>>>>Begin Spectral Data<<<<<
341.393	1.43
341.776	1.43
342.16	1.43
342.543	-68.85
342.927	-60.04
343.31	-66.14
343.693	-66.37
344.077	-65.46
344.46	-71.79
344.843	-66.82
345.226	-49.65
345.61	-48.52
345.993	-16.2
346.376	-20.04
346.759	12.73
347.142	46.62
347.525	46.4
347.908	52.95
348.291	94.98
348.674	99.73
349.057	117.58
349.44	121.2
349.823	129.33
350.206	174.3
350.588	195.32
350.971	196.9
351.354	226.96
351.737	239.61
352.119	254.75
352.502	257.24
352.884	256.56
353.267	278.03
353.65	301.08
354.032	292.27
354.414	294.3
354.797	287.75
355.179	335.2
355.562	322.32
355.944	335.43
356.326	322.32
356.709	330.46
357.091	323.23
357.473	330.46
357.855	332.72
358.238	343.34
358.62	339.72
359.002	334.07
359.384	344.69
359.766	315.32
360.148	321.87
360.53	352.15
360.912	337.24
361.294	310.8
361.676	337.46
362.057	323.23
362.439	336.33
362.821	352.6
363.203	323.45
363.584	325.94
363.966	332.72
364.348	329.33
364.729	328.42
365.111	320.06
365.493	308.31
365.874	310.12
366.256	317.8
366.637	308.99
367.019	308.99
367.4	301.98
367.781	295.2
368.163	299.27
368.544	301.53
368.925	329.33
369.306	290.46
369.688	309.89
370.069	309.44
370.45	309.22
370.831	323
371.212	321.64
371.593	306.28
371.974	306.5
372.355	298.37
372.736	320.06
373.117	309.89
373.498	298.82
373.879	308.99
374.26	320.29
374.641	312.38
375.021	300.85
375.402	317.12
375.783	301.08
376.163	322.1
376.544	315.32
376.925	317.35
377.305	336.11
377.686	323.45
378.066	316.22
378.447	325.03
378.827	304.02
379.208	322.77
379.588	326.39
379.968	311.7
380.349	341.08
380.729	318.93
381.109	329.78
381.489	334.3
381.87	331.81
382.25	348.31
382.63	334.07
383.01	314.64
383.39	319.16
383.77	323.68
384.15	339.95
384.53	343.11
384.91	339.5
385.29	327.75
385.67	338.14
386.049	341.3
386.429	322.1
386.809	342.89
387.189	350.8
387.568	340.17
387.948	330.91
388.328	345.37
388.707	365.94
389.087	351.02
389.466	352.15
389.846	341.76
390.225	369.1
390.605	334.98
390.984	336.56
391.363	354.86
391.743	356.45
392.122	364.35
392.501	346.73
392.881	377.01
393.26	341.76
393.639	344.92
394.018	354.41
394.397	363.45
394.776	374.07
395.155	346.05
395.534	369.33
395.913	363
396.292	357.8
396.671	362.09
397.05	367.52
397.429	367.29
397.808	367.07
398.186	384.92
398.565	355.32
398.944	364.35
399.323	402.55
399.701	379.04
400.08	369.55
400.458	390.34
400.837	381.53
401.215	396.22
401.594	372.49
401.972	377.91
402.351	357.58
402.729	383.79
403.107	388.53
403.486	374.98
403.864	364.81
404.242	379.04
404.62	407.74
404.999	405.48
405.377	405.48
405.755	404.58
406.133	395.54
406.511	398.03
406.889	421.08
407.267	420.4
407.645	394.18
408.023	404.81
408.401	407.07
408.779	413.62
409.156	417.01
409.534	424.92
409.912	412.49
410.29	427.63
410.667	429.66
411.045	432.15
411.422	431.02
411.8	431.47
412.178	438.93
412.555	451.13
412.933	450.45
413.31	438.48
413.687	449.1
414.065	459.27
414.442	447.06
414.819	468.53
415.197	476.22
415.574	473.73
415.951	457.69
416.328	488.65
416.705	473.5
417.082	476.89
417.46	465.6
417.837	459.04
418.214	488.87
418.591	475.76
418.967	473.5
419.344	468.08
419.721	499.72
420.098	483.22
420.475	504.46
420.852	492.04
421.228	520.28
421.605	499.04
421.982	509.66
422.358	524.12
422.735	530.23
423.111	545.14
423.488	521.41
423.864	525.25
424.241	522.54
424.617	544.92
424.994	537.23
425.37	558.93
425.746	533.84
426.123	530.68
426.499	548.98
426.875	553.5
427.251	566.84
427.627	559.15
428.003	551.47
428.379	572.48
428.756	598.7
429.132	580.85
429.507	577.23
429.883	575.42
430.259	621.52
430.635	598.7
431.011	607.96
431.387	604.57
431.763	598.47
432.138	625.14
432.514	613.84
432.89	620.62
433.265	631.24
433.641	637.12
434.016	620.39
434.392	641.18
434.767	659.94
435.143	648.87
435.518	638.7
435.894	676.44
436.269	663.78
436.644	676.44
437.02	660.17
437.395	689.32
437.77	653.39
438.145	667.85
438.52	694.29
438.895	711.24
439.271	684.35
439.646	710.79
440.021	711.69
440.395	727.74
440.77	722.54
441.145	710.11
441.52	727.51
441.895	741.07
442.27	743.78
442.645	730.9
443.019	725.25
443.394	737.23
443.769	751.46
444.143	746.04
444.518	738.58
444.892	756.89
445.267	780.16
445.641	749.66
446.016	761.63
446.39	762.08
446.764	762.08
447.139	758.47
447.513	777.68
447.887	780.84
448.262	777
448.636	802.76
449.01	772.03
449.384	799.37
449.758	782.65
450.132	807.28
450.506	799.37
450.88	790.78
451.254	791.01
451.628	819.71
452.002	840.95
452.376	842.99
452.75	827.17
453.123	833.04
453.497	838.24
453.871	873.04
454.244	868.97
454.618	839.82
454.992	880.27
455.365	856.55
455.739	886.6
456.112	902.42
456.486	893.15
456.859	922.76
457.232	929.54
457.606	917.79
457.979	943.1
458.352	956.43
458.725	943.32
459.099	966.37
459.472	980.84
459.845	965.47
460.218	965.47
460.591	976.77
460.964	1005.02
461.337	1009.08
461.71	1029.87
462.083	1009.99
462.456	1029.42
462.829	1037.56
463.201	1041.85
463.574	1051.57
463.947	1061.51
464.32	1056.77
464.692	1104.22
465.065	1084.79
465.438	1093.83
465.81	1118.46
466.183	1115.97
466.555	1138.8
466.928	1136.99
467.3	1153.71
467.672	1174.28
468.045	1172.92
468.417	1200.04
468.789	1206.82
469.161	1207.5
469.534	1220.6
469.906	1249.98
470.278	1276.87
470.65	1294.05
471.022	1298.57
471.394	1315.06
471.766	1317.55
472.138	1298.12
472.51	1340.6
472.882	1365.23
473.253	1395.97
473.625	1416.08
473.997	1438.45
474.369	1426.93
474.74	1467.38
475.112	1495.17
475.484	1493.14
475.855	1537.88
476.227	1548.73
476.598	1554.61
476.97	1573.81
477.341	1596.64
477.713	1610.65
478.084	1645.45
478.455	1695.62
478.827	1693.36
479.198	1772
479.569	1772
479.94	1816.07
480.311	1830.53
480.682	1874.6
481.053	1938.78
481.424	1925.67
481.795	1970.64
482.166	2003.63
482.537	2017.42
482.908	2063.07
483.279	2056.74
483.65	2132.67
484.021	2169.51
484.391	2195.95
484.762	2208.37
485.133	2263.74
485.503	2288.82
485.874	2309.16
486.244	2315.26
486.615	2397.75
486.985	2414.92
487.356	2473.68
487.726	2448.37
488.097	2536.28
488.467	2532.21
488.837	2631.41
489.207	2635.26
489.578	2688.59
489.948	2667.35
490.318	2716.61
490.688	2688.81
491.058	2783.5
491.428	2836.83
491.798	2868.7
492.168	2877.06
492.538	2931.52
492.908	2948.47
493.278	2964.29
493.648	3006.77
494.017	3043.15
494.387	3078.41
494.757	3091.97
495.126	3110.5
495.496	3116.15
495.866	3214.45
496.235	3194.34
496.605	3266.2
496.974	3255.58
497.344	3274.11
497.713	3299.87
498.082	3336.25
498.452	3350.04
498.821	3386.42
499.19	3388.46
499.559	3422.35
499.928	3460.77
500.298	3470.26
500.667	3481.34
501.036	3497.61
501.405	3551.62
501.774	3524.72
502.143	3577.15
502.512	3591.61
502.88	3639.52
503.249	3627.55
503.618	3622.8
503.987	3653.76
504.356	3667.09
504.724	3701.22
505.093	3768.56
505.462	3724.49
505.83	3772.4
506.199	3779.63
506.567	3810.14
506.936	3797.71
507.304	3866.86
507.672	3841.33
508.041	3847.43
508.409	3908.22
508.777	3945.05
509.145	3949.57
509.514	3908.22
509.882	3967.42
510.25	3963.81
510.618	3989.8
510.986	3968.78
511.354	4081.55
511.722	4017.14
512.09	4076.57
512.458	4069.34
512.826	4077.93
513.193	4105.27
513.561	4129.68
513.929	4129.45
514.297	4185.5
514.664	4193.18
515.032	4209.68
515.4	4221.43
515.767	4264.37
516.135	4240.41
516.502	4201.77
516.869	4308.88
517.237	4262.56
517.604	4305.04
517.972	4313.4
518.339	4320.63
518.706	4338.26
519.073	4324.02
519.44	4386.62
519.808	4357.7
520.175	4384.81
520.542	4459.16
520.909	4451.7
521.276	4417.36
521.643	4476.11
522.009	4469.11
522.376	4550.23
522.743	4547.97
523.11	4548.43
523.477	4637.91
523.843	4589.1
524.21	4631.36
524.577	4629.78
524.943	4705.71
525.31	4671.13
525.676	4724.69
526.043	4742.54
526.409	4736.44
526.776	4782.54
527.142	4836.78
527.508	4859.6
527.874	4887.63
528.241	4882.43
528.607	4919.04
528.973	4921.98
529.339	4948.19
529.705	4986.38
530.071	5038.81
530.437	5013.72
530.803	5038.13
531.169	5034.29
531.535	5104.12
531.901	5084.23
532.267	5113.38
532.632	5158.81
532.998	5105.93
533.364	5184.12
533.73	5213.49
534.095	5245.36
534.461	5294.62
534.826	5239.25
535.192	5302.76
535.557	5299.14
535.923	5339.82
536.288	5372.13
536.653	5411.23
537.019	5409.65
537.384	5401.74
537.749	5404.67
538.114	5500.72
538.479	5497.78
538.845	5552.69
539.21	5502.3
539.575	5524.45
539.94	5554.27
540.305	5599.02
540.67	5551.11
541.034	5579.58
541.399	5634.05
541.764	5655.52
542.129	5736.64
542.494	5716.76
542.858	5794.72
543.223	5768.05
543.587	5803.31
543.952	5831.56
544.316	5840.14
544.681	5855.74
545.045	5828.39
545.41	5949.97
545.774	5921.04
546.138	5923.3
546.503	5990.65
546.867	5977.54
547.231	6026.8
547.595	6003.08
547.959	6020.48
548.324	6104.32
548.688	6118.33
549.052	6094.37
549.416	6036.3
549.779	6110.64
550.143	6192.68
550.507	6181.15
550.871	6187.03
551.235	6243.3
551.599	6266.8
551.962	6270.87
552.326	6288.94
552.689	6317.64
553.053	6311.77
553.417	6291.88
553.78	6396.06
554.143	6366
554.507	6413.46
554.87	6450.97
555.234	6497.53
555.597	6443.52
555.96	6452.33
556.323	6469.73
556.686	6531.42
557.05	6578.65
557.413	6580.46
557.776	6584.3
558.139	6560.12
558.502	6575.04
558.865	6652.1
559.228	6703.17
559.59	6624.3
559.953	6720.57
560.316	6815.26
560.679	6739.55
561.041	6851.64
561.404	6830.85
561.767	6878.31
562.129	6833.34
562.492	6939.55
562.854	6945.65
563.217	6926.89
563.579	6966.44
563.941	6914.69
564.304	6937.06
564.666	7046.44
565.028	7052.77
565.39	7058.87
565.753	7114.01
566.115	7122.6
566.477	7143.39
566.839	7168.24
567.201	7196.49
567.563	7210.28
567.925	7278.75
568.287	7311.06
568.648	7329.6
569.01	7313.32
569.372	7395.81
569.734	7349.93
570.095	7402.59
570.457	7398.97
570.819	7516.71
571.18	7472.42
571.542	7581.57
571.903	7533.66
572.265	7612.3
572.626	7653.65
572.987	7690.94
573.349	7779.98
573.71	7772.3
574.071	7812.52
574.432	7875.12
574.794	7917.6
575.155	7968.45
575.516	8014.32
575.877	8064.27
576.238	8080.54
576.599	8205.96
576.96	8228.33
577.32	8265.39
577.681	8420.19
578.042	8438.94
578.403	8555.33
578.763	8643.01
579.124	8767.52
579.485	8811.59
579.845	8955.09
580.206	9018.36
580.566	9106.5
580.927	9187.63
581.287	9296.55
581.648	9384
582.008	9516.66
582.368	9647.05
582.728	9774.05
583.089	9960.49
583.449	10009.3
583.809	10205.68
584.169	10350.98
584.529	10530.42
584.889	10819.22
585.249	10825.55
585.609	10976.51
585.969	11240
586.329	11416.49
586.688	11597.05
587.048	11755.69
587.408	11870.94
587.768	12197.49
588.127	12435
588.487	12652.62
588.846	12903.46
589.206	13034.08
589.565	13295.99
589.925	13607.4
590.284	13783.89
590.643	14088.74
591.003	14325.57
591.362	14663.87
591.721	14839
592.08	15024.31
592.44	15339.78
592.799	15573.22
593.158	15847.79
593.517	16154.67
593.876	16513.53
594.235	16643.47
594.593	17059.06
594.952	17365.49
595.311	17553.73
595.67	17875.08
596.029	18194.85
596.387	18536.76
596.746	18862.85
597.104	19072.34
597.463	19315.95
597.822	19648.14
598.18	19877.06
598.538	20156.38
598.897	20494
599.255	20702.8
599.613	21295.78
599.972	21303.01
600.33	21642.21
600.688	21844.69
601.046	22129.21
601.404	22516.99
601.762	22673.15
602.12	23112.01
602.478	23313.36
602.836	23589.05
603.194	23773.46
603.552	24141.58
603.91	24274.23
604.268	24635.81
604.625	24763.04
604.983	25109.24
605.341	25347.65
605.698	25669.23
606.056	25978.82
606.413	26130.23
606.771	26451.13
607.128	26725.7
607.485	26821.51
607.843	27018.57
608.2	27396.64
608.557	27595.05
608.914	27784.2
609.272	28058.32
609.629	28354.13
609.986	28689.26
610.343	28734.68
610.7	29106.42
611.057	29169.7
611.414	29371.28
611.771	29577.6
612.127	29884.48
612.484	30023.24
612.841	30316.79
613.198	30306.62
613.554	30467.97
613.911	30911.8
614.267	30935.98
614.624	31073.15
614.98	31223.43
615.337	31532.12
615.693	31613.48
616.05	31775.73
616.406	32097.08
616.762	32029.06
617.118	32170.52
617.475	32358.32
617.831	32621.81
618.187	32743.84
618.543	32860.45
618.899	33106.09
619.255	33175.92
619.611	33267.22
619.967	33455.24
620.323	33607.55
620.678	33657.72
621.034	33480.32
621.39	33843.7
621.746	33971.83
622.101	34468.09
622.457	34188.55
622.812	34352.39
623.168	34509.45
623.523	34560.74
623.879	34756.67
624.234	34521.2
624.589	34772.26
624.945	34832.83
625.3	34983.56
625.655	35076.89
626.01	35158.69
626.365	35345.58
626.72	35221.97
627.075	35348.75
627.43	35452.25
627.785	35434.85
628.14	35508.29
628.495	35669.64
628.85	35581.73
629.205	35602.98
629.559	35936.3
629.914	35781.5
630.269	35901.5
630.623	35884.32
630.978	35736.31
631.332	35956.41
631.687	36151.66
632.041	35964.77
632.396	36078.67
632.75	35948.28
633.104	36076.41
633.459	35931.78
633.813	35971.55
634.167	35995.96
634.521	36104.88
634.875	36260.59
635.229	36092.23
635.583	35978.79
635.937	36023.53
636.291	35980.14
636.645	35972.01
636.999	36055.85
637.352	36200.25
637.706	35978.33
638.06	36322.96
638.413	36034.83
638.767	36009.97
639.121	36167.03
639.474	35964.1
639.828	35896.3
640.181	36027.82
640.534	36059.69
640.888	35983.76
641.241	35863.08
641.594	35976.3
641.947	36123.87
642.301	35874.83
642.654	36005.23
643.007	35860.82
643.36	36021.72
643.713	36003.42
644.066	36093.58
644.419	35830.54
644.771	35722.75
645.124	35326.6
645.477	35299.03
645.83	35076.66
646.182	35016.1
646.535	34852.49
646.888	34972.71
647.24	34864.01
647.593	35005.48
647.945	34943.78
648.298	34830.12
648.65	34771.81
649.002	34765.48
649.355	34859.94
649.707	34725.03
650.059	34906.27
650.411	35396.65
650.763	35256.54
651.115	35704.44
651.467	35589.64
651.819	35452.25
652.171	35508.74
652.523	35560.72
652.875	35622.18
653.227	35418.35
653.578	35533.83
653.93	35616.31
654.282	35344.23
654.633	35383.55
654.985	35431.68
655.337	35360.72
655.688	35490.66
656.039	35487.5
656.391	35281.4
656.742	35307.84
657.094	35303.1
657.445	35395.52
657.796	35339.93
658.147	35116.66
658.498	35184.68
658.849	35334.73
659.2	35365.92
659.551	35077.11
659.902	35271.01
660.253	35109.2
660.604	35366.82
660.955	35076.66
661.306	35195.76
661.656	35119.15
662.007	35197.79
662.358	35118.02
662.708	35185.81
663.059	35124.34
663.409	34921.64
663.76	35245.47
664.11	35190.33
664.461	35169.99
664.811	35182.87
665.161	35032.6
665.511	35040.51
665.862	35138.36
666.212	35237.79
666.562	35268.97
666.912	35145.59
667.262	35084.8
667.612	35091.58
667.962	35047.28
668.312	35112.82
668.662	35165.7
669.011	35046.61
669.361	34927.51
669.711	34932.94
670.06	34998.02
670.41	34962.54
670.76	34868.98
671.109	35109.43
671.459	34945.59
671.808	35082.99
672.157	35061.52
672.507	34798.48
672.856	34789.66
673.205	34796.67
673.554	35066.95
673.904	34822.66
674.253	35079.15
674.602	34856.1
674.951	34340.64
675.3	34151.72
675.649	34786.27
675.998	34680.29
676.346	34742.21
676.695	34890.23
677.044	34620.18
677.393	34716.9
677.741	34804.35
678.09	34677.8
678.438	34519.61
678.787	34638.93
679.135	34680.51
679.484	34276.46
679.832	34487.75
680.181	34306.74
680.529	34546.96
680.877	34438.94
681.225	34338.15
681.573	34446.17
681.922	34255.44
682.27	34327.53
682.618	34218.15
682.966	34193.52
683.314	34150.36
683.661	34066.29
684.009	33867.43
684.357	33887.99
684.705	33821.55
685.053	33850.48
685.4	33838.73
685.748	33654.55
686.095	33607.55
686.443	33600.54
686.79	33492.52
687.138	33502.92
687.485	33513.09
687.832	33335.24
688.18	33447.55
688.527	33210.5
688.874	33229.71
689.221	33142.25
689.568	32940.67
689.915	33046.21
690.262	32923.72
690.609	32860.68
690.956	32871.97
691.303	32753.56
691.65	32610.96
691.997	32580.23
692.344	32302.72
692.69	32455.94
693.037	32388.82
693.383	32074.93
693.73	32274.25
694.077	32111.77
694.423	32055.5
694.769	32034.26
695.116	31873.36
695.462	31943.19
695.808	31671.78
696.155	31870.65
696.501	31607.15
696.847	31489.19
697.193	31354.73
697.539	31546.81
697.885	31196.76
698.231	31192.02
698.577	31111.34
698.923	31204.9
699.269	30877.22
699.614	30803.55
699.96	30738.02
700.306	30851.24
700.651	30692.37
700.997	30571.02
701.342	30541.64
701.688	30475.2
702.033	30432.72
702.379	30272.27
702.724	30263.46
703.069	30311.36
703.415	30030.47
703.76	29954.09
704.105	30095.32
704.45	29960.41
704.795	29849.91
705.14	29631.61
705.485	29655.34
705.83	29611.04
706.175	29565.17
706.52	29564.49
706.865	29464.83
707.209	29337.6
707.554	29256.25
707.899	29289.02
708.243	29130.6
708.588	29205.4
708.932	28921.8
709.277	28923.38
709.621	28910.04
709.966	28804.74
710.31	28862.81
710.654	28540.11
710.998	28640.22
711.342	28569.94
711.687	28480.68
712.031	28418.76
712.375	28351.64
712.719	28303.51
713.063	28306.67
713.407	28297.41
713.75	28121.37
714.094	28174.7
714.438	28020.35
714.782	28084.53
715.125	27909.85
715.469	27937.87
715.812	27879.56
716.156	27689.06
716.499	27774.48
716.843	27702.62
717.186	27567.93
717.53	27619.23
717.873	27698.33
718.216	27663.75
718.559	27391.44
718.902	27294.27
719.246	27427.37
719.589	27313.25
719.932	27215.63
720.275	27178.11
720.617	27131.56
720.96	27046.59
721.303	27067.83
721.646	27112.13
721.989	26904.22
722.331	26935.63
722.674	26859.48
723.016	26848.86
723.359	26784.68
723.701	26854.73
724.044	26698.35
724.386	26549.2
724.729	26630.78
725.071	26602.99
725.413	26451.58
725.755	26513.27
726.097	26504.23
726.439	26328.42
726.782	26327.06
727.124	26396.21
727.465	26270.57
727.807	26253.17
728.149	26264.69
728.491	26174.75
728.833	26214.97
729.175	26060.85
729.516	26037.35
729.858	26023.12
730.199	26113.73
730.541	25948.99
730.882	25913.97
731.224	25936.79
731.565	25731.37
731.906	25772.95
732.248	25821.99
732.589	25659.06
732.93	25678.04
733.271	25614.76
733.612	25612.73
733.953	25567.08
734.294	25582.22
734.635	25448.89
734.976	25526.18
735.317	25335.68
735.658	25289.8
735.999	25323.25
736.339	25229.92
736.68	25251.38
737.021	25293.87
737.361	25153.08
737.702	25261.78
738.042	25138.17
738.383	25110.6
738.723	25066.3
739.063	24981.33
739.404	25104.04
739.744	24978.4
740.084	24905.63
740.424	24838.74
740.764	24856.14
741.104	24909.92
741.444	24794.67
741.784	24834.22
742.124	24671.29
742.464	24742.24
742.804	24680.78
743.143	24612.3
743.483	24558.07
743.823	24480.78
744.162	24535.02
744.502	24591.51
744.841	24372.31
745.181	24433.78
745.52	24349.94
745.86	24478.97
746.199	24408.69
746.538	24309.04
746.877	24363.95
747.216	24341.35
747.556	24192.2
747.895	24226.33
748.234	24150.17
748.573	24116.72
748.911	24121.24
749.25	24030.85
749.589	23876.96
749.928	24101.58
750.267	24046.67
750.605	23961.7
750.944	23922.38
751.283	23718.54
751.621	23858.43
751.96	23724.64
752.298	23655.04
752.636	23754.47
752.975	23617.3
753.313	23481.04
753.651	23672.89
753.989	23451.43
754.327	23422.05
754.666	23248.27
755.004	23366.01
755.342	23287.37
755.679	23221.61
756.017	23178.22
756.355	23134.6
756.693	23119.46
757.031	23047.83
757.368	22979.13
757.706	22983.42
758.044	22825.46
758.381	22950.65
758.719	22845.12
759.056	22826.36
759.394	22716.99
759.731	22523.55
760.068	22481.74
760.405	22404.68
760.743	22375.08
761.08	22488.29
761.417	22294.63
