Data from hue_180_FLMS001491_00008.txt Node
Date: Tue Feb 07 16:46:29 GMT 2017
User: dcchb
Spectrometer: FLMS00149
Trigger mode: 0
Integration Time (sec): 2.000000E-2
Scans to average: 10
Electric dark correction enabled: true
Nonlinearity correction enabled: false
Boxcar width: 0
XAxis mode: Wavelengths
Number of Pixels in Spectrum: 2048
>>>>>Begin Spectral Data<<<<<
341.393	-20.56
341.776	-20.56
342.16	-20.56
342.543	-56.72
342.927	-54.91
343.31	-66.66
343.693	-74.12
344.077	-67.57
344.46	-69.15
344.843	-56.27
345.226	-47.23
345.61	-2.49
345.993	-21.24
346.376	9.72
346.759	-6.78
347.142	26.89
347.525	41.35
347.908	67.79
348.291	67.12
348.674	88.81
349.057	109.83
349.44	119.09
349.823	133.1
350.206	155.25
350.588	195.48
350.971	204.74
351.354	216.27
351.737	249.48
352.119	257.39
352.502	254.46
352.884	275.02
353.267	289.03
353.65	295.13
354.032	277.73
354.414	329.26
354.797	287.45
355.179	312.99
355.562	317.51
355.944	314.57
356.326	327.67
356.709	343.04
357.091	343.49
357.473	339.43
357.855	348.92
358.238	350.73
358.62	334.68
359.002	371.06
359.384	335.13
359.766	335.36
360.148	357.73
360.53	342.36
360.912	355.92
361.294	329.71
361.676	321.8
362.057	318.18
362.439	331.29
362.821	342.59
363.203	338.97
363.584	339.43
363.966	319.99
364.348	314.57
364.729	322.48
365.111	316.15
365.493	328.58
365.874	321.35
366.256	324.51
366.637	324.51
367.019	309.82
367.4	317.73
367.781	296.26
368.163	302.14
368.544	337.84
368.925	305.08
369.306	306.66
369.688	310.5
370.069	317.05
370.45	312.53
370.831	311.18
371.212	317.28
371.593	307.79
371.974	310.05
372.355	330.39
372.736	327.22
373.117	317.96
373.498	331.06
373.879	325.42
374.26	315.7
374.641	313.44
375.021	312.31
375.402	316.15
375.783	312.76
376.163	357.28
376.544	328.13
376.925	312.99
377.305	325.64
377.686	328.58
378.066	322.03
378.447	332.87
378.827	327.22
379.208	333.78
379.588	337.84
379.968	345.98
380.349	339.2
380.729	335.81
381.109	350.73
381.489	331.06
381.87	329.26
382.25	334.45
382.63	343.95
383.01	337.17
383.39	349.82
383.77	357.05
384.15	368.13
384.53	351.4
384.91	345.98
385.29	363.61
385.67	338.97
386.049	347.11
386.429	361.12
386.809	357.05
387.189	357.05
387.568	365.19
387.948	364.28
388.328	350.95
388.707	360.67
389.087	383.94
389.466	375.36
389.846	368.8
390.225	373.55
390.605	371.97
390.984	368.58
391.363	391.18
391.743	385.98
392.122	384.17
392.501	391.63
392.881	369.48
393.26	358.63
393.639	386.88
394.018	387.11
394.397	369.03
394.776	396.15
395.155	383.72
395.534	407.22
395.913	403.61
396.292	395.47
396.671	408.8
397.05	384.17
397.429	397.96
397.808	406.77
398.186	419.42
398.565	405.41
398.944	429.14
399.323	402.48
399.701	423.49
400.08	433.43
400.458	425.53
400.837	439.31
401.215	411.51
401.594	406.09
401.972	433.21
402.351	451.06
402.729	439.76
403.107	433.66
403.486	460.78
403.864	441.34
404.242	442.25
404.62	432.08
404.999	464.85
405.377	456.94
405.755	453.55
406.133	476.15
406.511	472.3
406.889	481.57
407.267	481.57
407.645	486.99
408.023	494.45
408.401	486.54
408.779	505.3
409.156	513.43
409.534	531.29
409.912	533.32
410.29	533.55
410.667	532.64
411.045	549.36
411.422	540.55
411.8	555.24
412.178	556.14
412.555	577.16
412.933	590.04
413.31	579.87
413.687	593.2
414.065	586.88
414.442	592.53
414.819	601.11
415.197	625.52
415.574	644.95
415.951	654.22
416.328	656.03
416.705	665.75
417.082	652.41
417.46	684.28
417.837	666.65
418.214	663.49
418.591	699.87
418.967	700.55
419.344	693.99
419.721	721.11
420.098	718.63
420.475	755.69
420.852	750.71
421.228	758.4
421.605	775.8
421.982	787.1
422.358	787.32
422.735	809.02
423.111	813.31
423.488	821.9
423.864	828
424.241	840.88
424.617	858.96
424.994	867.32
425.37	889.47
425.746	883.82
426.123	899.41
426.499	948
426.875	931.27
427.251	942.8
427.627	972.86
428.003	959.52
428.379	994.32
428.756	1001.33
429.132	1005.4
429.507	1005.17
429.883	1045.17
430.259	1037.03
430.635	1046.3
431.011	1062.34
431.387	1084.72
431.763	1107.09
432.138	1123.59
432.514	1127.2
432.89	1169.69
433.265	1153.87
433.641	1186.64
434.016	1211.27
434.392	1236.58
434.767	1242.68
435.143	1268.22
435.518	1273.64
435.894	1310.7
436.269	1337.14
436.644	1338.27
437.02	1345.95
437.395	1375.56
437.77	1369
438.145	1427.31
438.52	1452.17
438.895	1460.75
439.271	1429.57
439.646	1521.99
440.021	1496.68
440.395	1524.25
440.77	1510.47
441.145	1559.06
441.52	1565.61
441.895	1589.79
442.27	1657.81
442.645	1621.2
443.019	1651.03
443.394	1631.14
443.769	1665.94
444.143	1704.14
444.518	1724.02
444.892	1735.1
445.267	1736.9
445.641	1757.24
446.016	1774.42
446.39	1783
446.764	1799.95
447.139	1798.37
447.513	1821.87
447.887	1834.3
448.262	1851.02
448.636	1857.8
449.01	1902.55
449.384	1918.14
449.758	1914.75
450.132	1931.02
450.506	1931.47
450.88	1962.89
451.254	1935.09
451.628	2026.61
452.002	2063.67
452.376	2048.08
452.75	2056.22
453.123	2087.18
453.497	2147.06
453.871	2119.04
454.244	2169.89
454.618	2177.12
454.992	2212.15
455.365	2272.48
455.739	2305.02
456.112	2312.71
456.486	2315.65
456.859	2354.06
457.232	2399.94
457.606	2373.04
457.979	2405.36
458.352	2464.57
458.725	2495.53
459.099	2500.05
459.472	2556.32
459.845	2571.01
460.218	2621.85
460.591	2655.75
460.964	2640.61
461.337	2752.92
461.71	2787.72
462.083	2819.36
462.456	2832.02
462.829	2851.68
463.201	2873.6
463.574	2904.78
463.947	2937.78
464.32	2999.47
464.692	3028.39
465.065	3055.96
465.438	3124.89
465.81	3157.88
466.183	3240.37
466.555	3287.15
466.928	3298.44
467.3	3300.03
467.672	3340.93
468.045	3435.84
468.417	3470.87
468.789	3506.35
469.161	3558.78
469.534	3619.34
469.906	3721.94
470.278	3701.37
470.65	3802.84
471.022	3865.44
471.394	3937.52
471.766	3972.32
472.138	4050.74
472.51	4117.18
472.882	4172.32
473.253	4269.04
473.625	4328.7
473.997	4419.09
474.369	4412.54
474.74	4483.95
475.112	4636.26
475.484	4692.31
475.855	4837.84
476.227	4816.6
476.598	5029.92
476.97	5062.92
477.341	5151.05
477.713	5271.95
478.084	5273.99
478.455	5477.6
478.827	5489.57
479.198	5718.95
479.569	5635.78
479.94	5891.82
480.311	5892.73
480.682	6078.26
481.053	6213.85
481.424	6334.75
481.795	6402.09
482.166	6507.85
482.537	6622.88
482.908	6781.97
483.279	6861.51
483.65	6984.68
484.021	7122.07
484.391	7247.72
484.762	7310.09
485.133	7477.77
485.503	7555.51
485.874	7790.76
486.244	7825.33
486.615	7967.47
486.985	8096.28
487.356	8254.47
487.726	8344.64
488.097	8514.13
488.467	8563.62
488.837	8787.57
489.207	8935.58
489.578	9004.06
489.948	9167.89
490.318	9264.62
490.688	9315.24
491.058	9502.8
491.428	9585.06
491.798	9775.79
492.168	9828.67
492.538	9962.9
492.908	10090.58
493.278	10181.43
493.648	10179.17
494.017	10347.07
494.387	10517.24
494.757	10572.15
495.126	10712.03
495.496	10744.8
495.866	10788.64
496.235	10940.05
496.605	11000.39
496.974	11068.18
497.344	11274.05
497.713	11241.51
498.082	11311.57
498.452	11376.42
498.821	11400.6
499.19	11509.3
499.559	11595.63
499.928	11739.8
500.298	11702.74
500.667	11888.95
501.036	11748.17
501.405	11856.64
501.774	11985
502.143	12029.29
502.512	12116.74
502.88	12084.88
503.249	12126.91
503.618	12221.37
503.987	12329.62
504.356	12319.9
504.724	12409.39
505.093	12329.85
505.462	12450.29
505.83	12512.89
506.199	12546.34
506.567	12732.09
506.936	12703.39
507.304	12799.89
507.672	12818.19
508.041	12881.24
508.409	12870.17
508.777	12947.91
509.145	12984.29
509.514	12975.25
509.882	13017.28
510.25	12989.04
510.618	13110.84
510.986	13105.64
511.354	13105.19
511.722	13251.4
512.09	13268.58
512.458	13277.39
512.826	13424.73
513.193	13306.54
513.561	13290.72
513.929	13374.11
514.297	13373.21
514.664	13541.56
515.032	13439.87
515.4	13544.05
515.767	13494.56
516.135	13640.09
516.502	13429.93
516.869	13650.26
517.237	13625.86
517.604	13466.09
517.972	13627.44
518.339	13702.92
518.706	13629.02
519.073	13678.06
519.44	13736.14
519.808	13715.35
520.175	13733.65
520.542	13774.1
520.909	13845.29
521.276	13708.57
521.643	13781.11
522.009	13897.04
522.376	13870.14
522.743	13893.42
523.11	13914.44
523.477	13916.47
523.843	13943.59
524.21	13989.24
524.577	14038.73
524.943	14018.84
525.31	14071.27
525.676	14052.06
526.043	14154.43
526.409	14075.79
526.776	14184.71
527.142	14078.27
527.508	14060.87
527.874	14237.37
528.241	14077.37
528.607	14103.13
528.973	14132.74
529.339	14004.38
529.705	14208.21
530.071	14167.99
530.437	14034.66
530.803	14106.52
531.169	14081.21
531.535	13983.14
531.901	13939.07
532.267	13969.12
532.632	13934.32
532.998	13954.66
533.364	13955.57
533.73	13879.18
534.095	13817.49
534.461	13873.53
534.826	13811.39
535.192	13798.73
535.557	13874.44
535.923	13716.48
536.288	13642.13
536.653	13628.34
537.019	13565.52
537.384	13576.82
537.749	13450.72
538.114	13573.43
538.479	13397.16
538.845	13323.49
539.21	13388.12
539.575	13301.8
539.94	13195.36
540.305	13262.48
540.67	13168.92
541.034	13069.71
541.399	13087.57
541.764	12971.41
542.129	13028.58
542.494	12924.18
542.858	12866.1
543.223	12815.26
543.587	12867.46
543.952	12653.68
544.316	12633.11
544.681	12612.78
545.045	12540.24
545.41	12463.18
545.774	12483.74
546.138	12465.43
546.503	12342.5
546.867	12236.74
547.231	12289.39
547.595	12274.03
547.959	12193.35
548.324	12102.73
548.688	12065.67
549.052	11960.36
549.416	11993.81
549.779	11863.64
550.143	11869.07
550.507	11946.13
550.871	11895.73
551.235	11760.14
551.599	11759.01
551.962	11694.61
552.326	11653.93
552.689	11634.27
553.053	11530.09
553.417	11514.27
553.78	11637.89
554.143	11424.56
554.507	11355.63
554.87	11421.39
555.234	11424.11
555.597	11427.72
555.96	11315.41
556.323	11345.69
556.686	11173.04
557.05	11201.29
557.413	11164.45
557.776	11182.53
558.139	11195.19
558.502	11068.41
558.865	11066.83
559.228	11074.51
559.59	11073.16
559.953	10949.32
560.316	11083.55
560.679	11068.64
561.041	11005.81
561.404	11045.59
561.767	11052.82
562.129	10973.04
562.492	11050.1
562.854	10979.15
563.217	10962.88
563.579	10872.26
563.941	10985.7
564.304	10943.22
564.666	10976.21
565.028	10984.34
565.39	10917.23
565.753	10895.08
566.115	10931.92
566.477	11006.04
566.839	10886.95
567.201	10965.14
567.563	10924.23
567.925	10952.93
568.287	10973.72
568.648	10916.78
569.01	10940.28
569.372	11005.81
569.734	10920.84
570.095	10912.03
570.457	10960.62
570.819	10978.24
571.18	10953.16
571.542	10937.34
571.903	10910.67
572.265	10952.25
572.626	10992.71
572.987	10914.97
573.349	10987.96
573.71	10964.91
574.071	10925.36
574.432	10954.06
574.794	11034.74
575.155	11028.64
575.516	10905.93
575.877	10995.87
576.238	10976.43
576.599	11014.17
576.96	10949.32
577.32	10933.5
577.681	10961.07
578.042	10976.66
578.403	11008.52
578.763	10950.67
579.124	10986.38
579.485	10934.18
579.845	10995.19
580.206	10934.85
580.566	10901.18
580.927	10990.22
581.287	10949.32
581.648	10936.89
582.008	10943.89
582.368	10858.47
582.728	10891.24
583.089	10971.24
583.449	10890.79
583.809	10841.3
584.169	10885.36
584.529	10817.12
584.889	10894.18
585.249	10845.82
585.609	10791.81
585.969	10785.93
586.329	10752.26
586.688	10821.41
587.048	10726.27
587.408	10730.34
587.768	10635.88
588.127	10727.4
588.487	10711.58
588.846	10728.76
589.206	10654.18
589.565	10723.33
589.925	10766.5
590.284	10690.34
590.643	10724.24
591.003	10763.33
591.362	10695.54
591.721	10677.91
592.08	10660.06
592.44	10672.71
592.799	10701.19
593.158	10562.66
593.517	10604.92
593.876	10650.79
594.235	10514.07
594.593	10559.95
594.952	10641.98
595.311	10575.32
595.67	10619.61
596.029	10610.57
596.387	10593.39
596.746	10623.22
597.104	10541.19
597.463	10510.46
597.822	10577.57
598.18	10463.45
598.538	10525.37
598.897	10510.01
599.255	10464.58
599.613	10531.93
599.972	10484.92
600.33	10459.16
600.688	10488.09
601.046	10470.91
601.404	10573.28
601.762	10540.97
602.12	10563.11
602.478	10456
602.836	10517.92
603.194	10505.26
603.552	10496
603.91	10434.3
604.268	10481.08
604.625	10330.12
604.983	10432.04
605.341	10392.27
605.698	10482.44
606.056	10454.41
606.413	10437.69
606.771	10513.4
607.128	10472.27
607.485	10414.87
607.843	10429.78
608.2	10460.29
608.557	10524.92
608.914	10564.69
609.272	10566.28
609.629	10495.54
609.986	10522.21
610.343	10528.76
610.7	10592.26
611.057	10561.08
611.414	10508.42
611.771	10481.08
612.127	10597.91
612.484	10504.13
612.841	10609.89
613.198	10474.07
613.554	10552.49
613.911	10611.92
614.267	10516.56
614.624	10548.65
614.98	10528.76
615.337	10648.08
615.693	10654.64
616.05	10562.66
616.406	10652.6
616.762	10583.9
617.118	10590.68
617.475	10598.14
617.831	10660.96
618.187	10683.11
618.543	10691.7
618.899	10662.32
619.255	10696.67
619.611	10651.92
619.967	10703.67
620.323	10682.88
620.678	10741.41
621.034	10617.57
621.39	10634.3
621.746	10681.98
622.101	10812.37
622.457	10636.78
622.812	10732.83
623.168	10769.43
623.523	10658.02
623.879	10762.65
624.234	10681.3
624.589	10688.76
624.945	10654.18
625.3	10713.16
625.655	10655.31
626.01	10723.11
626.365	10672.71
626.72	10698.93
627.075	10626.61
627.43	10693.96
627.785	10677.01
628.14	10672.49
628.495	10691.7
628.85	10606.05
629.205	10530.57
629.559	10648.08
629.914	10585.94
630.269	10497.13
630.623	10520.63
630.978	10517.69
631.332	10591.81
631.687	10626.16
632.041	10558.82
632.396	10532.6
632.75	10500.51
633.104	10560.85
633.459	10507.29
633.813	10492.15
634.167	10493.51
634.521	10482.66
634.875	10512.04
635.229	10403.79
635.583	10373.29
635.937	10410.8
636.291	10382.1
636.645	10378.03
636.999	10396.56
637.352	10413.51
637.706	10351.59
638.06	10375.77
638.413	10354.98
638.767	10346.39
639.121	10296
639.474	10252.61
639.828	10237.92
640.181	10286.28
640.534	10273.63
640.888	10244.93
641.241	10215.32
641.594	10237.24
641.947	10230.24
642.301	10188.88
642.654	10183.24
643.007	10256.68
643.36	10205.83
643.713	10279.96
644.066	10223.91
644.419	10159.05
644.771	10105.72
645.124	10018.49
645.477	9928.1
645.83	9885.84
646.182	9927.2
646.535	9902.79
646.888	9932.62
647.24	9851.72
647.593	9857.37
647.945	9873.86
648.298	9838.61
648.65	9859.4
649.002	9755.68
649.355	9893.75
649.707	9806.52
650.059	9831.38
650.411	10037.93
650.763	10026.18
651.115	10184.82
651.467	10074.31
651.819	10133.29
652.171	10043.35
652.523	10071.83
652.875	10114.31
653.227	9965.39
653.578	10024.82
653.93	10061.2
654.282	10058.94
654.633	9961.09
654.985	10060.3
655.337	10083.12
655.688	10128.55
656.039	10096.91
656.391	10065.05
656.742	10020.3
657.094	10085.16
657.445	10148.89
657.796	10071.37
658.147	10045.84
658.498	10055.33
658.849	10189.56
659.2	10114.31
659.551	10040.87
659.902	10088.32
660.253	10102.56
660.604	10157.02
660.955	10013.52
661.306	10164.7
661.656	10136.91
662.007	10214.42
662.358	10173.29
662.708	10229.34
663.059	10137.36
663.409	10064.14
663.76	10185.95
664.11	10155.67
664.461	10227.75
664.811	10161.99
665.161	10145.04
665.511	10121.77
665.862	10087.87
666.212	10132.61
666.562	10161.31
666.912	10173.52
667.262	10168.77
667.612	10160.18
667.962	10124.48
668.312	10114.08
668.662	10240.86
669.011	10164.48
669.361	10099.4
669.711	10197.47
670.06	10127.19
670.41	10114.31
670.76	10169.45
671.109	10136.91
671.459	10112.28
671.808	10188.43
672.157	10210.35
672.507	10062.11
672.856	10060.07
673.205	10104.82
673.554	10147.53
673.904	10076.35
674.253	10112.5
674.602	10053.75
674.951	9975.33
675.3	9933.98
675.649	10053.29
675.998	10095.55
676.346	10096.23
676.695	10021.66
677.044	9968.33
677.393	10003.35
677.741	10024.82
678.09	9959.96
678.438	9936.01
678.787	9991.83
679.135	9902.34
679.484	9823.02
679.832	9916.35
680.181	9794.09
680.529	9908.89
680.877	9865.28
681.225	9808.56
681.573	9809.01
681.922	9807.65
682.27	9740.08
682.618	9803.81
682.966	9707.77
683.314	9726.75
683.661	9702.8
684.009	9673.42
684.357	9611.05
684.705	9602.23
685.053	9669.58
685.4	9658.05
685.748	9586.41
686.095	9512.52
686.443	9567.66
686.79	9507.32
687.138	9547.77
687.485	9507.55
687.832	9463.93
688.18	9459.64
688.527	9437.49
688.874	9367.44
689.221	9343.03
689.568	9390.71
689.915	9213.09
690.262	9291.73
690.609	9275.69
690.956	9196.37
691.303	9233.43
691.65	9148.69
691.997	9156.82
692.344	9088.35
692.69	9065.3
693.037	9085.41
693.383	9023.49
693.73	8995.24
694.077	8892.42
694.423	8936.71
694.769	8904.62
695.116	8830.5
695.462	8855.36
695.808	8852.2
696.155	8807.45
696.501	8722.26
696.847	8679.55
697.193	8626.44
697.539	8656.27
697.885	8668.02
698.231	8628.7
698.577	8615.37
698.923	8565.65
699.269	8476.16
699.614	8451.98
699.96	8465.77
700.306	8441.59
700.651	8364.07
700.997	8302.38
701.342	8356.84
701.688	8288.14
702.033	8278.2
702.379	8248.14
702.724	8145.32
703.069	8202.27
703.415	8082.05
703.76	8119.11
704.105	8135.61
704.45	8114.59
704.795	7998.21
705.14	7998.89
705.485	8013.57
705.83	7914.82
706.175	7938.55
706.52	7887.93
706.865	7844.09
707.209	7845.9
707.554	7821.72
707.899	7865.33
708.243	7766.35
708.588	7753.69
708.932	7680.93
709.277	7746.24
709.621	7728.38
709.966	7605
710.31	7610.2
710.654	7534.72
710.998	7619.91
711.342	7613.81
711.687	7571.55
712.031	7533.36
712.375	7453.59
712.719	7549.41
713.063	7481.61
713.407	7525.45
713.75	7463.08
714.094	7530.2
714.438	7414.72
714.782	7409.97
715.125	7347.83
715.469	7365.68
715.812	7379.69
716.156	7315.74
716.499	7389.64
716.843	7387.15
717.186	7230.54
717.53	7319.58
717.873	7283.42
718.216	7376.76
718.559	7292.46
718.902	7200.71
719.246	7246.59
719.589	7242.07
719.932	7253.82
720.275	7242.3
720.617	7283.2
720.96	7187.61
721.303	7149.19
721.646	7210.43
721.989	7169.98
722.331	7255.18
722.674	7114.62
723.016	7134.95
723.359	7152.81
723.701	7166.82
724.044	7128.85
724.386	7141.28
724.729	7165.24
725.071	7125.24
725.413	7172.01
725.755	7073.03
726.097	7100.83
726.439	7038.46
726.782	7150.09
727.124	7113.26
727.465	7073.03
727.807	7086.14
728.149	7103.54
728.491	7031.45
728.833	7092.69
729.175	7055.63
729.516	7045.69
729.858	7087.5
730.199	7086.82
730.541	7057.67
730.882	7075.29
731.224	7053.6
731.565	7040.94
731.906	7080.72
732.248	7065.35
732.589	7062.41
732.93	7014.5
733.271	7028.06
733.612	7049.31
733.953	7045.92
734.294	7070.32
734.635	7050.44
734.976	7113.71
735.317	7069.42
735.658	7083.88
735.999	7092.69
736.339	7016.54
736.68	7099.02
737.021	7109.64
737.361	7118.68
737.702	7166.37
738.042	7092.92
738.383	7102.19
738.723	7129.53
739.063	7083.66
739.404	7160.04
739.744	7147.38
740.084	7134.05
740.424	7163.43
740.764	7179.25
741.104	7223.31
741.444	7195.97
741.784	7242.07
742.124	7224.89
742.464	7232.35
742.804	7338.56
743.143	7350.77
743.483	7336.98
743.823	7309.64
744.162	7387.15
744.502	7346.93
744.841	7427.15
745.181	7483.19
745.52	7540.14
745.86	7496.98
746.199	7618.56
746.538	7635.73
746.877	7714.6
747.216	7706.24
747.556	7850.87
747.895	7885.22
748.234	7843.64
748.573	7915.05
748.911	7976.74
749.25	8086.12
749.589	8169.95
749.928	8115.27
750.267	8259.9
750.605	8353
750.944	8390.06
751.283	8525.43
751.621	8644.07
751.96	8650.62
752.298	8788.02
752.636	8903.95
752.975	8962.7
753.313	9120.44
753.651	9176.03
753.989	9302.58
754.327	9438.17
754.666	9530.14
755.004	9755.22
755.342	9877.93
755.679	9956.35
756.017	10106.85
756.355	10259.84
756.693	10460.97
757.031	10585.48
757.368	10692.37
757.706	10918.36
758.044	11002.65
758.381	11188.86
758.719	11408.74
759.056	11631.78
