Data from hue_80_FLMS001491_56.txt Node
Date: Mon Feb 06 15:23:14 GMT 2017
User: dcchb
Spectrometer: FLMS00149
Trigger mode: 0
Integration Time (sec): 2.000000E-2
Scans to average: 10
Electric dark correction enabled: true
Nonlinearity correction enabled: false
Boxcar width: 0
XAxis mode: Wavelengths
Number of Pixels in Spectrum: 2048
>>>>>Begin Spectral Data<<<<<
341.393	-17.82
341.776	-17.82
342.16	-17.82
342.543	-66.86
342.927	-72.96
343.31	-80.42
343.693	-72.06
344.077	-49.46
344.46	-64.38
344.843	-75.45
345.226	-38.16
345.61	-29.12
345.993	-6.53
346.376	-10.37
346.759	10.88
347.142	24.89
347.525	41.84
347.908	48.84
348.291	78.9
348.674	99.69
349.057	120.93
349.44	114.38
349.823	165.45
350.206	164.09
350.588	186.24
350.971	230.3
351.354	233.24
351.737	218.78
352.119	237.99
352.502	263.07
352.884	268.72
353.267	282.73
353.65	304.65
354.032	267.59
354.414	287.7
354.797	304.43
355.179	340.58
355.562	303.07
355.944	326.57
356.326	316.4
356.709	322.51
357.091	319.57
357.473	322.51
357.855	318.89
358.238	327.48
358.62	343.3
359.002	339
359.384	336.06
359.766	325.9
360.148	339.45
360.53	329.06
360.912	331.32
361.294	333.35
361.676	329.06
362.057	323.18
362.439	327.93
362.821	323.64
363.203	311.21
363.584	336.06
363.966	325.9
364.348	322.73
364.729	311.21
365.111	320.47
365.493	313.92
365.874	311.21
366.256	324.99
366.637	325.67
367.019	312.79
367.4	306.69
367.781	287.03
368.163	311.66
368.544	317.31
368.925	307.59
369.306	320.92
369.688	312.56
370.069	305.1
370.45	302.39
370.831	283.86
371.212	324.54
371.593	302.17
371.974	324.99
372.355	313.69
372.736	313.01
373.117	310.98
373.498	328.16
373.879	316.18
374.26	320.02
374.641	309.62
375.021	310.53
375.402	319.34
375.783	307.59
376.163	319.34
376.544	308.95
376.925	303.98
377.305	319.79
377.686	311.21
378.066	328.83
378.447	310.3
378.827	314.14
379.208	307.59
379.588	323.64
379.968	321.15
380.349	328.61
380.729	320.92
381.109	337.19
381.489	327.7
381.87	325.44
382.25	318.21
382.63	342.62
383.01	328.61
383.39	332.9
383.77	333.35
384.15	345.1
384.53	340.58
384.91	345.78
385.29	326.8
385.67	350.75
386.049	324.99
386.429	351.21
386.809	348.49
387.189	347.82
387.568	351.66
387.948	360.92
388.328	329.74
388.707	355.5
389.087	354.37
389.466	360.92
389.846	352.11
390.225	348.49
390.605	358.89
390.984	362.5
391.363	350.75
391.743	369.51
392.122	374.93
392.501	370.41
392.881	362.5
393.26	361.83
393.639	376.29
394.018	368.61
394.397	381.49
394.776	366.57
395.155	363.86
395.534	374.48
395.913	367.48
396.292	371.32
396.671	391.88
397.05	365.44
397.429	367.25
397.808	372
398.186	380.81
398.565	371.54
398.944	379.45
399.323	390.07
399.701	399.11
400.08	397.08
400.458	375.39
400.837	394.82
401.215	388.04
401.594	381.94
401.972	400.02
402.351	409.73
402.729	385.78
403.107	364.99
403.486	405.22
403.864	424.65
404.242	390.53
404.62	412.45
404.999	378.55
405.377	400.24
405.755	420.81
406.133	434.37
406.511	413.12
406.889	414.71
407.267	405.22
407.645	442.28
408.023	414.93
408.401	426.23
408.779	414.71
409.156	421.94
409.534	437.08
409.912	450.41
410.29	426.46
410.667	445.67
411.045	444.99
411.422	442.28
411.8	441.6
412.178	451.99
412.555	477.53
412.933	460.13
413.31	468.26
413.687	464.87
414.065	464.42
414.442	456.74
414.819	468.94
415.197	477.98
415.574	487.93
415.951	470.3
416.328	463.07
416.705	485.67
417.082	499.45
417.46	472.56
417.837	495.38
418.214	474.59
418.591	507.13
418.967	497.19
419.344	508.04
419.721	507.13
420.098	489.96
420.475	494.25
420.852	523.86
421.228	533.35
421.605	520.69
421.982	516.17
422.358	548.49
422.735	527.7
423.111	535.61
423.488	522.95
423.864	552.33
424.241	541.93
424.617	561.82
424.994	560.47
425.37	571.54
425.746	567.24
426.123	557.98
426.499	574.02
426.875	568.37
427.251	561.37
427.627	588.04
428.003	568.6
428.379	591.65
428.756	588.71
429.132	597.98
429.507	587.13
429.883	609.05
430.259	614.7
430.635	607.7
431.011	642.05
431.387	634.59
431.763	596.4
432.138	650.63
432.514	636.4
432.89	656.28
433.265	655.83
433.641	684.08
434.016	667.13
434.392	681.37
434.767	687.24
435.143	665.55
435.518	674.59
435.894	679.78
436.269	674.59
436.644	708.26
437.02	708.94
437.395	682.95
437.77	706.45
438.145	729.05
438.52	703.74
438.895	713.46
439.271	737.18
439.646	751.65
440.021	754.36
440.395	729.5
440.77	737.18
441.145	748.71
441.52	769.95
441.895	755.49
442.27	754.81
442.645	764.98
443.019	804.53
443.394	766.79
443.769	785.54
444.143	802.94
444.518	803.62
444.892	784.41
445.267	784.87
445.641	811.53
446.016	827.58
446.39	833.23
446.764	817.63
447.139	825.09
447.513	812.66
447.887	811.76
448.262	844.53
448.636	834.36
449.01	839.33
449.384	873.45
449.758	873.45
450.132	890.17
450.506	870.74
450.88	876.39
451.254	890.63
451.628	891.53
452.002	901.02
452.376	894.69
452.75	900.12
453.123	934.47
453.497	940.12
453.871	939.44
454.244	972.88
454.618	945.54
454.992	980.12
455.365	985.99
455.739	982.83
456.112	996.61
456.486	1007.91
456.859	997.06
457.232	1005.2
457.606	1025.54
457.979	1026.22
458.352	1064.18
458.725	1044.52
459.099	1080.9
459.472	1113.22
459.845	1106.44
460.218	1074.58
460.591	1104.18
460.964	1133.11
461.337	1148.92
461.71	1170.84
462.083	1196.83
462.456	1205.42
462.829	1219.88
463.201	1214.01
463.574	1230.28
463.947	1260.33
464.32	1287
464.692	1276.15
465.065	1304.63
465.438	1329.26
465.81	1338.3
466.183	1355.25
466.555	1399.99
466.928	1402.48
467.3	1389.82
467.672	1416.26
468.045	1455.81
468.417	1441.8
468.789	1510.95
469.161	1512.76
469.534	1568.57
469.906	1567.67
470.278	1591.85
470.65	1646.54
471.022	1659.87
471.394	1713.43
471.766	1715.24
472.138	1774.22
472.51	1799.98
472.882	1865.97
473.253	1851.73
473.625	1887.66
473.997	1940.09
474.369	1942.58
474.74	2006.98
475.112	2085.85
475.484	2123.59
475.855	2179.41
476.227	2208.78
476.598	2309.12
476.97	2323.81
477.341	2381.43
477.713	2439.51
478.084	2486.97
478.455	2583.92
478.827	2605.38
479.198	2709.56
479.569	2711.82
479.94	2858.26
480.311	2941.87
480.682	3027.52
481.053	3103.45
481.424	3153.17
481.795	3254.18
482.166	3343.22
482.537	3439.03
482.908	3525.36
483.279	3623.66
483.65	3759.25
484.021	3863.2
484.391	3924.44
484.762	4042.63
485.133	4131.22
485.503	4266.13
485.874	4373.92
486.244	4451.44
486.615	4598.33
486.985	4732.11
487.356	4901.37
487.726	4921.93
488.097	5092.55
488.467	5213.45
488.837	5343.39
489.207	5463.61
489.578	5655.25
489.948	5755.13
490.318	5872.19
490.688	5991.51
491.058	6137.27
491.428	6334.55
491.798	6440.76
492.168	6660.87
492.538	6741.77
492.908	6876.68
493.278	7050.69
493.648	7124.36
494.017	7281.64
494.387	7441.87
494.757	7514.41
495.126	7706.72
495.496	7843.21
495.866	7966.82
496.235	8099.93
496.605	8232.81
496.974	8344.44
497.344	8533.14
497.713	8573.59
498.082	8757.76
498.452	8910.98
498.821	9062.39
499.19	9110.52
499.559	9282.5
499.928	9416.73
500.298	9471.64
500.667	9624.63
501.036	9732.88
501.405	9901.01
501.774	9948.47
502.143	10090.61
502.512	10192.08
502.88	10316.59
503.249	10323.6
503.618	10477.04
503.987	10599.98
504.356	10717.03
504.724	10818.73
505.093	10907.09
505.462	10971.72
505.83	11125.61
506.199	11231.15
506.567	11455.09
506.936	11425.04
507.304	11664.58
507.672	11717.23
508.041	11735.76
508.409	11963.56
508.777	11963.56
509.145	12041.07
509.514	12035.87
509.882	12229.09
510.25	12288.74
510.618	12426.37
510.986	12446.03
511.354	12664.33
511.722	12695.51
512.09	12880.14
512.458	12778.68
512.826	12915.85
513.193	13011.89
513.561	13060.7
513.929	13246.69
514.297	13272
514.664	13354.48
515.032	13439
515.4	13554.93
515.767	13648.48
516.135	13687.13
516.502	13582.72
516.869	13807.12
517.237	13825.88
517.604	13848.25
517.972	14069.94
518.339	14101.8
518.706	14090.05
519.073	14190.84
519.44	14233.78
519.808	14409.82
520.175	14370.05
520.542	14530.27
520.909	14549.93
521.276	14557.16
521.643	14704.27
522.009	14768.45
522.376	14920.54
522.743	14882.35
523.11	15077.82
523.477	15153.53
523.843	15276.24
524.21	15359.62
524.577	15365.73
524.943	15467.19
525.31	15477.59
525.676	15659.05
526.043	15674.42
526.409	15697.92
526.776	15839.61
527.142	15823.57
527.508	15963
527.874	15974.52
528.241	16054.52
528.607	16128.87
528.973	16160.06
529.339	16149.21
529.705	16200.28
530.071	16258.36
530.437	16297.9
530.803	16382.87
531.169	16478.01
531.535	16421.07
531.901	16484.34
532.267	16470.33
532.632	16552.59
532.998	16625.35
533.364	16667.61
533.73	16662.64
534.095	16681.4
534.461	16755.52
534.826	16805.69
535.192	16827.16
535.557	16789.87
535.923	16788.51
536.288	16870.09
536.653	16833.03
537.019	16789.42
537.384	16785.8
537.749	16776.99
538.114	16781.73
538.479	16866.03
538.845	16836.65
539.21	16716.88
539.575	16800.26
539.94	16858.12
540.305	16987.6
540.67	16903.09
541.034	16921.17
541.399	16944.44
541.764	16968.85
542.129	16950.99
542.494	16886.59
542.858	16973.82
543.223	16940.83
543.587	16926.14
543.952	16880.49
544.316	16877.78
544.681	16907.83
545.045	16836.2
545.41	16983.31
545.774	16952.8
546.138	16825.35
546.503	16787.16
546.867	16938.34
547.231	16907.38
547.595	16921.84
547.959	16859.02
548.324	16875.52
548.688	16826.48
549.052	16821.51
549.416	16893.82
549.779	16861.73
550.143	16898.12
550.507	16904.44
550.871	16863.31
551.235	16890.66
551.599	16937.21
551.962	16928.17
552.326	16883.88
552.689	16991.9
553.053	16871
553.417	16880.26
553.78	17030.77
554.143	16881.84
554.507	16924.33
554.87	16982.18
555.234	17008.62
555.597	16956.87
555.96	16995.06
556.323	16954.38
556.686	16875.97
557.05	17040.03
557.413	17053.37
557.776	16987.6
558.139	17141.5
558.502	17043.42
558.865	17155.51
559.228	17110.76
559.59	17192.57
559.953	17217.43
560.316	17268.27
560.679	17292.23
561.041	17321.38
561.404	17277.77
561.767	17369.06
562.129	17350.98
562.492	17400.02
562.854	17370.19
563.217	17424.88
563.579	17416.97
563.941	17564.09
564.304	17510.98
564.666	17727.92
565.028	17625.55
565.39	17680.92
565.753	17747.36
566.115	17714.59
566.477	17694.48
566.839	17729.51
567.201	17832.33
567.563	17843.17
567.925	17924.98
568.287	17903.96
568.648	17886.34
569.01	18021.7
569.372	18071.87
569.734	17891.08
570.095	18066.67
570.457	18070.74
570.819	18112.32
571.18	18044.98
571.542	18181.47
571.903	18190.28
572.265	18261.92
572.626	18158.19
572.987	18253.11
573.349	18275.71
573.71	18275.25
574.071	18345.31
574.432	18384.63
574.794	18592.76
575.155	18455.36
575.516	18404.97
575.877	18497.39
576.238	18574.68
576.599	18570.61
576.96	18550.05
577.32	18525.87
577.681	18581.91
578.042	18606.32
578.403	18598.18
578.763	18606.77
579.124	18686.54
579.485	18654
579.845	18742.36
580.206	18693.32
580.566	18630.72
580.927	18654.9
581.287	18749.59
581.648	18629.14
582.008	18697.84
582.368	18757.95
582.728	18717.5
583.089	18655.58
583.449	18636.37
583.809	18749.37
584.169	18664.85
584.529	18611.29
584.889	18825.97
585.249	18731.29
585.609	18681.57
585.969	18691.29
586.329	18680.22
586.688	18746.2
587.048	18573.33
587.408	18540.33
587.768	18429.83
588.127	18536.94
588.487	18468.47
588.846	18661.46
589.206	18494.68
589.565	18513.67
589.925	18563.61
590.284	18538.07
590.643	18545.76
591.003	18548.92
591.362	18528.81
591.721	18519.99
592.08	18571.07
592.44	18634.79
592.799	18604.51
593.158	18560.44
593.517	18473.44
593.876	18587.56
594.235	18527.45
594.593	18529.71
594.952	18542.37
595.311	18417.85
595.67	18495.81
596.029	18585.08
596.387	18586.66
596.746	18650.61
597.104	18544.85
597.463	18475.47
597.822	18451.29
598.18	18547.79
598.538	18390.51
598.897	18578.3
599.255	18467.11
599.613	18650.39
599.972	18503.95
600.33	18585.08
600.688	18450.16
601.046	18505.08
601.404	18607
601.762	18416.95
602.12	18640.89
602.478	18626.21
602.836	18573.1
603.194	18506.89
603.552	18639.99
603.91	18473.89
604.268	18588.69
604.625	18517.28
604.983	18456.94
605.341	18540.56
605.698	18616.04
606.056	18656.03
606.413	18620.1
606.771	18606.54
607.128	18654.23
607.485	18560.44
607.843	18619.88
608.2	18774.22
608.557	18710.04
608.914	18682.25
609.272	18779.87
609.629	18753.66
609.986	18818.29
610.343	18642.02
610.7	18851.28
611.057	18810.61
611.414	18750.95
611.771	18862.13
612.127	18908.46
612.484	18825.52
612.841	18992.75
613.198	18903.26
613.554	18848.57
613.911	18959.3
614.267	18981.22
614.624	18981.68
614.98	19043.6
615.337	19152.97
615.693	19009.47
616.05	18953.43
616.406	19170.15
616.762	19033.2
617.118	19074.55
617.475	19137.83
617.831	19162.46
618.187	19131.28
618.543	19128.11
618.899	19241.56
619.255	19264.61
619.611	19163.82
619.967	19176.7
620.323	19232.06
620.678	19220.77
621.034	19119.75
621.39	19301.22
621.746	19250.6
622.101	19301.89
622.457	19147.32
622.812	19372.4
623.168	19298.05
623.523	19305.96
623.879	19340.76
624.234	19301.67
624.589	19245.4
624.945	19330.14
625.3	19352.97
625.655	19346.86
626.01	19410.82
626.365	19386.86
626.72	19274.55
627.075	19283.59
627.43	19259.63
627.785	19232.74
628.14	19314.32
628.495	19336.47
628.85	19246.98
629.205	19237.94
629.559	19411.95
629.914	19314.32
630.269	19280.65
630.623	19112.07
630.978	19135.57
631.332	19257.83
631.687	19240.65
632.041	19149.81
632.396	19119.98
632.75	19224.16
633.104	19160.88
633.459	19019.87
633.813	19102.12
634.167	18952.3
634.521	19028.23
634.875	19031.62
635.229	18975.57
635.583	18986.87
635.937	18929.7
636.291	18890.38
636.645	18894.22
636.999	18881.79
637.352	18884.96
637.706	18807.67
638.06	18884.28
638.413	18762.25
638.767	18798.4
639.121	18779.87
639.474	18675.92
639.828	18660.55
640.181	18698.29
640.534	18693.1
640.888	18703.49
641.241	18633.44
641.594	18687.9
641.947	18551.18
642.301	18620.33
642.654	18653.1
643.007	18688.58
643.36	18633.44
643.713	18558.86
644.066	18696.26
644.419	18532.42
644.771	18367.45
645.124	18229.15
645.477	18215.82
645.83	18125.88
646.182	18036.39
646.535	18000.68
646.888	18010.85
647.24	17967.47
647.593	17983.28
647.945	18011.08
648.298	17908.26
648.65	17898.31
649.002	17826.23
649.355	17941.48
649.707	17864.42
650.059	18085.43
650.411	18287.91
650.763	18207.46
651.115	18366.1
651.467	18371.75
651.819	18334.01
652.171	18345.53
652.523	18350.96
652.875	18347.34
653.227	18178.31
653.578	18423.27
653.93	18282.26
654.282	18367.91
654.633	18223.05
654.985	18329.26
655.337	18286.33
655.688	18313.9
656.039	18360.68
656.391	18280.23
656.742	18368.81
657.094	18348.25
657.445	18353.9
657.796	18382.6
658.147	18291.75
658.498	18282.94
658.849	18307.34
659.2	18251.07
659.551	18270.73
659.902	18369.94
660.253	18303.73
660.604	18350.96
660.955	18252.66
661.306	18315.93
661.656	18304.18
662.007	18345.08
662.358	18262.15
662.708	18343.05
663.059	18244.75
663.409	18247.23
663.76	18290.39
664.11	18322.03
664.461	18405.65
664.811	18451.75
665.161	18385.99
665.511	18379.88
665.862	18321.81
666.212	18438.87
666.562	18431.86
666.912	18300.56
667.262	18329.94
667.612	18344.18
667.962	18429.15
668.312	18342.82
668.662	18392.09
669.011	18346.21
669.361	18303.5
669.711	18368.13
670.06	18325.42
670.41	18230.96
670.76	18278.87
671.109	18205.2
671.459	18291.3
671.808	18280.68
672.157	18283.62
672.507	18188.93
672.856	18187.35
673.205	18276.16
673.554	18232.09
673.904	18157.29
674.253	18253.11
674.602	18094.92
674.951	17954.81
675.3	17742.84
675.649	18135.82
675.998	17977.18
676.346	18147.8
676.695	18030.51
677.044	17918.2
677.393	18038.88
677.741	18088.14
678.09	18013.34
678.438	17849.28
678.787	17997.75
679.135	17955.94
679.484	17876.17
679.832	17906.22
680.181	17838.43
680.529	17947.35
680.877	17775.15
681.225	17715.95
681.573	17895.38
681.922	17778.09
682.27	17737.19
682.618	17734.7
682.966	17691.31
683.314	17647.7
683.661	17616.97
684.009	17488.38
684.357	17516.86
684.705	17398.21
685.053	17492.45
685.4	17372.9
685.748	17360.7
686.095	17418.55
686.443	17248.84
686.79	17209.52
687.138	17249.97
687.485	17254.49
687.832	17124.1
688.18	17222.85
688.527	17027.38
688.874	17010.2
689.221	16947.38
689.568	16933.14
689.915	16900.83
690.262	16833.26
690.609	16824.44
690.956	16706.93
691.303	16626.26
691.65	16549.2
691.997	16626.71
692.344	16437.56
692.69	16503.55
693.037	16579.25
693.383	16413.61
693.73	16400.73
694.077	16276.89
694.423	16204.57
694.769	16228.75
695.116	16191.92
695.462	16160.96
695.808	16134.29
696.155	16094.75
696.501	15939.04
696.847	15898.59
697.193	15828.99
697.539	15899.72
697.885	15800.06
698.231	15706.06
698.577	15697.69
698.923	15556.68
699.269	15546.29
699.614	15415.89
699.96	15352.17
700.306	15436.91
700.651	15331.6
700.997	15250.25
701.342	15212.96
701.688	15193.75
702.033	15168.22
702.379	15059.75
702.724	15055.9
703.069	15017.71
703.415	14869.24
703.76	14876.93
704.105	14824.05
704.45	14822.01
704.795	14800.54
705.14	14717.38
705.485	14604.39
705.83	14540.21
706.175	14624.28
706.52	14574.33
706.865	14537.73
707.209	14478.52
707.554	14432.42
707.899	14453.43
708.243	14330.72
708.588	14322.14
708.932	14238.07
709.277	14147.45
709.621	14253.89
709.966	14003.28
710.31	14064.29
710.654	13930.06
710.998	14055.48
711.342	14004.18
711.687	13958.31
712.031	13850.74
712.375	13838.31
712.719	13757.86
713.063	13753.56
713.407	13784.07
713.75	13760.12
714.094	13727.35
714.438	13725.09
714.782	13648.71
715.125	13610.07
715.469	13636.51
715.812	13508.83
716.156	13600.57
716.499	13487.81
716.843	13503.63
717.186	13496.17
717.53	13558.32
717.873	13549.95
718.216	13359
718.559	13379.34
718.902	13290.98
719.246	13326.46
719.589	13325.78
719.932	13194.71
720.275	13221.15
720.617	13216.4
720.96	13272.9
721.303	13178.44
721.646	13140.02
721.989	13174.15
722.331	13135.28
722.674	13092.34
723.016	13134.6
723.359	13121.27
723.701	13089.85
724.044	13009.86
724.386	13013.7
724.729	13032.91
725.071	12980.93
725.413	13043.98
725.755	13053.02
726.097	12929.41
726.439	12992.23
726.782	12924.43
727.124	12985.22
727.465	12946.13
727.807	12980.93
728.149	12890.54
728.491	12945.68
728.833	12955.85
729.175	12876.07
729.516	12875.4
729.858	12855.06
730.199	12826.58
730.541	12854.15
730.882	12792.91
731.224	12847.37
731.565	12825
731.906	12801.95
732.248	12758.11
732.589	12675.85
732.93	12720.6
733.271	12767.83
733.612	12711.11
733.953	12783.19
734.294	12735.74
734.635	12667.49
734.976	12750.88
735.317	12742.74
735.658	12752.46
735.999	12766.25
736.339	12698.68
736.68	12748.17
737.021	12727.6
737.361	12667.27
737.702	12736.19
738.042	12698.45
738.383	12747.49
738.723	12833.14
739.063	12791.78
739.404	12699.36
739.744	12782.29
740.084	12718.79
740.424	12783.42
740.764	12779.58
741.104	12839.92
741.444	12775.06
741.784	12775.29
742.124	12799.01
742.464	12782.29
742.804	12812.57
743.143	12784.32
743.483	12949.74
743.823	12875.85
744.162	12872.23
744.502	12966.24
744.841	12881.72
745.181	12983.42
745.52	12972.57
745.86	13181.83
746.199	13136.18
746.538	13109.97
746.877	13201.26
747.216	13233.35
747.556	13194.94
747.895	13255.72
748.234	13335.72
748.573	13320.81
748.911	13358.1
749.25	13492.33
749.589	13444.87
749.928	13552.21
750.267	13655.04
750.605	13704.75
750.944	13725.54
751.283	13881.7
751.621	13912.2
751.96	13819.55
752.298	14048.47
752.636	14141.58
752.975	14178.19
753.313	14290.27
753.651	14384.28
753.989	14399.2
754.327	14623.82
754.666	14547.89
755.004	14697.95
755.342	14742.01
755.679	14864.95
756.017	14905.63
756.355	15090.48
