Data from hue_290_FLMS001491_00089.txt Node
Date: Tue Feb 07 15:53:24 GMT 2017
User: dcchb
Spectrometer: FLMS00149
Trigger mode: 0
Integration Time (sec): 2.000000E-2
Scans to average: 10
Electric dark correction enabled: true
Nonlinearity correction enabled: false
Boxcar width: 0
XAxis mode: Wavelengths
Number of Pixels in Spectrum: 2048
>>>>>Begin Spectral Data<<<<<
341.393	-16.57
341.776	-16.57
342.16	-16.57
342.543	-49.33
342.927	-66.28
343.31	-59.5
343.693	-70.35
344.077	-75.77
344.46	-81.2
344.843	-54.53
345.226	-30.8
345.61	-35.55
345.993	-32.16
346.376	5.8
346.759	10.78
347.142	51.23
347.525	40.61
347.908	46.48
348.291	61.17
348.674	103.88
349.057	119.93
349.44	111.56
349.823	133.03
350.206	177.33
350.588	199.02
350.971	199.47
351.354	203.54
351.737	225.69
352.119	247.38
352.502	280.6
352.884	267.49
353.267	266.14
353.65	286.7
354.032	275.63
354.414	297.55
354.797	300.94
355.179	301.16
355.562	320.6
355.944	330.32
356.326	306.36
356.709	311.33
357.091	324.44
357.473	329.64
357.855	347.72
358.238	330.99
358.62	350.65
359.002	342.75
359.384	323.08
359.766	330.77
360.148	328.96
360.53	314.05
360.912	326.02
361.294	315.63
361.676	323.76
362.057	312.92
362.439	319.92
362.821	318.34
363.203	325.57
363.584	317.89
363.966	293.26
364.348	319.47
364.729	328.73
365.111	288.06
365.493	291
365.874	321.95
366.256	314.27
366.637	293.48
367.019	303.42
367.4	304.1
367.781	305.23
368.163	299.13
368.544	296.64
368.925	300.49
369.306	299.81
369.688	309.3
370.069	301.62
370.45	303.65
370.831	292.58
371.212	301.39
371.593	299.13
371.974	305.23
372.355	312.92
372.736	310.2
373.117	321.73
373.498	297.55
373.879	290.09
374.26	292.35
374.641	302.75
375.021	319.24
375.402	309.07
375.783	321.95
376.163	319.92
376.544	317.89
376.925	286.25
377.305	328.73
377.686	346.81
378.066	305.46
378.447	321.5
378.827	311.56
379.208	328.51
379.588	337.77
379.968	339.81
380.349	325.8
380.729	322.86
381.109	321.05
381.489	342.75
381.87	345.23
382.25	328.73
382.63	348.39
383.01	330.54
383.39	347.72
383.77	339.81
384.15	334.16
384.53	318.34
384.91	340.03
385.29	352.46
385.67	343.65
386.049	338
386.429	361.73
386.809	361.05
387.189	336.19
387.568	361.5
387.948	343.88
388.328	352.24
388.707	338
389.087	380.48
389.466	336.42
389.846	368.51
390.225	349.07
390.605	356.53
390.984	355.85
391.363	371.22
391.743	375.06
392.122	363.76
392.501	370.99
392.881	369.64
393.26	370.32
393.639	403.76
394.018	384.1
394.397	394.72
394.776	373.48
395.155	389.3
395.534	383.65
395.913	396.08
396.292	380.94
396.671	403.76
397.05	396.3
397.429	384.55
397.808	394.5
398.186	387.04
398.565	382.52
398.944	388.85
399.323	413.48
399.701	365.57
400.08	381.84
400.458	411.9
400.837	422.29
401.215	439.24
401.594	421.84
401.972	421.39
402.351	423.87
402.729	404.44
403.107	418
403.486	410.09
403.864	410.09
404.242	457.77
404.62	439.47
404.999	418.22
405.377	444.89
405.755	444.21
406.133	453.02
406.511	470.65
406.889	458.9
407.267	475.17
407.645	488.28
408.023	473.36
408.401	471.56
408.779	514.94
409.156	501.39
409.534	498.45
409.912	516.07
410.29	522.4
410.667	519.69
411.045	549.29
411.422	555.62
411.8	539.35
412.178	559.69
412.555	554.49
412.933	546.81
413.31	553.59
413.687	581.38
414.065	574.15
414.442	587.48
414.819	580.71
415.197	593.13
415.574	606.47
415.951	622.29
416.328	615.96
416.705	629.52
417.082	625
417.46	631.78
417.837	650.53
418.214	684.88
418.591	668.16
418.967	671.1
419.344	692.11
419.721	706.58
420.098	699.35
420.475	687.37
420.852	731.89
421.228	734.15
421.605	715.16
421.982	754.49
422.358	743.19
422.735	762.4
423.111	759.91
423.488	794.03
423.864	771.89
424.241	795.39
424.617	797.87
424.994	798.55
425.37	808.04
425.746	810.3
426.123	835.39
426.499	824.99
426.875	851.66
427.251	890.98
427.627	898.89
428.003	894.37
428.379	904.99
428.756	910.87
429.132	914.26
429.507	940.02
429.883	974.59
430.259	946.8
430.635	945.44
431.011	969.62
431.387	995.61
431.763	989.06
432.138	1007.81
432.514	1005.33
432.89	1057.75
433.265	1068.83
433.641	1079.68
434.016	1056.85
434.392	1093.91
434.767	1071.77
435.143	1086.68
435.518	1113.57
435.894	1122.39
436.269	1149.5
436.644	1168.26
437.02	1177.98
437.395	1185.43
437.77	1175.72
438.145	1221.59
438.52	1225.66
438.895	1234.25
439.271	1242.38
439.646	1270.4
440.021	1293.23
440.395	1279.22
440.77	1294.13
441.145	1288.03
441.52	1303.85
441.895	1288.26
442.27	1325.54
442.645	1329.39
443.019	1337.97
443.394	1354.02
443.769	1365.54
444.143	1352.66
444.518	1368.48
444.892	1358.09
445.267	1376.62
445.641	1396.28
446.016	1393.11
446.39	1420.68
446.764	1401.47
447.139	1409.84
447.513	1424.98
447.887	1435.37
448.262	1419.78
448.636	1441.93
449.01	1429.72
449.384	1464.98
449.758	1449.16
450.132	1474.24
450.506	1473.79
450.88	1480.34
451.254	1525.76
451.628	1503.17
452.002	1518.53
452.376	1518.31
452.75	1524.86
453.123	1563.5
453.497	1525.76
453.871	1565.76
454.244	1577.52
454.618	1583.39
454.992	1617.29
455.365	1614.35
455.739	1662.48
456.112	1644.63
456.486	1679.89
456.859	1681.92
457.232	1711.3
457.606	1710.17
457.979	1688.02
458.352	1720.34
458.725	1724.4
459.099	1741.35
459.472	1814.12
459.845	1781.13
460.218	1784.97
460.591	1803.95
460.964	1783.39
461.337	1870.39
461.71	1855.93
462.083	1874
462.456	1902.7
462.829	1863.16
463.201	1937.51
463.574	1906.09
463.947	1921.23
464.32	1971.63
464.692	1996.71
465.065	2005.3
465.438	2038.97
465.81	2016.6
466.183	2060.67
466.555	2091.17
466.928	2091.85
467.3	2071.29
467.672	2093.21
468.045	2162.81
468.417	2151.06
468.789	2176.82
469.161	2168.46
469.534	2189.25
469.906	2224.5
470.278	2261.34
470.65	2238.29
471.022	2312.18
471.394	2330.49
471.766	2350.38
472.138	2361.68
472.51	2368.91
472.882	2411.39
473.253	2462.69
473.625	2451.39
473.997	2517.83
474.369	2519.41
474.74	2538.39
475.112	2539.3
475.484	2593.53
475.855	2659.52
476.227	2639.41
476.598	2733.64
476.97	2707.65
477.341	2763.92
477.713	2807.31
478.084	2780.2
478.455	2822.68
478.827	2829.01
479.198	2949.91
479.569	2944.48
479.94	2986.07
480.311	3014.77
480.682	3085.05
481.053	3132.5
481.424	3151.26
481.795	3149.45
482.166	3230.35
482.537	3238.94
482.908	3290.92
483.279	3327.07
483.65	3354.87
484.021	3414.53
484.391	3418.82
484.762	3442.55
485.133	3464.92
485.503	3499.27
485.874	3565.94
486.244	3587.86
486.615	3687.52
486.985	3657.23
487.356	3690.91
487.726	3711.7
488.097	3779.94
488.467	3780.39
488.837	3857.46
489.207	3853.39
489.578	3905.82
489.948	3961.18
490.318	3975.19
490.688	3997.56
491.058	4069.88
491.428	4089.77
491.798	4101.74
492.168	4166.37
492.538	4171.12
492.908	4216.32
493.278	4271.68
493.648	4255.64
494.017	4340.15
494.387	4355.07
494.757	4334.96
495.126	4385.8
495.496	4434.16
495.866	4426.25
496.235	4471.45
496.605	4504.67
496.974	4501.28
497.344	4558.68
497.713	4575.4
498.082	4565.91
498.452	4625.57
498.821	4588.28
499.19	4625.57
499.559	4668.96
499.928	4683.42
500.298	4720.03
500.667	4779.46
501.036	4751.22
501.405	4801.61
501.774	4774.49
502.143	4793.02
502.512	4816.75
502.88	4858.33
503.249	4859.01
503.618	4854.04
503.987	4935.39
504.356	4913.02
504.724	4926.35
505.093	4929.52
505.462	4958.9
505.83	5006.58
506.199	5022.62
506.567	5056.52
506.936	5024.66
507.304	5112.56
507.672	5104.88
508.041	5125.44
508.409	5148.27
508.777	5206.8
509.145	5206.57
509.514	5155.73
509.882	5176.74
510.25	5225.78
510.618	5209.96
510.986	5234.37
511.354	5263.07
511.722	5263.29
512.09	5339.68
512.458	5313.01
512.826	5351.2
513.193	5367.47
513.561	5349.62
513.929	5394.82
514.297	5425.78
514.664	5484.53
515.032	5400.01
515.4	5512.55
515.767	5476.85
516.135	5520.69
516.502	5422.16
516.869	5552.55
517.237	5539.9
517.604	5551.2
517.972	5564.75
518.339	5601.36
518.706	5591.65
519.073	5611.31
519.44	5631.65
519.808	5673.45
520.175	5677.97
520.542	5742.38
520.909	5732.89
521.276	5700.34
521.643	5757.52
522.009	5826.89
522.376	5776.5
522.743	5803.39
523.11	5899.21
523.477	5931.52
523.843	5890.4
524.21	5985.76
524.577	5975.37
524.943	5990.96
525.31	6068.24
525.676	6019.88
526.043	6104.18
526.409	6164.29
526.776	6180.78
527.142	6133.55
527.508	6161.12
527.874	6190.5
528.241	6245.41
528.607	6236.6
528.973	6326.32
529.339	6318.63
529.705	6351.17
530.071	6387.56
530.437	6418.97
530.803	6401.34
531.169	6486.54
531.535	6448.57
531.901	6475.47
532.267	6472.75
532.632	6516.37
532.998	6508.91
533.364	6599.76
533.73	6624.16
534.095	6655.35
534.461	6621.45
534.826	6675.46
535.192	6694.44
535.557	6727.89
535.923	6733.99
536.288	6696.02
536.653	6771.73
537.019	6757.49
537.384	6849.01
537.749	6790.94
538.114	6833.87
538.479	6830.48
538.845	6927.2
539.21	6831.84
539.575	6883.59
539.94	6911.84
540.305	6926.98
540.67	6949.8
541.034	6889.69
541.399	7041.1
541.764	7059.4
542.129	6983.25
542.494	7075
542.858	7092.85
543.223	7033.19
543.587	7160.65
543.952	7077.94
544.316	7116.35
544.681	7136.46
545.045	7169.91
545.41	7199.06
545.774	7277.25
546.138	7222.34
546.503	7338.95
546.867	7260.98
547.231	7339.62
547.595	7323.35
547.959	7300.98
548.324	7372.62
548.688	7362.67
549.052	7379.62
549.416	7359.51
549.779	7441.32
550.143	7424.82
550.507	7501.2
550.871	7449.23
551.235	7468.89
551.599	7518.6
551.962	7500.75
552.326	7494.87
552.689	7624.81
553.053	7543.91
553.417	7514.76
553.78	7641.08
554.143	7649.9
554.507	7641.54
554.87	7639.5
555.234	7698.03
555.597	7678.6
555.96	7656.9
556.323	7760.63
556.686	7754.3
557.05	7815.32
557.413	7850.12
557.776	7805.37
558.139	7821.19
558.502	7832.72
558.865	7825.49
559.228	7878.82
559.59	7895.09
559.953	7962.21
560.316	7998.14
560.679	7997.46
561.041	8006.72
561.404	8072.94
561.767	8118.13
562.129	8075.42
562.492	8113.39
562.854	8123.33
563.217	8090.79
563.579	8161.97
563.941	8145.93
564.304	8276.55
564.666	8275.19
565.028	8288.75
565.39	8240.62
565.753	8349.54
566.115	8337.34
566.477	8386.83
566.839	8368.75
567.201	8440.16
567.563	8424.11
567.925	8488.07
568.287	8491.01
568.648	8495.3
569.01	8586.6
569.372	8585.69
569.734	8559.25
570.095	8667.27
570.457	8723.09
570.819	8766.93
571.18	8700.72
571.542	8718.57
571.903	8832.69
572.265	8837.66
572.626	8868.62
572.987	8906.81
573.349	8909.3
573.71	8996.98
574.071	9035.85
574.432	9107.71
574.794	9202.63
575.155	9093.7
575.516	9163.76
575.877	9226.35
576.238	9230.2
576.599	9312
576.96	9329.4
577.32	9449.4
577.681	9488.72
578.042	9560.13
578.403	9582.5
578.763	9617.08
579.124	9709.5
579.485	9768.71
579.845	9858.88
580.206	9826.56
580.566	9961.7
580.927	9994.69
581.287	10111.53
581.648	10146.56
582.008	10214.12
582.368	10302.94
582.728	10338.19
583.089	10467.9
583.449	10564.17
583.809	10682.81
584.169	10721.46
584.529	10862.92
584.889	10963.26
585.249	11008
585.609	11055.46
585.969	11233.31
586.329	11336.35
586.688	11524.15
587.048	11590.81
587.408	11719.85
587.768	11874.42
588.127	11959.84
588.487	12110.8
588.846	12225.82
589.206	12287.29
589.565	12419.94
589.925	12505.14
590.284	12746.03
590.643	12754.4
591.003	13032.13
591.362	13144.89
591.721	13155.06
592.08	13411.55
592.44	13435.51
592.799	13614.71
593.158	13763.64
593.517	13987.36
593.876	14118.65
594.235	14112.33
594.593	14349.83
594.952	14421.25
595.311	14580.11
595.67	14757.51
596.029	14848.13
596.387	15048.57
596.746	15103.04
597.104	15201.56
597.463	15325.63
597.822	15556.58
598.18	15542.57
598.538	15688.1
598.897	15915.44
599.255	15884.03
599.613	16265.49
599.972	16201.31
600.33	16392.27
600.688	16404.02
601.046	16558.59
601.404	16775.08
601.762	16825.7
602.12	17020.27
602.478	17062.53
602.836	17145.02
603.194	17089.2
603.552	17241.06
603.91	17286.48
604.268	17476.31
604.625	17483.09
604.983	17712.01
605.341	17749.07
605.698	17880.36
606.056	17960.81
606.413	17965.56
606.771	18189.73
607.128	18224.31
607.485	18347.24
607.843	18317.87
608.2	18500.46
608.557	18693
608.914	18669.95
609.272	18859.55
609.629	18925.99
609.986	19056.83
610.343	18961.24
610.7	19139.09
611.057	19267.9
611.414	19190.84
611.771	19273.09
612.127	19440.1
612.484	19438.74
612.841	19515.57
613.198	19498.4
613.554	19652.75
613.911	19698.62
614.267	19673.99
614.624	19778.17
614.98	19837.15
615.337	19937.71
615.693	19921.44
616.05	20134.54
616.406	20191.04
616.762	20049.12
617.118	20209.79
617.475	20206.63
617.831	20401.65
618.187	20408.88
618.543	20457.02
618.899	20572.95
619.255	20605.49
619.611	20509.9
619.967	20656.56
620.323	20673.51
620.678	20680.29
621.034	20764.13
621.39	20804.58
621.746	20707.18
622.101	20961.86
622.457	20844.35
622.812	20909.89
623.168	20989.43
623.523	20920.96
623.879	21015.42
624.234	20879.15
624.589	21019.72
624.945	21139.03
625.3	21018.81
625.655	21031.24
626.01	21099.26
626.365	21167.73
626.72	21161.86
627.075	21145.59
627.43	21177.68
627.785	21105.36
628.14	21159.82
628.495	21269.88
628.85	21252.25
629.205	21151.46
629.559	21269.65
629.914	21178.81
630.269	21165.93
630.623	21243.44
630.978	21160.95
631.332	21194.63
631.687	21340.16
632.041	21201.18
632.396	21301.29
632.75	21155.31
633.104	21127.51
633.459	21169.32
633.813	21129.77
634.167	21131.8
634.521	21151.01
634.875	21183.78
635.229	21152.37
635.583	21032.6
635.937	21111.92
636.291	21026.27
636.645	21099.04
636.999	21028.3
637.352	21133.61
637.706	20932.49
638.06	21119.83
638.413	20972.03
638.767	20931.58
639.121	20949.66
639.474	20814.3
639.828	20930.9
640.181	20916.44
640.534	20935.88
640.888	20936.78
641.241	20788.08
641.594	20855.65
641.947	20878.25
642.301	20826.73
642.654	20941.53
643.007	20916.67
643.36	20980.17
643.713	20793.05
644.066	20915.09
644.419	20850.91
644.771	20640.74
645.124	20518.49
645.477	20485.49
645.83	20336.34
646.182	20430.8
646.535	20286.4
646.888	20328.66
647.24	20130.93
647.593	20357.13
647.945	20223.8
648.298	20206.86
648.65	20146.29
649.002	20233.52
649.355	20197.14
649.707	20271.71
650.059	20287.98
650.411	20471.26
650.763	20516
651.115	20749.89
651.467	20683.45
651.819	20707.86
652.171	20722.1
652.523	20713.96
652.875	20630.57
653.227	20551.93
653.578	20791.47
653.93	20626.28
654.282	20615.21
654.633	20622.66
654.985	20692.49
655.337	20643.23
655.688	20656.56
656.039	20776.33
656.391	20457.02
656.742	20626.96
657.094	20691.14
657.445	20644.58
657.796	20727.75
658.147	20778.37
658.498	20714.19
658.849	20728.88
659.2	20624.7
659.551	20582.21
659.902	20708.76
660.253	20656.79
660.604	20644.81
660.955	20662.66
661.306	20802.32
661.656	20595.77
662.007	20686.39
662.358	20734.07
662.708	20668.99
663.059	20704.92
663.409	20567.52
663.76	20706.96
664.11	20678.71
664.461	20780.63
664.811	20828.08
665.161	20840.51
665.511	20615.43
665.862	20766.84
666.212	20835.54
666.562	20829.89
666.912	20721.64
667.262	20688.2
667.612	20711.48
667.962	20675.54
668.312	20793.28
668.662	20884.35
669.011	20782.21
669.361	20715.09
669.711	20697.01
670.06	20830.57
670.41	20779.95
670.76	20633.96
671.109	20729.55
671.459	20773.62
671.808	20627.18
672.157	20654.53
672.507	20548.54
672.856	20519.16
673.205	20622.89
673.554	20616.11
673.904	20588.31
674.253	20707.86
674.602	20511.03
674.951	20192.84
675.3	20129.12
675.649	20575.66
675.998	20434.42
676.346	20429.9
676.695	20486.17
677.044	20359.17
677.393	20497.7
677.741	20477.58
678.09	20429.9
678.438	20317.81
678.787	20358.04
679.135	20371.82
679.484	20268.32
679.832	20261.54
680.181	20240.75
680.529	20303.58
680.877	20201.43
681.225	20262.67
681.573	20241.66
681.922	20148.55
682.27	20095.45
682.618	20083.47
682.966	20005.51
683.314	20038.72
683.661	19936.81
684.009	19852.29
684.357	19865.62
684.705	19810.71
685.053	19833.53
685.4	19758.96
685.748	19708.11
686.095	19727.77
686.443	19541.34
686.79	19477.61
687.138	19618.17
687.485	19571.62
687.832	19415.46
688.18	19553.31
688.527	19367.56
688.874	19361.45
689.221	19314.68
689.568	19362.58
689.915	19236.03
690.262	19240.55
690.609	19150.84
690.956	19097.05
691.303	18932.09
691.65	18999.2
691.997	19015.93
692.344	18817.51
692.69	18750.4
693.037	18746.56
693.383	18564.86
693.73	18614.13
694.077	18445.32
694.423	18492.55
694.769	18404.19
695.116	18351.54
695.462	18415.94
695.808	18275.38
696.155	18302.95
696.501	18140.24
696.847	18140.02
697.193	17956.97
697.539	17992
697.885	17909.51
698.231	17801.27
698.577	17920.14
698.923	17838.78
699.269	17751.1
699.614	17664.32
699.96	17639.92
700.306	17616.42
700.651	17459.36
700.997	17449.87
701.342	17343.88
701.688	17298.68
702.033	17321.96
702.379	17205.13
702.724	17233.6
703.069	17113.83
703.415	17021.85
703.76	17002.65
704.105	17040.39
704.45	16971.91
704.795	16866.6
705.14	16861.86
705.485	16856.89
705.83	16745.48
706.175	16799.04
706.52	16713.39
706.865	16578.48
707.209	16523.79
707.554	16501.64
707.899	16502.55
708.243	16433.17
708.588	16432.27
708.932	16227.3
709.277	16224.81
709.621	16234.08
709.966	16086.29
710.31	16151.37
710.654	15930.58
710.998	16030.47
711.342	16010.81
711.687	15926.97
712.031	15922.45
712.375	15906.4
712.719	15891.49
713.063	15825.73
713.407	15794.77
713.75	15809.68
714.094	15840.64
714.438	15651.27
714.782	15689.46
715.125	15582.57
715.469	15656.01
715.812	15523.81
716.156	15439.3
716.499	15366.76
716.843	15471.61
717.186	15404.04
717.53	15445.4
717.873	15451.5
718.216	15455.57
718.559	15356.14
718.902	15176.03
719.246	15319.3
719.589	15225.29
719.932	15141.68
720.275	15239.08
720.617	15240.66
720.96	15158.85
721.303	15138.51
721.646	15142.13
721.989	15100.32
722.331	15162.47
722.674	15085.63
723.016	15138.29
723.359	15097.61
723.701	15093.32
724.044	14940.55
724.386	14891.06
724.729	14893.1
725.071	14966.77
725.413	14875.7
725.755	14912.98
726.097	14908.69
726.439	14835.47
726.782	14772.2
727.124	14922.25
727.465	14882.7
727.807	14798.41
728.149	14790.95
728.491	14777.39
728.833	14725.64
729.175	14742.14
729.516	14716.6
729.858	14822.14
730.199	14804.51
730.541	14669.83
730.882	14774
731.224	14809.48
731.565	14634.35
731.906	14713.21
732.248	14740.33
732.589	14609.26
732.93	14580.79
733.271	14538.3
733.612	14635.25
733.953	14631.41
734.294	14600
734.635	14507.12
734.976	14715.7
735.317	14622.37
735.658	14556.61
735.999	14641.35
736.339	14566.78
736.68	14541.47
737.021	14613.56
737.361	14519.1
737.702	14601.58
738.042	14574.24
738.383	14586.44
738.723	14646.32
739.063	14607.68
739.404	14648.36
739.744	14536.5
740.084	14509.6
740.424	14592.99
740.764	14612.43
741.104	14661.46
741.444	14599.32
741.784	14579.66
742.124	14750.95
742.464	14687.23
742.804	14684.97
743.143	14658.75
743.483	14635.25
743.823	14708.7
744.162	14668.24
744.502	14788.92
744.841	14867.56
745.181	14851.06
745.52	14843.38
745.86	14924.73
746.199	14881.35
746.538	14919.31
746.877	14997.05
747.216	15033.66
747.556	15123.6
747.895	15128.8
748.234	15129.02
748.573	15175.58
748.911	15310.71
749.25	15258.96
749.589	15356.36
749.928	15487.21
750.267	15544.38
750.605	15514.1
750.944	15613.98
751.283	15682.91
751.621	15681.78
751.96	15748.22
752.298	15837.48
752.636	15898.49
752.975	16014.65
753.313	16094.2
753.651	16225.04
753.989	16263.91
754.327	16298.71
754.666	16414.41
755.004	16473.62
755.342	16643.79
755.679	16760.62
756.017	16818.47
756.355	16955.64
756.693	16966.49
757.031	17194.05
757.368	17126.94
757.706	17271.57
758.044	17291.68
758.381	17480.83
758.719	17526.93
759.056	17765.79
759.394	17787.94
759.731	17793.36
