Data from hue_40_FLMS001491_16.txt Node
Date: Mon Feb 06 15:07:31 GMT 2017
User: dcchb
Spectrometer: FLMS00149
Trigger mode: 0
Integration Time (sec): 2.000000E-2
Scans to average: 10
Electric dark correction enabled: true
Nonlinearity correction enabled: false
Boxcar width: 0
XAxis mode: Wavelengths
Number of Pixels in Spectrum: 2048
>>>>>Begin Spectral Data<<<<<
341.393	-39.11
341.776	-39.11
342.16	-39.11
342.543	-61.93
342.927	-46.57
343.31	-66.91
343.693	-70.52
344.077	-62.61
344.46	-54.48
344.843	-46.57
345.226	-50.18
345.61	-37.08
345.993	-14.03
346.376	2.25
346.759	0.44
347.142	42.47
347.525	35.47
347.908	49.25
348.291	55.58
348.674	100.32
349.057	116.59
349.44	118.17
349.823	137.38
350.206	176.93
350.588	172.41
350.971	209.92
351.354	227.55
351.737	232.52
352.119	257.61
352.502	264.61
352.884	277.27
353.267	274.33
353.65	284.05
354.032	288.11
354.414	325.85
354.797	319.98
355.179	321.79
355.562	341.22
355.944	317.04
356.326	338.06
356.709	343.48
357.091	326.98
357.473	352.07
357.855	295.8
358.238	363.82
358.62	339.64
359.002	333.08
359.384	347.77
359.766	338.51
360.148	343.93
360.53	341.45
360.912	349.36
361.294	313.2
361.676	333.08
362.057	333.99
362.439	318.62
362.821	319.98
363.203	321.56
363.584	302.58
363.966	312.75
364.348	326.98
364.729	325.85
365.111	323.14
365.493	313.65
365.874	316.81
366.256	309.81
366.637	304.38
367.019	326.53
367.4	317.94
367.781	313.42
368.163	333.76
368.544	313.2
368.925	303.25
369.306	302.8
369.688	329.47
370.069	316.59
370.45	312.29
370.831	313.65
371.212	315.46
371.593	312.52
371.974	294.44
372.355	318.62
372.736	315.46
373.117	312.07
373.498	313.2
373.879	327.43
374.26	310.49
374.641	306.19
375.021	313.42
375.402	326.98
375.783	342.12
376.163	312.75
376.544	325.4
376.925	348.23
377.305	325.63
377.686	321.11
378.066	308.68
378.447	336.47
378.827	319.98
379.208	351.16
379.588	331.5
379.968	327.89
380.349	326.08
380.729	323.59
381.109	318.85
381.489	333.08
381.87	339.86
382.25	333.76
382.63	308.9
383.01	328.34
383.39	323.59
383.77	336.02
384.15	352.74
384.53	336.02
384.91	347.32
385.29	354.55
385.67	350.03
386.049	352.29
386.429	355
386.809	350.71
387.189	350.03
387.568	355.23
387.948	331.28
388.328	347.77
388.707	361.33
389.087	317.94
389.466	357.04
389.846	347.77
390.225	369.69
390.605	365.17
390.984	351.84
391.363	364.95
391.743	375.34
392.122	357.49
392.501	366.53
392.881	359.52
393.26	362.46
393.639	375.57
394.018	368.34
394.397	360.2
394.776	365.17
395.155	348.68
395.534	354.78
395.913	389.35
396.292	362.01
396.671	384.16
397.05	385.29
397.429	372.18
397.808	369.02
398.186	380.09
398.565	403.37
398.944	388.22
399.323	366.08
399.701	365.85
400.08	391.61
400.458	393.87
400.837	383.48
401.215	387.77
401.594	409.92
401.972	399.52
402.351	400.2
402.729	399.98
403.107	395.46
403.486	416.92
403.864	390.48
404.242	420.09
404.62	406.08
404.999	395
405.377	406.75
405.755	408.79
406.133	420.09
406.511	392.97
406.889	394.55
407.267	430.03
407.645	429.81
408.023	399.07
408.401	428.22
408.779	436.36
409.156	422.12
409.534	417.83
409.912	446.3
410.29	437.71
410.667	435.45
411.045	442.91
411.422	446.08
411.8	454.66
412.178	433.42
412.555	456.7
412.933	468.22
413.31	474.55
413.687	476.58
414.065	448.79
414.442	462.12
414.819	475.68
415.197	501.89
415.574	481.33
415.951	476.13
416.328	479.07
416.705	467.32
417.082	479.75
417.46	489.01
417.837	485.4
418.214	493.08
418.591	491.5
418.967	486.75
419.344	500.09
419.721	528.56
420.098	517.71
420.475	498.5
420.852	522.68
421.228	542.34
421.605	511.61
421.982	529.69
422.358	540.08
422.735	533.08
423.111	513.42
423.488	534.44
423.864	539.41
424.241	552.29
424.617	531.72
424.994	555
425.37	543.7
425.746	560.42
426.123	554.1
426.499	577.82
426.875	555.23
427.251	546.86
427.627	570.14
428.003	599.29
428.379	591.83
428.756	586.86
429.132	598.84
429.507	580.99
429.883	579.86
430.259	635.22
430.635	615.11
431.011	633.87
431.387	628.22
431.763	624.38
432.138	616.92
432.514	623.7
432.89	625.05
433.265	651.04
433.641	649.46
434.016	657.37
434.392	646.75
434.767	679.97
435.143	665.51
435.518	670.25
435.894	660.76
436.269	675.9
436.644	683.13
437.02	691.49
437.395	679.29
437.77	699.63
438.145	704.83
438.52	718.39
438.895	717.48
439.271	708.44
439.646	716.13
440.021	741.44
440.395	737.82
440.77	727.2
441.145	727.88
441.52	745.5
441.895	765.16
442.27	753.19
442.645	774.43
443.019	770.81
443.394	759.29
443.769	778.72
444.143	769.01
444.518	757.93
444.892	783.02
445.267	792.28
445.641	773.98
446.016	791.6
446.39	785.73
446.764	793.86
447.139	788.44
447.513	806.74
447.887	800.87
448.262	815.78
448.636	811.26
449.01	856.23
449.384	861.88
449.758	825.27
450.132	849.68
450.506	860.08
450.88	836.57
451.254	861.21
451.628	886.06
452.002	878.83
452.376	883.58
452.75	884.48
453.123	883.8
453.497	904.59
453.871	907.76
454.244	907.53
454.618	922.22
454.992	921.54
455.365	939.17
455.739	935.33
456.112	963.35
456.486	961.09
456.859	964.93
457.232	999.96
457.606	981.65
457.979	991.6
458.352	1051.48
458.725	1030.02
459.099	1000.19
459.472	1051.03
459.845	1040.64
460.218	1070.01
460.591	1068.21
460.964	1082.67
461.337	1105.95
461.71	1099.84
462.083	1142.33
462.456	1121.09
462.829	1153.4
463.201	1136
463.574	1152.05
463.947	1170.12
464.32	1198.82
464.692	1209.22
465.065	1227.75
465.438	1267.75
465.81	1248.99
466.183	1280.4
466.555	1309.33
466.928	1301.19
467.3	1312.49
467.672	1315.21
468.045	1376.45
468.417	1351.14
468.789	1401.08
469.161	1420.97
469.534	1444.24
469.906	1478.37
470.278	1476.11
470.65	1499.83
471.022	1557.69
471.394	1548.87
471.766	1587.51
472.138	1616.67
472.51	1646.95
472.882	1716.32
473.253	1729.88
473.625	1730.34
473.997	1774.85
474.369	1829.32
474.74	1843.55
475.112	1878.58
475.484	1938.47
475.855	1947.51
476.227	2014.62
476.598	2089.65
476.97	2107.95
477.341	2160.16
477.713	2176.2
478.084	2215.52
478.455	2258.91
478.827	2371.9
479.198	2421.39
479.569	2479.92
479.94	2556.3
480.311	2590.88
480.682	2693.25
481.053	2755.62
481.424	2812.79
481.795	2854.37
482.166	2958.33
482.537	3015.05
482.908	3077.19
483.279	3165.78
483.65	3266.57
484.021	3348.15
484.391	3419.11
484.762	3472.66
485.133	3589.5
485.503	3660.45
485.874	3792.2
486.244	3841.24
486.615	3949.49
486.985	4038.3
487.356	4132.98
487.726	4274.22
488.097	4372.75
488.467	4408.01
488.837	4587.89
489.207	4680.54
489.578	4805.74
489.948	4870.59
490.318	4977.26
490.688	5042.79
491.058	5148.78
491.428	5332.73
491.798	5385.38
492.168	5544.47
492.538	5650.23
492.908	5747.18
493.278	5862.88
493.648	5934.29
494.017	6026.04
494.387	6161.18
494.757	6280.72
495.126	6369.31
495.496	6429.42
495.866	6561.4
496.235	6647.49
496.605	6713.71
496.974	6817.43
497.344	7002.29
497.713	7028.05
498.082	7139.91
498.452	7225.78
498.821	7364.09
499.19	7383.52
499.559	7515.49
499.928	7658.99
500.298	7703.51
500.667	7784.41
501.036	7832.77
501.405	8069.6
501.774	8022.15
502.143	8174.69
502.512	8204.97
502.88	8319.54
503.249	8379.65
503.618	8538.74
503.987	8569.7
504.356	8614.22
504.724	8723.82
505.093	8757.04
505.462	8815.12
505.83	8956.81
506.199	9043.14
506.567	9200.42
506.936	9172.4
507.304	9333.53
507.672	9366.97
508.041	9434.09
508.409	9501.66
508.777	9600.64
509.145	9738.71
509.514	9713.63
509.882	9867.75
510.25	9874.3
510.618	9984.58
510.986	10045.37
511.354	10161.3
511.722	10264.35
512.09	10296.44
512.458	10357.23
512.826	10416.66
513.193	10474.06
513.561	10567.62
513.929	10635.86
514.297	10696.2
514.664	10773.71
515.032	10941.17
515.4	10985.23
515.767	11061.62
516.135	11041.96
516.502	11049.19
516.869	11183.42
517.237	11298.67
517.604	11278.79
517.972	11420.25
518.339	11518.33
518.706	11562.39
519.073	11581.15
519.44	11678.77
519.808	11802.16
520.175	11862.5
520.542	11984.98
520.909	11987.92
521.276	12036.73
521.643	12269.27
522.009	12224.3
522.376	12298.19
522.743	12401.02
523.11	12498.41
523.477	12574.8
523.843	12655.92
524.21	12743.61
524.577	12803.04
524.943	12919.65
525.31	13060.43
525.676	13116.48
526.043	13233.99
526.409	13196.48
526.776	13436.24
527.142	13446.41
527.508	13491.61
527.874	13585.39
528.241	13739.96
528.607	13757.59
528.973	13874.88
529.339	13936.12
529.705	14010.92
530.071	14181.76
530.437	14147.18
530.803	14265.6
531.169	14399.38
531.535	14385.6
531.901	14428.08
532.267	14520.51
532.632	14544.69
532.998	14561.64
533.364	14646.83
533.73	14787.62
534.095	14891.12
534.461	14888.18
534.826	14982.87
535.192	15043.66
535.557	15125.92
535.923	15122.75
536.288	15159.14
536.653	15261.73
537.019	15350.77
537.384	15389.41
537.749	15496.3
538.114	15584.21
538.479	15605.9
538.845	15705.11
539.21	15629.63
539.575	15778.78
539.94	15753.47
540.305	15934.03
540.67	15866.24
541.034	15927.48
541.399	16110.52
541.764	16104.65
542.129	16153.69
542.494	16154.14
542.858	16282.95
543.223	16318.43
543.587	16428.48
543.952	16435.94
544.316	16547.12
544.681	16435.94
545.045	16645.65
545.41	16714.35
545.774	16776.04
546.138	16745.53
546.503	16826.21
546.867	16857.4
547.231	16965.64
547.595	17099.42
547.959	16992.08
548.324	17114.34
548.688	17146.43
549.052	17238.4
549.416	17251.74
549.779	17312.3
550.143	17372.86
550.507	17484.05
550.871	17544.61
551.235	17586.19
551.599	17761.78
551.962	17729.01
552.326	17715.23
552.689	17827.99
553.053	17853.53
553.417	17915
553.78	18071.6
554.143	18112.96
554.507	18091.94
554.87	18264.82
555.234	18348.88
555.597	18279.05
555.96	18218.72
556.323	18460.07
556.686	18404.93
557.05	18569.89
557.413	18649.44
557.776	18652.6
558.139	18804.69
558.502	18825.25
558.865	18884.46
559.228	19016.44
559.59	19094.85
559.953	19101.86
560.316	19217.79
560.679	19310.44
561.041	19414.39
561.404	19353.6
561.767	19583.65
562.129	19451.23
562.492	19758.34
562.854	19710.88
563.217	19758.11
563.579	19879.69
563.941	19946.58
564.304	20154.03
564.666	20142.51
565.028	20237.65
565.39	20225.44
565.753	20431.54
566.115	20485.1
566.477	20610.52
566.839	20582.95
567.201	20707.92
567.563	20725.54
567.925	20947.68
568.287	20875.6
568.648	20975.25
569.01	21036.04
569.372	21103.39
569.734	21167.11
570.095	21271.06
570.457	21356.49
570.819	21416.15
571.18	21442.13
571.542	21682.81
571.903	21670.6
572.265	21867.43
572.626	21821.11
572.987	21889.13
573.349	21930.26
573.71	22052.97
574.071	22129.35
574.432	22224.49
574.794	22531.37
575.155	22519.62
575.516	22443.46
575.877	22638.49
576.238	22821.08
576.599	22849.33
576.96	22944.24
577.32	23038.48
577.681	23205.93
578.042	23364.8
578.403	23360.73
578.763	23568.63
579.124	23620.38
579.485	23835.29
579.845	24002.97
580.206	23988.96
580.566	24075.74
580.927	24080.93
581.287	24514.14
581.648	24450.42
582.008	24883.63
582.368	24909.16
582.728	25049.04
583.089	25138.53
583.449	25307.12
583.809	25509.37
584.169	25790.49
584.529	25691.97
584.889	26063.71
585.249	26170.15
585.609	26152.07
585.969	26456.01
586.329	26611.26
586.688	26775.1
587.048	26923.8
587.408	27087.18
587.768	27259.83
588.127	27412.37
588.487	27679.26
588.846	27898.69
589.206	27965.35
589.565	28185.46
589.925	28484.66
590.284	28636.07
590.643	28768.72
591.003	28995.38
591.362	29319.67
591.721	29399.66
592.08	29576.84
592.44	29741.8
592.799	29995.81
593.158	30085.52
593.517	30172.3
593.876	30536.58
594.235	30565.96
594.593	30921.43
594.952	31045.05
595.311	31176.12
595.67	31380.18
596.029	31782.65
596.387	31843.22
596.746	32166.6
597.104	32129.08
597.463	32193.04
597.822	32432.35
598.18	32701.5
598.538	32778.11
598.897	33035.05
599.255	32930.42
599.613	33628.03
599.972	33447.92
600.33	33698.99
600.688	33784.86
601.046	34109.6
601.404	34204.96
601.762	34354.56
602.12	34660.32
602.478	34571.51
602.836	34742.12
603.194	34799.52
603.552	34960.87
603.91	35061.21
604.268	35328.32
604.625	35238.38
604.983	35486.28
605.341	35434.53
605.698	35787.07
606.056	35948.65
606.413	36093.27
606.771	36264.12
607.128	36415.07
607.485	36247.85
607.843	36387.5
608.2	36779.36
608.557	36881.73
608.914	36994.72
609.272	37050.54
609.629	37407.14
609.986	37634.93
610.343	37427.25
610.7	37825.21
611.057	37909.05
611.414	37847.8
611.771	37927.58
612.127	38163.5
612.484	38306.78
612.841	38357.17
613.198	38272.88
613.554	38426.09
613.911	38653.88
614.267	38549.25
614.624	38681.68
614.98	38867.21
615.337	39086.42
615.693	39064.27
616.05	39140.2
616.406	39346.52
616.762	39294.55
617.118	39342.23
617.475	39456.35
617.831	39710.81
618.187	39640.75
618.543	39764.82
618.899	40160.51
619.255	39977.47
619.611	40040.74
619.967	40309.43
620.323	40298.81
620.678	40119.83
621.034	40291.36
621.39	40267.4
621.746	40273.5
622.101	40707.84
622.457	40337.23
622.812	40488.41
623.168	40706.03
623.523	40678.46
623.879	40910.55
624.234	40583.55
624.589	40881.85
624.945	40954.84
625.3	40878.01
625.655	40951.23
626.01	40941.51
626.365	41071.67
626.72	40921.85
627.075	41102.18
627.43	41108.74
627.785	41121.84
628.14	41292.01
628.495	41190.77
628.85	41223.31
629.205	41055.4
629.559	41227.38
629.914	41231.22
630.269	41172.01
630.623	41167.04
630.978	41176.3
631.332	41235.51
631.687	41442.06
632.041	41240.94
632.396	41277.09
632.75	41190.77
633.104	41161.16
633.459	41002.07
633.813	41115.06
634.167	41098.34
634.521	41069.64
634.875	41162.07
635.229	41234.16
635.583	41021.51
635.937	40992.81
636.291	41017.44
636.645	40897.22
636.999	40893.6
637.352	40997.33
637.706	40842.08
638.06	40923.66
638.413	40961.85
638.767	40994.84
639.121	41016.99
639.474	40693.83
639.828	40766.37
640.181	40797.56
640.534	40840.95
640.888	40767.05
641.241	40520.28
641.594	40767.5
641.947	40771.8
642.301	40716.43
642.654	40822.42
643.007	40654.96
643.36	40608.41
643.713	40600.27
644.066	40795.98
644.419	40529.09
644.771	40277.57
645.124	39962.55
645.477	39895.89
645.83	39641.66
646.182	39569.34
646.535	39365.73
646.888	39419.74
647.24	39256.81
647.593	39480.76
647.945	39399.4
648.298	39237.15
648.65	39126.41
649.002	39120.09
649.355	39277.82
649.707	39175.68
650.059	39434.43
650.411	39702.67
650.763	39822.89
651.115	40195.54
651.467	40066.5
651.819	40132.72
652.171	40040.29
652.523	39905.38
652.875	39861.08
653.227	39795.1
653.578	40018.82
653.93	39944.25
654.282	39728.21
654.633	39860.63
654.985	39697.7
655.337	39662.45
655.688	39727.75
656.039	39798.94
656.391	39473.3
656.742	39612.05
657.094	39622.45
657.445	39757.58
657.796	39539.96
658.147	39664.48
658.498	39580.87
658.849	39685.27
659.2	39583.13
659.551	39471.72
659.902	39672.84
660.253	39464.94
660.604	39563.24
660.955	39375.9
661.306	39473.3
661.656	39419.97
662.007	39457.03
662.358	39408.22
662.708	39388.55
663.059	39423.81
663.409	39211.16
663.76	39436.69
664.11	39570.24
664.461	39494.09
664.811	39490.7
665.161	39302.91
665.511	39413.41
665.862	39483.69
666.212	39347.65
666.562	39499.29
666.912	39399.18
667.262	39407.09
667.612	39427.42
667.962	39477.59
668.312	39388.1
668.662	39565.5
669.011	39302.68
669.361	39340.87
669.711	39200.99
670.06	39191.27
670.41	39207.32
670.76	39098.39
671.109	39179.52
671.459	39115.12
671.808	39084.16
672.157	39238.28
672.507	38877.83
672.856	38951.05
673.205	39059.07
673.554	39121.9
673.904	39046.64
674.253	39208.45
674.602	39052.52
674.951	38363.04
675.3	38419.31
675.649	38952.86
675.998	38884.39
676.346	38867.89
676.695	38999.19
677.044	38635.58
677.393	38878.29
677.741	38908.12
678.09	38748.12
678.438	38553.55
678.787	38763.26
679.135	38642.13
679.484	38506.77
679.832	38766.88
680.181	38482.59
680.529	38528.46
680.877	38409.6
681.225	38511.52
681.573	38654.11
681.922	38467.9
682.27	38192.65
682.618	38367.56
682.966	38091.19
683.314	38271.3
683.661	38217.96
684.009	38101.36
684.357	37927.8
684.705	37879.89
685.053	37990.4
685.4	37749.73
685.748	37740.01
686.095	37601.48
686.443	37556.74
686.79	37479.9
687.138	37473.58
687.485	37519
687.832	37459.34
688.18	37392
688.527	37188.39
688.874	37178.67
689.221	37040.37
689.568	36899.35
689.915	36802.41
690.262	36882.18
690.609	36710.21
690.956	36754.73
691.303	36671.56
691.65	36379.37
691.997	36507.05
692.344	36204.68
692.69	36271.8
693.037	36283.33
693.383	36067.96
693.73	36046.27
694.077	35911.36
694.423	35990.23
694.769	35807.86
695.116	35794.07
695.462	35745.26
695.808	35638.6
696.155	35758.82
696.501	35387.53
696.847	35514.08
697.193	35179.85
697.539	35195.22
697.885	35055.34
698.231	34843.59
698.577	34871.16
698.923	34788.68
699.269	34516.14
699.614	34552.75
699.96	34446.09
700.306	34490.38
700.651	34350.72
700.997	34240.22
701.342	34189.82
701.688	34124.74
702.033	34019.88
702.379	34054.91
702.724	33847.01
703.069	34058.3
703.415	33614.24
703.76	33673.68
704.105	33721.36
704.45	33515.71
704.795	33243.41
705.14	33197.53
705.485	33278.66
705.83	33024.2
706.175	33164.76
706.52	32969.06
706.865	32791.67
707.209	32959.8
707.554	32737.2
707.899	32866.92
708.243	32623.31
708.588	32666.02
708.932	32516.19
709.277	32422.18
709.621	32442.75
709.966	32175.64
710.31	32300.38
710.654	31947.17
710.998	32122.98
711.342	32117.79
711.687	31893.16
712.031	31804.35
712.375	31690.45
712.719	31784.46
713.063	31670.79
713.407	31727.97
713.75	31539.72
714.094	31656.55
714.438	31443
714.782	31517.58
715.125	31296.34
715.469	31399.16
715.812	31236.9
716.156	31047.98
716.499	30997.14
716.843	31092.05
717.186	30887.76
717.53	30935.44
717.873	30940.87
718.216	30809.35
718.559	30835.11
718.902	30543.82
719.246	30672.85
719.589	30415.91
719.932	30398.06
720.275	30340.66
720.617	30409.36
720.96	30341.79
721.303	30296.36
721.646	30267.89
721.989	30045.52
722.331	30212.98
722.674	30125.75
723.016	30095.47
723.359	30139.76
723.701	30021.57
724.044	29980.44
724.386	29700.67
724.729	29888.24
725.071	29765.76
725.413	29743.16
725.755	29768.02
726.097	29654.8
726.439	29460.23
726.782	29475.82
727.124	29621.58
727.465	29375.71
727.807	29344.3
728.149	29366.22
728.491	29280.8
728.833	29374.13
729.175	29257.97
729.516	29112.21
729.858	29102.27
730.199	29118.54
730.541	28947.25
730.882	28968.72
731.224	28982.5
731.565	28857.76
731.906	28997.87
732.248	28916.29
732.589	28686.24
732.93	28671.77
733.271	28643.3
733.612	28677.88
733.953	28695.28
734.294	28629.97
734.635	28516.98
734.976	28505.45
735.317	28428.62
735.658	28316.08
735.999	28434.04
736.339	28386.13
736.68	28427.49
737.021	28229.3
737.361	28127.38
737.702	28294.16
738.042	28208.51
738.383	28061.39
738.723	28183.65
739.063	28071.56
739.404	28055.07
739.744	28037.44
740.084	27809.65
740.424	27797.9
740.764	27849.2
741.104	27961.51
741.444	27699.14
741.784	27542.99
742.124	27711.35
742.464	27680.61
742.804	27680.84
743.143	27583.67
743.483	27575.31
743.823	27377.35
744.162	27428.64
744.502	27465.48
744.841	27239.27
745.181	27279.72
745.52	27267.97
745.86	27236.78
746.199	27132.15
746.538	27123.34
746.877	27224.58
747.216	27137.58
747.556	26945.94
747.895	27030.24
748.234	26963.57
748.573	26899.62
748.911	26794.99
749.25	26836.12
749.589	26640.42
749.928	26707.53
750.267	26692.17
750.605	26683.35
750.944	26526.75
751.283	26524.26
751.621	26654.65
751.96	26335.56
752.298	26341.21
752.636	26432.51
752.975	26375.34
753.313	26231.39
753.651	26280.65
753.989	26055.35
754.327	26024.61
754.666	25974.44
755.004	25952.07
755.342	25921.11
755.679	25871.85
756.017	25728.8
756.355	25885.18
756.693	25691.06
757.031	25691.74
