Data from hue_330_FLMS001491_6.txt Node
Date: Mon Feb 06 15:44:48 GMT 2017
User: dcchb
Spectrometer: FLMS00149
Trigger mode: 0
Integration Time (sec): 2.000000E-2
Scans to average: 10
Electric dark correction enabled: true
Nonlinearity correction enabled: false
Boxcar width: 0
XAxis mode: Wavelengths
Number of Pixels in Spectrum: 2048
>>>>>Begin Spectral Data<<<<<
341.393	-16.74
341.776	-16.74
342.16	-16.74
342.543	-72.55
342.927	-69.62
343.31	-57.41
343.693	-69.62
344.077	-51.54
344.46	-52.44
344.843	-55.61
345.226	-45.89
345.61	-38.88
345.993	-19.45
346.376	-27.81
346.759	0.66
347.142	43.37
347.525	37.5
347.908	51.74
348.291	67.1
348.674	98.97
349.057	119.3
349.44	110.94
349.823	132.64
350.206	149.81
350.588	205.18
350.971	224.61
351.354	218.96
351.737	240.66
352.119	252.63
352.502	258.74
352.884	277.72
353.267	274.1
353.65	286.53
354.032	279.98
354.414	303.93
354.797	312.97
355.179	341.22
355.562	328.34
355.944	330.82
356.326	333.31
356.709	327.66
357.091	355.46
357.473	353.87
357.855	337.83
358.238	325.85
358.62	362.91
359.002	312.29
359.384	334.89
359.766	343.25
360.148	327.21
360.53	335.57
360.912	319.3
361.294	332.41
361.676	329.92
362.057	348
362.439	327.43
362.821	322.92
363.203	331.73
363.584	324.05
363.966	318.4
364.348	331.28
364.729	312.29
365.111	314.1
365.493	325.85
365.874	330.37
366.256	320.88
366.637	328.11
367.019	308.45
367.4	335.34
367.781	323.82
368.163	320.43
368.544	326.53
368.925	303.25
369.306	337.83
369.688	305.51
370.069	325.4
370.45	299.64
370.831	306.64
371.212	323.59
371.593	329.24
371.974	306.87
372.355	315.68
372.736	322.46
373.117	314.33
373.498	322.69
373.879	324.27
374.26	307.55
374.641	298.51
375.021	315.23
375.402	327.21
375.783	321.56
376.163	348
376.544	324.95
376.925	324.05
377.305	316.36
377.686	306.42
378.066	315.46
378.447	326.53
378.827	333.54
379.208	315.91
379.588	332.41
379.968	300.54
380.349	332.63
380.729	329.02
381.109	331.95
381.489	334.44
381.87	338.06
382.25	347.32
382.63	328.79
383.01	304.16
383.39	332.86
383.77	346.19
384.15	345.51
384.53	332.63
384.91	358.62
385.29	343.93
385.67	334.21
386.049	364.5
386.429	346.42
386.809	343.03
387.189	350.03
387.568	341.9
387.948	362.69
388.328	359.98
388.707	343.25
389.087	355.68
389.466	359.75
389.846	356.36
390.225	370.37
390.605	371.28
390.984	358.85
391.363	363.14
391.743	382.57
392.122	362.01
392.501	366.53
392.881	366.98
393.26	372.41
393.639	362.01
394.018	375.57
394.397	381.67
394.776	386.87
395.155	395.46
395.534	374.44
395.913	373.54
396.292	381.44
396.671	378.96
397.05	365.85
397.429	363.37
397.808	374.21
398.186	393.42
398.565	401.33
398.944	398.62
399.323	394.55
399.701	397.49
400.08	398.85
400.458	406.08
400.837	411.73
401.215	385.51
401.594	387.55
401.972	404.72
402.351	413.31
402.729	409.47
403.107	398.85
403.486	416.02
403.864	415.12
404.242	409.01
404.62	415.57
404.999	433.19
405.377	419.18
405.755	446.3
406.133	430.71
406.511	434.55
406.889	437.26
407.267	444.49
407.645	457.37
408.023	444.72
408.401	454.21
408.779	463.25
409.156	479.52
409.534	475
409.912	467.54
410.29	486.75
410.667	471.39
411.045	476.81
411.422	475.23
411.8	487.88
412.178	522.01
412.555	503.48
412.933	497.37
413.31	524.94
413.687	507.09
414.065	493.76
414.442	538.28
414.819	533.08
415.197	524.94
415.574	533.76
415.951	550.93
416.328	559.97
416.705	555
417.082	545.73
417.46	552.51
417.837	553.42
418.214	570.82
418.591	591.38
418.967	611.27
419.344	621.44
419.721	596.13
420.098	608.78
420.475	605.39
420.852	616.47
421.228	630.25
421.605	635
421.982	631.61
422.358	642.45
422.735	629.12
423.111	648.1
423.488	662.79
423.864	651.49
424.241	667.54
424.617	673.87
424.994	687.2
425.37	668.89
425.746	672.06
426.123	699.63
426.499	698.27
426.875	707.09
427.251	717.03
427.627	736.46
428.003	743.47
428.379	717.71
428.756	737.59
429.132	725.62
429.507	766.52
429.883	776.01
430.259	796.35
430.635	781.21
431.011	783.02
431.387	812.17
431.763	812.85
432.138	813.52
432.514	836.35
432.89	844.71
433.265	879.74
433.641	843.58
434.016	871.6
434.392	875.44
434.767	880.19
435.143	899.85
435.518	887.19
435.894	893.97
436.269	941.43
436.644	930.13
437.02	944.14
437.395	928.78
437.77	950.24
438.145	944.37
438.52	960.86
438.895	980.75
439.271	984.37
439.646	1002.22
440.021	1001.77
440.395	1011.94
440.77	1003.8
441.145	1000.64
441.52	995.67
441.895	1023.01
442.27	1025.04
442.645	1005.16
443.019	1030.24
443.394	1054.87
443.769	1034.76
444.143	1052.16
444.518	1060.97
444.892	1050.13
445.267	1051.03
445.641	1039.28
446.016	1066.17
446.39	1095.1
446.764	1091.71
447.139	1081.54
447.513	1055.33
447.887	1095.55
448.262	1094.65
448.636	1082.67
449.01	1120.41
449.384	1133.52
449.758	1119.28
450.132	1104.14
450.506	1131.48
450.88	1127.41
451.254	1113.4
451.628	1128.32
452.002	1175.1
452.376	1175.55
452.75	1162.89
453.123	1164.48
453.497	1186.85
453.871	1189.79
454.244	1202.21
454.618	1208.99
454.992	1239.95
455.365	1229.11
455.739	1233.63
456.112	1254.64
456.486	1256.22
456.859	1268.2
457.232	1278.37
457.606	1286.96
457.979	1310.91
458.352	1322.21
458.725	1328.31
459.099	1322.66
459.472	1332.38
459.845	1374.64
460.218	1356.33
460.591	1387.52
460.964	1396.56
461.337	1430.46
461.71	1418.93
462.083	1429.1
462.456	1420.51
462.829	1423.9
463.201	1442.89
463.574	1450.34
463.947	1441.3
464.32	1488.31
464.692	1527.86
465.065	1502.77
465.438	1537.57
465.81	1532.37
466.183	1554.3
466.555	1531.47
466.928	1594.07
467.3	1595.65
467.672	1590.9
468.045	1624.8
468.417	1617.12
468.789	1636.33
469.161	1669.55
469.534	1679.26
469.906	1694.4
470.278	1702.31
470.65	1701.86
471.022	1717.68
471.394	1756.78
471.766	1782.76
472.138	1787.06
472.51	1839.03
472.882	1861.63
473.253	1887.17
473.625	1881.29
473.997	1896.66
474.369	1939.6
474.74	1952.93
475.112	1953.83
475.484	1984.11
475.855	2011.68
476.227	2052.14
476.598	2064.56
476.97	2083.09
477.341	2128.52
477.713	2150.89
478.084	2150.44
478.455	2202.87
478.827	2215.29
479.198	2262.07
479.569	2264.79
479.94	2322.41
480.311	2350.21
480.682	2403.76
481.053	2422.97
481.424	2476.3
481.795	2467.27
482.166	2515.63
482.537	2544.33
482.908	2581.61
483.279	2595.17
483.65	2632.69
484.021	2684.89
484.391	2678.79
484.762	2694.83
485.133	2738.22
485.503	2772.12
485.874	2803.75
486.244	2813.25
486.615	2869.51
486.985	2913.81
487.356	2987.25
487.726	2981.83
488.097	3019.34
488.467	3014.82
488.837	3079.23
489.207	3124.88
489.578	3140.02
489.948	3157.42
490.318	3182.5
490.688	3231.99
491.058	3234.03
491.428	3316.28
491.798	3312.89
492.168	3345.43
492.538	3335.72
492.908	3396.05
493.278	3424.75
493.648	3427.24
494.017	3481.25
494.387	3503.4
494.757	3547.01
495.126	3584.98
495.496	3573.45
495.866	3579.1
496.235	3635.6
496.605	3715.37
496.974	3683.05
497.344	3693.9
497.713	3725.31
498.082	3725.31
498.452	3783.39
498.821	3748.59
499.19	3753.11
499.559	3827.91
499.928	3829.72
500.298	3828.59
500.667	3853.22
501.036	3874.91
501.405	3905.87
501.774	3923.95
502.143	3956.04
502.512	3993.78
502.88	3933.22
503.249	4022.48
503.618	4011.41
503.987	4008.69
504.356	4067.45
504.724	4048.02
505.093	4041.24
505.462	4053.89
505.83	4114.45
506.199	4114.68
506.567	4151.97
506.936	4129.14
507.304	4174.79
507.672	4201.46
508.041	4213.66
508.409	4259.53
508.777	4256.37
509.145	4268.12
509.514	4217.95
509.882	4304.05
510.25	4267.9
510.618	4334.34
510.986	4321.68
511.354	4368.46
511.722	4377.5
512.09	4386.99
512.458	4384.5
512.826	4446.65
513.193	4422.24
513.561	4447.1
513.929	4486.42
514.297	4484.84
514.664	4482.81
515.032	4499.75
515.4	4567.32
515.767	4516.93
516.135	4557.83
516.502	4575.68
516.869	4646.64
517.237	4610.49
517.604	4583.59
517.972	4652.52
518.339	4614.1
518.706	4676.47
519.073	4643.71
519.44	4659.3
519.808	4718.51
520.175	4717.15
520.542	4762.35
520.909	4774.32
521.276	4784.27
521.643	4749.24
522.009	4829.46
522.376	4802.12
522.743	4839.41
523.11	4916.01
523.477	4938.61
523.843	4961.66
524.21	4944.04
524.577	4977.48
524.943	5005.73
525.31	4994.2
525.676	5042.11
526.043	5074.88
526.409	5100.19
526.776	5116.24
527.142	5113.52
527.508	5163.01
527.874	5194.2
528.241	5204.37
528.607	5238.49
528.973	5314.65
529.339	5249.57
529.705	5293.63
530.071	5364.14
530.437	5351.26
530.803	5368.43
531.169	5464.7
531.535	5396.68
531.901	5461.54
532.267	5495.21
532.632	5487.07
532.998	5508.99
533.364	5522.33
533.73	5565.72
534.095	5607.3
534.461	5619.27
534.826	5671.02
535.192	5664.92
535.557	5741.53
535.923	5692.94
536.288	5732.49
536.653	5754.18
537.019	5740.85
537.384	5735.65
537.749	5840.96
538.114	5824.47
538.479	5880.74
538.845	5915.31
539.21	5864.24
539.575	5929.77
539.94	5980.17
540.305	5965.93
540.67	5998.25
541.034	5997.34
541.399	6017.68
541.764	6047.51
542.129	6037.79
542.494	6096.1
542.858	6116.21
543.223	6153.5
543.587	6219.48
543.952	6173.38
544.316	6261.52
544.681	6244.12
545.045	6229.2
545.41	6305.13
545.774	6301.06
546.138	6347.62
546.503	6349.42
546.867	6342.87
547.231	6359.37
547.595	6437.78
547.959	6428.74
548.324	6454.28
548.688	6481.17
549.052	6510.32
549.416	6489.31
549.779	6524.79
550.143	6558.01
550.507	6605.91
550.871	6626.48
551.235	6641.85
551.599	6668.06
551.962	6665.57
552.326	6724.1
552.689	6730.66
553.053	6700.83
553.417	6760.49
553.78	6842.97
554.143	6781.05
554.507	6838.45
554.87	6860.82
555.234	6950.09
555.597	6828.73
555.96	6936.53
556.323	6964.55
556.686	6921.61
557.05	7023.53
557.413	6974.27
557.776	7013.13
558.139	7056.98
558.502	7044.09
558.865	7092.45
559.228	7127.03
559.59	7174.94
559.953	7118.44
560.316	7195.5
560.679	7217.88
561.041	7270.08
561.404	7302.84
561.767	7312.79
562.129	7255.39
562.492	7397.31
562.854	7343.07
563.217	7364.99
563.579	7379.23
563.941	7449.73
564.304	7451.32
564.666	7517.53
565.028	7552.78
565.39	7496.74
565.753	7588.94
566.115	7533.57
566.477	7589.84
566.839	7628.71
567.201	7677.75
567.563	7696.05
567.925	7735.83
568.287	7729.95
568.648	7776.28
569.01	7873.23
569.372	7831.64
569.734	7825.54
570.095	7896.28
570.457	7938.08
570.819	8007.68
571.18	7978.08
571.542	8087.23
571.903	8124.29
572.265	8087.68
572.626	8156.83
572.987	8174.46
573.349	8250.62
573.71	8339.43
574.071	8330.16
574.432	8414.45
574.794	8457.84
575.155	8474.57
575.516	8501.68
575.877	8627.33
576.238	8631.17
576.599	8730.15
576.96	8790.49
577.32	8824.39
577.681	8903.93
578.042	8972.18
578.403	9061.44
578.763	9153.87
579.124	9267.76
579.485	9367.2
579.845	9517.7
580.206	9544.59
580.566	9661.88
580.927	9772.61
581.287	9937.8
581.648	10055.09
582.008	10209.89
582.368	10197.68
582.728	10451.01
583.089	10611.68
583.449	10721.74
583.809	10822.98
584.169	11018.45
584.529	11233.14
584.889	11424.54
585.249	11480.81
585.609	11704.08
585.969	11938.88
586.329	12123.06
586.688	12314.92
587.048	12589.26
587.408	12728.69
587.768	12979.31
588.127	13175.68
588.487	13472.4
588.846	13738.61
589.206	13865.16
589.565	14144.47
589.925	14506.27
590.284	14684.57
590.643	14938.58
591.003	15235.97
591.362	15567.49
591.721	15804.99
592.08	16001.15
592.44	16330.4
592.799	16603.62
593.158	16797.06
593.517	17145.52
593.876	17412.64
594.235	17669.35
594.593	17950.7
594.952	18295.32
595.311	18538.03
595.67	18994.06
596.029	19265.02
596.387	19570.54
596.746	19928.73
597.104	20158.55
597.463	20354.93
597.822	20630.4
598.18	20989.94
598.538	21181.58
598.897	21510.83
599.255	21648.23
599.613	22311.94
599.972	22461.99
600.33	22739.5
600.688	22938.82
601.046	23305.81
601.404	23687.05
601.762	23923.65
602.12	24363.87
602.478	24529.96
602.836	24724.53
603.194	24840.69
603.552	25230.96
603.91	25367
604.268	25661.68
604.625	25856.71
604.983	26210.14
605.341	26498.27
605.698	26777.59
606.056	27062.78
606.413	27229.33
606.771	27550.67
607.128	27789.54
607.485	27945.69
607.843	28269.07
608.2	28522.17
608.557	28954.48
608.914	28876.74
609.272	29255.26
609.629	29529.83
609.986	29760.33
610.343	29952.87
610.7	30322.58
611.057	30353.31
611.414	30640.31
611.771	30933.86
612.127	31097.93
612.484	31266.51
612.841	31437.35
613.198	31448.88
613.554	31566.61
613.911	31923.21
614.267	32077.33
614.624	32203.88
614.98	32544.89
615.337	32740.14
615.693	32782.4
616.05	32845.9
616.406	33164.99
616.762	33224.87
617.118	33439.78
617.475	33513
617.831	33879.1
618.187	33892.88
618.543	34084.74
618.899	34439.53
619.255	34296.71
619.611	34410.83
619.967	34783.7
620.323	34817.15
620.678	34896.02
621.034	35003.81
621.39	35160.42
621.746	35128.78
622.101	35702.55
622.457	35352.05
622.812	35605.38
623.168	35776.67
623.523	35839.27
623.879	36022.32
624.234	35849.66
624.589	36208.53
624.945	36249.65
625.3	36281.74
625.655	36321.29
626.01	36372.81
626.365	36449.42
626.72	36527.61
627.075	36550.44
627.43	36745.69
627.785	36629.53
628.14	36885.8
628.495	36868.62
628.85	36827.27
629.205	36855.51
629.559	37054.15
629.914	36941.16
630.269	37116.98
630.623	37041.72
630.978	37013.02
631.332	37265.22
631.687	37283.98
632.041	37161.95
632.396	37403.52
632.75	37211.44
633.104	37355.16
633.459	37246.46
633.813	37395.16
634.167	37352.9
634.521	37312.9
634.875	37373.24
635.229	37415.5
635.583	37144.32
635.937	37376.4
636.291	37318.1
636.645	37424.09
636.999	37265.22
637.352	37310.19
637.706	37283.75
638.06	37378.89
638.413	37340.92
638.767	37149.07
639.121	37273.81
639.474	37139.12
639.828	37222.51
640.181	37313.58
640.534	37353.13
640.888	37304.77
641.241	37069.75
641.594	37215.28
641.947	37282.85
642.301	37176.18
642.654	37237.88
643.007	37208.05
643.36	37274.26
643.713	37230.42
644.066	37367.59
644.419	37137.77
644.771	36855.29
645.124	36551.79
645.477	36517.9
645.83	36302.31
646.182	36162.88
646.535	36130.34
646.888	36309.09
647.24	36111.13
647.593	36277
647.945	36120.39
648.298	36057.34
648.65	36072.94
649.002	35919.04
649.355	36182.76
649.707	36010.79
650.059	36237.68
650.411	36614.39
650.763	36676.08
651.115	36995.4
651.467	36990.2
651.819	36839.02
652.171	36874.72
652.523	36710.21
652.875	36780.26
653.227	36603.77
653.578	36898.9
653.93	36868.62
654.282	36582.07
654.633	36610.32
654.985	36670.21
655.337	36562.64
655.688	36637.21
656.039	36740.49
656.391	36611.45
656.742	36547.73
657.094	36541.85
657.445	36606.03
657.796	36531.68
658.147	36564.67
658.498	36552.02
658.849	36721.73
659.2	36540.95
659.551	36493.49
659.902	36511.79
660.253	36620.49
660.604	36628.85
660.955	36472.25
661.306	36581.17
661.656	36599.7
662.007	36586.37
662.358	36550.89
662.708	36553.38
663.059	36454.85
663.409	36330.78
663.76	36548.63
664.11	36603.09
664.461	36523.55
664.811	36621.85
665.161	36417.79
665.511	36336.66
665.862	36521.96
666.212	36493.49
666.562	36544.56
666.912	36405.81
667.262	36502.08
667.612	36413.49
667.962	36586.37
668.312	36393.15
668.662	36594.28
669.011	36528.52
669.361	36371.91
669.711	36264.8
670.06	36272.7
670.41	36273.38
670.76	36270.9
671.109	36366.71
671.459	36219.6
671.808	36202.2
672.157	36381.85
672.507	36108.19
672.856	36149.32
673.205	36188.86
673.554	36176.44
673.904	36077.68
674.253	36320.61
674.602	36238.81
674.951	35647.64
675.3	35642.66
675.649	36150.9
675.998	36118.58
676.346	36042.65
676.695	36174.18
677.044	35885.82
677.393	36007.4
677.741	36042.2
678.09	36019.15
678.438	35862.09
678.787	35990.68
679.135	35943.67
679.484	35550.46
679.832	35827.74
680.181	35739.16
680.529	35752.04
680.877	35696
681.225	35702.32
681.573	35978.25
681.922	35658.71
682.27	35404.48
682.618	35489.67
682.966	35517.92
683.314	35492.84
683.661	35339.85
684.009	35300.07
684.357	35232.51
684.705	35118.38
685.053	35199.74
685.4	35132.85
685.748	35039.29
686.095	34951.38
686.443	34903.7
686.79	34816.47
687.138	34989.8
687.485	34813.53
687.832	34613.77
688.18	34818.28
688.527	34490.38
688.874	34640.43
689.221	34535.57
689.568	34386.88
689.915	34366.31
690.262	34270.95
690.609	34288.35
690.956	34050.16
691.303	34070.05
691.65	33940.11
691.997	33943.27
692.344	33661.7
692.69	33694.69
693.037	33661.47
693.383	33559.1
693.73	33565.21
694.077	33404.98
694.423	33408.6
694.769	33269.85
695.116	33272.78
695.462	33199.11
695.808	32898.1
696.155	33080.92
696.501	32845.45
696.847	32932.91
697.193	32634.38
697.539	32790.99
697.885	32621.5
698.231	32380.83
698.577	32392.81
698.923	32365.69
699.269	32155.52
699.614	31991.91
699.96	32000.95
700.306	32059.93
700.651	31844.12
700.997	31708.76
701.342	31953.5
701.688	31776.33
702.033	31637.8
702.379	31647.97
702.724	31485.71
703.069	31580.62
703.415	31274.64
703.76	31173.4
704.105	31280.07
704.45	31107.19
704.795	31056.57
705.14	31031.94
705.485	30836.01
705.83	30786.3
706.175	30787.65
706.52	30701.33
706.865	30537.04
707.209	30542.23
707.554	30464.95
707.899	30605.28
708.243	30332.07
708.588	30367.55
708.932	30116.26
709.277	30059.08
709.621	30073.55
709.966	29857.05
710.31	29949.71
710.654	29721.24
710.998	29690.73
711.342	29864.29
711.687	29672.2
712.031	29621.35
712.375	29419.78
712.719	29441.7
713.063	29445.77
713.407	29572.77
713.75	29354.69
714.094	29310.63
714.438	29207.81
714.782	29237.41
715.125	29084.19
715.469	29075.15
715.812	28992.44
716.156	28904.99
716.499	28893.46
716.843	28770.53
717.186	28749.06
717.53	28867.93
717.873	28844.65
718.216	28634.71
718.559	28621.38
718.902	28446.92
719.246	28406.47
719.589	28302.07
719.932	28360.82
720.275	28240.37
720.617	28190.43
720.96	28232.92
721.303	28229.75
721.646	28201.05
721.989	28095.07
722.331	28125.35
722.674	27925.35
723.016	27965.8
723.359	27967.39
723.701	27935.07
724.044	27854.39
724.386	27734.17
724.729	27769.43
725.071	27757.9
725.413	27580.96
725.755	27672.25
726.097	27556.78
726.439	27323.79
726.782	27396.55
727.124	27557.68
727.465	27447.4
727.807	27317.23
728.149	27329.66
728.491	27242.89
728.833	27230.46
729.175	27100.29
729.516	27086.51
729.858	27137.58
730.199	27064.36
730.541	27001.99
730.882	26965.15
731.224	27005.38
731.565	26804.7
731.906	26773.75
732.248	26887.41
732.589	26772.16
732.93	26804.93
733.271	26695.56
733.612	26746.18
733.953	26564.94
734.294	26528.78
734.635	26411.27
734.976	26546.63
735.317	26386.18
735.658	26404.72
735.999	26354.55
736.339	26351.61
736.68	26541.21
737.021	26239.97
737.361	26155.68
737.702	26289.01
738.042	26259.86
738.383	26144.84
738.723	26174.21
739.063	25980.77
739.404	26072.97
739.744	25948
740.084	25868.01
740.424	25891.51
740.764	25905.75
741.104	25893.09
741.444	25779.42
741.784	25657.39
742.124	25687.67
742.464	25771.51
742.804	25576.26
743.143	25559.54
743.483	25549.82
743.823	25491.74
744.162	25399.77
744.502	25518.86
744.841	25307.8
745.181	25488.36
745.52	25375.36
745.86	25410.62
746.199	25273.22
746.538	25304.18
746.877	25309.83
747.216	25271.64
747.556	25115.26
747.895	25078.2
748.234	25182.6
748.573	25014.47
748.911	24949.61
749.25	25005.43
749.589	24930.4
749.928	24942.15
750.267	24977.86
750.605	24700.81
750.944	24818.77
751.283	24672.56
751.621	24747.36
751.96	24622.16
752.298	24607.02
752.636	24641.82
752.975	24419.23
753.313	24304.88
753.651	24425.33
753.989	24342.4
754.327	24273.47
754.666	24188.73
755.004	24120.26
755.342	24271.44
755.679	24125.23
756.017	24009.52
756.355	23979.92
756.693	23926.81
757.031	23883.43
757.368	23804.11
757.706	23743.32
758.044	23643.43
758.381	23718.01
758.719	23654.51
759.056	23652.47
759.394	23594.62
759.731	23336.55
