Data from hue_28_FLMS001491_00042.txt Node
Date: Tue Feb 07 17:17:19 GMT 2017
User: dcchb
Spectrometer: FLMS00149
Trigger mode: 0
Integration Time (sec): 2.000000E-2
Scans to average: 10
Electric dark correction enabled: true
Nonlinearity correction enabled: false
Boxcar width: 0
XAxis mode: Wavelengths
Number of Pixels in Spectrum: 2048
>>>>>Begin Spectral Data<<<<<
341.393	-20.37
341.776	-20.37
342.16	-20.37
342.543	-72.57
342.927	-60.59
343.31	-67.6
343.693	-69.63
344.077	-45.45
344.46	-63.53
344.843	-72.57
345.226	-63.76
345.61	-33.7
345.993	-24.66
346.376	-18.78
346.759	14.21
347.142	46.07
347.525	49.24
347.908	72.74
348.291	65.96
348.674	89.69
349.057	121.78
349.44	122.23
349.823	137.37
350.206	145.5
350.588	172.4
350.971	200.19
351.354	215.11
351.737	223.69
352.119	261.21
352.502	240.87
352.884	236.58
353.267	300.08
353.65	307.31
354.032	293.98
354.414	301.21
354.797	310.02
355.179	315.67
355.562	332.62
355.944	324.48
356.326	339.4
356.709	336.01
357.091	341.66
357.473	335.33
357.855	337.59
358.238	332.17
358.62	324.48
359.002	328.78
359.384	368.1
359.766	334.2
360.148	357.48
360.53	307.53
360.912	336.46
361.294	345.73
361.676	336.91
362.057	350.02
362.439	340.53
362.821	318.61
363.203	313.41
363.584	335.56
363.966	320.42
364.348	312.51
364.729	324.03
365.111	341.66
365.493	317.93
365.874	309.79
366.256	320.42
366.637	319.74
367.019	320.19
367.4	324.48
367.781	297.37
368.163	309.57
368.544	306.86
368.925	316.57
369.306	306.18
369.688	298.95
370.069	305.73
370.45	293.98
370.831	326.74
371.212	308.21
371.593	318.83
371.974	310.7
372.355	305.73
372.736	291.26
373.117	331.26
373.498	293.52
373.879	317.48
374.26	327.65
374.641	320.64
375.021	317.48
375.402	316.57
375.783	315.67
376.163	329.91
376.544	311.83
376.925	331.49
377.305	328.55
377.686	337.14
378.066	310.02
378.447	333.75
378.827	331.04
379.208	313.18
379.588	336.69
379.968	320.19
380.349	364.26
380.729	349.34
381.109	319.29
381.489	349.34
381.87	327.42
382.25	344.14
382.63	333.75
383.01	336.01
383.39	335.1
383.77	352.5
384.15	331.49
384.53	351.15
384.91	340.75
385.29	365.39
385.67	363.58
386.049	375.78
386.429	352.5
386.809	339.85
387.189	354.76
387.568	349.57
387.948	347.08
388.328	358.15
388.707	339.17
389.087	360.87
389.466	369.45
389.846	355.89
390.225	348.89
390.605	372.62
390.984	349.79
391.363	377.59
391.743	373.97
392.122	348.89
392.501	379.4
392.881	372.39
393.26	361.32
393.639	365.39
394.018	380.98
394.397	385.95
394.776	371.49
395.155	367.87
395.534	399.06
395.913	380.07
396.292	376.69
396.671	393.63
397.05	386.18
397.429	387.76
397.808	390.7
398.186	397.93
398.565	386.4
398.944	392.96
399.323	376.01
399.701	423.01
400.08	398.38
400.458	396.57
400.837	397.93
401.215	391.37
401.594	405.38
401.972	404.71
402.351	397.93
402.729	372.39
403.107	405.38
403.486	401.09
403.864	397.02
404.242	392.96
404.62	413.07
404.999	419.62
405.377	427.08
405.755	431.15
406.133	403.12
406.511	414.65
406.889	399.74
407.267	434.08
407.645	427.98
408.023	443.12
408.401	443.12
408.779	451.94
409.156	450.13
409.534	460.52
409.912	424.37
410.29	457.59
410.667	438.38
411.045	453.52
411.422	451.49
411.8	477.47
412.178	460.52
412.555	457.81
412.933	469.56
413.31	467.53
413.687	474.08
414.065	456.68
414.442	484.48
414.819	470.47
415.197	470.92
415.574	484.93
415.951	481.32
416.328	487.87
416.705	505.04
417.082	506.85
417.46	516.12
417.837	508.43
418.214	491.48
418.591	501.65
418.967	524.03
419.344	526.06
419.721	517.92
420.098	528.32
420.475	541.88
420.852	518.15
421.228	522.9
421.605	506.17
421.982	534.42
422.358	533.74
422.735	509.34
423.111	531.26
423.488	558.6
423.864	568.77
424.241	552.5
424.617	545.04
424.994	554.99
425.37	565.83
425.746	554.53
426.123	562.22
426.499	565.61
426.875	561.09
427.251	555.89
427.627	559.51
428.003	577.36
428.379	577.58
428.756	597.24
429.132	580.3
429.507	600.86
429.883	599.5
430.259	624.81
430.635	652.84
431.011	621.2
431.387	608.54
431.763	624.36
432.138	642.67
432.514	647.41
432.89	646.51
433.265	648.09
433.641	654.42
434.016	653.74
434.392	668.2
434.767	669.78
435.143	655.77
435.518	674.98
435.894	672.95
436.269	675.89
436.644	713.4
437.02	691.93
437.395	706.85
437.77	693.74
438.145	713.85
438.52	728.09
438.895	718.37
439.271	730.57
439.646	731.03
440.021	724.7
440.395	765.6
440.77	752.72
441.145	749.1
441.52	776.22
441.895	765.6
442.27	770.35
442.645	769.22
443.019	774.87
443.394	751.14
443.769	756.79
444.143	785.26
444.518	809.89
444.892	780.29
445.267	801.98
445.641	791.36
446.016	789.1
446.39	799.05
446.764	796.11
447.139	828.88
447.513	826.84
447.887	816.22
448.262	819.61
448.636	818.93
449.01	830.91
449.384	810.12
449.758	846.05
450.132	865.03
450.506	839.5
450.88	865.03
451.254	865.94
451.628	875.43
452.002	874.53
452.376	879.27
452.75	882.43
453.123	901.42
453.497	896.9
453.871	905.48
454.244	921.53
454.618	954.97
454.992	931.47
455.365	941.64
455.739	949.1
456.112	956.78
456.486	956.33
456.859	971.7
457.232	997.91
457.606	973.28
457.979	1008.53
458.352	1027.29
458.725	1025.71
459.099	1030.68
459.472	1054.18
459.845	1045.82
460.218	1095.76
460.591	1082.88
460.964	1076.1
461.337	1091.92
461.71	1108.87
462.083	1136.44
462.456	1146.61
462.829	1144.35
463.201	1164.23
463.574	1165.14
463.947	1188.42
464.32	1179.38
464.692	1209.43
465.065	1227.28
465.438	1230.9
465.81	1217.11
466.183	1264.57
466.555	1293.27
466.928	1294.63
467.3	1286.04
467.672	1319.71
468.045	1329.2
468.417	1329.88
468.789	1344.57
469.161	1358.35
469.534	1372.59
469.906	1401.97
470.278	1417.34
470.65	1438.35
471.022	1474.74
471.394	1539.37
471.766	1518.35
472.138	1514.06
472.51	1559.25
472.882	1597.9
473.253	1601.96
473.625	1628.63
473.997	1664.79
474.369	1678.57
474.74	1674.28
475.112	1693.94
475.484	1740.04
475.855	1775.74
476.227	1807.38
476.598	1869.98
476.97	1893.93
477.341	1930.32
477.713	1969.19
478.084	1940.03
478.455	2009.86
478.827	2040.6
479.198	2124.89
479.569	2128.5
479.94	2177.77
480.311	2222.51
480.682	2243.75
481.053	2296.63
481.424	2360.59
481.795	2385.45
482.166	2413.69
482.537	2452.34
482.908	2496.86
483.279	2559
483.65	2603.07
484.021	2633.12
484.391	2709.73
484.762	2733.91
485.133	2806.68
485.503	2828.15
485.874	2926.45
486.244	2965.09
486.615	3024.3
486.985	3044.64
487.356	3156.27
487.726	3181.81
488.097	3245.99
488.467	3302.26
488.837	3364.63
489.207	3398.53
489.578	3410.5
489.948	3456.6
490.318	3562.59
490.688	3563.95
491.058	3676.26
491.428	3714.68
491.798	3771.17
492.168	3833.54
492.538	3894.11
492.908	3934.33
493.278	3997.83
493.648	4012.3
494.017	4066.53
494.387	4096.59
494.757	4169.58
495.126	4243.93
495.496	4303.81
495.866	4309.91
496.235	4356.47
496.605	4411.83
496.974	4445.05
497.344	4461.78
497.713	4565.28
498.082	4583.81
498.452	4601.66
498.821	4606.86
499.19	4655.44
499.559	4722.56
499.928	4796.23
500.298	4781.99
500.667	4814.08
501.036	4860.18
501.405	4949.45
501.774	4930.46
502.143	4970.69
502.512	4976.56
502.88	5042.33
503.249	5072.38
503.618	5127.97
503.987	5151.47
504.356	5180.63
504.724	5195.09
505.093	5218.59
505.462	5253.39
505.83	5262.21
506.199	5320.74
506.567	5400.96
506.936	5372.71
507.304	5382.43
507.672	5475.53
508.041	5513.73
508.409	5516.44
508.777	5591.69
509.145	5599.82
509.514	5579.49
509.882	5648.64
510.25	5644.12
510.618	5716.66
510.986	5703.32
511.354	5832.81
511.722	5813.38
512.09	5834.85
512.458	5861.51
512.826	5904
513.193	5951
513.561	5949.87
513.929	6010.66
514.297	6041.62
514.664	6089.3
515.032	6087.95
515.4	6133.14
515.767	6127.95
516.135	6150.09
516.502	6190.09
516.869	6219.7
517.237	6248.4
517.604	6217.66
517.972	6313.25
518.339	6278.45
518.706	6299.47
519.073	6354.38
519.44	6359.58
519.808	6476.86
520.175	6444.32
520.542	6468.5
520.909	6540.36
521.276	6540.14
521.643	6568.39
522.009	6634.15
522.376	6696.74
522.743	6666.46
523.11	6714.15
523.477	6781.71
523.843	6828.72
524.21	6874.37
524.577	6948.26
524.943	6943.29
525.31	6976.06
525.676	7073.46
526.043	7026.91
526.409	7096.73
526.776	7160.24
527.142	7184.64
527.508	7228.71
527.874	7289.72
528.241	7313.45
528.607	7291.31
528.973	7366.56
529.339	7344.19
529.705	7405.65
530.071	7523.39
530.437	7533.33
530.803	7581.92
531.169	7623.05
531.535	7582.37
531.901	7590.05
532.267	7635.93
532.632	7752.08
532.998	7711.41
533.364	7870.73
533.73	7856.26
534.095	7928.58
534.461	7882.02
534.826	7946.2
535.192	8031.17
535.557	8053.77
535.923	8079.76
536.288	8029.37
536.653	8065.3
537.019	8099.42
537.384	8113.88
537.749	8156.82
538.114	8204.73
538.479	8195.46
538.845	8337.61
539.21	8328.79
539.575	8319.3
539.94	8380.54
540.305	8440.43
540.67	8441.33
541.034	8482.91
541.399	8550.71
541.764	8536.7
542.129	8553.87
542.494	8651.27
542.858	8632.74
543.223	8563.59
543.587	8743.47
543.952	8717.03
544.316	8787.31
544.681	8832.73
545.045	8808.33
545.41	8875.44
545.774	8867.54
546.138	8936.46
546.503	8976.91
546.867	8903.01
547.231	9059.62
547.595	9040.86
547.959	9108.66
548.324	9086.96
548.688	9194.98
549.052	9096.68
549.416	9302.1
549.779	9218.94
550.143	9303.91
550.507	9309.11
550.871	9413.96
551.235	9340.29
551.599	9457.58
551.962	9440.18
552.326	9450.8
552.689	9477.69
553.053	9502.32
553.417	9518.59
553.78	9604.92
554.143	9599.27
554.507	9645.82
554.87	9684.69
555.234	9752.94
555.597	9705.03
555.96	9737.79
556.323	9848.75
556.686	9892.82
557.05	9872.25
557.413	9902.31
557.776	9900.5
558.139	9993.38
558.502	9996.09
558.865	10089.2
559.228	10084.68
559.59	10142.53
559.953	10139.14
560.316	10275.41
560.679	10228.4
561.041	10268.18
561.404	10284.22
561.767	10378.46
562.129	10355.86
562.492	10488.74
562.854	10449.87
563.217	10460.04
563.579	10517.89
563.941	10560.6
564.304	10618.68
564.666	10703.87
565.028	10675.85
565.39	10671.78
565.753	10791.78
566.115	10767.82
566.477	10904.09
566.839	10899.12
567.201	10952.68
567.563	10974.82
567.925	11019.79
568.287	11020.92
568.648	11048.04
569.01	11104.31
569.372	11217.76
569.734	11202.62
570.095	11161.49
570.457	11324.42
570.819	11298.43
571.18	11358.77
571.542	11458.2
571.903	11524.41
572.265	11607.12
572.626	11607.8
572.987	11610.74
573.349	11756.95
573.71	11813.9
574.071	11885.31
574.432	11912.2
574.794	12067
575.155	12046.43
575.516	12084.63
575.877	12253.89
576.238	12277.84
576.599	12302.7
576.96	12437.84
577.32	12445.29
577.681	12645.29
578.042	12664.95
578.403	12769.58
578.763	12869.46
579.124	12960.99
579.485	13102.68
579.845	13224.71
580.206	13236.69
580.566	13437.58
580.927	13498.15
581.287	13708.99
581.648	13847.52
582.008	13941.75
582.368	14104.46
582.728	14334.28
583.089	14432.59
583.449	14529.31
583.809	14829.41
584.169	14955.74
584.529	15132.23
584.889	15258.55
585.249	15373.13
585.609	15575.38
585.969	15896.05
586.329	16098.98
586.688	16307.57
587.048	16473.44
587.408	16676.37
587.768	16992.29
588.127	17231.38
588.487	17456.01
588.846	17680.18
589.206	17862.78
589.565	18101.87
589.925	18465.93
590.284	18685.81
590.643	18862.98
591.003	19322.63
591.362	19582.06
591.721	19801.03
592.08	20049.16
592.44	20381.13
592.799	20701.35
593.158	21026.76
593.517	21170.94
593.876	21506.3
594.235	21741.55
594.593	22133.4
594.952	22424.24
595.311	22661.07
595.67	23010.21
596.029	23488.39
596.387	23684.09
596.746	23997.31
597.104	24169.05
597.463	24489.05
597.822	24871.18
598.18	25078.41
598.538	25312.53
598.897	25875
599.255	25964.26
599.613	26593.62
599.972	26580.52
600.33	27067.51
600.688	27109.99
601.046	27542.52
601.404	27974.83
601.762	28049.18
602.12	28492.78
602.478	28724.64
602.836	29055.25
603.194	29278.3
603.552	29471.51
603.91	29692.3
604.268	30042.12
604.625	30265.62
604.983	30568.89
605.341	30702.67
605.698	31066.27
606.056	31361.63
606.413	31521.18
606.771	31923.88
607.128	32134.04
607.485	32267.6
607.843	32444.09
608.2	32902.84
608.557	33196.39
608.914	33272.77
609.272	33660.1
609.629	33734
609.986	34098.06
610.343	34080.21
610.7	34548.89
611.057	34772.62
611.414	34832.95
611.771	35023.23
612.127	35402.66
612.484	35559.94
612.841	35821.85
613.198	35801.52
613.554	36038.8
613.911	36300.71
614.267	36505
614.624	36498
614.98	36908.15
615.337	37206.23
615.693	37191.08
616.05	37283.29
616.406	37677.85
616.762	37585.88
617.118	37741.8
617.475	37927.56
617.831	37995.13
618.187	38325.29
618.543	38513.99
618.899	38685.51
619.255	38733.42
619.611	38888.89
619.967	39110.13
620.323	39257.24
620.678	39129.56
621.034	39206.62
621.39	39244.59
621.746	39372.95
622.101	39849.77
622.457	39620.4
622.812	39794.41
623.168	40031.01
623.523	40143.55
623.879	40169.99
624.234	40087.51
624.589	40254.28
624.945	40310.78
625.3	40426.03
625.655	40530.43
626.01	40625.57
626.365	40622.18
626.72	40721.61
627.075	40679.81
627.43	40724.32
627.785	40754.15
628.14	40837.54
628.495	41118.89
628.85	41056.97
629.205	40991.21
629.559	41311.43
629.914	41095.16
630.269	41382.84
630.623	41152.34
630.978	41183.3
631.332	41454.7
631.687	41604.08
632.041	41374.48
632.396	41470.75
632.75	41291.54
633.104	41485.66
633.459	41219
633.813	41380.58
634.167	41256.51
634.521	41363.18
634.875	41515.49
635.229	41492.44
635.583	41081.15
635.937	41440.92
636.291	41372.22
636.645	41358.66
636.999	41521.82
637.352	41508.71
637.706	41191.21
638.06	41493.57
638.413	41520.91
638.767	41246.12
639.121	41393.91
639.474	41154.14
639.828	41270.07
640.181	41309.62
640.534	41313.69
640.888	41289.51
641.241	41214.48
641.594	41233.01
641.947	41371.77
642.301	41163.41
642.654	41214.71
643.007	41266.46
643.36	41261.94
643.713	41129.96
644.066	41330.64
644.419	41243.86
644.771	40980.82
645.124	40588.06
645.477	40556.65
645.83	40234.85
646.182	40183.55
646.535	39984.91
646.888	40134.06
647.24	39845.7
647.593	40113.49
647.945	40155.75
648.298	39923.67
648.65	39883.89
649.002	39880.51
649.355	39927.51
649.707	39943.1
650.059	40141.97
650.411	40558
650.763	40540.15
651.115	40960.02
651.467	40810.65
651.819	40721.84
652.171	40638.68
652.523	40572.24
652.875	40558.68
653.227	40619.47
653.578	40741.05
653.93	40598.9
654.282	40549.19
654.633	40451.11
654.985	40436.87
655.337	40652.91
655.688	40696.53
656.039	40699.92
656.391	40372.02
656.742	40461.96
657.094	40535.4
657.445	40632.35
657.796	40366.82
658.147	40438
658.498	40410.43
658.849	40508.51
659.2	40346.26
659.551	40366.59
659.902	40522.52
660.253	40418.34
660.604	40657.21
660.955	40253.38
661.306	40457.21
661.656	40288.4
662.007	40328.4
662.358	40419.25
662.708	40496.53
663.059	40408.85
663.409	40155.53
663.76	40467.38
664.11	40332.92
664.461	40356.65
664.811	40513.03
665.161	40447.5
665.511	40488.4
665.862	40313.49
666.212	40420.38
666.562	40436.87
666.912	40427.61
667.262	40348.52
667.612	40258.57
667.962	40381.73
668.312	40280.72
668.662	40476.2
669.011	40327.72
669.361	40095.41
669.711	40242.76
670.06	40169.99
670.41	40261.51
670.76	40037.56
671.109	40149.88
671.459	40082.53
671.808	40102.19
672.157	40143.32
672.507	39964.8
672.856	39899.94
673.205	40008.86
673.554	40063.1
673.904	39911.46
674.253	40130.67
674.602	39938.81
674.951	39464.47
675.3	39227.87
675.649	39923.44
675.998	39849.09
676.346	39889.54
676.695	39974.06
677.044	39612.26
677.393	39801.86
677.741	39868.98
678.09	39799.15
678.438	39659.72
678.787	39664.92
679.135	39835.53
679.484	39466.73
679.832	39755.76
680.181	39396
680.529	39452.49
680.877	39522.55
681.225	39560.06
681.573	39749.89
681.922	39415.88
682.27	39163.46
682.618	39442.32
682.966	39226.51
683.314	39311.71
683.661	39192.84
684.009	38987.2
684.357	38933.86
684.705	38907.65
685.053	38937.93
685.4	38853.19
685.748	38696.81
686.095	38697.26
686.443	38574.32
686.79	38497.94
687.138	38538.39
687.485	38603.48
687.832	38400.32
688.18	38516.47
688.527	38347.21
688.874	38226.09
689.221	38191.28
689.568	38038.52
689.915	37918.97
690.262	38035.13
690.609	37870.39
690.956	37780.45
691.303	37749.71
691.65	37542.49
691.997	37582.03
692.344	37313.57
692.69	37205.55
693.037	37289.84
693.383	37214.81
693.73	37161.03
694.077	37038.32
694.423	36929.85
694.769	36804.88
695.116	36736.63
695.462	36696.18
695.808	36631.32
696.155	36779.8
696.501	36407.15
696.847	36460.93
697.193	36179.13
697.539	36221.39
697.885	36094.84
698.231	35929.2
698.577	35873.83
698.923	35798.8
699.269	35587.74
699.614	35484.91
699.96	35575.76
700.306	35460.28
700.651	35359.49
700.997	35157.01
701.342	35234.3
701.688	35152.04
702.033	35000.63
702.379	35027.53
702.724	34884.03
703.069	35033.85
703.415	34500.53
703.76	34673.41
704.105	34749.34
704.45	34528.56
704.795	34354.55
705.14	34298.5
705.485	34331.95
705.83	34089.7
706.175	33977.61
706.52	33964.5
706.865	33785.3
707.209	33809.7
707.554	33722.47
707.899	33752.53
708.243	33609.94
708.588	33642.03
708.932	33362.48
709.277	33352.09
709.621	33432.99
709.966	33151.64
710.31	33174.01
710.654	32884.08
710.998	33035.71
711.342	33067.8
711.687	32825.78
712.031	32718.89
712.375	32591.21
712.719	32752.1
713.063	32626.23
713.407	32777.19
713.75	32478.44
714.094	32592.79
714.438	32407.26
714.782	32397.31
715.125	32245.9
715.469	32327.71
715.812	32166.58
716.156	32106.02
716.499	32070.31
716.843	32103.99
717.186	31945.35
717.53	32092.24
717.873	32060.82
718.216	31734.73
718.559	31728.85
718.902	31496.32
719.246	31669.42
719.589	31500.84
719.932	31276.89
720.275	31350.79
720.617	31306.49
720.96	31292.71
721.303	31278.7
721.646	31224.24
721.989	31023.79
722.331	31150.34
722.674	31158.47
723.016	31065.14
723.359	30976.78
723.701	31085.26
724.044	30879.16
724.386	30698.83
724.729	30833.51
725.071	30711.48
725.413	30775.66
725.755	30544.48
726.097	30533.18
726.439	30487.98
726.782	30340.42
727.124	30461.54
727.465	30438.95
727.807	30287.31
728.149	30360.98
728.491	30283.7
728.833	30358.95
729.175	30215.45
729.516	30080.76
729.858	30085.28
730.199	30108.56
730.541	29940.43
730.882	29809.58
731.224	30026.07
731.565	29904.72
731.906	29819.53
732.248	29795.12
732.589	29673.54
732.93	29641.9
733.271	29691.85
733.612	29661.11
733.953	29584.73
734.294	29474.9
734.635	29411.18
734.976	29403.49
735.317	29340.22
735.658	29378.63
735.999	29342.48
736.339	29276.94
736.68	29475.13
737.021	29123.95
737.361	29045.99
737.702	29135.48
738.042	29149.94
738.383	28941.36
738.723	29116.95
739.063	28991.07
739.404	29118.08
739.744	28858.2
740.084	28810.51
740.424	28930.06
740.764	28737.3
741.104	28996.72
741.444	28725.54
741.784	28560.8
742.124	28606
742.464	28556.74
742.804	28509.73
743.143	28508.83
743.483	28554.48
743.823	28321.26
744.162	28304.76
744.502	28324.65
744.841	28182.06
745.181	28368.49
745.52	28251.43
745.86	28291.66
746.199	28157.2
746.538	28216.63
746.877	28256.63
747.216	28172.79
747.556	27927.37
747.895	28053.7
748.234	27958.56
748.573	27905.45
748.911	27927.82
749.25	27854.61
749.589	27588.4
749.928	27814.83
750.267	27747.26
750.605	27628.4
750.944	27599.02
751.283	27533.03
751.621	27669.75
751.96	27392.25
752.298	27407.39
752.636	27334.17
752.975	27368.97
753.313	27251.23
753.651	27463.66
753.989	27146.6
754.327	27132.82
754.666	26950.22
755.004	26965.82
755.342	27044.01
755.679	26988.41
756.017	26805.14
756.355	26832.26
756.693	26752.49
757.031	26786.16
757.368	26603.34
757.706	26656.45
758.044	26528.99
758.381	26477.47
758.719	26425.72
759.056	26390.69
759.394	26350.01
759.731	26253.07
