Data from hue_100_FLMS001491_00086.txt Node
Date: Tue Feb 07 17:03:46 GMT 2017
User: dcchb
Spectrometer: FLMS00149
Trigger mode: 0
Integration Time (sec): 2.000000E-2
Scans to average: 10
Electric dark correction enabled: true
Nonlinearity correction enabled: false
Boxcar width: 0
XAxis mode: Wavelengths
Number of Pixels in Spectrum: 2048
>>>>>Begin Spectral Data<<<<<
341.393	-2.46
341.776	-2.46
342.16	-2.46
342.543	-61.44
342.927	-70.48
343.31	-80.87
343.693	-58.95
344.077	-82
344.46	-58.95
344.843	-43.13
345.226	-39.29
345.61	-34.32
345.993	-21.44
346.376	-13.3
346.759	28.28
347.142	38.67
347.525	49.97
347.908	50.2
348.291	77.54
348.674	91.1
349.057	96.52
349.44	143.08
349.823	141.27
350.206	171.32
350.588	191.66
350.971	217.65
351.354	233.69
351.737	248.16
352.119	260.59
352.502	272.34
352.884	285.44
353.267	285.67
353.65	303.98
354.032	325.22
354.414	319.12
354.797	317.08
355.179	322.05
355.562	324.54
355.944	347.59
356.326	349.17
356.709	364.31
357.091	357.98
357.473	361.83
357.855	351.21
358.238	346.69
358.62	350.98
359.002	357.76
359.384	369.74
359.766	359.79
360.148	342.17
360.53	344.88
360.912	337.87
361.294	339.23
361.676	350.53
362.057	346.23
362.439	330.42
362.821	330.87
363.203	351.66
363.584	327.7
363.966	326.35
364.348	330.64
364.729	309.62
365.111	310.08
365.493	328.16
365.874	348.95
366.256	328.61
366.637	328.16
367.019	326.8
367.4	335.61
367.781	312.34
368.163	322.05
368.544	328.83
368.925	321.38
369.306	346.46
369.688	308.04
370.069	319.34
370.45	325.22
370.831	328.38
371.212	320.7
371.593	318.21
371.974	329.06
372.355	326.35
372.736	324.31
373.117	348.95
373.498	331.77
373.879	317.53
374.26	321.38
374.641	319.57
375.021	318.21
375.402	350.75
375.783	346.91
376.163	354.37
376.544	341.94
376.925	326.8
377.305	348.49
377.686	316.4
378.066	339
378.447	346.01
378.827	355.73
379.208	346.23
379.588	341.26
379.968	340.58
380.349	354.14
380.729	340.58
381.109	331.09
381.489	364.76
381.87	363.86
382.25	369.28
382.63	357.08
383.01	357.53
383.39	380.81
383.77	366.12
384.15	360.47
384.53	358.44
384.91	384.42
385.29	367.7
385.67	364.31
386.049	379.91
386.429	375.16
386.809	386.68
387.189	358.44
387.568	368.38
387.948	390.3
388.328	369.06
388.707	376.74
389.087	367.7
389.466	390.07
389.846	380.81
390.225	395.27
390.605	393.46
390.984	390.53
391.363	381.04
391.743	392.56
392.122	392.33
392.501	388.04
392.881	403.41
393.26	385.78
393.639	401.37
394.018	400.92
394.397	410.86
394.776	416.06
395.155	407.93
395.534	401.15
395.913	408.15
396.292	392.33
396.671	406.57
397.05	424.2
397.429	419.9
397.808	411.99
398.186	424.42
398.565	416.74
398.944	414.25
399.323	411.09
399.701	406.57
400.08	427.59
400.458	441.6
400.837	431.43
401.215	441.6
401.594	430.98
401.972	435.05
402.351	427.81
402.729	457.64
403.107	458.1
403.486	438.21
403.864	445.44
404.242	460.81
404.62	448.6
404.999	462.39
405.377	483.86
405.755	460.58
406.133	473.24
406.511	466.23
406.889	459.23
407.267	494.03
407.645	467.13
408.023	478.89
408.401	473.91
408.779	508.26
409.156	503.52
409.534	475.95
409.912	491.54
410.29	518.43
410.667	510.98
411.045	505.78
411.422	506.68
411.8	501.71
412.178	498.55
412.555	507.59
412.933	541.03
413.31	522.27
413.687	531.54
414.065	536.29
414.442	544.19
414.819	556.4
415.197	546.45
415.574	562.27
415.951	555.95
416.328	553.91
416.705	550.3
417.082	547.81
417.46	554.36
417.837	576.51
418.214	562.73
418.591	562.73
418.967	572.89
419.344	566.57
419.721	584.42
420.098	613.12
420.475	601.59
420.852	597.07
421.228	593.91
421.605	613.12
421.982	594.36
422.358	610.86
422.735	624.42
423.111	593.46
423.488	641.59
423.864	612.89
424.241	626
424.617	639.33
424.994	630.29
425.37	659.9
425.746	657.64
426.123	646.79
426.499	648.15
426.875	658.77
427.251	678.88
427.627	694.47
428.003	687.92
428.379	673.46
428.756	688.15
429.132	697.41
429.507	720.24
429.883	694.93
430.259	712.33
430.635	729.27
431.011	742.16
431.387	746.68
431.763	744.87
432.138	736.96
432.514	752.55
432.89	762.04
433.265	779.89
433.641	771.08
434.016	787.58
434.392	797.97
434.767	809.5
435.143	807.92
435.518	824.87
435.894	806.11
436.269	829.16
436.644	825.77
437.02	844.75
437.395	856.5
437.77	876.16
438.145	850.63
438.52	898.99
438.895	915.26
439.271	890.17
439.646	903.51
440.021	901.93
440.395	908.25
440.77	884.52
441.145	947.8
441.52	927.91
441.895	936.05
442.27	924.98
442.645	961.81
443.019	949.61
443.394	931.98
443.769	977.4
444.143	977.86
444.518	968.14
444.892	977.18
445.267	1004.07
445.641	990.96
446.016	985.54
446.39	988.93
446.764	1001.13
447.139	1027.12
447.513	1037.06
447.887	1049.49
448.262	1016.27
448.636	1049.04
449.01	1036.84
449.384	1061.02
449.758	1063.73
450.132	1046.78
450.506	1059.66
450.88	1088.81
451.254	1089.72
451.628	1141.92
452.002	1116.16
452.376	1130.17
452.75	1124.07
453.123	1141.02
453.497	1136.27
453.871	1150.96
454.244	1170.39
454.618	1180.79
454.992	1236.38
455.365	1204.97
455.739	1229.15
456.112	1257.4
456.486	1265.98
456.859	1269.37
457.232	1312.99
457.606	1289.94
457.979	1306.43
458.352	1380.33
458.725	1350.5
459.099	1359.31
459.472	1411.52
459.845	1391.18
460.218	1410.39
460.591	1417.17
460.964	1434.79
461.337	1485.19
461.71	1480.44
462.083	1532.42
462.456	1529.93
462.829	1557.28
463.201	1566.09
463.574	1576.26
463.947	1586.43
464.32	1637.27
464.692	1632.98
465.065	1627.1
465.438	1685.41
465.81	1707.1
466.183	1758.17
466.555	1782.13
466.928	1795.69
467.3	1815.57
467.672	1856.25
468.045	1873.43
468.417	1905.06
468.789	1925.18
469.161	1947.77
469.534	2007.43
469.906	2048.79
470.278	2023.48
470.65	2094.44
471.022	2115.23
471.394	2163.36
471.766	2212.17
472.138	2246.07
472.51	2290.36
472.882	2326.07
473.253	2433.86
473.625	2432.28
473.997	2494.88
474.369	2525.61
474.74	2555.44
475.112	2651.71
475.484	2659.85
475.855	2766.96
476.227	2842.89
476.598	2926.05
476.97	2964.7
477.341	3042.43
477.713	3122.43
478.084	3183
478.455	3295.53
478.827	3312.26
479.198	3450.78
479.569	3507.05
479.94	3615.07
480.311	3660.27
480.682	3802.87
481.053	3930.32
481.424	4028.62
481.795	4084.89
482.166	4189.97
482.537	4302.74
482.908	4415.05
483.279	4548.61
483.65	4682.84
484.021	4767.36
484.391	4886.23
484.762	5008.71
485.133	5101.59
485.503	5258.87
485.874	5417.06
486.244	5537.06
486.615	5661.8
486.985	5800.1
487.356	6005.97
487.726	6081.68
488.097	6263.82
488.467	6295.68
488.837	6534.32
489.207	6694.32
489.578	6821.54
489.948	7005.49
490.318	7163.46
490.688	7261.98
491.058	7417.91
491.428	7645.7
491.798	7788.75
492.168	7949.42
492.538	7928.86
492.908	8176.54
493.278	8362.52
493.648	8506.7
494.017	8680.7
494.387	8833.47
494.757	8940.13
495.126	9151.2
495.496	9138.55
495.866	9247.69
496.235	9472.77
496.605	9636.39
496.974	9778.53
497.344	9933.1
497.713	10051.52
498.082	10177.61
498.452	10299.42
498.821	10440.66
499.19	10514.33
499.559	10725.62
499.928	10790.03
500.298	10895.56
500.667	11007.42
501.036	11100.3
501.405	11288.32
501.774	11260.52
502.143	11544.36
502.512	11537.8
502.88	11629.55
503.249	11745.71
503.618	11810.79
503.987	11920.39
504.356	12053.27
504.724	12142.76
505.093	12255.3
505.462	12282.42
505.83	12388.63
506.199	12555.63
506.567	12681.05
506.936	12655.06
507.304	12799.69
507.672	12841.72
508.041	13034.26
508.409	13076.07
508.777	13197.2
509.145	13287.59
509.514	13236.74
509.882	13390.86
510.25	13463.4
510.618	13509.73
510.986	13517.64
511.354	13673.12
511.722	13813
512.09	13888.7
512.458	13891.87
512.826	13999.43
513.193	14015.93
513.561	14034.46
513.929	14191.75
514.297	14305.41
514.664	14419.54
515.032	14342.02
515.4	14495.01
515.767	14495.24
516.135	14594.9
516.502	14474.45
516.869	14703.14
517.237	14651.17
517.604	14674.67
517.972	14787.21
518.339	14864.27
518.706	14871.5
519.073	14955.34
519.44	14976.36
519.808	15023.36
520.175	14949.24
520.542	15199.63
520.909	15291.15
521.276	15191.72
521.643	15449.34
522.009	15365.27
522.376	15447.98
522.743	15466.29
523.11	15559.17
523.477	15628.77
523.843	15652.27
524.21	15818.6
524.577	15847.07
524.943	15912.83
525.31	15875.54
525.676	15981.98
526.043	16041.19
526.409	15959.61
526.776	16103.33
527.142	16202.99
527.508	16173.61
527.874	16255.42
528.241	16180.62
528.607	16158.25
528.973	16309.88
529.339	16319.83
529.705	16369.54
530.071	16380.61
530.437	16393.72
530.803	16426.04
531.169	16495.41
531.535	16382.87
531.901	16454.96
532.267	16464.68
532.632	16527.5
532.998	16492.93
533.364	16543.32
533.73	16477.56
534.095	16473.27
534.461	16539.71
534.826	16543.1
535.192	16546.94
535.557	16600.04
535.923	16516.43
536.288	16506.94
536.653	16492.7
537.019	16432.36
537.384	16394.63
537.749	16434.17
538.114	16442.76
538.479	16429.2
538.845	16326.83
539.21	16308.75
539.575	16353.95
539.94	16300.62
540.305	16256.32
540.67	16252.26
541.034	16414.06
541.399	16222.88
541.764	16254.74
542.129	16226.27
542.494	16193.95
542.858	16237.79
543.223	16166.38
543.587	16132.26
543.952	16057.91
544.316	16017.46
544.681	16007.06
545.045	16124.8
545.41	16024.24
545.774	15992.6
546.138	16030.79
546.503	15855.2
546.867	15919.38
547.231	15928.87
547.595	15907.18
547.959	15939.95
548.324	15732.5
548.688	15745.15
549.052	15769.11
549.416	15789.44
549.779	15716.45
550.143	15692.95
550.507	15736.11
550.871	15687.98
551.235	15677.13
551.599	15666.73
551.962	15779.05
552.326	15587.64
552.689	15604.59
553.053	15469.45
553.417	15537.7
553.78	15680.07
554.143	15539.51
554.507	15544.93
554.87	15572.5
555.234	15531.15
555.597	15436.01
555.96	15422.67
556.323	15377.03
556.686	15361.21
557.05	15467.19
557.413	15464.48
557.776	15483.24
558.139	15543.8
558.502	15528.66
558.865	15476.68
559.228	15571.14
559.59	15509.45
559.953	15498.6
560.316	15591.03
560.679	15510.81
561.041	15610.92
561.404	15579.05
561.767	15682.78
562.129	15612.73
562.492	15676.9
562.854	15587.42
563.217	15584.93
563.579	15579.73
563.941	15599.84
564.304	15666.06
564.666	15801.87
565.028	15669.45
565.39	15697.02
565.753	15815.21
566.115	15704.25
566.477	15857.24
566.839	15784.7
567.201	15900.85
567.563	15830.8
567.925	15956.44
568.287	15856.79
568.648	15906.5
569.01	15960.51
569.372	15940.17
569.734	15998.03
570.095	16098.59
570.457	16075.76
570.819	15998.25
571.18	16052.71
571.542	16148.76
571.903	16095.65
572.265	16128.64
572.626	16102.88
572.987	16098.59
573.349	16125.03
573.71	16231.24
574.071	16168.64
574.432	16239.38
574.794	16300.84
575.155	16169.55
575.516	16186.04
575.877	16317.79
576.238	16248.41
576.599	16285.02
576.96	16178.13
577.32	16282.31
577.681	16342.42
578.042	16379.03
578.403	16297.45
578.763	16262.43
579.124	16353.72
579.485	16441.86
579.845	16473.49
580.206	16442.99
580.566	16437.79
580.927	16360.05
581.287	16508.52
581.648	16376.55
582.008	16395.98
582.368	16402.76
582.728	16435.3
583.089	16354.4
583.449	16296.55
583.809	16388.98
584.169	16358.69
584.529	16312.82
584.889	16506.26
585.249	16329.99
585.609	16319.15
585.969	16373.61
586.329	16227.17
586.688	16281.18
587.048	16293.39
587.408	16261.07
587.768	16347.62
588.127	16285.93
588.487	16138.36
588.846	16293.39
589.206	16184.01
589.565	16233.05
589.925	16369.09
590.284	16214.74
590.643	16181.3
591.003	16276.66
591.362	16212.48
591.721	16290.45
592.08	16207.29
592.44	16213.84
592.799	16159.83
593.158	16269.66
593.517	16081.41
593.876	16181.52
594.235	16175.2
594.593	16116.21
594.952	16130.9
595.311	16128.42
595.67	16164.57
596.029	16241.64
596.387	15996.67
596.746	16157.8
597.104	16075.76
597.463	16036.44
597.822	16158.93
598.18	16071.92
598.538	16081.64
598.897	16161.19
599.255	16047.52
599.613	16190.56
599.972	16114.18
600.33	16187.17
600.688	16092.71
601.046	16198.92
601.404	16093.16
601.762	16131.13
602.12	16229.66
602.478	16191.69
602.836	16157.34
603.194	16048.65
603.552	16109.44
603.91	16136.55
604.268	16141.75
604.625	16030.34
604.983	16179.94
605.341	16132.49
605.698	16126.84
606.056	16110.57
606.413	16129.32
606.771	16179.94
607.128	16198.92
607.485	16069.66
607.843	16116.67
608.2	16193.05
608.557	16237.57
608.914	16164.35
609.272	16264.91
609.629	16305.59
609.986	16302.42
610.343	16216.55
610.7	16303.78
611.057	16320.73
611.414	16344.91
611.771	16334.06
612.127	16367.06
612.484	16355.76
612.841	16395.53
613.198	16349.65
613.554	16328.86
613.911	16456.32
614.267	16383.33
614.624	16365.93
614.98	16402.99
615.337	16467.84
615.693	16477.79
616.05	16419.94
616.406	16637.1
616.762	16507.39
617.118	16518.01
617.475	16525.47
617.831	16595.52
618.187	16520.27
618.543	16566.37
618.899	16660.61
619.255	16659.03
619.611	16496.32
619.967	16609.99
620.323	16615.18
620.678	16678.46
621.034	16538.12
621.39	16622.19
621.746	16524.11
622.101	16744.67
622.457	16577.67
622.812	16601.17
623.168	16640.04
623.523	16735.18
623.879	16656.09
624.234	16718.46
624.589	16687.73
624.945	16687.95
625.3	16598.91
625.655	16685.69
626.01	16626.48
626.365	16660.16
626.72	16685.24
627.075	16576.77
627.43	16600.27
627.785	16604.79
628.14	16648.63
628.495	16643.21
628.85	16640.95
629.205	16628.52
629.559	16578.35
629.914	16597.56
630.269	16523.66
630.623	16521.4
630.978	16530.89
631.332	16535.86
631.687	16541.29
632.041	16559.82
632.396	16451.12
632.75	16529.09
633.104	16522.76
633.459	16343.78
633.813	16392.82
634.167	16363.67
634.521	16369.32
634.875	16435.75
635.229	16309.88
635.583	16292.03
635.937	16320.05
636.291	16222.43
636.645	16226.04
636.999	16194.63
637.352	16213.61
637.706	16193.05
638.06	16263.1
638.413	16165.03
638.767	16185.14
639.121	16251.35
639.474	16074.18
639.828	16062.88
640.181	16042.32
640.534	16118.47
640.888	16090.9
641.241	15962.77
641.594	16044.58
641.947	16043
642.301	16005.26
642.654	15919.16
643.007	16062.43
643.36	15928.65
643.713	15862.21
644.066	16011.58
644.419	15889.33
644.771	15766.62
645.124	15687.53
645.477	15596.91
645.83	15561.88
646.182	15478.72
646.535	15426.74
646.888	15446.85
647.24	15294.09
647.593	15487.76
647.945	15407.76
648.298	15391.71
648.65	15363.69
649.002	15319.4
649.355	15419.96
649.707	15377.25
650.059	15368.21
650.411	15595.32
650.763	15680.52
651.115	15817.69
651.467	15685.49
651.819	15687.98
652.171	15792.61
652.523	15718.71
652.875	15659.28
653.227	15609.56
653.578	15692.72
653.93	15709.45
654.282	15630.13
654.633	15653.63
654.985	15603.46
655.337	15615.44
655.688	15692.05
656.039	15774.53
656.391	15681.2
656.742	15661.31
657.094	15725.04
657.445	15780.86
657.796	15660.63
658.147	15742.89
658.498	15678.26
658.849	15812.27
659.2	15673.97
659.551	15599.84
659.902	15759.39
660.253	15775.66
660.604	15808.65
660.955	15613.63
661.306	15665.83
661.656	15706.73
662.007	15707.41
662.358	15667.19
662.708	15785.6
663.059	15768.43
663.409	15617.7
663.76	15727.75
664.11	15740.41
664.461	15789.44
664.811	15757.13
665.161	15820.86
665.511	15734.98
665.862	15690.24
666.212	15742.89
666.562	15824.92
666.912	15765.26
667.262	15744.92
667.612	15704.02
667.962	15761.42
668.312	15718.03
668.662	15811.82
669.011	15679.16
669.361	15658.6
669.711	15649.56
670.06	15743.34
670.41	15723.23
670.76	15713.51
671.109	15691.59
671.459	15699.95
671.808	15692.27
672.157	15653.85
672.507	15561.65
672.856	15585.16
673.205	15527.08
673.554	15579.28
673.904	15578.6
674.253	15659.28
674.602	15614.08
674.951	15353.97
675.3	15297.48
675.649	15619.28
675.998	15541.09
676.346	15535.66
676.695	15532.28
677.044	15499.06
677.393	15534.54
677.741	15566.62
678.09	15520.07
678.438	15464.25
678.787	15476.91
679.135	15414.09
679.484	15356.91
679.832	15417.7
680.181	15419.74
680.529	15406.63
680.877	15298.38
681.225	15266.07
681.573	15277.59
681.922	15241.44
682.27	15037.37
682.618	15213.19
682.966	15067.88
683.314	15197.14
683.661	15064.94
684.009	15034.66
684.357	14965.28
684.705	14960.09
685.053	14893.42
685.4	14918.51
685.748	14862.69
686.095	14916.02
686.443	14757.83
686.79	14839.64
687.138	14797.15
687.485	14771.62
687.832	14657.04
688.18	14688
688.527	14637.38
688.874	14628.8
689.221	14558.52
689.568	14525.3
689.915	14464.28
690.262	14381.35
690.609	14396.94
690.956	14439.2
691.303	14279.43
691.65	14229.94
691.997	14292.53
692.344	14187.68
692.69	14169.83
693.037	14115.59
693.383	13973.67
693.73	14063.39
694.077	13890.96
694.423	13953.56
694.769	13948.59
695.116	13821.36
695.462	13832.88
695.808	13738.65
696.155	13789.5
696.501	13721.93
696.847	13658.2
697.193	13516.51
697.539	13636.28
697.885	13391.31
698.231	13478.54
698.577	13449.39
698.923	13471.09
699.269	13291.66
699.614	13204.88
699.96	13189.29
700.306	13257.53
700.651	13127.14
700.997	13088.27
701.342	12997.43
701.688	13021.61
702.033	12926.02
702.379	12943.87
702.724	12897.77
703.069	12931.21
703.415	12721.73
703.76	12806.7
704.105	12690.99
704.45	12613.03
704.795	12648.28
705.14	12612.8
705.485	12558.12
705.83	12519.93
706.175	12449.19
706.52	12437.44
706.865	12321.74
707.209	12346.37
707.554	12304.56
707.899	12309.08
708.243	12246.94
708.588	12246.71
708.932	12119.71
709.277	12112.03
709.621	12161.97
709.966	12111.57
710.31	12095.53
710.654	11903.22
710.998	11987.74
711.342	11965.14
711.687	11862.54
712.031	11882.88
712.375	11805.14
712.719	11883.11
713.063	11848.08
713.407	11824.8
713.75	11833.39
714.094	11733.51
714.438	11698.48
714.782	11723.79
715.125	11642.21
715.469	11699.61
715.812	11632.72
716.156	11523.79
716.499	11617.35
716.843	11566.05
717.186	11476.56
717.53	11643.56
717.873	11565.6
718.216	11510.91
718.559	11393.18
718.902	11398.37
719.246	11408.99
719.589	11358.37
719.932	11291.93
720.275	11369.45
720.617	11342.1
720.96	11319.73
721.303	11353.85
721.646	11326.96
721.989	11280.41
722.331	11327.87
722.674	11258.49
723.016	11261.43
723.359	11217.13
723.701	11267.53
724.044	11241.31
724.386	11060.3
724.729	11253.29
725.071	11177.14
725.413	11190.69
725.755	11147.76
726.097	11072.28
726.439	11079.06
726.782	11069.34
727.124	11113.41
727.465	11117.7
727.807	11058.04
728.149	11012.62
728.491	11074.31
728.833	11066.18
729.175	10996.58
729.516	11026.18
729.858	11027.31
730.199	10975.33
730.541	10977.82
730.882	10984.15
731.224	11009.46
731.565	10905.28
731.906	10952.51
732.248	10997.48
732.589	10984.6
732.93	10977.59
733.271	10913.41
733.612	10963.81
733.953	11021.21
734.294	10932.85
734.635	10934.43
734.976	11000.64
735.317	10899.18
735.658	10920.42
735.999	10967.88
736.339	11075.9
736.68	10995.22
737.021	10977.14
737.361	10911.38
737.702	10950.25
738.042	10992.73
738.383	10944.6
738.723	10982.11
739.063	10984.37
739.404	11006.74
739.744	11074.77
740.084	10986.18
740.424	11042.68
740.764	10990.02
741.104	11107.98
741.444	11018.27
741.784	11047.87
742.124	11062.79
742.464	11074.77
742.804	11079.28
743.143	11103.47
743.483	11106.4
743.823	11111.6
744.162	11103.24
744.502	11206.74
744.841	11139.62
745.181	11286.74
745.52	11260.07
745.86	11361.76
746.199	11401.99
746.538	11393.85
746.877	11435.43
747.216	11524.25
747.556	11511.59
747.895	11528.09
748.234	11563.79
748.573	11562.44
748.911	11740.74
749.25	11834.75
749.589	11882.65
749.928	11935.99
750.267	11992.26
750.605	12020.96
750.944	12155.19
751.283	12187.05
751.621	12374.17
751.96	12389.31
752.298	12487.84
752.636	12606.25
752.975	12664.55
753.313	12814.83
753.651	12942.06
753.989	12957.43
754.327	13101.6
754.666	13176.86
755.004	13339.56
755.342	13478.54
