Data from hue_34_FLMS001491_00096.txt Node
Date: Tue Feb 07 17:26:28 GMT 2017
User: dcchb
Spectrometer: FLMS00149
Trigger mode: 0
Integration Time (sec): 2.000000E-2
Scans to average: 10
Electric dark correction enabled: true
Nonlinearity correction enabled: false
Boxcar width: 0
XAxis mode: Wavelengths
Number of Pixels in Spectrum: 2048
>>>>>Begin Spectral Data<<<<<
341.393	-15.62
341.776	-15.62
342.16	-15.62
342.543	-59.69
342.927	-61.5
343.31	-78.9
343.693	-74.15
344.077	-67.15
344.46	-70.53
344.843	-57.65
345.226	-56.75
345.61	-43.42
345.993	-14.27
346.376	-7.71
346.759	15.56
347.142	34.1
347.525	39.97
347.908	71.38
348.291	77.94
348.674	105.96
349.057	125.62
349.44	131.95
349.823	144.37
350.206	166.97
350.588	210.81
350.971	215.56
351.354	226.41
351.737	222.11
352.119	272.28
352.502	273.86
352.884	291.04
353.267	274.31
353.65	298.95
354.032	297.14
354.414	311.15
354.797	320.87
355.179	312.73
355.562	322.45
355.944	339.85
356.326	325.39
356.709	332.84
357.091	323.35
357.473	322.9
357.855	331.71
358.238	354.09
358.62	354.31
359.002	352.05
359.384	338.04
359.766	357.93
360.148	342.79
360.53	329
360.912	318.83
361.294	327.19
361.676	338.49
362.057	322.22
362.439	315.44
362.821	307.76
363.203	316.8
363.584	342.11
363.966	340.53
364.348	332.39
364.729	320.19
365.111	302.56
365.493	338.49
365.874	343.01
366.256	333.97
366.637	315.22
367.019	314.99
367.4	317.48
367.781	300.08
368.163	320.64
368.544	302.79
368.925	309.79
369.306	297.37
369.688	326.29
370.069	309.79
370.45	305.05
370.831	308.89
371.212	340.53
371.593	303.01
371.974	328.78
372.355	326.29
372.736	314.54
373.117	341.21
373.498	312.05
373.879	300.08
374.26	323.13
374.641	319.51
375.021	312.73
375.402	310.7
375.783	330.36
376.163	326.29
376.544	328.55
376.925	311.38
377.305	324.03
377.686	333.97
378.066	322.9
378.447	354.99
378.827	329.23
379.208	336.23
379.588	327.42
379.968	342.56
380.349	331.04
380.729	324.48
381.109	331.26
381.489	329.45
381.87	322.68
382.25	355.44
382.63	344.6
383.01	341.21
383.39	352.28
383.77	337.59
384.15	337.36
384.53	375.33
384.91	362.9
385.29	351.37
385.67	338.72
386.049	357.25
386.429	334.43
386.809	353.41
387.189	362.45
387.568	347.08
387.948	347.31
388.328	366.97
388.707	363.8
389.087	346.63
389.466	348.21
389.846	363.35
390.225	362.67
390.605	359.74
390.984	402.67
391.363	364.48
391.743	362.22
392.122	361.54
392.501	359.74
392.881	394.76
393.26	395.22
393.639	372.17
394.018	367.65
394.397	375.56
394.776	364.71
395.155	378.72
395.534	391.83
395.913	368.1
396.292	383.24
396.671	392.05
397.05	385.27
397.429	389.11
397.808	381.88
398.186	386.63
398.565	391.83
398.944	392.28
399.323	388.44
399.701	390.7
400.08	372.39
400.458	406.97
400.837	397.7
401.215	394.76
401.594	412.62
401.972	407.19
402.351	389.79
402.729	404.93
403.107	394.54
403.486	409.45
403.864	413.75
404.242	422.56
404.62	410.58
404.999	428.44
405.377	406.06
405.755	420.07
406.133	404.48
406.511	418.27
406.889	425.5
407.267	389.34
407.645	422.33
408.023	409.9
408.401	427.31
408.779	438.6
409.156	436.57
409.534	427.53
409.912	437.47
410.29	441.77
410.667	431.37
411.045	444.48
411.422	453.97
411.8	458.26
412.178	464.14
412.555	471.15
412.933	477.25
413.31	463.69
413.687	468.21
414.065	463.46
414.442	470.24
414.819	472.95
415.197	467.98
415.574	474.08
415.951	500.52
416.328	474.99
416.705	489.68
417.082	498.26
417.46	507.3
417.837	480.86
418.214	506.17
418.591	500.75
418.967	499.39
419.344	492.16
419.721	496.91
420.098	510.24
420.475	489
420.852	531.71
421.228	520.41
421.605	518.6
421.982	508.43
422.358	543.69
422.735	540.07
423.111	544.59
423.488	541.65
423.864	542.33
424.241	555.66
424.617	544.14
424.994	534.19
425.37	527.64
425.746	531.94
426.123	557.25
426.499	559.51
426.875	563.12
427.251	560.63
427.627	562.89
428.003	560.41
428.379	588.66
428.756	585.95
429.132	584.14
429.507	591.59
429.883	600.63
430.259	585.72
430.635	602.44
431.011	606.51
431.387	582.78
431.763	600.63
432.138	602.67
432.514	630.01
432.89	634.08
433.265	636.57
433.641	643.8
434.016	647.86
434.392	631.59
434.767	678.82
435.143	648.32
435.518	663.91
435.894	667.52
436.269	694.42
436.644	670.01
437.02	676.34
437.395	683.8
437.77	703.23
438.145	701.42
438.52	700.97
438.895	715.66
439.271	712.5
439.646	707.3
440.021	743.68
440.395	714.98
440.77	710.01
441.145	733.29
441.52	731.48
441.895	746.62
442.27	741.65
442.645	735.55
443.019	763.79
443.394	756.34
443.769	754.3
444.143	739.61
444.518	776.67
444.892	755.66
445.267	774.64
445.641	789.56
446.016	765.15
446.39	771.02
446.764	804.7
447.139	809.44
447.513	787.75
447.887	811.02
448.262	800.18
448.636	787.75
449.01	825.49
449.384	825.94
449.758	827.52
450.132	833.62
450.506	822.1
450.88	844.92
451.254	844.02
451.628	851.47
452.002	850.12
452.376	837.46
452.75	861.64
453.123	866.16
453.497	902.55
453.871	884.02
454.244	903.22
454.618	906.39
454.992	931.47
455.365	906.39
455.739	936.22
456.112	928.08
456.486	928.31
456.859	968.76
457.232	952.94
457.606	989.55
457.979	978.25
458.352	1004.92
458.725	996.56
459.099	1015.09
459.472	1025.26
459.845	1038.81
460.218	1041.3
460.591	1067.97
460.964	1079.27
461.337	1062.54
461.71	1096.21
462.083	1102.32
462.456	1118.81
462.829	1123.11
463.201	1134.18
463.574	1157.68
463.947	1146.83
464.32	1174.18
464.692	1177.79
465.065	1195.19
465.438	1190.22
465.81	1221.18
466.183	1238.58
466.555	1246.72
466.928	1253.27
467.3	1297.56
467.672	1305.47
468.045	1337.79
468.417	1327.62
468.789	1364.46
469.161	1382.53
469.534	1392.7
469.906	1409.65
470.278	1410.33
470.65	1462.98
471.022	1476.54
471.394	1514.96
471.766	1511.12
472.138	1540.72
472.51	1559.7
472.882	1585.92
473.253	1625.47
473.625	1679.02
473.997	1688.29
474.369	1721.28
474.74	1758.8
475.112	1772.81
475.484	1814.61
475.855	1856.87
476.227	1898
476.598	1953.82
476.97	1982.29
477.341	2022.74
477.713	2067.04
478.084	2085.11
478.455	2177.54
478.827	2184.77
479.198	2274.04
479.569	2306.8
479.94	2354.71
480.311	2420.02
480.682	2461.15
481.053	2536.4
481.424	2622.28
481.795	2630.64
482.166	2709.05
482.537	2768.49
482.908	2854.59
483.279	2903.17
483.65	3000.57
484.021	3067.69
484.391	3155.82
484.762	3229.04
485.133	3251.86
485.503	3325.76
485.874	3416.38
486.244	3494.12
486.615	3566.88
486.985	3651.4
487.356	3772.3
487.726	3824.73
488.097	3905.18
488.467	3970.71
488.837	4059.98
489.207	4166.87
489.578	4248
489.948	4353.53
490.318	4447.99
490.688	4458.16
491.058	4566.63
491.428	4694.09
491.798	4761.88
492.168	4875.32
492.538	4915.77
492.908	5061.53
493.278	5153.28
493.648	5177.91
494.017	5245.94
494.387	5360.06
494.757	5402.32
495.126	5511.01
495.496	5574.97
495.866	5643.21
496.235	5748.07
496.605	5854.51
496.974	5902.64
497.344	5937.22
497.713	6052.24
498.082	6114.16
498.452	6240.94
498.821	6265.8
499.19	6336.08
499.559	6396.19
499.928	6492.23
500.298	6543.75
500.667	6602.74
501.036	6658.55
501.405	6781.04
501.774	6823.97
502.143	6911.2
502.512	6966.12
502.88	7019.45
503.249	7034.36
503.618	7114.81
503.987	7150.74
504.356	7224.64
504.724	7350.74
505.093	7386.67
505.462	7395.94
505.83	7427.12
506.199	7567.91
506.567	7617.62
506.936	7696.04
507.304	7802.48
507.672	7820.78
508.041	7815.59
508.409	7929.71
508.777	8001.34
509.145	8046.54
509.514	8103.04
509.882	8155.69
510.25	8188.46
510.618	8193.65
510.986	8242.92
511.354	8368.57
511.722	8403.14
512.09	8472.52
512.458	8519.3
512.826	8567.66
513.193	8584.38
513.561	8676.13
513.929	8703.25
514.297	8848.78
514.664	8844.94
515.032	8859.63
515.4	8985.27
515.767	8998.15
516.135	9037.02
516.502	9035.21
516.869	9099.85
517.237	9202.22
517.604	9146.85
517.972	9231.82
518.339	9255.55
518.706	9322.66
519.073	9367.64
519.44	9362.89
519.808	9571.25
520.175	9475.2
520.542	9592.94
520.909	9641.53
521.276	9657.12
521.643	9755.42
522.009	9810.11
522.376	9848.53
522.743	9866.83
523.11	10071.8
523.477	10021.63
523.843	10156.77
524.21	10211.23
524.577	10247.39
524.943	10260.27
525.31	10407.38
525.676	10370.09
526.043	10486.25
526.409	10524.21
526.776	10698.67
527.142	10727.37
527.508	10736.86
527.874	10736.64
528.241	10905.67
528.607	10866.35
528.973	11007.14
529.339	11029.29
529.705	11153.58
530.071	11180.47
530.437	11192.9
530.803	11273.35
531.169	11409.16
531.535	11297.08
531.901	11410.75
532.267	11438.32
532.632	11553.11
532.998	11571.87
533.364	11607.12
533.73	11633.56
534.095	11825.42
534.461	11755.14
534.826	11851.19
535.192	11884.41
535.557	11985.19
535.923	11916.72
536.288	12063.38
536.653	12080.56
537.019	12072.87
537.384	12121.69
537.749	12205.3
538.114	12228.35
538.479	12284.17
538.845	12303.15
539.21	12308.12
539.575	12415.46
539.94	12521.45
540.305	12549.7
540.67	12533.88
541.034	12712.41
541.399	12633.31
541.764	12687.77
542.129	12787.21
542.494	12748.56
542.858	12905.4
543.223	12939.29
543.587	12998.73
543.952	12959.86
544.316	13058.84
544.681	13103.13
545.045	13114.2
545.41	13130.25
545.774	13232.84
546.138	13251.37
546.503	13375.44
546.867	13311.26
547.231	13440.52
547.595	13521.42
547.959	13508.09
548.324	13511.93
548.688	13607.52
549.052	13664.7
549.416	13684.81
549.779	13702.21
550.143	13745.15
550.507	13832.6
550.871	13858.59
551.235	13884.35
551.599	14053.39
551.962	14050.22
552.326	14072.82
552.689	14195.98
553.053	14058.36
553.417	14105.59
553.78	14298.58
554.143	14284.79
554.507	14348.97
554.87	14433.04
555.234	14549.19
555.597	14429.65
555.96	14448.86
556.323	14555.3
556.686	14560.94
557.05	14709.64
557.413	14771.56
557.776	14773.37
558.139	14814.72
558.502	14887.49
558.865	14848.17
559.228	14953.48
559.59	15007.03
559.953	15098.11
560.316	15142.85
560.679	15151.21
561.041	15297.42
561.404	15370.87
561.767	15480.02
562.129	15398.21
562.492	15501.49
562.854	15582.39
563.217	15543.29
563.579	15569.73
563.941	15674.81
564.304	15701.71
564.666	15812.44
565.028	15807.69
565.39	15883.4
565.753	15907.58
566.115	15999.55
566.477	16087.23
566.839	16082.26
567.201	16309.37
567.563	16302.82
567.925	16477.5
568.287	16429.14
568.648	16444.96
569.01	16598.63
569.372	16617.84
569.734	16651.29
570.095	16705.75
570.457	16854.44
570.819	16761.56
571.18	16965.18
571.542	17013.54
571.903	17017.83
572.265	17083.36
572.626	17179.41
572.987	17235.9
573.349	17358.84
573.71	17395.22
574.071	17502.79
574.432	17675.21
574.794	17815.1
575.155	17778.04
575.516	17741.65
575.877	18038.82
576.238	18154.3
576.599	18221.87
576.96	18281.75
577.32	18364.69
577.681	18607.39
578.042	18676.32
578.403	18721.29
578.763	18865.69
579.124	19058.68
579.485	19243.99
579.845	19423.42
580.206	19538.89
580.566	19643.07
580.927	19754.03
581.287	20066.79
581.648	20053.68
582.008	20386.33
582.368	20397.4
582.728	20683.5
583.089	20798.29
583.449	20950.16
583.809	21197.38
584.169	21501.33
584.529	21484.6
584.889	21858.83
585.249	21896.8
585.609	22185.38
585.969	22408.2
586.329	22555.08
586.688	22820.61
587.048	23039.59
587.408	23218.8
587.768	23498.79
588.127	23785.11
588.487	23887.48
588.846	24386.22
589.206	24468.71
589.565	24699.44
589.925	24934.23
590.284	25089.48
590.643	25422.13
591.003	25783.7
591.362	26044.71
591.721	26171.71
592.08	26433.18
592.44	26739.61
592.799	27049.2
593.158	27251.91
593.517	27415.75
593.876	27792.24
594.235	27896.64
594.593	28333.24
594.952	28536.85
595.311	28619.33
595.67	29113.33
596.029	29365.53
596.387	29521.91
596.746	29818.4
597.104	29966.64
597.463	30254.09
597.822	30625.16
598.18	30691.14
598.538	30890.68
598.897	31349.66
599.255	31308.08
599.613	31976.08
599.972	31923.43
600.33	32257.2
600.688	32184.89
601.046	32532
601.404	33034.36
601.762	33073.23
602.12	33403.84
602.478	33463.27
602.836	33691.29
603.194	33777.84
603.552	33946.42
603.91	33995.01
604.268	34436.81
604.625	34621.21
604.983	34802.9
605.341	34759.51
605.698	35117.47
606.056	35429.32
606.413	35448.53
606.771	35830.67
607.128	35976.2
607.485	35993.6
607.843	36096.65
608.2	36570.08
608.557	36645.11
608.914	36702.74
609.272	37076.51
609.629	37114.93
609.986	37448.25
610.343	37333.45
610.7	37757.62
611.057	37829.94
611.414	37776.83
611.771	37977.05
612.127	38292.07
612.484	38515.8
612.841	38662.46
613.198	38563.7
613.554	38579.52
613.911	38963.24
614.267	39107.64
614.624	39247.98
614.98	39392.16
615.337	39668.76
615.693	39675.31
616.05	39680.96
616.406	40006.6
616.762	39865.36
617.118	40025.59
617.475	39990.78
617.831	40123.66
618.187	40422.41
618.543	40541.5
618.899	40668.28
619.255	40675.74
619.611	40779.46
619.967	40980.59
620.323	41187.36
620.678	41024.43
621.034	40981.72
621.39	40957.31
621.746	41151.43
622.101	41541.93
622.457	41271.43
622.812	41451.31
623.168	41596.62
623.523	41625.54
623.879	41726.11
624.234	41608.37
624.589	41715.94
624.945	41800.45
625.3	42023.95
625.655	42045.42
626.01	42014.91
626.365	42021.01
626.72	42138.3
627.075	42014.69
627.43	42171.52
627.785	42195.7
628.14	42183.5
628.495	42358.86
628.85	42165.19
629.205	41987.34
629.559	42371.06
629.914	42214.91
630.269	42242.25
630.623	42178.75
630.978	42210.61
631.332	42320.21
631.687	42486.31
632.041	42334.9
632.396	42404.05
632.75	42289.03
633.104	42419.2
633.459	42238.18
633.813	42297.16
634.167	42228.01
634.521	42360.44
634.875	42382.59
635.229	42424.39
635.583	42324.06
635.937	42222.59
636.291	42206.77
636.645	42344.62
636.999	42160.45
637.352	42319.09
637.706	42116.6
638.06	42366.09
638.413	42363.15
638.767	42157.96
639.121	42191.4
639.474	41982.14
639.828	42050.17
640.181	42134.46
640.534	42089.71
640.888	41948.7
641.241	41800.23
641.594	41891.98
641.947	42114.34
642.301	41903.95
642.654	41974.24
643.007	41899.44
643.36	41899.44
643.713	41890.17
644.066	41998.42
644.419	41875.03
644.771	41540.57
645.124	41317.3
645.477	41155.5
645.83	40949.18
646.182	40823.76
646.535	40749.18
646.888	40804.32
647.24	40496.31
647.593	40725.23
647.945	40673.03
648.298	40475.97
648.65	40581.96
649.002	40377.22
649.355	40587.83
649.707	40377.22
650.059	40603.2
650.411	41115.5
650.763	41215.16
651.115	41435.49
651.467	41468.49
651.819	41443.63
652.171	41474.81
652.523	41374.7
652.875	41226.68
653.227	41072.56
653.578	41440.24
653.93	41251.54
654.282	41130.42
654.633	41132.9
654.985	41314.59
655.337	41227.59
655.688	41218.32
656.039	41470.29
656.391	41071.66
656.742	41198.44
657.094	41211.09
657.445	41233.01
657.796	41077.99
658.147	41047.03
658.498	40938.78
658.849	41034.82
659.2	41018.78
659.551	40844.55
659.902	41153.01
660.253	40991.89
660.604	41028.27
660.955	40842.97
661.306	40935.62
661.656	40813.14
662.007	40865.11
662.358	40951.89
662.708	40863.98
663.059	40866.92
663.409	40774.27
663.76	40954.38
664.11	40979.91
664.461	40941.49
664.811	40958.89
665.161	40883.19
665.511	40729.3
665.862	40845.68
666.212	40896.3
666.562	40932.23
666.912	40674.16
667.262	40787.6
667.612	40786.24
667.962	40802.51
668.312	40825.11
668.662	40866.02
669.011	40879.35
669.361	40560.94
669.711	40707.83
670.06	40716.42
670.41	40738.79
670.76	40555.97
671.109	40777.88
671.459	40675.29
671.808	40641.84
672.157	40647.26
672.507	40489.08
672.856	40415.86
673.205	40586.02
673.554	40642.07
673.904	40448.85
674.253	40712.8
674.602	40605.91
674.951	39959.15
675.3	39854.07
675.649	40489.53
675.998	40320.04
676.346	40475.74
676.695	40480.49
677.044	40197.78
677.393	40292.02
677.741	40357.78
678.09	40256.54
678.438	40240.95
678.787	40204.34
679.135	40287.27
679.484	40047.96
679.832	40178.58
680.181	39886.61
680.529	40190.33
680.877	39885.48
681.225	39949.66
681.573	40202.08
681.922	39805.93
682.27	39699.49
682.618	39744.92
682.966	39553.51
683.314	39707.4
683.661	39645.03
684.009	39432.61
684.357	39413.4
684.705	39373.85
685.053	39351.25
685.4	39332.27
685.748	39121.88
686.095	39107.42
686.443	39009.12
686.79	38956.46
687.138	39062.67
687.485	38988.55
687.832	38956.69
688.18	38884.6
688.527	38613.19
688.874	38624.04
689.221	38638.73
689.568	38518.06
689.915	38495.68
690.262	38572.97
690.609	38265.63
690.956	38217.27
691.303	38147.9
691.65	37888.24
691.997	37881.46
692.344	37732.09
692.69	37688.7
693.037	37686.66
693.383	37396.5
693.73	37588.59
694.077	37494.81
694.423	37455.94
694.769	37315.37
695.116	37170.52
695.462	37097.3
695.808	37069.05
696.155	37043.07
696.501	36827.25
696.847	36889.17
697.193	36670.19
697.539	36673.13
697.885	36482.18
698.231	36496.19
698.577	36445.79
698.923	36353.37
699.269	36169.64
699.614	36009.65
699.96	36038.12
700.306	35964.22
700.651	35840.16
700.997	35689.43
701.342	35718.35
701.688	35515.87
702.033	35354.52
702.379	35395.2
702.724	35403.79
703.069	35286.73
703.415	35055.55
703.76	34985.94
704.105	34920.18
704.45	34923.12
704.795	34679.51
705.14	34504.15
705.485	34697.36
705.83	34453.08
706.175	34521.32
706.52	34324.72
706.865	34298.28
707.209	34219.86
707.554	34044.27
707.899	34182.12
708.243	34005.63
708.588	33821.91
708.932	33820.33
709.277	33780.33
709.621	33865.97
709.966	33658.07
710.31	33744.4
710.654	33347.12
710.998	33479.77
711.342	33398.42
711.687	33275.71
712.031	33055.6
712.375	33109.84
712.719	33097.41
713.063	33010.18
713.407	33115.71
713.75	32879.79
714.094	32873.23
714.438	32711.88
714.782	32784.87
715.125	32700.13
715.469	32703.97
715.812	32547.14
716.156	32346.47
716.499	32326.81
716.843	32489.96
717.186	32227.37
717.53	32475.28
717.873	32396.41
718.216	32290.42
718.559	32106.7
718.902	31888.4
719.246	31946.48
719.589	31768.63
719.932	31698.57
720.275	31811.11
720.617	31733.37
720.96	31579.03
721.303	31605.92
721.646	31496.32
721.989	31413.38
722.331	31616.99
722.674	31504
723.016	31403.44
723.359	31346.72
723.701	31436.89
724.044	31158.47
724.386	31045.03
724.729	31092.94
725.071	31166.16
725.413	31119.38
725.755	31113.73
726.097	30899.5
726.439	30795.77
726.782	30828.77
727.124	30955.77
727.465	30716.23
727.807	30689.33
728.149	30578.38
728.491	30577.7
728.833	30729.33
729.175	30559.62
729.516	30470.58
729.858	30363.02
730.199	30370.92
730.541	30385.39
730.882	30258.84
731.224	30526.17
731.565	30205.51
731.906	30176.35
732.248	30217.71
732.589	30040.54
732.93	29952.63
733.271	30030.59
733.612	29943.82
733.953	29939.75
734.294	29801.22
734.635	29755.12
734.976	29889.58
735.317	29650.72
735.658	29600.32
735.999	29762.8
736.339	29656.14
736.68	29694.56
737.021	29546.09
737.361	29498.41
737.702	29617.72
738.042	29479.42
738.383	29405.3
738.723	29453.21
739.063	29318.75
739.404	29451.85
739.744	29306.32
740.084	29101.35
740.424	29161.92
740.764	29144.29
741.104	29154.23
741.444	29013.9
741.784	28892.77
742.124	28970.96
742.464	28944.97
742.804	28863.17
743.143	28838.54
743.483	28832.66
743.823	28666.56
744.162	28673.12
744.502	28673.12
744.841	28574.36
745.181	28667.47
745.52	28644.19
745.86	28507.47
746.199	28504.31
746.538	28485.55
746.877	28460.47
747.216	28516.96
747.556	28360.58
747.895	28459.34
748.234	28346.8
748.573	28157.2
748.911	28106.8
749.25	28118.1
749.589	28026.35
749.928	28046.24
750.267	28072.45
750.605	27865.23
750.944	27846.47
751.283	27778
751.621	27836.75
751.96	27675.85
752.298	27698.45
752.636	27727.6
752.975	27527.61
753.313	27502.75
753.651	27581.39
753.989	27369.87
754.327	27377.11
754.666	27133.95
755.004	27220.95
755.342	27316.32
755.679	27195.19
756.017	27104.57
756.355	27088.3
756.693	26976.21
757.031	27035.19
757.368	26893.95
757.706	26663
