Data from hue_320_FLMS001491_6.txt Node
Date: Mon Feb 06 15:46:37 GMT 2017
User: dcchb
Spectrometer: FLMS00149
Trigger mode: 0
Integration Time (sec): 2.000000E-2
Scans to average: 10
Electric dark correction enabled: true
Nonlinearity correction enabled: false
Boxcar width: 0
XAxis mode: Wavelengths
Number of Pixels in Spectrum: 2048
>>>>>Begin Spectral Data<<<<<
341.393	-18.91
341.776	-18.91
342.16	-18.91
342.543	-38.35
342.927	-59.36
343.31	-65.24
343.693	-67.27
344.077	-79.93
344.46	-52.81
344.843	-54.84
345.226	-61.85
345.61	-26.6
345.993	-8.29
346.376	10.47
346.759	10.24
347.142	42.33
347.525	45.95
347.908	74.64
348.291	60.41
348.674	73.06
349.057	99.73
349.44	112.84
349.823	136.34
350.206	163
350.588	191.03
350.971	212.49
351.354	217.47
351.737	223.57
352.119	228.77
352.502	256.11
352.884	253.85
353.267	290.01
353.65	280.29
354.032	304.24
354.414	320.97
354.797	291.14
355.179	321.19
355.562	325.03
355.944	335.66
356.326	341.53
356.709	322.77
357.091	324.58
357.473	342.89
357.855	342.66
358.238	341.3
358.62	363
359.002	350.8
359.384	354.19
359.766	347.41
360.148	335.88
360.53	353.51
360.912	340.63
361.294	334.07
361.676	332.04
362.057	311.25
362.439	338.37
362.821	328.42
363.203	320.51
363.584	333.85
363.966	323.68
364.348	315.32
364.729	330.91
365.111	330.46
365.493	335.66
365.874	305.6
366.256	320.06
366.637	292.94
367.019	331.59
367.4	295.2
367.781	311.7
368.163	295.43
368.544	297.46
368.925	305.37
369.306	318.25
369.688	324.58
370.069	304.47
370.45	308.31
370.831	308.09
371.212	296.56
371.593	297.69
371.974	308.31
372.355	309.44
372.736	311.25
373.117	312.6
373.498	302.44
373.879	289.78
374.26	316.9
374.641	315.09
375.021	313.06
375.402	315.77
375.783	304.7
376.163	332.04
376.544	324.13
376.925	296.11
377.305	326.84
377.686	330.23
378.066	331.36
378.447	315.54
378.827	344.02
379.208	348.76
379.588	337.01
379.968	333.4
380.349	341.53
380.729	326.62
381.109	314.64
381.489	344.24
381.87	328.42
382.25	346.5
382.63	325.71
383.01	353.96
383.39	341.98
383.77	336.56
384.15	328.65
384.53	342.21
384.91	356.9
385.29	335.43
385.67	340.17
386.049	372.72
386.429	342.66
386.809	335.88
387.189	346.05
387.568	365.94
387.948	357.8
388.328	366.39
388.707	356.22
389.087	355.77
389.466	375.88
389.846	348.99
390.225	369.78
390.605	381.76
390.984	376.56
391.363	373.17
391.743	373.39
392.122	361.19
392.501	376.11
392.881	380.85
393.26	391.47
393.639	396.44
394.018	368.65
394.397	374.75
394.776	372.49
395.155	361.87
395.534	375.65
395.913	384.02
396.292	377.24
396.671	381.98
397.05	401.19
397.429	397.57
397.808	389.66
398.186	399.61
398.565	386.5
398.944	396.9
399.323	391.02
399.701	403.45
400.08	391.7
400.458	382.89
400.837	419.27
401.215	439.61
401.594	414.97
401.972	406.84
402.351	400.06
402.729	412.26
403.107	419.95
403.486	408.65
403.864	424.92
404.242	413.85
404.62	428.99
404.999	434.41
405.377	438.03
405.755	438.93
406.133	445.26
406.511	444.58
406.889	448.19
407.267	433.96
407.645	451.58
408.023	459.95
408.401	471.7
408.779	461.53
409.156	484.58
409.534	489.1
409.912	490.45
410.29	473.5
410.667	489.78
411.045	515.31
411.422	499.04
411.8	505.37
412.178	491.36
412.555	509.21
412.933	510.79
413.31	529.77
413.687	531.81
414.065	554.18
414.442	590.79
414.819	578.36
415.197	591.47
415.574	575.42
415.951	588.3
416.328	609.32
416.705	585.14
417.082	605.25
417.46	586.95
417.837	617.68
418.214	610.22
418.591	618.59
418.967	634.4
419.344	630.11
419.721	650.22
420.098	633.95
420.475	651.8
420.852	669.66
421.228	663.56
421.605	662.65
421.982	705.59
422.358	693.84
422.735	712.37
423.111	700.17
423.488	720.28
423.864	715.53
424.241	743.55
424.617	732.48
424.994	721.18
425.37	760.05
425.746	773.16
426.123	772.48
426.499	755.3
426.875	775.64
427.251	778.81
427.627	792.37
428.003	748.98
428.379	800.95
428.756	823.55
429.132	827.17
429.507	849.54
429.883	867.39
430.259	847.73
430.635	854.29
431.011	867.84
431.387	905.36
431.763	881.63
432.138	885.92
432.514	921.63
432.89	885.92
433.265	938.13
433.641	918.24
434.016	960.5
434.392	964.79
434.767	985.13
435.143	950.78
435.518	984
435.894	985.81
436.269	1014.73
436.644	1018.35
437.02	1028.29
437.395	1033.72
437.77	1053.83
438.145	1070.32
438.52	1054.73
438.895	1081.85
439.271	1071.68
439.646	1092.7
440.021	1127.95
440.395	1106.03
440.77	1096.09
441.145	1114.84
441.52	1130.21
441.895	1143.32
442.27	1141.74
442.645	1131.34
443.019	1144.9
443.394	1169.53
443.769	1155.52
444.143	1165.01
444.518	1160.04
444.892	1165.24
445.267	1173.83
445.641	1187.38
446.016	1162.75
446.39	1200.04
446.764	1207.95
447.139	1191
447.513	1208.17
447.887	1197.78
448.262	1204.11
448.636	1199.14
449.01	1218.8
449.384	1243.43
449.758	1219.7
450.132	1226.48
450.506	1233.26
450.88	1259.92
451.254	1226.93
451.628	1265.8
452.002	1257.66
452.376	1264.44
452.75	1262.86
453.123	1303.31
453.497	1299.25
453.871	1296.08
454.244	1340.83
454.618	1329.75
454.992	1349.41
455.365	1375.18
455.739	1379.47
456.112	1385.57
456.486	1416.98
456.859	1389.41
457.232	1424.89
457.606	1384.44
457.979	1419.47
458.352	1440.03
458.725	1442.07
459.099	1457.66
459.472	1458.11
459.845	1512.35
460.218	1485.23
460.591	1491.1
460.964	1528.39
461.337	1529.52
461.71	1539.92
462.083	1550.09
462.456	1554.38
462.829	1560.03
463.201	1628.5
463.574	1586.92
463.947	1581.05
464.32	1641.61
464.692	1649.52
465.065	1653.81
465.438	1642.06
465.81	1672.79
466.183	1677.99
466.555	1707.82
466.928	1734.94
467.3	1716.86
467.672	1742.4
468.045	1756.63
468.417	1798.44
468.789	1793.92
469.161	1799.57
469.534	1827.37
469.906	1836.41
470.278	1870.76
470.65	1873.92
471.022	1894.03
471.394	1937.42
471.766	1915.5
472.138	1964.09
472.51	2004.09
472.882	1993.92
473.253	2020.36
473.625	2051.99
473.997	2081.15
474.369	2077.98
474.74	2103.29
475.112	2091.54
475.484	2147.81
475.855	2186.45
476.227	2175.83
476.598	2276.85
476.97	2260.8
477.341	2283.85
477.713	2310.97
478.084	2291.99
478.455	2365.43
478.827	2382.38
479.198	2450.85
479.569	2433.23
479.94	2469.16
480.311	2520.68
480.682	2540.34
481.053	2559.33
481.424	2582.83
481.795	2638.19
482.166	2652.2
482.537	2665.99
482.908	2731.52
483.279	2716.84
483.65	2770.39
484.021	2815.36
484.391	2824.18
484.762	2865.76
485.133	2859.43
485.503	2905.3
485.874	2932.65
486.244	2973.55
486.615	3026.66
486.985	3055.36
487.356	3050.16
487.726	3133.1
488.097	3152.98
488.467	3164.51
488.837	3211.29
489.207	3235.01
489.578	3245.86
489.948	3311.85
490.318	3337.61
490.688	3312.07
491.058	3333.99
491.428	3392.07
491.798	3453.09
492.168	3517.49
492.538	3452.86
492.908	3508.68
493.278	3549.13
493.648	3534.21
494.017	3576.47
494.387	3598.85
494.757	3685.17
495.126	3690.6
495.496	3664.38
495.866	3690.6
496.235	3697.15
496.605	3775.34
496.974	3704.38
497.344	3779.63
497.713	3845.39
498.082	3849.23
498.452	3853.08
498.821	3867.77
499.19	3875.22
499.559	3942.79
499.928	3963.36
500.298	3973.75
500.667	4010.59
501.036	3998.16
501.405	4031.6
501.774	4015.33
502.143	4023.47
502.512	4071.38
502.88	4076.35
503.249	4110.47
503.618	4100.3
503.987	4112.05
504.356	4158.38
504.724	4146.18
505.093	4185.05
505.462	4199.96
505.83	4197.93
506.199	4232.5
506.567	4263.69
506.936	4306.17
507.304	4313.86
507.672	4319.73
508.041	4341.88
508.409	4314.53
508.777	4359.28
509.145	4360.63
509.514	4359.73
509.882	4420.07
510.25	4406.73
510.618	4400.86
510.986	4419.39
511.354	4407.41
511.722	4530.57
512.09	4512.95
512.458	4511.59
512.826	4531.25
513.193	4538.48
513.561	4523.34
513.929	4544.36
514.297	4568.09
514.664	4624.58
515.032	4595.43
515.4	4639.5
515.767	4660.74
516.135	4659.84
516.502	4599.95
516.869	4694.86
517.237	4727.4
517.604	4700.96
517.972	4676.78
518.339	4723.56
518.706	4719.04
519.073	4704.81
519.44	4747.74
519.808	4789.1
520.175	4804.46
520.542	4839.94
520.909	4852.6
521.276	4842.66
521.643	4896.67
522.009	4897.12
522.376	4878.81
522.743	4986.61
523.11	4957.68
523.477	4974.4
523.843	5036.32
524.21	5052.82
524.577	5091.24
524.943	5102.54
525.31	5084.91
525.676	5137.79
526.043	5126.72
526.409	5100.73
526.776	5235.19
527.142	5248.75
527.508	5263.44
527.874	5305.24
528.241	5337.11
528.607	5270.44
528.973	5336.2
529.339	5347.05
529.705	5408.06
530.071	5432.47
530.437	5483.32
530.803	5498.68
531.169	5556.99
531.535	5473.15
531.901	5521.73
532.267	5548.17
532.632	5523.32
532.998	5622.3
533.364	5586.36
533.73	5683.99
534.095	5697.32
534.461	5664.55
534.826	5728.51
535.192	5746.81
535.557	5728.73
535.923	5751.78
536.288	5800.37
536.653	5794.49
537.019	5825.23
537.384	5886.47
537.749	5896.64
538.114	5896.41
538.479	5920.59
538.845	5930.08
539.21	5935.96
539.575	5976.64
539.94	6008.95
540.305	6082.85
540.67	6029.29
541.034	6030.87
541.399	6105.9
541.764	6153.81
542.129	6116.97
542.494	6198.78
542.858	6248.27
543.223	6229.74
543.587	6314.03
543.952	6290.3
544.316	6318.77
544.681	6323.75
545.045	6339.56
545.41	6410.98
545.774	6436.96
546.138	6390.19
546.503	6451.65
546.867	6433.35
547.231	6505.44
547.595	6494.36
547.959	6554.7
548.324	6601.93
548.688	6579.56
549.052	6625.66
549.416	6641.7
549.779	6685.77
550.143	6680.35
550.507	6751.31
550.871	6728.48
551.235	6696.17
551.599	6767.8
551.962	6739.78
552.326	6848.7
552.689	6883.28
553.053	6848.25
553.417	6851.87
553.78	6950.62
554.143	6910.62
554.507	6939.55
554.87	6914.69
555.234	7062.48
555.597	6984.07
555.96	6998.98
556.323	7043.73
556.686	7050.51
557.05	7107.23
557.413	7116.27
557.776	7117.17
558.139	7210.28
558.502	7198.3
558.865	7193.78
559.228	7175.93
559.59	7283.27
559.953	7257.73
560.316	7289.6
560.679	7295.47
561.041	7349.93
561.404	7369.82
561.767	7427.22
562.129	7424.51
562.492	7455.24
562.854	7479.87
563.217	7519.42
563.579	7485.3
563.941	7535.01
564.304	7625.41
564.666	7566.88
565.028	7612.75
565.39	7638.97
565.753	7631.28
566.115	7664.5
566.477	7708.12
566.839	7696.82
567.201	7801
567.563	7712.41
567.925	7879.86
568.287	7834.21
568.648	7838.06
569.01	7894.1
569.372	8017.26
569.734	7950.37
570.095	8014.78
570.457	8063.59
570.819	8041.22
571.18	8080.31
571.542	8183.13
571.903	8168.44
572.265	8179.06
572.626	8287.08
572.987	8267.42
573.349	8361.43
573.71	8439.4
574.071	8485.95
574.432	8523.69
574.794	8569.34
575.155	8614.99
575.516	8689.33
575.877	8676
576.238	8813.17
576.599	8878.48
576.96	8935.2
577.32	9065.14
577.681	9064.92
578.042	9186.72
578.403	9283.22
578.763	9349.43
579.124	9384.68
579.485	9619.93
579.845	9655.64
580.206	9719.82
580.566	9866.48
580.927	9999.36
581.287	10080.03
581.648	10258.33
582.008	10430.76
582.368	10454.94
582.728	10750.75
583.089	10866.45
583.449	10994.81
583.809	11185.31
584.169	11308.47
584.529	11469.37
584.889	11777.61
585.249	11913.66
585.609	12079.08
585.969	12325.4
586.329	12549.12
586.688	12818.04
587.048	13085.83
587.408	13226.39
587.768	13490.11
588.127	13823.21
588.487	13963.32
588.846	14394.04
589.206	14516.3
589.565	14841.26
589.925	15154.25
590.284	15458.42
590.643	15691.18
591.003	15998.29
591.362	16319.42
591.721	16668.78
592.08	16934.31
592.44	17285.49
592.799	17603.45
593.158	17793.05
593.517	18113.94
593.876	18546.02
594.235	18719.58
594.593	19090.64
594.952	19432.1
595.311	19686.11
595.67	20012.65
596.029	20498.74
596.387	20892.85
596.746	21171.49
597.104	21379.17
597.463	21647.19
597.822	22138.7
598.18	22359.93
598.538	22767.61
598.897	23126.47
599.255	23143.42
599.613	23838.09
599.972	24011.64
600.33	24329.6
600.688	24611.85
601.046	25002.35
601.404	25414.09
601.762	25610.47
602.12	25938.82
602.478	26214.52
602.836	26615.19
603.194	26793.26
603.552	27182.63
603.91	27288.39
604.268	27867.81
604.625	27860.58
604.983	28407.91
605.341	28408.36
605.698	28846.77
606.056	29256.25
606.413	29382.35
606.771	29775.33
607.128	29968.32
607.485	30159.96
607.843	30351.59
608.2	30879.48
608.557	31116.99
608.914	31234.05
609.272	31637.88
609.629	31885.11
609.986	32182.28
610.343	32195.83
610.7	32677.18
611.057	32900.67
611.414	33003.95
611.771	33259.54
612.127	33640.09
612.484	33719.41
612.841	33965.73
613.198	34005.05
613.554	34263.58
613.911	34719.16
614.267	34774.3
614.624	34811.13
614.98	35008.19
615.337	35319.14
615.693	35534.05
616.05	35652.47
616.406	35908.96
616.762	36040.93
617.118	36248.16
617.475	36150.31
617.831	36480.02
618.187	36659.22
618.543	36775.37
618.899	37245.42
619.255	37265.98
619.611	37200.67
619.967	37533.55
620.323	37919.98
620.678	37644.05
621.034	37710.49
621.39	37959.3
621.746	37988.22
622.101	38546.85
622.457	38242.91
622.812	38467.53
623.168	38667.75
623.523	38756.34
623.879	38957.92
624.234	38673.86
624.589	38844.02
624.945	39030.91
625.3	39162.88
625.655	39284.69
626.01	39248.98
626.365	39500.5
626.72	39417.57
627.075	39434.29
627.43	39610.33
627.785	39613.72
628.14	39871.56
628.495	39799.25
628.85	39827.5
629.205	39807.84
629.559	40194.04
629.914	40040.83
630.269	39984.33
630.623	39967.16
630.978	39996.08
631.332	40182.97
631.687	40359.24
632.041	40066.14
632.396	40321.27
632.75	40227.49
633.104	40243.53
633.459	40178.45
633.813	40229.75
634.167	40184.32
634.521	40184.32
634.875	40304.1
635.229	40395.39
635.583	40164.89
635.937	40320.59
636.291	40286.47
636.645	40361.04
636.999	40234.94
637.352	40334.6
637.706	40110.65
638.06	40297.99
638.413	40251.22
638.767	40182.52
639.121	40305.68
639.474	40038.11
639.828	40123.31
640.181	40171.22
640.534	40238.79
640.888	40174.16
641.241	40000.37
641.594	40194.72
641.947	40236.75
642.301	40128.28
642.654	40240.14
643.007	40109.3
643.36	40174.38
643.713	40157.43
644.066	40210.09
644.419	39937.1
644.771	39806.71
645.124	39410.79
645.477	39366.27
645.83	39178.02
646.182	39092.15
646.535	39015.54
646.888	38945.04
647.24	38881.99
647.593	39125.82
647.945	39081.3
648.298	38861.87
648.65	38875.21
649.002	38672.05
649.355	38891.48
649.707	38789.79
650.059	38997.46
650.411	39535.98
650.763	39382.99
651.115	39871.11
651.467	39736.43
651.819	39759.48
652.171	39705.24
652.523	39640.61
652.875	39679.71
653.227	39456.21
653.578	39802.41
653.93	39656.88
654.282	39456.66
654.633	39398.58
654.985	39560.61
655.337	39585.47
655.688	39531.46
656.039	39634.96
656.391	39277.91
656.742	39451.46
657.094	39384.57
657.445	39636.99
657.796	39371.24
658.147	39425.47
658.498	39527.84
658.849	39537.11
659.2	39460.95
659.551	39316.55
659.902	39452.59
660.253	39371.69
660.604	39440.62
660.955	39116.33
661.306	39271.35
661.656	39203.33
662.007	39213.95
662.358	39257.57
662.708	39221.64
663.059	39312.48
663.409	38941.87
663.76	39328.08
664.11	39308.64
664.461	39338.7
664.811	39259.15
665.161	39279.26
665.511	39187.06
665.862	39112.49
666.212	39432.93
666.562	39192.26
666.912	39164.01
667.262	39202.43
667.612	39136.22
667.962	39305.03
668.312	39101.64
668.662	39224.8
669.011	39126.73
669.361	39148.42
669.711	39090.12
670.06	39159.94
670.41	39026.16
670.76	39055.31
671.109	39139.15
671.459	38980.51
671.808	39031.13
672.157	39124.47
672.507	38924.92
672.856	38824.81
673.205	38917.69
673.554	39115.2
673.904	38871.82
674.253	39126.95
674.602	39060.29
674.951	38487.65
675.3	38227.77
675.649	38851.03
675.998	38794.98
676.346	38858.26
676.695	38957.92
677.044	38484.71
677.393	38650.35
677.741	38703.46
678.09	38578.27
678.438	38540.98
678.787	38640.86
679.135	38563.12
679.484	38400.64
679.832	38536.68
680.181	38215.56
680.529	38516.35
680.877	38239.74
681.225	38344.37
681.573	38517.02
681.922	38150.93
682.27	38082.91
682.618	38164.94
682.966	38060.76
683.314	38066.41
683.661	38007.66
684.009	37840.43
684.357	37766.08
684.705	37773.77
685.053	37760.43
685.4	37767.67
685.748	37591.85
686.095	37489.25
686.443	37475.92
686.79	37369.71
687.138	37469.14
687.485	37310.95
687.832	37231.18
688.18	37369.94
688.527	37129.49
688.874	37180.11
689.221	37049.27
689.568	36994.58
689.915	36971.53
690.262	36834.36
690.609	36813.34
690.956	36730.18
691.303	36724.08
691.65	36367.7
691.997	36411.99
692.344	36242.06
692.69	36204.77
693.037	36288.16
693.383	35986.24
693.73	36163.64
694.077	35854.27
694.423	35912.57
694.769	35797.77
695.116	35754.16
695.462	35588.06
695.808	35582.64
696.155	35591.23
696.501	35270.1
696.847	35324.11
697.193	35076.44
697.539	35348.52
697.885	34926.84
698.231	34987.63
698.577	34900.85
698.923	34739.5
699.269	34701.08
699.614	34499.5
699.96	34415.21
700.306	34471.25
700.651	34301.09
700.997	34231.94
701.342	34062.9
701.688	34100.87
702.033	34007.76
702.379	33919.4
702.724	33904.49
703.069	33944.04
703.415	33534.56
703.76	33485.52
704.105	33528
704.45	33481.22
704.795	33255.24
705.14	33243.72
705.485	33188.35
705.83	33052.53
706.175	33093.21
706.52	32963.05
706.865	32792.88
707.209	32785.2
707.554	32694.13
707.899	32805.31
708.243	32644.18
708.588	32518.31
708.932	32427.01
709.277	32366.23
709.621	32354.93
709.966	32271.54
710.31	32187.47
710.654	32005.1
710.998	32048.27
711.342	32176.85
711.687	31970.08
712.031	31823.41
712.375	31675.85
712.719	31684.66
713.063	31606.92
713.407	31763.98
713.75	31596.98
714.094	31541.16
714.438	31437.21
714.782	31411
715.125	31185.24
715.469	31450.32
715.812	31133.72
716.156	31017.56
716.499	31094.39
716.843	31119.25
717.186	30891.69
717.53	31102.53
717.873	30935.53
718.216	30980.05
718.559	30828.64
718.902	30512.94
719.246	30737.57
719.589	30603.79
719.932	30443.34
720.275	30305.94
720.617	30382.55
720.96	30242.89
721.303	30352.72
721.646	30340.29
721.989	30145.72
722.331	30213.29
722.674	30125.61
723.016	30150.24
723.359	29994.99
723.701	30047.19
724.044	29763.58
724.386	29794.09
724.729	29822.34
725.071	29721.32
725.413	29731.94
725.755	29730.59
726.097	29631.38
726.439	29426.64
726.782	29467.54
727.124	29635.68
727.465	29438.39
727.807	29371.95
728.149	29295.8
728.491	29357.26
728.833	29215.35
729.175	29287.66
729.516	29196.14
729.858	29152.98
730.199	29094.45
730.541	29006.31
730.882	29004.51
731.224	29067.1
731.565	28821.69
731.906	28826.66
732.248	28853.32
732.589	28744.4
732.93	28614.69
733.271	28663.27
733.612	28585.53
733.953	28485.42
734.294	28454.46
734.635	28453.33
734.976	28474.35
735.317	28351.19
735.658	28450.4
735.999	28367.01
736.339	28211.08
736.68	28337.4
737.021	28230.97
737.361	28094.25
737.702	28296.05
738.042	28133.12
738.383	28101.25
738.723	28219.22
739.063	27987.81
739.404	28012.22
739.744	28006.11
740.084	27892.22
740.424	27942.84
740.764	27834.59
741.104	27877.98
741.444	27767.48
741.784	27672.11
742.124	27761.37
742.464	27633.02
742.804	27642.96
743.143	27482.06
743.483	27529.06
743.823	27440.71
744.162	27401.38
744.502	27453.36
744.841	27260.14
745.181	27397.99
745.52	27289.97
745.86	27253.82
746.199	27087.27
746.538	27133.59
746.877	27229.64
747.216	27122.3
747.556	27118.68
747.895	26977.21
748.234	26916.65
748.573	26881.4
748.911	26806.6
749.25	26800.5
749.589	26653.83
749.928	26680.73
750.267	26746.71
750.605	26562.99
750.944	26670.56
751.283	26508.07
751.621	26579.03
751.96	26392.82
752.298	26354.86
752.636	26443.9
752.975	26231.02
753.313	26179.27
753.651	26236.89
753.989	26063.57
754.327	26026.73
754.666	25922.78
755.004	26005.71
755.342	26066.5
755.679	25917.13
756.017	25802.33
756.355	25756.91
756.693	25753.07
757.031	25730.69
757.368	25639.4
757.706	25551.04
758.044	25453.86
758.381	25497.48
758.719	25421.78
759.056	25383.13
759.394	25338.84
