Data from hue_290_FLMS001491_00073.txt Node
Date: Tue Feb 07 15:53:12 GMT 2017
User: dcchb
Spectrometer: FLMS00149
Trigger mode: 0
Integration Time (sec): 2.000000E-2
Scans to average: 10
Electric dark correction enabled: true
Nonlinearity correction enabled: false
Boxcar width: 0
XAxis mode: Wavelengths
Number of Pixels in Spectrum: 2048
>>>>>Begin Spectral Data<<<<<
341.393	4.96
341.776	4.96
342.16	4.96
342.543	-56.51
342.927	-59.45
343.31	-68.03
343.693	-78.43
344.077	-53.35
344.46	-66.91
344.843	-44.31
345.226	-47.24
345.61	-37.3
345.993	-23.52
346.376	-7.25
346.759	14
347.142	28.91
347.525	49.48
347.908	63.71
348.291	96.71
348.674	72.75
349.057	100.77
349.44	142.13
349.823	152.3
350.206	167.44
350.588	198.62
350.971	193.88
351.354	213.54
351.737	235.01
352.119	247.44
352.502	247.89
352.884	254.67
353.267	259.19
353.65	286.76
354.032	284.5
354.414	299.19
354.797	300.77
355.179	326.08
355.562	303.25
355.944	333.31
356.326	333.08
356.709	334.44
357.091	326.08
357.473	328.11
357.855	343.71
358.238	343.48
358.62	334.67
359.002	331.73
359.384	326.3
359.766	330.37
360.148	331.05
360.53	331.95
360.912	328.56
361.294	325.18
361.676	330.37
362.057	338.51
362.439	336.7
362.821	325.18
363.203	329.92
363.584	315.46
363.966	307.32
364.348	326.76
364.729	335.57
365.111	321.79
365.493	329.47
365.874	325.85
366.256	326.53
366.637	319.75
367.019	321.11
367.4	332.86
367.781	333.99
368.163	314.78
368.544	315.23
368.925	320.66
369.306	303.71
369.688	310.49
370.069	312.07
370.45	319.98
370.831	291.28
371.212	326.98
371.593	308.68
371.974	314.55
372.355	330.15
372.736	318.17
373.117	322.46
373.498	339.41
373.879	331.28
374.26	304.38
374.641	315.23
375.021	331.5
375.402	311.16
375.783	311.39
376.163	318.4
376.544	332.18
376.925	306.42
377.305	307.1
377.686	329.69
378.066	315.68
378.447	332.18
378.827	346.19
379.208	315.68
379.588	343.93
379.968	345.74
380.349	350.94
380.729	329.92
381.109	325.85
381.489	313.88
381.87	324.72
382.25	319.07
382.63	336.7
383.01	321.56
383.39	331.05
383.77	327.21
384.15	346.42
384.53	332.18
384.91	341.45
385.29	336.7
385.67	357.04
386.049	369.92
386.429	329.24
386.809	384.38
387.189	360.88
387.568	362.01
387.948	383.25
388.328	350.26
388.707	350.26
389.087	356.59
389.466	369.69
389.846	359.3
390.225	360.88
390.605	358.39
390.984	387.55
391.363	375.57
391.743	361.33
392.122	368.34
392.501	352.52
392.881	376.7
393.26	388.45
393.639	384.83
394.018	393.2
394.397	361.56
394.776	395.68
395.155	379.86
395.534	385.96
395.913	386.19
396.292	390.26
396.671	412.4
397.05	395.91
397.429	395
397.808	404.5
398.186	387.77
398.565	411.5
398.944	404.04
399.323	371.28
399.701	388
400.08	417.38
400.458	418.28
400.837	446.98
401.215	414.44
401.594	416.02
401.972	427.32
402.351	425.06
402.729	422.8
403.107	432.97
403.486	406.53
403.864	442.46
404.242	430.26
404.62	446.53
404.999	450.82
405.377	459.86
405.755	463.48
406.133	451.27
406.511	467.77
406.889	439.52
407.267	465.06
407.645	482.46
408.023	484.04
408.401	493.76
408.779	489.46
409.156	514.55
409.534	498.73
409.912	492.18
410.29	482.91
410.667	509.13
411.045	526.53
411.422	531.72
411.8	536.92
412.178	554.77
412.555	590.7
412.933	566.52
413.31	591.38
413.687	595.45
414.065	577.37
414.442	587.09
414.819	591.83
415.197	607.88
415.574	604.94
415.951	607.2
416.328	654.66
416.705	638.39
417.082	648.78
417.46	649.23
417.837	655.79
418.214	649.91
418.591	668.89
418.967	671.61
419.344	687.88
419.721	683.81
420.098	674.54
420.475	712.51
420.852	712.06
421.228	752.28
421.605	731.27
421.982	741.89
422.358	761.55
422.735	766.29
423.111	765.16
423.488	802.9
423.864	809.68
424.241	781.43
424.617	823.69
424.994	809.46
425.37	818.5
425.746	825.73
426.123	824.14
426.499	829.12
426.875	838.16
427.251	875.9
427.627	889.91
428.003	915.22
428.379	913.18
428.756	901.88
429.132	929
429.507	917.48
429.883	933.97
430.259	966.29
430.635	972.84
431.011	954.76
431.387	987.3
431.763	994.99
432.138	1017.81
432.514	1010.13
432.89	1007.87
433.265	1037.92
433.641	1053.07
434.016	1085.38
434.392	1085.38
434.767	1103.91
435.143	1103.91
435.518	1117.02
435.894	1143.68
436.269	1167.19
436.644	1178.94
437.02	1189.33
437.395	1197.02
437.77	1203.34
438.145	1220.29
438.52	1222.78
438.895	1226.85
439.271	1241.54
439.646	1258.03
440.021	1279.05
440.395	1301.42
440.77	1306.39
441.145	1331.25
441.52	1312.27
441.895	1293.51
442.27	1314.08
442.645	1337.8
443.019	1367.86
443.394	1337.35
443.769	1354.98
444.143	1355.43
444.518	1379.84
444.892	1383
445.267	1383.9
445.641	1394.3
446.016	1396.11
446.39	1409.44
446.764	1412.38
447.139	1406.5
447.513	1417.8
447.887	1434.07
448.262	1406.73
448.636	1433.85
449.01	1437.69
449.384	1455.54
449.758	1472.94
450.132	1488.99
450.506	1472.94
450.88	1516.1
451.254	1476.33
451.628	1487.18
452.002	1532.15
452.376	1514.3
452.75	1558.81
453.123	1527.63
453.497	1583.22
453.871	1585.03
454.244	1611.24
454.618	1598.36
454.992	1606.27
455.365	1640.17
455.739	1671.58
456.112	1661.86
456.486	1665.7
456.859	1675.2
457.232	1715.2
457.606	1685.37
457.979	1718.58
458.352	1765.59
458.725	1740.28
459.099	1738.92
459.472	1798.81
459.845	1794.51
460.218	1794.51
460.591	1860.28
460.964	1853.72
461.337	1854.85
461.71	1858.24
462.083	1921.29
462.456	1868.86
462.829	1898.47
463.201	1913.16
463.574	1900.05
463.947	1929.88
464.32	1982.76
464.692	1996.09
465.065	2022.53
465.438	2037.9
465.81	2048.97
466.183	2046.49
466.555	2092.36
466.928	2128.07
467.3	2107.95
467.672	2113.15
468.045	2198.35
468.417	2185.24
468.789	2152.7
469.161	2171.68
469.534	2233.83
469.906	2220.27
470.278	2227.5
470.65	2276.08
471.022	2360.6
471.394	2331.22
471.766	2348.4
472.138	2355.86
472.51	2436.53
472.882	2458.9
473.253	2470.88
473.625	2502.97
473.997	2526.93
474.369	2577.09
474.74	2581.39
475.112	2592.46
475.484	2601.05
475.855	2655.74
476.227	2640.14
476.598	2716.3
476.97	2764.43
477.341	2785.45
477.713	2803.3
478.084	2832.68
478.455	2898.67
478.827	2925.78
479.198	2949.29
479.569	2959.23
479.94	3011.88
480.311	3032.9
480.682	3074.71
481.053	3133.24
481.424	3169.39
481.795	3206.23
482.166	3226.34
482.537	3228.38
482.908	3318.99
483.279	3357.64
483.65	3406
484.021	3422.95
484.391	3412.55
484.762	3473.79
485.133	3486.22
485.503	3529.61
485.874	3592.43
486.244	3580.46
486.615	3655.26
486.985	3678.99
487.356	3728.7
487.726	3791.07
488.097	3784.52
488.467	3842.14
488.837	3885.31
489.207	3912.43
489.578	3931.18
489.948	4008.47
490.318	4054.57
490.688	4037.17
491.058	4074.23
491.428	4133.44
491.798	4140.44
492.168	4226.77
492.538	4229.71
492.908	4236.71
493.278	4327.1
493.648	4270.16
494.017	4372.98
494.387	4366.65
494.757	4427.44
495.126	4435.8
495.496	4450.49
495.866	4469.7
496.235	4493.2
496.605	4509.7
496.974	4551.5
497.344	4588.34
497.713	4612.75
498.082	4635.12
498.452	4651.39
498.821	4684.83
499.19	4697.94
499.559	4700.65
499.928	4766.19
500.298	4801.44
500.667	4788.56
501.036	4793.08
501.405	4824.27
501.774	4837.6
502.143	4834.44
502.512	4860.65
502.88	4914.66
503.249	4889.35
503.618	4923.02
503.987	4927.09
504.356	4931.38
504.724	5010.02
505.093	4996.01
505.462	5015.22
505.83	5015.45
506.199	5036.69
506.567	5114.65
506.936	5115.56
507.304	5134.77
507.672	5121.21
508.041	5169.57
508.409	5219.74
508.777	5185.61
509.145	5236.68
509.514	5221.77
509.882	5281.43
510.25	5305.84
510.618	5259.28
510.986	5282.78
511.354	5337.92
511.722	5359.39
512.09	5384.03
512.458	5369.34
512.826	5399.84
513.193	5450.01
513.561	5426.51
513.929	5470.58
514.297	5474.19
514.664	5525.72
515.032	5582.44
515.4	5550.57
515.767	5549.44
516.135	5549.44
516.502	5518.03
516.869	5601.87
517.237	5598.71
517.604	5599.61
517.972	5668.99
518.339	5657.69
518.706	5654.53
519.073	5700.17
519.44	5672.15
519.808	5738.82
520.175	5720.97
520.542	5809.32
520.909	5793.51
521.276	5816.33
521.643	5836.44
522.009	5846.84
522.376	5845.48
522.743	5898.81
523.11	5930
523.477	5964.57
523.843	6005.48
524.21	5998.92
524.577	6088.41
524.943	6070.79
525.31	6142.65
525.676	6081.86
526.043	6143.78
526.409	6205.25
526.776	6248.64
527.142	6241.63
527.508	6255.64
527.874	6287.5
528.241	6255.64
528.607	6284.34
528.973	6392.59
529.339	6355.98
529.705	6357.78
530.071	6452.25
530.437	6458.8
530.803	6469.42
531.169	6501.06
531.535	6503.54
531.901	6523.66
532.267	6532.47
532.632	6602.3
532.998	6599.81
533.364	6610.89
533.73	6627.83
534.095	6690.66
534.461	6730.43
534.826	6693.6
535.192	6783.76
535.557	6795.06
535.923	6761.84
536.288	6804.33
536.653	6787.38
537.019	6849.75
537.384	6832.8
537.749	6843.87
538.114	6873.48
538.479	6868.28
538.845	6847.72
539.21	6893.82
539.575	6943.08
539.94	6952.12
540.305	6995.73
540.67	6971.78
541.034	7021.5
541.399	7089.29
541.764	7106.92
542.129	7076.41
542.494	7104.21
542.858	7143.53
543.223	7117.09
543.587	7202.96
543.952	7158.22
544.316	7216.29
544.681	7195.73
545.045	7234.37
545.41	7276.18
545.774	7316.86
546.138	7295.84
546.503	7249.29
546.867	7354.14
547.231	7405.89
547.595	7392.11
547.959	7409.06
548.324	7386.23
548.688	7412.9
549.052	7435.04
549.416	7442.05
549.779	7479.11
550.143	7459.45
550.507	7525.66
550.871	7558.21
551.235	7574.48
551.599	7555.27
551.962	7600.01
552.326	7572.44
552.689	7632.78
553.053	7606.34
553.417	7621.25
553.78	7679.78
554.143	7660.8
554.507	7654.7
554.87	7700.8
555.234	7744.64
555.597	7730.4
555.96	7768.6
556.323	7793.91
556.686	7811.76
557.05	7865.77
557.413	7818.76
557.776	7818.31
558.139	7868.25
558.502	7882.72
558.865	7852.43
559.228	7974.24
559.59	7924.52
559.953	7986.44
560.316	8009.49
560.679	8028.02
561.041	8040.9
561.404	8020.11
561.767	8121.35
562.129	8094.91
562.492	8173.78
562.854	8148.25
563.217	8213.78
563.579	8210.62
563.941	8233.89
564.304	8251.97
564.666	8302.59
565.028	8322.93
565.39	8298.52
565.753	8390.05
566.115	8371.97
566.477	8340.78
566.839	8441.57
567.201	8482.7
567.563	8536.48
567.925	8485.41
568.287	8606.31
568.648	8534.45
569.01	8596.14
569.372	8660.78
569.734	8607.44
570.095	8760.66
570.457	8720.21
570.819	8758.85
571.18	8804.27
571.542	8784.16
571.903	8787.78
572.265	8867.78
572.626	8855.12
572.987	8915.46
573.349	8948.9
573.71	9010.6
574.071	8977.6
574.432	9084.72
574.794	9160.42
575.155	9157.26
575.516	9259.4
575.877	9298.72
576.238	9271.38
576.599	9352.28
576.96	9438.38
577.32	9505.95
577.681	9557.93
578.042	9633.18
578.403	9580.07
578.763	9649
579.124	9748.66
579.485	9810.12
579.845	9898.03
580.206	9857.58
580.566	9958.14
580.927	10003.11
581.287	10135.09
581.648	10185.48
582.008	10335.31
582.368	10422.08
582.728	10460.5
583.089	10561.74
583.449	10629.54
583.809	10695.75
584.169	10873.6
584.529	10917.89
584.889	11086.7
585.249	11107.04
585.609	11159.92
585.969	11380.93
586.329	11411.66
586.688	11617.53
587.048	11688.04
587.408	11849.17
587.768	11909.28
588.127	12053.91
588.487	12141.36
588.846	12309.04
589.206	12447.12
589.565	12571.41
589.925	12646.88
590.284	12864.28
590.643	13005.52
591.003	13093.88
591.362	13262.01
591.721	13381.1
592.08	13445.96
592.44	13605.05
592.799	13773.64
593.158	13912.61
593.517	14020.63
593.876	14195.32
594.235	14312.38
594.593	14412.94
594.952	14593.73
595.311	14711.92
595.67	14831.91
596.029	15129.31
596.387	15188.06
596.746	15383.31
597.104	15401.16
597.463	15500.37
597.822	15731.78
598.18	15716.18
598.538	15916.63
598.897	16027.14
599.255	16016.29
599.613	16398.65
599.972	16335.38
600.33	16545.99
600.688	16633.45
601.046	16745.08
601.404	16896.94
601.762	17068.01
602.12	17110.27
602.478	17294.45
602.836	17281.11
603.194	17272.3
603.552	17486.98
603.91	17498.73
604.268	17682.01
604.625	17693.98
604.983	17990.25
605.341	17727.88
605.698	17995.44
606.056	18100.3
606.413	18238.6
606.771	18350.01
607.128	18393.17
607.485	18444.92
607.843	18569.89
608.2	18758.81
608.557	18862.99
608.914	18766.72
609.272	18960.62
609.629	19098.01
609.986	19128.52
610.343	19028.86
610.7	19461.85
611.057	19378.69
611.414	19444.9
611.771	19507.04
612.127	19653.93
612.484	19689.86
612.841	19721.28
613.198	19699.58
613.554	19795.17
613.911	19910.2
614.267	20025.67
614.624	19962.62
614.98	20097.08
615.337	20247.82
615.693	20227.48
616.05	20286.46
616.406	20391.31
616.762	20293.92
617.118	20422.27
617.475	20606.9
617.831	20623.4
618.187	20542.27
618.543	20579.78
618.899	20786.56
619.255	20770.74
619.611	20814.35
619.967	20935.93
620.323	20958.53
620.678	20954.92
621.034	20864.97
621.39	20934.58
621.746	21047.12
622.101	21197.85
622.457	21015.7
622.812	21166.66
623.168	21257.96
623.523	21294.79
623.879	21392.87
624.234	21163.5
624.589	21258.18
624.945	21326.66
625.3	21316.94
625.655	21346.77
626.01	21266.09
626.365	21482.81
626.72	21377.05
627.075	21410.27
627.43	21414.56
627.785	21410.27
628.14	21451.85
628.495	21507.22
628.85	21475.58
629.205	21504.05
629.559	21577.72
629.914	21332.08
630.269	21592.86
630.623	21402.59
630.978	21405.07
631.332	21513.77
631.687	21552.19
632.041	21454.79
632.396	21563.71
632.75	21433.32
633.104	21486.2
633.459	21330.5
633.813	21384.28
634.167	21324.62
634.521	21407.33
634.875	21354
635.229	21476.94
635.583	21270.61
635.937	21350.84
636.291	21316.94
636.645	21398.97
636.999	21269.71
637.352	21367.11
637.706	21200.11
638.06	21374.57
638.413	21274.68
638.767	21294.12
639.121	21274
639.474	21201.69
639.828	21184.51
640.181	21219.09
640.534	21175.47
640.888	21062.26
641.241	20993.33
641.594	21129.6
641.947	21243.95
642.301	21077.85
642.654	21124.4
643.007	21093.67
643.36	21044.18
643.713	21058.87
644.066	21110.39
644.419	21042.14
644.771	20877.4
645.124	20766.45
645.477	20711.31
645.83	20615.49
646.182	20518.54
646.535	20469.5
646.888	20558.32
647.24	20457.53
647.593	20583.17
647.945	20405.1
648.298	20415.72
648.65	20323.75
649.002	20332.78
649.355	20528.49
649.707	20432.44
650.059	20449.17
650.411	20773
650.763	20856.61
651.115	21005.31
651.467	20829.27
651.819	20907.01
652.171	20893.22
652.523	20868.36
652.875	20889.83
653.227	20860.45
653.578	20992.65
653.93	20942.49
654.282	20806.22
654.633	20851.19
654.985	20953.11
655.337	20876.05
655.688	20936.38
656.039	20998.98
656.391	20848.25
656.742	20842.38
657.094	20982.26
657.445	20942.03
657.796	20992.2
658.147	20923.73
658.498	20980.45
658.849	20967.8
659.2	20928.02
659.551	20818.2
659.902	20957.63
660.253	20939.32
660.604	20970.73
660.955	20942.94
661.306	21022.26
661.656	20903.17
662.007	20996.5
662.358	20932.32
662.708	21025.65
663.059	20972.32
663.409	20845.31
663.76	20944.75
664.11	20946.1
664.461	21019.55
664.811	21091.86
665.161	21061.8
665.511	20903.62
665.862	21027.91
666.212	21020.9
666.562	20987
666.912	20972.32
667.262	20951.75
667.612	20951.53
667.962	20906.55
668.312	21008.47
668.662	21099.32
669.011	20985.42
669.361	20856.16
669.711	20939.77
670.06	20880.79
670.41	20882.6
670.76	20892.77
671.109	20923.05
671.459	20965.76
671.808	20843.28
672.157	21012.54
672.507	20791.98
672.856	20775.48
673.205	20801.92
673.554	20941.13
673.904	20841.25
674.253	20937.06
674.602	20781.81
674.951	20504.31
675.3	20425.44
675.649	20737.29
675.998	20763.06
676.346	20646.67
676.695	20834.47
677.044	20707.69
677.393	20731.64
677.741	20736.39
678.09	20700.68
678.438	20561.71
678.787	20620.23
679.135	20598.77
679.484	20492.33
679.832	20621.82
680.181	20376.63
680.529	20560.35
680.877	20395.38
681.225	20463.63
681.573	20542.04
681.922	20245.78
682.27	20287.59
682.618	20275.84
682.966	20286.01
683.314	20232.9
683.661	20105.45
684.009	20150.64
684.357	19952.91
684.705	19992.45
685.053	20016.63
685.4	19979.57
685.748	19808.5
686.095	19860.71
686.443	19892.8
686.79	19788.62
687.138	19865
687.485	19834.72
687.832	19633.14
688.18	19653.48
688.527	19632.46
688.874	19659.81
689.221	19512.47
689.568	19434.5
689.915	19418.46
690.262	19425.01
690.609	19417.78
690.956	19318.8
691.303	19177.33
691.65	19194.74
691.997	19180.72
692.344	19121.29
692.69	18999.49
693.037	18979.83
693.383	18831.13
693.73	18907.96
694.077	18782.77
694.423	18752.04
694.769	18673.62
695.116	18706.61
695.462	18544.13
695.808	18599.72
696.155	18500.52
696.501	18448.77
696.847	18370.58
697.193	18270.69
697.539	18331.26
697.885	18169.68
698.231	18090.36
698.577	18129.9
698.923	18069.57
699.269	18049
699.614	17894.88
699.96	17838.16
700.306	17870.25
700.651	17676.13
700.997	17673.19
701.342	17697.83
701.688	17629.8
702.033	17602.23
702.379	17499.41
702.724	17386.42
703.069	17464.39
703.415	17243.6
703.76	17241.11
704.105	17230.72
704.45	17189.59
704.795	17012.65
705.14	16929.26
705.485	16929.48
705.83	16936.04
706.175	16912.31
706.52	16893.78
706.865	16901.46
707.209	16869.15
707.554	16700.56
707.899	16736.49
708.243	16732.65
708.588	16645.88
708.932	16457.18
709.277	16498.76
709.621	16497.18
709.966	16406.33
710.31	16355.04
710.654	16208.83
710.998	16221.48
711.342	16211.76
711.687	16181.71
712.031	16147.58
712.375	16094.7
712.719	16099.45
713.063	16052.22
713.407	16062.16
713.75	15988.04
714.094	15890.19
714.438	15894.03
714.782	15856.97
715.125	15794.15
715.469	15801.15
715.812	15795.73
716.156	15687.26
716.499	15708.05
716.843	15680.25
717.186	15600.93
717.53	15710.53
717.873	15698.56
718.216	15684.55
718.559	15478.9
718.902	15385.8
719.246	15551.67
719.589	15472.8
719.932	15406.13
720.275	15419.24
720.617	15391.22
720.96	15383.08
721.303	15503.53
721.646	15343.99
721.989	15379.92
722.331	15297.21
722.674	15310.54
723.016	15306.48
723.359	15265.35
723.701	15313.71
724.044	15142.64
724.386	15130.21
724.729	15233.03
725.071	15125.69
725.413	15116.65
725.755	15043.66
726.097	15076.88
726.439	15045.47
726.782	15059.48
727.124	15182.64
727.465	15056.77
727.807	15031.46
728.149	14971.12
728.491	14964.11
728.833	14932.25
729.175	14946.26
729.516	14855.64
729.858	14998.69
730.199	14951.01
730.541	14965.24
730.882	14844.12
731.224	14890.44
731.565	14873.04
731.906	14828.52
732.248	14819.26
732.589	14800.73
732.93	14764.34
733.271	14772.48
733.612	14779.71
733.953	14940.38
734.294	14772.93
734.635	14773.38
734.976	14806.83
735.317	14781.97
735.658	14819.48
735.999	14844.79
736.339	14762.76
736.68	14740.84
737.021	14786.49
737.361	14695.19
737.702	14924.11
738.042	14871.69
738.383	14790.56
738.723	14790.11
739.063	14845.7
739.404	14879.37
739.744	14862.65
740.084	14806.38
740.424	14783.78
740.764	14744.68
741.104	14915.07
741.444	14839.14
741.784	14857.9
742.124	14834.4
742.464	14839.14
742.804	14778.81
743.143	14893.15
743.483	14916.66
743.823	14796.66
744.162	14989.42
744.502	15033.71
744.841	14996.88
745.181	15072.81
745.52	15052.92
745.86	15150.32
746.199	15179.47
746.538	15175.41
746.877	15232.35
747.216	15221.96
747.556	15356.87
747.895	15341.73
748.234	15294.05
748.573	15399.13
748.911	15378.79
749.25	15532.46
749.589	15587.15
749.928	15687.71
750.267	15713.92
750.605	15771.32
750.944	15774.26
751.283	15878.66
751.621	15939.45
751.96	15889.29
752.298	16091.31
752.636	16193.68
752.975	16224.87
753.313	16273.23
753.651	16356.62
753.989	16454.24
754.327	16533.56
754.666	16643.16
755.004	16656.95
755.342	16987.11
755.679	16962.03
756.017	16993.66
756.355	17178.74
756.693	17207.89
757.031	17345.52
757.368	17387.33
757.706	17499.86
758.044	17603.36
758.381	17710.03
758.719	17735.79
759.056	17830.03
759.394	18005.16
759.731	17985.28
