Data from hue_00_FLMS001491_42.txt Node
Date: Mon Feb 06 15:29:45 GMT 2017
User: dcchb
Spectrometer: FLMS00149
Trigger mode: 0
Integration Time (sec): 2.000000E-2
Scans to average: 10
Electric dark correction enabled: true
Nonlinearity correction enabled: false
Boxcar width: 0
XAxis mode: Wavelengths
Number of Pixels in Spectrum: 2048
>>>>>Begin Spectral Data<<<<<
341.393	-11.26
341.776	-11.26
342.16	-11.26
342.543	-68.2
342.927	-72.95
343.31	-58.71
343.693	-86.51
344.077	-73.63
344.46	-64.59
344.843	-45.15
345.226	-37.47
345.61	-35.21
345.993	-16.23
346.376	-19.17
346.759	25.8
347.142	17.44
347.525	29.42
347.908	62.19
348.291	97.21
348.674	82.07
349.057	122.53
349.44	125.01
349.823	174.95
350.206	148.06
350.588	192.58
350.971	204.78
351.354	221.96
351.737	239.13
352.119	243.88
352.502	258.34
352.884	283.88
353.267	283.2
353.65	297.44
354.032	290.2
354.414	303.76
354.797	307.6
355.179	303.31
355.562	321.62
355.944	335.17
356.326	333.82
356.709	321.62
357.091	308.51
357.473	348.28
357.855	329.75
358.238	335.63
358.62	342.41
359.002	346.02
359.384	351.22
359.766	322.52
360.148	336.3
360.53	339.69
360.912	320.26
361.294	333.14
361.676	326.81
362.057	347.83
362.439	329.98
362.821	336.98
363.203	310.77
363.584	329.53
363.966	327.94
364.348	315.97
364.729	323.42
365.111	302.86
365.493	312.8
365.874	296.08
366.256	306.93
366.637	309.64
367.019	302.41
367.4	311.45
367.781	296.31
368.163	314.16
368.544	291.33
368.925	310.32
369.306	323.65
369.688	306.93
370.069	297.21
370.45	297.44
370.831	292.46
371.212	296.76
371.593	307.83
371.974	310.09
372.355	305.12
372.736	330.66
373.117	314.84
373.498	312.12
373.879	301.5
374.26	318.45
374.641	315.97
375.021	334.5
375.402	319.58
375.783	311.45
376.163	303.99
376.544	308.28
376.925	340.15
377.305	324.1
377.686	316.87
378.066	304.89
378.447	346.25
378.827	328.62
379.208	319.13
379.588	306.47
379.968	309.19
380.349	322.75
380.729	338.34
381.109	327.94
381.489	325.23
381.87	320.26
382.25	331.11
382.63	318.23
383.01	327.49
383.39	325.46
383.77	336.98
384.15	342.63
384.53	326.59
384.91	345.34
385.29	337.43
385.67	360.03
386.049	353.93
386.429	347.15
386.809	347.15
387.189	344.89
387.568	342.41
387.948	328.62
388.328	357.1
388.707	352.12
389.087	357.77
389.466	369.07
389.846	353.71
390.225	358.45
390.605	361.61
390.984	362.74
391.363	330.43
391.743	339.69
392.122	358.23
392.501	361.84
392.881	359.58
393.26	358.68
393.639	388.05
394.018	337.66
394.397	360.71
394.776	343.31
395.155	374.04
395.534	371.11
395.913	358.68
396.292	370.65
396.671	376.98
397.05	379.47
397.429	372.69
397.808	383.08
398.186	392.12
398.565	371.78
398.944	360.03
399.323	375.63
399.701	365.68
400.08	371.33
400.458	375.17
400.837	382.18
401.215	381.95
401.594	390.54
401.972	407.26
402.351	377.21
402.729	392.57
403.107	390.54
403.486	408.39
403.864	385.12
404.242	407.26
404.62	400.71
404.999	389.64
405.377	412.23
405.755	395.74
406.133	411.56
406.511	422.63
406.889	409.98
407.267	416.3
407.645	414.27
408.023	426.02
408.401	416.3
408.779	428.05
409.156	428.73
409.534	432.8
409.912	427.15
410.29	447.26
410.667	448.62
411.045	442.74
411.422	444.78
411.8	426.25
412.178	445.91
412.555	431.67
412.933	447.49
413.31	464.66
413.687	466.47
414.065	471.89
414.442	441.39
414.819	449.75
415.197	474.38
415.574	471.22
415.951	483.87
416.328	455.4
416.705	467.37
417.082	506.02
417.46	465.11
417.837	485.68
418.214	478.22
418.591	483.19
418.967	500.37
419.344	491.1
419.721	487.49
420.098	509.63
420.475	504.89
420.852	488.17
421.228	520.25
421.605	520.03
421.982	485.45
422.358	510.76
422.735	524.1
423.111	535.62
423.488	530.42
423.864	537.88
424.241	542.18
424.617	524.77
424.994	542.63
425.37	511.22
425.746	549.86
426.123	547.6
426.499	564.32
426.875	552.34
427.251	567.49
427.627	569.29
428.003	562.97
428.379	568.84
428.756	567.94
429.132	583.3
429.507	599.57
429.883	583.3
430.259	612.91
430.635	596.18
431.011	605.22
431.387	608.84
431.763	624.43
432.138	608.61
432.514	633.02
432.89	624.88
433.265	624.43
433.641	626.24
434.016	645.22
434.392	634.6
434.767	669.18
435.143	647.93
435.518	671.66
435.894	669.86
436.269	681.38
436.644	692.91
437.02	681.15
437.395	704.66
437.77	685.67
438.145	710.98
438.52	683.19
438.895	708.5
439.271	710.76
439.646	706.01
440.021	718.89
440.395	736.52
440.77	727.48
441.145	711.89
441.52	725
441.895	737.65
442.27	762.51
442.645	771.77
443.019	768.38
443.394	745.79
443.769	762.96
444.143	757.76
444.518	768.84
444.892	757.54
445.267	768.84
445.641	791.21
446.016	796.86
446.39	793.69
446.764	786.24
447.139	784.88
447.513	800.25
447.887	789.4
448.262	783.75
448.636	786.91
449.01	828.72
449.384	817.87
449.758	824.2
450.132	812.45
450.506	850.64
450.88	830.53
451.254	810.87
451.628	833.01
452.002	838.66
452.376	872.56
452.75	847.03
453.123	866.91
453.497	880.25
453.871	863.52
454.244	862.39
454.618	905.33
454.992	895.39
455.365	903.3
455.739	950.3
456.112	913.46
456.486	919.11
456.859	948.49
457.232	932.45
457.606	969.73
457.979	953.01
458.352	978.55
458.725	976.51
459.099	996.17
459.472	970.19
459.845	998.43
460.218	1018.77
460.591	1003.18
460.964	1025.55
461.337	1021.26
461.71	1053.57
462.083	1096.28
462.456	1073.01
462.829	1055.16
463.201	1088.6
463.574	1084.53
463.947	1114.36
464.32	1126.79
464.692	1157.07
465.065	1135.38
465.438	1163.4
465.81	1186.9
466.183	1168.37
466.555	1203.17
466.928	1207.69
467.3	1197.98
467.672	1209.73
468.045	1255.38
468.417	1265.09
468.789	1260.12
469.161	1284.08
469.534	1278.88
469.906	1311.42
470.278	1327.24
470.65	1376.96
471.022	1368.82
471.394	1395.26
471.766	1388.71
472.138	1431.42
472.51	1439.33
472.882	1465.99
473.253	1492.21
473.625	1491.98
473.997	1498.31
474.369	1555.26
474.74	1579.21
475.112	1577.85
475.484	1609.72
475.855	1654.01
476.227	1664.86
476.598	1699.21
476.97	1724.52
477.341	1776.94
477.713	1773.33
478.084	1791.41
478.455	1843.38
478.827	1870.28
479.198	1886.09
479.569	1894
479.94	1989.59
480.311	1988.46
480.682	2016.03
481.053	2085.41
481.424	2086.09
481.795	2139.42
482.166	2168.35
482.537	2196.82
482.908	2229.14
483.279	2291.06
483.65	2299.42
484.021	2354.1
484.391	2346.42
484.762	2376.03
485.133	2433.88
485.503	2464.61
485.874	2535.12
486.244	2559.98
486.615	2592.06
486.985	2656.02
487.356	2684.04
487.726	2687.43
488.097	2763.36
488.467	2762.68
488.837	2848.78
489.207	2854.2
489.578	2911.15
489.948	2936.91
490.318	2984.14
490.688	3031.83
491.058	3050.13
491.428	3088.55
491.798	3125.38
492.168	3198.83
492.538	3193.4
492.908	3234.08
493.278	3258.94
493.648	3309.56
494.017	3322.89
494.387	3335.1
494.757	3399.73
495.126	3422.55
495.496	3452.83
495.866	3469.78
496.235	3527.86
496.605	3536.22
496.974	3559.27
497.344	3612.15
497.713	3641.3
498.082	3645.6
498.452	3667.06
498.821	3746.84
499.19	3728.98
499.559	3739.15
499.928	3812.37
500.298	3824.57
500.667	3843.11
501.036	3835.2
501.405	3852.6
501.774	3882.43
502.143	3898.92
502.512	3901.18
502.88	3980.28
503.249	3985.25
503.618	3949.09
503.987	4034.29
504.356	4030.22
504.724	3988.86
505.093	4058.24
505.462	4104.57
505.83	4106.38
506.199	4147.73
506.567	4168.75
506.936	4176.43
507.304	4274.51
507.672	4215.75
508.041	4284.68
508.409	4267.73
508.777	4286.48
509.145	4335.52
509.514	4310.89
509.882	4389.53
510.25	4406.71
510.618	4404.67
510.986	4395.63
511.354	4436.08
511.722	4426.14
512.09	4464.33
512.458	4480.15
512.826	4502.97
513.193	4526.03
513.561	4507.27
513.929	4568.96
514.297	4593.37
514.664	4606.47
515.032	4602.41
515.4	4628.4
515.767	4671.11
516.135	4662.74
516.502	4659.81
516.869	4721.5
517.237	4705.23
517.604	4706.59
517.972	4771.89
518.339	4735.51
518.706	4716.53
519.073	4792.91
519.44	4770.99
519.808	4839.92
520.175	4791.33
520.542	4880.14
520.909	4880.82
521.276	4913.13
521.643	4969.4
522.009	4960.82
522.376	4975.73
522.743	4959.69
523.11	5033.58
523.477	5088.95
523.843	5079.68
524.21	5097.54
524.577	5168.95
524.943	5171.66
525.31	5206.69
525.676	5189.28
526.043	5218.21
526.409	5261.37
526.776	5263.18
527.142	5304.08
527.508	5360.13
527.874	5364.42
528.241	5391.77
528.607	5440.58
528.973	5442.84
529.339	5460.46
529.705	5491.65
530.071	5514.93
530.437	5609.61
530.803	5574.36
531.169	5631.98
531.535	5653
531.901	5657.97
532.267	5681.47
532.632	5700.68
532.998	5727.58
533.364	5777.74
533.73	5767.12
534.095	5802.83
534.461	5828.59
534.826	5862.71
535.192	5854.8
535.557	5912.43
535.923	5889.15
536.288	5970.51
536.653	6001.69
537.019	5949.04
537.384	5995.36
537.749	6060
538.114	6041.69
538.479	6086.21
538.845	6086.66
539.21	6101.58
539.575	6146.77
539.94	6169.37
540.305	6216.15
540.67	6230.16
541.034	6183.83
541.399	6242.14
541.764	6257.5
542.129	6274
542.494	6321.46
542.858	6331.4
543.223	6339.76
543.587	6423.6
543.952	6401.91
544.316	6488.46
544.681	6453.88
545.045	6433.55
545.41	6504.28
545.774	6513.77
546.138	6537.27
546.503	6577.04
546.867	6618.63
547.231	6666.31
547.595	6685.97
547.959	6618.17
548.324	6794.67
548.688	6723.26
549.052	6742.01
549.416	6762.12
549.779	6763.48
550.143	6797.38
550.507	6790.6
550.871	6841.22
551.235	6907.66
551.599	6909.24
551.962	6914.66
552.326	6920.99
552.689	6951.27
553.053	6918.28
553.417	7036.69
553.78	7076.24
554.143	7036.02
554.507	7077.82
554.87	7069.24
555.234	7171.61
555.597	7112.17
555.96	7200.76
556.323	7179.06
556.686	7218.61
557.05	7286.18
557.413	7223.36
557.776	7265.39
558.139	7325.27
558.502	7300.19
558.865	7333.63
559.228	7409.57
559.59	7389.9
559.953	7442.33
560.316	7475.33
560.679	7461.09
561.041	7521.65
561.404	7557.81
561.767	7604.59
562.129	7603.68
562.492	7681.2
562.854	7696.79
563.217	7675.32
563.579	7696.56
563.941	7740.86
564.304	7780.85
564.666	7842.77
565.028	7798.71
565.39	7808.2
565.753	7880.74
566.115	7915.99
566.477	7875.54
566.839	7884.13
567.201	7973.84
567.563	7978.82
567.925	8033.96
568.287	8095.42
568.648	8075.99
569.01	8162.31
569.372	8192.14
569.734	8178.58
570.095	8221.52
570.457	8231.69
570.819	8275.98
571.18	8301.52
571.542	8349.65
571.903	8414.51
572.265	8415.87
572.626	8502.64
572.987	8498.35
573.349	8528.86
573.71	8656.99
574.071	8650.89
574.432	8705.8
574.794	8795.97
575.155	8798.91
575.516	8795.97
575.877	8882.29
576.238	8954.38
576.599	8937.21
576.96	9092.23
577.32	9082.74
577.681	9150.54
578.042	9283.87
578.403	9372.68
578.763	9471.21
579.124	9477.31
579.485	9691.09
579.845	9745.1
580.206	9851.08
580.566	9884.75
580.927	10055.6
581.287	10097.86
581.648	10272.99
582.008	10399.99
582.368	10554.57
582.728	10687.9
583.089	10744.84
583.449	10963.6
583.809	11117.04
584.169	11283.81
584.529	11383.92
584.889	11645.16
585.249	11684.25
585.609	11889
585.969	12129.89
586.329	12270.68
586.688	12582.54
587.048	12767.62
587.408	12935.07
587.768	13080.38
588.127	13361.05
588.487	13618.44
588.846	13779.57
589.206	13965.78
589.565	14194.02
589.925	14509.94
590.284	14675.59
590.643	14882.81
591.003	15260.66
591.362	15450.48
591.721	15744.04
592.08	15959.17
592.44	16308.77
592.799	16563.45
593.158	16752.6
593.517	17057.45
593.876	17367.04
594.235	17567.72
594.593	17897.65
594.952	18296.51
595.311	18420.8
595.67	18801.58
596.029	19131.29
596.387	19391.62
596.746	19695.34
597.104	19896.47
597.463	20212.62
597.822	20519.73
598.18	20810.57
598.538	21100.05
598.897	21425.92
599.255	21568.97
599.613	22153.81
599.972	22320.13
600.33	22496.17
600.688	22754.25
601.046	23059.55
601.404	23458.63
601.762	23581.8
602.12	23972.97
602.478	24262.91
602.836	24532.05
603.194	24678.49
603.552	24984.7
603.91	25127.97
604.268	25544.68
604.625	25686.37
604.983	26084.78
605.341	26153.25
605.698	26409.74
606.056	26844.76
606.413	27026.9
606.771	27288.82
607.128	27554.12
607.485	27701.69
607.843	27821.91
608.2	28237.72
608.557	28526.98
608.914	28636.58
609.272	28957.7
609.629	29139.62
609.986	29442.43
610.343	29516.78
610.7	29851.69
611.057	30025.47
611.414	30253.71
611.771	30320.38
612.127	30692.79
612.484	31024.09
612.841	31164.42
613.198	31199
613.554	31246.9
613.911	31660.9
614.267	31741.58
614.624	31799.43
614.98	32069.93
615.337	32434.9
615.693	32438.74
616.05	32651.16
616.406	32853.42
616.762	32912.4
617.118	33065.84
617.475	33175.44
617.831	33464.02
618.187	33608.2
618.543	33701.53
618.899	33932.71
619.255	33979.04
619.611	34137.9
619.967	34352.36
620.323	34446.37
620.678	34454.05
621.034	34643.65
621.39	34537.89
621.746	34600.49
622.101	35165.9
622.457	35018.56
622.812	35110.53
623.168	35386.23
623.523	35475.04
623.879	35597.75
624.234	35415.16
624.589	35704.87
624.945	35655.83
625.3	35855.14
625.655	35700.12
626.01	35837.29
626.365	36032.54
626.72	35954.8
627.075	36042.26
627.43	36214.91
627.785	36100.56
628.14	36343.95
628.495	36341.91
628.85	36294.91
629.205	36269.15
629.559	36651.73
629.914	36522.25
630.269	36627.1
630.623	36372.65
630.978	36512.3
631.332	36776.02
631.687	36854.21
632.041	36551.4
632.396	36732.41
632.75	36687.67
633.104	36759.08
633.459	36624.84
633.813	36683.15
634.167	36683.6
634.521	36691.28
634.875	36844.05
635.229	36685.86
635.583	36578.29
635.937	36683.15
636.291	36686.99
636.645	36703.71
636.999	36689.47
637.352	36914.55
637.706	36728.12
638.06	36694.22
638.413	36743.71
638.767	36682.02
639.121	36792.52
639.474	36560.66
639.828	36732.86
640.181	36661
640.534	36768.12
640.888	36615.35
641.241	36614.67
641.594	36668.46
641.947	36850.15
642.301	36640.43
642.654	36627.78
643.007	36620.1
643.36	36615.58
643.713	36526.99
644.066	36748.68
644.419	36380.78
644.771	36319.09
645.124	36025.54
645.477	35897.86
645.83	35683.4
646.182	35554.81
646.535	35481.6
646.888	35670.74
647.24	35392.56
647.593	35596.62
647.945	35552.1
648.298	35464.87
648.65	35372.22
649.002	35285.22
649.355	35456.06
649.707	35446.57
650.059	35608.15
650.411	35879.32
650.763	35976.5
651.115	36423.49
651.467	36250.84
651.819	36308.47
652.171	36312.08
652.523	36126.55
652.875	36202.48
653.227	36056.72
653.578	36274.57
653.93	36116.38
654.282	35969.72
654.633	35961.58
654.985	36037.06
655.337	36167.9
655.688	36135.82
656.039	36145.53
656.391	35794.13
656.742	35948.7
657.094	36017.4
657.445	36087
657.796	35955.03
658.147	35983.5
658.498	35996.16
658.849	35920.45
659.2	35849.95
659.551	35868.7
659.902	36019.66
660.253	35913.22
660.604	35992.54
660.955	35769.05
661.306	35945.54
661.656	35765.66
662.007	35898.08
662.358	35790.51
662.708	35779.21
663.059	35886.78
663.409	35625.55
663.76	35909.15
664.11	35909.61
664.461	35884.75
664.811	35944.18
665.161	35914.13
665.511	35721.59
665.862	35826.9
666.212	35821.47
666.562	35867.35
666.912	35745.77
667.262	35700.8
667.612	35860.57
667.962	35864.86
668.312	35711.19
668.662	35943.28
669.011	35728.59
669.361	35751.87
669.711	35501.26
670.06	35619.9
670.41	35676.39
670.76	35600.01
671.109	35796.16
671.459	35632.33
671.808	35544.64
672.157	35645.88
672.507	35401.37
672.856	35370.86
673.205	35543.06
673.554	35579.9
673.904	35470.75
674.253	35592.1
674.602	35472.78
674.951	35059.46
675.3	34793.25
675.649	35440.24
675.998	35516.4
676.346	35386.23
676.695	35620.57
677.044	35211.77
677.393	35396.17
677.741	35404.08
678.09	35307.59
678.438	35245.44
678.787	35238.89
679.135	35223.3
679.484	35033.47
679.832	35198.44
680.181	34938.78
680.529	35012.23
680.877	35056.52
681.225	34982.63
681.573	35116.86
681.922	34843.19
682.27	34843.42
682.618	34898.56
682.966	34889.75
683.314	34831.22
683.661	34749.41
684.009	34560.04
684.357	34556.87
684.705	34463.77
685.053	34373.83
685.4	34393.26
685.748	34325.02
686.095	34313.04
686.443	34276.43
686.79	34061.29
687.138	34370.66
687.485	34132.25
687.832	34170.22
688.18	33979.71
688.527	33848.64
688.874	33945.82
689.221	33783.33
689.568	33678.25
689.915	33668.31
690.262	33665.6
690.609	33520.52
690.956	33365.49
691.303	33393.97
691.65	33235.1
691.997	33241.65
692.344	33200.53
692.69	33164.82
693.037	33142.22
693.383	32876.01
693.73	32967.54
694.077	32727.54
694.423	32676.47
694.769	32607.32
695.116	32632.4
695.462	32543.37
695.808	32391.51
696.155	32401.22
696.501	32210.04
696.847	32293.2
697.193	32045.75
697.539	31965.3
697.885	31922.59
698.231	31883.05
698.577	31715.37
698.923	31544.98
699.269	31534.81
699.614	31333.91
699.96	31231.76
700.306	31322.38
700.651	31155.83
700.997	31137.3
701.342	31166
701.688	31019.11
702.033	30850.53
702.379	30797.88
702.724	30885.78
703.069	30846.46
703.415	30696.41
703.76	30537.32
704.105	30618.67
704.45	30566.7
704.795	30298.68
705.14	30283.77
705.485	30221.62
705.83	30120.38
706.175	30133.49
706.52	30136.88
706.865	29952.02
707.209	29859.14
707.554	29806.26
707.899	29956.77
708.243	29852.36
708.588	29706.38
708.932	29496.22
709.277	29364.92
709.621	29470.68
709.966	29309.33
710.31	29347.97
710.654	29148.65
710.998	29138.49
711.342	29119.73
711.687	29000.41
712.031	28955.21
712.375	28876.57
712.719	28864.37
713.063	28818.49
713.407	28888.55
713.75	28735.78
714.094	28706.41
714.438	28634.09
714.782	28632.51
715.125	28591.16
715.469	28452.4
715.812	28281.78
716.156	28204.95
716.499	28225.29
716.843	28367.43
717.186	28112.98
717.53	28244.5
717.873	28235.91
718.216	28224.61
718.559	28086.99
718.902	27922.02
719.246	27943.26
719.589	27793.89
719.932	27556.83
720.275	27681.57
720.617	27639.77
720.96	27544.85
721.303	27598.19
721.646	27662.14
721.989	27405.42
722.331	27463.5
722.674	27365.65
723.016	27332.21
723.359	27421.24
723.701	27385.76
724.044	27201.36
724.386	27028.26
724.729	27101.93
725.071	26992.1
725.413	27024.87
725.755	27006.79
726.097	26929.28
726.439	26822.61
726.782	26857.87
727.124	26946.9
727.465	26845.89
727.807	26684.09
728.149	26758.66
728.491	26711.43
728.833	26777.42
729.175	26588.04
729.516	26488.16
729.858	26524.54
730.199	26512.34
730.541	26530.42
730.882	26499.01
731.224	26561.38
731.565	26360.71
731.906	26263.98
732.248	26248.39
732.589	26115.06
732.93	26205.23
733.271	26071
733.612	26094.27
733.953	26126.14
734.294	25980.6
734.635	25916.2
734.976	25984.67
735.317	25848.63
735.658	25801.17
735.999	25895.63
736.339	25752.36
736.68	25852.7
737.021	25699.25
737.361	25611.35
737.702	25742.42
738.042	25613.15
738.383	25530.44
738.723	25629.42
739.063	25570.22
739.404	25569.99
739.744	25429.66
740.084	25426.49
740.424	25532.03
740.764	25362.77
741.104	25414.06
741.444	25309.21
741.784	25247.29
742.124	25150.57
742.464	25146.5
742.804	25203.9
743.143	25080.74
743.483	25114.86
743.823	25014.07
744.162	24979.27
744.502	25111.47
744.841	24901.08
745.181	25054.3
745.52	24843.91
745.86	24873.51
746.199	24839.16
746.538	24786.28
746.877	24856.11
747.216	24796.23
747.556	24687.3
747.895	24740.18
748.234	24634.87
748.573	24656.8
748.911	24557.14
749.25	24583.12
749.589	24459.96
749.928	24456.8
750.267	24538.61
750.605	24443.02
750.944	24299.97
751.283	24305.39
751.621	24353.53
751.96	24238.28
752.298	24228.11
752.636	24143.59
752.975	24044.61
753.313	23996.25
753.651	24064.49
753.989	23935.01
754.327	23826.53
754.666	23755.8
755.004	23882.35
755.342	23836.93
755.679	23701.11
756.017	23697.72
756.355	23644.62
756.693	23636.26
757.031	23558.97
757.368	23448.92
757.706	23356.94
758.044	23407.11
758.381	23368.02
758.719	23268.13
759.056	23241.01
759.394	23276.94
759.731	23064.29
760.068	23179.77
760.405	23078.98
760.743	22984.75
761.08	22912.89
