Data from hue_260_FLMS001491_00011.txt Node
Date: Tue Feb 07 15:58:38 GMT 2017
User: dcchb
Spectrometer: FLMS00149
Trigger mode: 0
Integration Time (sec): 2.000000E-2
Scans to average: 10
Electric dark correction enabled: true
Nonlinearity correction enabled: false
Boxcar width: 0
XAxis mode: Wavelengths
Number of Pixels in Spectrum: 2048
>>>>>Begin Spectral Data<<<<<
341.393	-4.52
341.776	-4.52
342.16	-4.52
342.543	-62.82
342.927	-46.33
343.31	-57.4
343.693	-74.8
344.077	-74.12
344.46	-43.84
344.843	-60.11
345.226	-31.86
345.61	-36.38
345.993	-39.55
346.376	-22.15
346.759	26.89
347.142	26.89
347.525	56.5
347.908	49.49
348.291	92.2
348.674	86.78
349.057	101.47
349.44	136.72
349.823	136.49
350.206	168.13
350.588	198.19
350.971	210.84
351.354	210.62
351.737	244.29
352.119	216.49
352.502	258.07
352.884	279.99
353.267	272.99
353.65	292.87
354.032	277.51
354.414	296.94
354.797	288.81
355.179	315.7
355.562	301.69
355.944	327.9
356.326	327.9
356.709	324.96
357.091	308.01
357.473	327.45
357.855	321.35
358.238	331.52
358.62	325.42
359.002	338.75
359.384	334.91
359.766	344.62
360.148	321.12
360.53	343.49
360.912	344.62
361.294	314.34
361.676	327.9
362.057	338.3
362.439	315.02
362.821	328.35
363.203	307.11
363.584	318.64
363.966	337.17
364.348	304.62
364.729	311.63
365.111	305.08
365.493	307.11
365.874	303.49
366.256	288.13
366.637	299.88
367.019	313.21
367.4	317.73
367.781	313.66
368.163	297.85
368.544	336.49
368.925	317.05
369.306	312.99
369.688	302.14
370.069	304.17
370.45	322.03
370.831	302.82
371.212	294
371.593	313.44
371.974	306.21
372.355	279.31
372.736	302.82
373.117	295.13
373.498	293.55
373.879	315.02
374.26	319.31
374.641	299.2
375.021	308.92
375.402	322.25
375.783	294.68
376.163	319.54
376.544	327.45
376.925	319.09
377.305	319.54
377.686	313.21
378.066	327.9
378.447	321.35
378.827	336.04
379.208	316.83
379.588	305.98
379.968	337.39
380.349	311.4
380.729	319.54
381.109	331.29
381.489	340.78
381.87	313.21
382.25	360.44
382.63	338.07
383.01	339.43
383.39	332.19
383.77	324.06
384.15	342.82
384.53	322.25
384.91	321.35
385.29	345.53
385.67	330.16
386.049	335.36
386.429	326.77
386.809	347.34
387.189	344.4
387.568	348.92
387.948	330.16
388.328	357.73
388.707	368.58
389.087	366.77
389.466	356.6
389.846	335.58
390.225	341.46
390.605	376.49
390.984	352.76
391.363	370.84
391.743	348.47
392.122	374
392.501	372.87
392.881	389.37
393.26	388.46
393.639	390.27
394.018	371.06
394.397	372.19
394.776	394.11
395.155	381.68
395.534	391.63
395.913	380.78
396.292	372.19
396.671	401.8
397.05	390.5
397.429	389.82
397.808	393.21
398.186	377.62
398.565	390.72
398.944	407.45
399.323	404.74
399.701	387.11
400.08	398.41
400.458	409.71
400.837	402.7
401.215	423.94
401.594	414.68
401.972	432.08
402.351	426.66
402.729	423.27
403.107	414.9
403.486	426.66
403.864	435.47
404.242	425.75
404.62	446.32
404.999	445.19
405.377	416.26
405.755	443.6
406.133	436.82
406.511	466.43
406.889	476.6
407.267	463.26
407.645	482.47
408.023	485.18
408.401	497.39
408.779	496.94
409.156	506.65
409.534	490.38
409.912	502.36
410.29	517.27
410.667	520.44
411.045	504.17
411.422	560.21
411.8	527.22
412.178	535.81
412.555	558.86
412.933	547.78
413.31	562.25
413.687	546.2
414.065	552.98
414.442	576.71
414.819	601.34
415.197	619.87
415.574	611.96
415.951	587.1
416.328	601.79
416.705	621.9
417.082	631.17
417.46	616.48
417.837	661.68
418.214	651.51
418.591	659.42
418.967	664.39
419.344	660.55
419.721	662.36
420.098	677.27
420.475	688.12
420.852	708.91
421.228	710.49
421.605	719.98
421.982	707.55
422.358	721.34
422.735	743.26
423.111	753.2
423.488	770.38
423.864	752.75
424.241	789.13
424.617	790.26
424.994	780.32
425.37	815.8
425.746	818.96
426.123	816.02
426.499	847.66
426.875	858.96
427.251	866.64
427.627	863.93
428.003	893.54
428.379	905.74
428.756	897.83
429.132	906.42
429.507	944.16
429.883	915.68
430.259	921.78
430.635	947.55
431.011	966.3
431.387	986.87
431.763	994.78
432.138	1020.76
432.514	1017.83
432.89	1040.2
433.265	1050.59
433.641	1064.15
434.016	1080.2
434.392	1110.25
434.767	1113.64
435.143	1143.92
435.518	1165.39
435.894	1161.33
436.269	1153.87
436.644	1195.9
437.02	1198.84
437.395	1235.67
437.77	1270.25
438.145	1265.5
438.52	1264.83
438.895	1288.55
439.271	1286.07
439.646	1340.76
440.021	1340.53
440.395	1373.52
440.77	1362.22
441.145	1377.59
441.52	1415.33
441.895	1380.75
442.27	1439.51
442.645	1411.26
443.019	1452.62
443.394	1442.45
443.769	1463.69
444.143	1490.58
444.518	1500.75
444.892	1486.97
445.267	1513.86
445.641	1526.97
446.016	1518.15
446.39	1550.24
446.764	1536.68
447.139	1567.42
447.513	1581.43
447.887	1565.38
448.262	1642.22
448.636	1601.77
449.01	1635.21
449.384	1647.19
449.758	1653.74
450.132	1662.1
450.506	1686.06
450.88	1708.66
451.254	1688.32
451.628	1711.14
452.002	1737.13
452.376	1718.15
452.75	1768.77
453.123	1748.65
453.497	1783.46
453.871	1826.17
454.244	1841.99
454.618	1832.72
454.992	1901.42
455.365	1878.14
455.739	1918.37
456.112	1937.58
456.486	1923.57
456.859	1982.09
457.232	2011.25
457.606	2011.92
457.979	1993.39
458.352	2055.54
458.725	2058.48
459.099	2106.16
459.472	2120.85
459.845	2158.14
460.218	2147.97
460.591	2136.67
460.964	2168.53
461.337	2205.59
461.71	2262.54
462.083	2256.89
462.456	2277.45
462.829	2302.54
463.201	2342.54
463.574	2304.8
463.947	2366.94
464.32	2420.95
464.692	2446.04
465.065	2426.38
465.438	2471.57
465.81	2485.36
466.183	2562.87
466.555	2591.34
466.928	2573.72
467.3	2620.04
467.672	2617.78
468.045	2671.57
468.417	2681.06
468.789	2693.94
469.161	2715.18
469.534	2770.1
469.906	2822.98
470.278	2832.92
470.65	2895.52
471.022	2916.53
471.394	2960.37
471.766	2984.78
472.138	3033.14
472.51	3089.18
472.882	3103.2
473.253	3100.94
473.625	3215.96
473.997	3243.98
474.369	3231.33
474.74	3271.55
475.112	3301.16
475.484	3403.3
475.855	3421.83
476.227	3460.25
476.598	3522.85
476.97	3582.73
477.341	3642.39
477.713	3666.12
478.084	3676.74
478.455	3750.86
478.827	3838.09
479.198	3885.77
479.569	3882.16
479.94	4013
480.311	4017.3
480.682	4060.23
481.053	4169.61
481.424	4208.93
481.795	4276.5
482.166	4293.67
482.537	4325.31
482.908	4445.76
483.279	4458.19
483.65	4560.78
484.021	4598.3
484.391	4652.76
484.762	4698.63
485.133	4733.21
485.503	4796.03
485.874	4888.23
486.244	4866.99
486.615	5004.84
486.985	5017.72
487.356	5128.9
487.726	5108.11
488.097	5230.82
488.467	5224.5
488.837	5319.86
489.207	5343.14
489.578	5436.47
489.948	5504.49
490.318	5489.12
490.688	5538.84
491.058	5598.5
491.428	5657.93
491.798	5731.15
492.168	5827.64
492.538	5889.11
492.908	5920.97
493.278	5959.62
493.648	5946.74
494.017	6031.93
494.387	6071.93
494.757	6123
495.126	6152.61
495.496	6142.66
495.866	6255.65
496.235	6285.94
496.605	6313.51
496.974	6347.4
497.344	6389.44
497.713	6436.67
498.082	6445.48
498.452	6521.64
498.821	6473.5
499.19	6523.44
499.559	6558.92
499.928	6568.41
500.298	6664.46
500.667	6667.4
501.036	6628.75
501.405	6735.42
501.774	6700.84
502.143	6760.05
502.512	6807.5
502.88	6817.67
503.249	6875.53
503.618	6872.59
503.987	6851.35
504.356	6920.72
504.724	6961.4
505.093	6904.45
505.462	6939.25
505.83	7049.31
506.199	7057.67
506.567	7052.02
506.936	7101.28
507.304	7131.56
507.672	7133.82
508.041	7133.15
508.409	7172.47
508.777	7223.09
509.145	7287.04
509.514	7250.2
509.882	7311.22
510.25	7318.23
510.618	7373.37
510.986	7365.68
511.354	7392.8
511.722	7425.57
512.09	7438.45
512.458	7463.98
512.826	7478.22
513.193	7470.54
513.561	7497.43
513.929	7541.04
514.297	7599.12
514.664	7625.11
515.032	7586.47
515.4	7624.21
515.767	7668.72
516.135	7655.84
516.502	7629.18
516.869	7708.72
517.237	7692.91
517.604	7639.8
517.972	7788.5
518.339	7768.16
518.706	7784.2
519.073	7731.32
519.44	7799.79
519.808	7834.82
520.175	7780.36
520.542	7930.64
520.909	7840.25
521.276	7863.52
521.643	7934.93
522.009	7920.47
522.376	7990.75
522.743	7948.72
523.11	8035.49
523.477	8038.66
523.843	8077.53
524.21	8175.15
524.577	8127.47
524.943	8175.6
525.31	8185.77
525.676	8259.22
526.043	8186
526.409	8237.52
526.776	8268.26
527.142	8235.26
527.508	8292.89
527.874	8287.92
528.241	8385.77
528.607	8355.94
528.973	8463.28
529.339	8336.73
529.705	8393
530.071	8443.62
530.437	8433.68
530.803	8454.92
531.169	8463.96
531.535	8427.58
531.901	8409.04
532.267	8433.9
532.632	8449.95
532.998	8431.64
533.364	8501.02
533.73	8428.25
534.095	8496.73
534.461	8481.13
534.826	8548.7
535.192	8505.77
535.557	8554.8
535.923	8533.56
536.288	8548.7
536.653	8528.59
537.019	8461.92
537.384	8445.43
537.749	8523.84
538.114	8496.05
538.479	8503.73
538.845	8563.62
539.21	8486.33
539.575	8470.29
539.94	8470.29
540.305	8585.08
540.67	8468.48
541.034	8438.42
541.399	8538.08
541.764	8501.7
542.129	8515.26
542.494	8528.82
542.858	8510.06
543.223	8501.25
543.587	8495.82
543.952	8448.14
544.316	8462.83
544.681	8446.56
545.045	8452.66
545.41	8437.29
545.774	8476.61
546.138	8468.93
546.503	8461.47
546.867	8411.76
547.231	8483.39
547.595	8445.65
547.959	8455.82
548.324	8430.51
548.688	8452.89
549.052	8474.35
549.416	8488.59
549.779	8394.36
550.143	8422.6
550.507	8439.55
550.871	8441.36
551.235	8434.35
551.599	8442.04
551.962	8456.05
552.326	8320.91
552.689	8429.83
553.053	8360.23
553.417	8376.28
553.78	8449.95
554.143	8395.49
554.507	8377.63
554.87	8428.25
555.234	8396.84
555.597	8361.14
555.96	8417.41
556.323	8404.07
556.686	8458.31
557.05	8470.51
557.413	8397.52
557.776	8457.63
558.139	8506.44
558.502	8458.99
558.865	8565.88
559.228	8530.62
559.59	8538.08
559.953	8507.8
560.316	8573.11
560.679	8559.1
561.041	8515.71
561.404	8616.72
561.767	8611.3
562.129	8582.15
562.492	8689.26
562.854	8595.25
563.217	8624.63
563.579	8643.84
563.941	8598.42
564.304	8655.37
564.666	8739.88
565.028	8715.7
565.39	8759.54
565.753	8817.4
566.115	8801.58
566.477	8798.64
566.839	8859.88
567.201	8811.07
567.563	8907.56
567.925	8901.91
568.287	8909.82
568.648	8917.28
569.01	8931.74
569.372	8960.67
569.734	9022.59
570.095	9052.64
570.457	9042.47
570.819	9029.82
571.18	9030.05
571.542	9113.88
571.903	9108.24
572.265	9181
572.626	9167.22
572.987	9161.34
573.349	9197.95
573.71	9246.76
574.071	9266.42
574.432	9256.71
574.794	9302.13
575.155	9286.31
575.516	9291.73
575.877	9449.47
576.238	9361.11
576.599	9446.08
576.96	9397.49
577.32	9386.42
577.681	9428.68
578.042	9490.37
578.403	9436.81
578.763	9474.78
579.124	9557.49
579.485	9551.61
579.845	9544.16
580.206	9583.25
580.566	9488.79
580.927	9605.17
581.287	9668.9
581.648	9595.91
582.008	9689.69
582.368	9614.44
582.728	9766.52
583.089	9669.12
583.449	9696.02
583.809	9704.38
584.169	9723.13
584.529	9700.08
584.889	9886.07
585.249	9737.82
585.609	9784.6
585.969	9847.42
586.329	9843.36
586.688	9948.44
587.048	9858.27
587.408	9832.28
587.768	9895.33
588.127	9888.78
588.487	9860.31
588.846	9942.11
589.206	9906.18
589.565	9945.73
589.925	9953.41
590.284	9956.8
590.643	9959.96
591.003	9989.34
591.362	9989.34
591.721	10053.97
592.08	10039.06
592.44	10037.93
592.799	9945.73
593.158	10046.29
593.517	10005.84
593.876	10108.21
594.235	10006.52
594.593	10056.68
594.952	10135.55
595.311	10110.47
595.67	10121.32
596.029	10105.95
596.387	10238.15
596.746	10162.9
597.104	10091.03
597.463	10070.02
597.822	10253.97
598.18	10159.96
598.538	10136.68
598.897	10259.17
599.255	10088.1
599.613	10311.37
599.972	10210.58
600.33	10290.8
600.688	10247.87
601.046	10313.63
601.404	10294.19
601.762	10253.29
602.12	10307.75
602.478	10293.51
602.836	10336.45
603.194	10271.14
603.552	10252.16
603.91	10273.63
604.268	10274.98
604.625	10257.58
604.983	10312.27
605.341	10274.76
605.698	10268.2
606.056	10397.47
606.413	10309.79
606.771	10354.98
607.128	10386.39
607.485	10343.68
607.843	10316.11
608.2	10394.3
608.557	10383.46
608.914	10395.88
609.272	10408.77
609.629	10446.05
609.986	10462.32
610.343	10446.28
610.7	10557.24
611.057	10489.89
611.414	10435.43
611.771	10493.06
612.127	10525.37
612.484	10517.92
612.841	10598.59
613.198	10489.67
613.554	10566.5
613.911	10618.48
614.267	10558.82
614.624	10586.16
614.98	10580.06
615.337	10603.34
615.693	10553.17
616.05	10563.79
616.406	10627.29
616.762	10567.41
617.118	10655.31
617.475	10618.93
617.831	10650.34
618.187	10656.22
618.543	10621.42
618.899	10726.72
619.255	10723.11
619.611	10645.82
619.967	10731.47
620.323	10692.15
620.678	10716.55
621.034	10583.9
621.39	10674.07
621.746	10673.84
622.101	10811.69
622.457	10692.15
622.812	10683.33
623.168	10756.78
623.523	10731.7
623.879	10775.54
624.234	10712.71
624.589	10792.03
624.945	10693.5
625.3	10735.08
625.655	10666.84
626.01	10696.89
626.365	10679.49
626.72	10733.5
627.075	10672.04
627.43	10738.47
627.785	10633.84
628.14	10687.63
628.495	10678.59
628.85	10633.39
629.205	10623.68
629.559	10715.2
629.914	10660.28
630.269	10644.92
630.623	10580.29
630.978	10619.83
631.332	10625.71
631.687	10657.12
632.041	10535.32
632.396	10608.53
632.75	10531.25
633.104	10485.15
633.459	10441.08
633.813	10451.25
634.167	10494.41
634.521	10469.33
634.875	10438.37
635.229	10510.46
635.583	10426.39
635.937	10399.27
636.291	10323.34
636.645	10353.85
636.999	10356.79
637.352	10443.34
637.706	10289
638.06	10358.82
638.413	10295.32
638.767	10302.1
639.121	10302.1
639.474	10310.01
639.828	10278.37
640.181	10348.88
640.534	10278.6
640.888	10322.67
641.241	10246.51
641.594	10214.19
641.947	10209.9
642.301	10293.06
642.654	10226.62
643.007	10289.45
643.36	10174.87
643.713	10204.48
644.066	10273.4
644.419	10209.45
644.771	10125.61
645.124	10044.93
645.477	10044.48
645.83	9926.97
646.182	9932.85
646.535	9883.36
646.888	9867.31
647.24	9832.96
647.593	9861.89
647.945	9827.54
648.298	9788.22
648.65	9830.02
649.002	9787.77
649.355	9827.54
649.707	9868.67
650.059	9894.2
650.411	9977.14
650.763	9952.51
651.115	10086.51
651.467	10083.12
651.819	10110.92
652.171	10033.18
652.523	9996.12
652.875	10011.04
653.227	9928.1
653.578	10077.93
653.93	10058.27
654.282	10023.24
654.633	9934.88
654.985	9942.56
655.337	10067.08
655.688	9976.46
656.039	10042.9
656.391	9956.8
656.742	9956.12
657.094	9986.86
657.445	10086.97
657.796	10004.71
658.147	9960.64
658.498	9964.48
658.849	9966.29
659.2	9987.99
659.551	10006.97
659.902	9959.74
660.253	10027.76
660.604	10028.44
660.955	9982.56
661.306	10049.23
661.656	9982.56
662.007	10050.81
662.358	9975.33
662.708	10015.33
663.059	10080.41
663.409	9973.3
663.76	10036.57
664.11	10095.33
664.461	9991.38
664.811	10073.63
665.161	10052.39
665.511	10049.45
665.862	9999.96
666.212	10096.68
666.562	10086.74
666.912	9983.01
667.262	10052.84
667.612	10014.2
667.962	10037.93
668.312	9996.12
668.662	10044.93
669.011	10080.19
669.361	9975.33
669.711	9976.46
670.06	9984.82
670.41	9975.33
670.76	9880.87
671.109	9997.48
671.459	9975.1
671.808	9907.31
672.157	9945.28
672.507	9934.88
672.856	9914.09
673.205	9916.12
673.554	9943.02
673.904	9933.98
674.253	9999.29
674.602	9850.59
674.951	9837.26
675.3	9717.26
675.649	9826.63
675.998	9832.06
676.346	9821.89
676.695	9933.75
677.044	9757.26
677.393	9803.58
677.741	9838.16
678.09	9761.78
678.438	9818.05
678.787	9725.17
679.135	9780.99
679.484	9735.34
679.832	9827.54
680.181	9762.68
680.529	9710.71
680.877	9674.32
681.225	9670.03
681.573	9668.22
681.922	9628
682.27	9606.98
682.618	9605.4
682.966	9569.69
683.314	9604.04
683.661	9571.73
684.009	9484.5
684.357	9465.29
684.705	9541.44
685.053	9530.6
685.4	9489.47
685.748	9399.3
686.095	9425.06
686.443	9377.15
686.79	9351.17
687.138	9402.92
687.485	9305.52
687.832	9369.7
688.18	9320.88
688.527	9287.21
688.874	9245.18
689.221	9259.64
689.568	9191.62
689.915	9131.06
690.262	9116.82
690.609	9156.14
690.956	9136.48
691.303	9056.94
691.65	9009.48
691.997	9001.57
692.344	8926.54
692.69	8961.35
693.037	8976.04
693.383	8864.85
693.73	8877.96
694.077	8845.42
694.423	8756.83
694.769	8809.94
695.116	8793.44
695.462	8655.37
695.808	8686.33
696.155	8721.13
696.501	8630.73
696.847	8619.89
697.193	8510.06
697.539	8581.02
697.885	8522.49
698.231	8520.45
698.577	8499.89
698.923	8500.57
699.269	8416.95
699.614	8413.34
699.96	8357.75
700.306	8313
700.651	8266
700.997	8298.99
701.342	8302.15
701.688	8175.38
702.033	8189.39
702.379	8214.47
702.724	8141.93
703.069	8162.95
703.415	8062.61
703.76	8068.26
704.105	8030.52
704.45	8086.79
704.795	7947.14
705.14	8014.03
705.485	7996.63
705.83	7901.49
706.175	7908.94
706.52	7870.08
706.865	7868.95
707.209	7932.9
707.554	7853.58
707.899	7840.47
708.243	7747.37
708.588	7713.92
708.932	7653.81
709.277	7627.37
709.621	7711.89
709.966	7629.86
710.31	7710.76
710.654	7581.27
710.998	7601.38
711.342	7589.18
711.687	7576.98
712.031	7511.67
712.375	7537.2
712.719	7533.81
713.063	7491.33
713.407	7478.45
713.75	7436.19
714.094	7441.39
714.438	7429.64
714.782	7434.15
715.125	7377.43
715.469	7449.52
715.812	7432.12
716.156	7323.42
716.499	7334.27
716.843	7372.01
717.186	7285.68
717.53	7341.05
717.873	7328.17
718.216	7332.91
718.559	7275.51
718.902	7267.83
719.246	7285.23
719.589	7224.67
719.932	7185.57
720.275	7193.94
720.617	7180.15
720.96	7167.95
721.303	7185.12
721.646	7213.82
721.989	7152.13
722.331	7162.3
722.674	7097.67
723.016	7163.88
723.359	7158.68
723.701	7153.26
724.044	7180.15
724.386	7086.59
724.729	7123.43
725.071	7098.8
725.413	7080.27
725.755	7122.98
726.097	7095.63
726.439	7050.66
726.782	7060.15
727.124	7048.4
727.465	7020.15
727.807	7071.23
728.149	7075.52
728.491	7059.02
728.833	7020.38
729.175	7034.39
729.516	6977.67
729.858	7013.6
730.199	6998.01
730.541	6961.85
730.882	6974.96
731.224	7002.98
731.565	6984
731.906	6975.18
732.248	7008.86
732.589	6942.42
732.93	6952.36
733.271	6941.51
733.612	6990.32
733.953	6988.74
734.294	6946.03
734.635	6940.83
734.976	6925.92
735.317	6923.66
735.658	6974.05
735.999	6940.16
736.339	6870.78
736.68	6964.11
737.021	6940.61
737.361	6961.4
737.702	6931.8
738.042	6968.63
738.383	6976.09
738.723	6944.22
739.063	6982.64
739.404	6981.06
739.744	7000.27
740.084	7001.17
740.424	7042.07
740.764	6978.12
741.104	7007.05
741.444	7030.78
741.784	7017.44
742.124	7050.66
742.464	6976.31
742.804	7070.55
743.143	7066.48
743.483	7086.37
743.823	7061.28
744.162	7086.14
744.502	7106.48
744.841	7124.78
745.181	7143.32
745.52	7158.46
745.86	7207.49
746.199	7158.68
746.538	7249.3
746.877	7283.2
747.216	7305.34
747.556	7402.07
747.895	7375.85
748.234	7370.88
748.573	7452.69
748.911	7480.26
749.25	7494.72
749.589	7554.15
749.928	7635.96
750.267	7715.5
750.605	7677.76
750.944	7844.31
751.283	7822.62
751.621	7908.49
751.96	7907.59
752.298	8028.26
752.636	8102.39
752.975	8210.18
753.313	8188.94
753.651	8294.7
753.989	8402.72
754.327	8441.81
754.666	8527.69
755.004	8598.87
755.342	8720
755.679	8828.47
756.017	8876.83
756.355	9008.35
756.693	9109.59
757.031	9190.72
757.368	9307.78
757.706	9433.42
758.044	9473.65
758.381	9613.98
758.719	9751.83
759.056	9898.04
759.394	9950.7
759.731	10048.32
760.068	10136.91
760.405	10348.65
760.743	10343.68
761.08	10578.25
761.417	10700.06
761.754	10750.45
762.091	10915.87
762.428	11001.52
762.765	11108.41
763.102	11345.69
763.438	11413.26
763.775	11508.17
764.112	11619.36
764.449	11797.2
764.785	11909.29
765.122	11973.47
765.458	12041.49
765.795	12152.45
