Data from hue_130_FLMS001491_00083.txt Node
Date: Tue Feb 07 16:58:12 GMT 2017
User: dcchb
Spectrometer: FLMS00149
Trigger mode: 0
Integration Time (sec): 2.000000E-2
Scans to average: 10
Electric dark correction enabled: true
Nonlinearity correction enabled: false
Boxcar width: 0
XAxis mode: Wavelengths
Number of Pixels in Spectrum: 2048
>>>>>Begin Spectral Data<<<<<
341.393	-9.08
341.776	-9.08
342.16	-9.08
342.543	-74.84
342.927	-72.81
343.31	-81.85
343.693	-67.16
344.077	-69.87
344.46	-48.85
344.843	-49.98
345.226	-31
345.61	-51.34
345.993	-22.64
346.376	6.29
346.759	9.67
347.142	14.65
347.525	42.44
347.908	66.62
348.291	67.3
348.674	89.9
349.057	125.83
349.44	121.54
349.823	147.98
350.206	185.94
350.588	194.53
350.971	201.31
351.354	228.65
351.737	230.23
352.119	248.99
352.502	259.16
352.884	278.37
353.267	283.34
353.65	293.28
354.032	311.59
354.414	298.48
354.797	313.4
355.179	302.32
355.562	314.75
355.944	324.47
356.326	328.08
356.709	325.15
357.091	337.58
357.473	342.1
357.855	346.62
358.238	336.9
358.62	346.16
359.002	340.51
359.384	336.22
359.766	337.8
360.148	342.55
360.53	324.69
360.912	324.69
361.294	341.87
361.676	334.41
362.057	331.47
362.439	353.17
362.821	327.86
363.203	322.89
363.584	328.76
363.966	332.6
364.348	322.89
364.729	330.8
365.111	307.29
365.493	350.68
365.874	338.48
366.256	320.63
366.637	320.18
367.019	314.53
367.4	313.85
367.781	317.92
368.163	311.59
368.544	323.79
368.925	313.4
369.306	317.69
369.688	317.01
370.069	320.18
370.45	335.77
370.831	316.33
371.212	321.98
371.593	325.82
371.974	324.47
372.355	313.85
372.736	332.6
373.117	340.51
373.498	318.14
373.879	316.11
374.26	314.98
374.641	321.98
375.021	307.52
375.402	324.47
375.783	317.24
376.163	314.07
376.544	322.89
376.925	327.18
377.305	331.25
377.686	335.54
378.066	333.06
378.447	333.96
378.827	336.22
379.208	309.78
379.588	342.55
379.968	357.91
380.349	314.98
380.729	352.04
381.109	341.19
381.489	321.53
381.87	350.91
382.25	346.84
382.63	355.43
383.01	357.69
383.39	350.68
383.77	364.69
384.15	347.29
384.53	340.51
384.91	347.29
385.29	345.26
385.67	338.48
386.049	336.67
386.429	364.69
386.809	373.28
387.189	367.18
387.568	343.68
387.948	372.38
388.328	355.65
388.707	346.39
389.087	387.29
389.466	364.69
389.846	367.18
390.225	363.56
390.605	356.33
390.984	373.73
391.363	369.67
391.743	389.78
392.122	350.46
392.501	375.54
392.881	364.47
393.26	401.08
393.639	383
394.018	383.9
394.397	399.27
394.776	391.36
395.155	392.72
395.534	391.59
395.913	386.61
396.292	382.32
396.671	388.87
397.05	387.74
397.429	393.62
397.808	397.24
398.186	397.69
398.565	391.59
398.944	387.52
399.323	396.56
399.701	401.08
400.08	399.04
400.458	409.66
400.837	417.57
401.215	423
401.594	418.03
401.972	397.46
402.351	416.22
402.729	402.21
403.107	443.56
403.486	406.5
403.864	426.61
404.242	421.42
404.62	418.93
404.999	432.49
405.377	438.14
405.755	432.49
406.133	426.84
406.511	433.84
406.889	422.77
407.267	455.76
407.645	442.21
408.023	438.36
408.401	439.95
408.779	451.92
409.156	455.76
409.534	471.81
409.912	455.76
410.29	488.76
410.667	466.84
411.045	473.17
411.422	475.43
411.8	490.11
412.178	487.18
412.555	494.41
412.933	494.18
413.31	499.38
413.687	506.61
414.065	493.5
414.442	494.63
414.819	513.16
415.197	497.8
415.574	497.12
415.951	515.42
416.328	506.84
416.705	490.34
417.082	491.47
417.46	516.78
417.837	529.44
418.214	521.75
418.591	535.08
418.967	541.41
419.344	532.6
419.721	541.19
420.098	526.27
420.475	542.77
420.852	559.49
421.228	544.12
421.605	566.72
421.982	562.65
422.358	566.95
422.735	557.91
423.111	561.98
423.488	591.81
423.864	563.78
424.241	578.02
424.617	597.91
424.994	585.25
425.37	592.94
425.746	589.32
426.123	583.67
426.499	597.91
426.875	611.69
427.251	604.91
427.627	613.27
428.003	614.86
428.379	608.98
428.756	631.58
429.132	631.13
429.507	658.25
429.883	647.17
430.259	639.94
430.635	661.41
431.011	661.86
431.387	667.28
431.763	686.04
432.138	680.62
432.514	653.27
432.89	700.73
433.265	686.72
433.641	708.64
434.016	701.41
434.392	735.98
434.767	731.24
435.143	729.2
435.518	717.68
435.894	740.73
436.269	752.03
436.644	746.6
437.02	748.19
437.395	743.44
437.77	779.15
438.145	765.36
438.52	785.7
438.895	806.72
439.271	782.99
439.646	797
440.021	832.25
440.395	791.12
440.77	794.96
441.145	825.47
441.52	835.87
441.895	826.38
442.27	836.77
442.645	857.79
443.019	829.77
443.394	865.7
443.769	858.92
444.143	852.82
444.518	870.67
444.892	874.51
445.267	862.08
445.641	908.86
446.016	866.38
446.39	901.18
446.764	914.06
447.139	914.28
447.513	900.72
447.887	929.2
448.262	901.4
448.636	921.52
449.01	935.75
449.384	922.42
449.758	928.29
450.132	942.98
450.506	961.29
450.88	968.29
451.254	955.64
451.628	986.15
452.002	991.8
452.376	969.42
452.75	978.01
453.123	1018.01
453.497	1041.96
453.871	1022.53
454.244	1037.67
454.618	1073.6
454.992	1063.21
455.365	1063.88
455.739	1106.82
456.112	1124.67
456.486	1099.82
456.859	1117.22
457.232	1128.74
457.606	1154.05
457.979	1174.16
458.352	1173.26
458.725	1195.86
459.099	1208.29
459.472	1232.02
459.845	1237.89
460.218	1242.86
460.591	1249.42
460.964	1257.78
461.337	1288.51
461.71	1297.32
462.083	1328.96
462.456	1311.34
462.829	1335.52
463.201	1357.66
463.574	1360.83
463.947	1368.74
464.32	1397.44
464.692	1430.2
465.065	1449.41
465.438	1455.74
465.81	1469.75
466.183	1499.58
466.555	1511.56
466.928	1534.61
467.3	1573.93
467.672	1586.36
468.045	1625.23
468.417	1637.2
468.789	1632.23
469.161	1654.6
469.534	1717.88
469.906	1754.94
470.278	1768.27
470.65	1803.07
471.022	1836.07
471.394	1870.87
471.766	1882.17
472.138	1925.56
472.51	1995.39
472.882	2029.96
473.253	2085.55
473.625	2097.98
473.997	2183.18
474.369	2200.13
474.74	2225.66
475.112	2269.95
475.484	2330.52
475.855	2343.17
476.227	2419.56
476.598	2507.91
476.97	2575.03
477.341	2640.79
477.713	2697.06
478.084	2783.39
478.455	2841.24
478.827	2891.41
479.198	2996.71
479.569	3024.96
479.94	3095.92
480.311	3145.64
480.682	3279.19
481.053	3407.78
481.424	3477.38
481.795	3586.3
482.166	3659.52
482.537	3702.69
482.908	3837.37
483.279	3946.52
483.65	4038.5
484.021	4209.11
484.391	4267.42
484.762	4393.74
485.133	4431.93
485.503	4558.26
485.874	4751.25
486.244	4857.23
486.615	4937.91
486.985	5088.19
487.356	5254.96
487.726	5318.46
488.097	5423.32
488.467	5589.19
488.837	5728.85
489.207	5894.04
489.578	6026.47
489.948	6094.03
490.318	6330.19
490.688	6371.54
491.058	6500.8
491.428	6716.17
491.798	6840.46
492.168	6985.31
492.538	7093.56
492.908	7239.54
493.278	7446.09
493.648	7498.74
494.017	7679.76
494.387	7758.4
494.757	7903.03
495.126	8086.75
495.496	8148.44
495.866	8215.33
496.235	8412.62
496.605	8581.65
496.974	8633.85
497.344	8761.54
497.713	8911.59
498.082	8999.04
498.452	9207.85
498.821	9235.65
499.19	9352.93
499.559	9458.69
499.928	9547.96
500.298	9692.81
500.667	9804.9
501.036	9842.86
501.405	9963.31
501.774	10029.75
502.143	10228.84
502.512	10232.46
502.88	10416.63
503.249	10451.43
503.618	10535.27
503.987	10615.27
504.356	10776.62
504.724	10789.5
505.093	10899.56
505.462	10972.32
505.83	11013.91
506.199	11094.36
506.567	11248.7
506.936	11256.61
507.304	11400.34
507.672	11431.07
508.041	11508.36
508.409	11556.72
508.777	11724.4
509.145	11720.55
509.514	11865.63
509.882	11940.66
510.25	11890.72
510.618	12015.23
510.986	12015.91
511.354	12150.37
511.722	12252.29
512.09	12315.79
512.458	12299.07
512.826	12400.31
513.193	12505.39
513.561	12470.14
513.929	12478.95
514.297	12697.48
514.664	12639.4
515.032	12726.85
515.4	12754.42
515.767	12815.21
516.135	12888.66
516.502	12786.51
516.869	12938.37
517.237	13080.97
517.604	12999.62
517.972	13077.81
518.339	13135.21
518.706	13102.44
519.073	13204.81
519.44	13190.35
519.808	13286.61
520.175	13331.81
520.542	13324.81
520.909	13374.75
521.276	13379.27
521.643	13459.26
522.009	13473.05
522.376	13548.08
522.743	13570.9
523.11	13718.24
523.477	13722.99
523.843	13741.52
524.21	13888.86
524.577	13911.91
524.943	13882.76
525.31	13920.27
525.676	14004.34
526.043	14061.73
526.409	14018.57
526.776	14065.35
527.142	14101.28
527.508	13996.43
527.874	14175.63
528.241	14148.29
528.607	14189.64
528.973	14174.95
529.339	14167.27
529.705	14266.93
530.071	14337.43
530.437	14360.03
530.803	14314.61
531.169	14292.69
531.535	14305.12
531.901	14257.89
532.267	14271.9
532.632	14294.72
532.998	14250.2
533.364	14280.94
533.73	14239.36
534.095	14328.62
534.461	14283.65
534.826	14257.66
535.192	14253.37
535.557	14364.78
535.923	14278
536.288	14337.66
536.653	14303.54
537.019	14209.53
537.384	14133.37
537.749	14162.3
538.114	14222.18
538.479	14065.8
538.845	14126.82
539.21	14114.39
539.575	14038.23
539.94	14022.87
540.305	14155.52
540.67	13995.97
541.034	13955.3
541.399	13912.81
541.764	13870.1
542.129	13879.14
542.494	13855.86
542.858	13851.12
543.223	13842.08
543.587	13887.28
543.952	13744.68
544.316	13743.1
544.681	13728.64
545.045	13744
545.41	13775.87
545.774	13633.27
546.138	13683.21
546.503	13598.47
546.867	13633.27
547.231	13609.32
547.595	13574.29
547.959	13549.43
548.324	13438.7
548.688	13451.13
549.052	13368.87
549.416	13384.46
549.779	13351.24
550.143	13355.31
550.507	13310.34
550.871	13296.78
551.235	13196.9
551.599	13235.09
551.962	13152.83
552.326	13147.18
552.689	13191.93
553.053	13126.62
553.417	13130.69
553.78	13277.8
554.143	13090.01
554.507	13093.62
554.87	13066.73
555.234	13181.76
555.597	12986.51
555.96	12989.67
556.323	13077.81
556.686	13047.98
557.05	12961.65
557.413	12962.78
557.776	12997.13
558.139	13081.2
558.502	12917.58
558.865	13021.31
559.228	13055.21
559.59	13056.11
559.953	12988.32
560.316	13050.91
560.679	13043
561.041	13060.41
561.404	13076.9
561.767	13099.73
562.129	13051.37
562.492	13124.13
562.854	13141.31
563.217	13076.22
563.579	13065.38
563.941	13118.03
564.304	13074.87
564.666	13111.93
565.028	13092.49
565.39	13130.69
565.753	13212.04
566.115	13173.62
566.477	13190.12
566.839	13155.09
567.201	13324.58
567.563	13259.95
567.925	13285.03
568.287	13188.54
568.648	13309.44
569.01	13371.13
569.372	13418.14
569.734	13402.77
570.095	13351.02
570.457	13351.7
570.819	13415.2
571.18	13452.71
571.542	13398.48
571.903	13414.52
572.265	13470.34
572.626	13467.17
572.987	13486.38
573.349	13487.74
573.71	13509.88
574.071	13591.24
574.432	13518.47
574.794	13565.7
575.155	13547.17
575.516	13414.97
575.877	13519.38
576.238	13517.79
576.599	13577.68
576.96	13545.59
577.32	13653.38
577.681	13655.87
578.042	13607.51
578.403	13642.08
578.763	13598.02
579.124	13599.6
579.485	13650.45
579.845	13641.41
580.206	13690.9
580.566	13653.38
580.927	13582.88
581.287	13668.52
581.648	13457.46
582.008	13646.6
582.368	13583.78
582.728	13674.4
583.089	13644.57
583.449	13649.77
583.809	13554.63
584.169	13574.29
584.529	13594.63
584.889	13690.9
585.249	13567.06
585.609	13542.2
585.969	13532.26
586.329	13546.27
586.688	13570.67
587.048	13560.96
587.408	13529.77
587.768	13539.04
588.127	13449.55
588.487	13473.28
588.846	13565.02
589.206	13491.35
589.565	13418.59
589.925	13505.59
590.284	13383.79
590.643	13353.28
591.003	13402.77
591.362	13468.08
591.721	13447.74
592.08	13395.99
592.44	13470.79
592.799	13410.45
593.158	13403.45
593.517	13473.05
593.876	13384.46
594.235	13341.98
594.593	13397.12
594.952	13425.82
595.311	13358.48
595.67	13329.78
596.029	13404.12
596.387	13388.98
596.746	13393.28
597.104	13344.47
597.463	13293.17
597.822	13359.83
598.18	13288.2
598.538	13310.12
598.897	13348.99
599.255	13269.89
599.613	13385.82
599.972	13403.45
600.33	13405.25
600.688	13250.91
601.046	13291.59
601.404	13336.1
601.762	13361.19
602.12	13396.67
602.478	13364.58
602.836	13391.47
603.194	13299.27
603.552	13273.28
603.91	13326.61
604.268	13340.85
604.625	13304.24
604.983	13347.86
605.341	13251.13
605.698	13414.75
606.056	13391.02
606.413	13359.38
606.771	13384.46
607.128	13402.77
607.485	13255.43
607.843	13278.48
608.2	13341.3
608.557	13430.34
608.914	13378.36
609.272	13431.92
609.629	13423.33
609.986	13494.52
610.343	13364.58
610.7	13540.39
611.057	13440.28
611.414	13464.46
611.771	13463.78
612.127	13535.87
612.484	13538.81
612.841	13454.97
613.198	13550.56
613.554	13502.65
613.911	13585.36
614.267	13580.84
614.624	13537.68
614.98	13533.61
615.337	13630.79
615.693	13652.71
616.05	13615.87
616.406	13704.91
616.762	13608.19
617.118	13613.84
617.475	13612.93
617.831	13642.54
618.187	13680.05
618.543	13695.87
618.899	13763.66
619.255	13809.76
619.611	13726.83
619.967	13812.7
620.323	13791.46
620.678	13673.95
621.034	13672.14
621.39	13642.99
621.746	13749.43
622.101	13840.95
622.457	13788.75
622.812	13793.27
623.168	13765.25
623.523	13734.96
623.879	13796.66
624.234	13731.12
624.589	13813.61
624.945	13802.31
625.3	13790.1
625.655	13703.55
626.01	13739.03
626.365	13746.71
626.72	13728.41
627.075	13708.07
627.43	13748.97
627.785	13703.33
628.14	13722.76
628.495	13639.82
628.85	13763.21
629.205	13664.91
629.559	13719.82
629.914	13604.35
630.269	13671.69
630.623	13633.05
630.978	13652.25
631.332	13645.7
631.687	13695.19
632.041	13555.53
632.396	13708.07
632.75	13586.27
633.104	13588.07
633.459	13530.22
633.813	13526.83
634.167	13531.81
634.521	13498.36
634.875	13602.54
635.229	13478.02
635.583	13405.93
635.937	13433.5
636.291	13421.75
636.645	13438.02
636.999	13407.97
637.352	13397.57
637.706	13279.38
638.06	13392.6
638.413	13327.52
638.767	13266.5
639.121	13348.99
639.474	13268.99
639.828	13199.61
640.181	13285.48
640.534	13266.5
640.888	13251.13
641.241	13144.7
641.594	13196.22
641.947	13274.86
642.301	13171.36
642.654	13172.72
643.007	13239.84
643.36	13132.95
643.713	13142.21
644.066	13184.92
644.419	13122.78
644.771	12996
645.124	12862.22
645.477	12944.25
645.83	12817.7
646.182	12833.97
646.535	12680.53
646.888	12793.07
647.24	12721.66
647.593	12771.15
647.945	12722.11
648.298	12605.05
648.65	12673.97
649.002	12598.27
649.355	12695.44
649.707	12680.53
650.059	12733.18
650.411	12834.42
650.763	12922.33
651.115	13007.53
651.467	13032.61
651.819	13036.68
652.171	13024.93
652.523	12999.62
652.875	12952.84
653.227	12868.32
653.578	13035.77
653.93	13005.49
654.282	12924.59
654.633	12912.39
654.985	12933.18
655.337	13011.37
655.688	12951.48
656.039	12950.58
656.391	12868.77
656.742	13039.61
657.094	12936.57
657.445	12997.36
657.796	12958.94
658.147	12914.19
658.498	12929.79
658.849	12938.83
659.2	12886.62
659.551	13010.69
659.902	12976.11
660.253	13016.56
660.604	13068.77
660.955	12970.24
661.306	13032.84
661.656	12971.14
662.007	13024.93
662.358	12993.51
662.708	13012.95
663.059	13011.14
663.409	12912.39
663.76	13027.64
664.11	13014.53
664.461	13034.64
664.811	13027.86
665.161	12999.16
665.511	12930.01
665.862	13023.12
666.212	13014.08
666.562	13032.16
666.912	12905.83
667.262	12938.37
667.612	12993.29
667.962	13020.41
668.312	12953.06
668.662	13078.94
669.011	13063.57
669.361	12941.54
669.711	12970.92
670.06	12956
670.41	12901.54
670.76	12887.98
671.109	12931.37
671.459	12925.49
671.808	12912.84
672.157	12973.85
672.507	12862.67
672.856	12895.44
673.205	12811.15
673.554	12839.17
673.904	12838.49
674.253	12939.28
674.602	12808.43
674.951	12683.69
675.3	12675.33
675.649	12898.38
675.998	12842.33
676.346	12826.96
676.695	12816.57
677.044	12746.97
677.393	12791.94
677.741	12708.32
678.09	12735.67
678.438	12718.04
678.787	12735.22
679.135	12716.46
679.484	12643.69
679.832	12686.63
680.181	12610.7
680.529	12664.26
680.877	12610.7
681.225	12597.59
681.573	12661.77
681.922	12540.87
682.27	12492.74
682.618	12545.39
682.966	12457.94
683.314	12532.06
683.661	12476.01
684.009	12388.11
684.357	12388.33
684.705	12311.05
685.053	12315.34
685.4	12312.63
685.748	12159.19
686.095	12220.43
686.443	12153.08
686.79	12102.92
687.138	12172.52
687.485	12139.53
687.832	12175
688.18	12118.74
688.527	12059.75
688.874	12075.57
689.221	12026.53
689.568	11965.97
689.915	11971.62
690.262	11958.29
690.609	11894.56
690.956	11850.95
691.303	11887.78
691.65	11747.22
691.997	11737.05
692.344	11700.44
692.69	11678.29
693.037	11627
693.383	11491.63
693.73	11541.35
694.077	11522.82
694.423	11514.01
694.769	11445.08
695.116	11434.69
695.462	11387.91
695.808	11326.67
696.155	11363.95
696.501	11304.97
696.847	11285.99
697.193	11223.84
697.539	11194.24
697.885	11120.12
698.231	11097.97
698.577	11039.67
698.923	11027.92
699.269	10976.84
699.614	10915.83
699.96	10867.24
700.306	10914.7
700.651	10783.63
700.997	10724.2
701.342	10726
701.688	10695.04
702.033	10686.46
702.379	10625.67
702.724	10567.82
703.069	10566.91
703.415	10472.45
703.76	10479
704.105	10535.95
704.45	10476.52
704.795	10327.82
705.14	10328.73
705.485	10310.2
705.83	10280.59
706.175	10317.88
706.52	10259.12
706.865	10153.81
707.209	10242.4
707.554	10104.32
707.899	10177.54
708.243	10055.51
708.588	10050.54
708.932	10019.36
709.277	9909.3
709.621	10020.71
709.966	9906.59
710.31	9933.48
710.654	9889.64
710.998	9800.83
711.342	9852.58
711.687	9736.42
712.031	9826.14
712.375	9757.22
712.719	9724.22
713.063	9783.2
713.407	9817.78
713.75	9747.5
714.094	9686.48
714.438	9659.59
714.782	9675.64
715.125	9596.32
715.469	9607.61
715.812	9564.68
716.156	9565.81
716.499	9456.43
716.843	9565.13
717.186	9479.03
717.53	9492.36
717.873	9478.35
718.216	9488.97
718.559	9470.44
718.902	9370.56
719.246	9407.17
719.589	9410.78
719.932	9343.89
720.275	9379.15
720.617	9309.54
720.96	9388.64
721.303	9358.58
721.646	9331.24
721.989	9328.53
722.331	9360.16
722.674	9357.68
723.016	9287.85
723.359	9260.05
723.701	9329.66
724.044	9263.67
724.386	9249.88
724.729	9213.27
725.071	9238.36
725.413	9234.52
725.755	9227.29
726.097	9198.59
726.439	9171.02
726.782	9150.45
727.124	9166.27
727.465	9138.25
727.807	9154.52
728.149	9118.36
728.491	9125.14
728.833	9124.01
729.175	9187.51
729.516	9129.21
729.858	9104.58
730.199	9147.97
730.541	9018.03
730.882	9095.99
731.224	9112.03
731.565	9075.2
731.906	9144.35
732.248	9111.36
732.589	9105.71
732.93	9042.88
733.271	9070.91
733.612	9137.8
733.953	9084.24
734.294	9055.99
734.635	9066.16
734.976	9108.19
735.317	9091.24
735.658	9022.55
735.999	9089.44
736.339	9040.85
736.68	9057.8
737.021	9059.61
737.361	9018.48
737.702	9157
738.042	9096.67
738.383	9109.32
738.723	9065.26
739.063	9052.15
739.404	9111.13
739.744	9090.57
740.084	9111.36
740.424	9142.99
740.764	9114.97
741.104	9213.27
741.444	9150.68
741.784	9139.15
742.124	9127.18
742.464	9214.18
742.804	9150
743.143	9237.91
743.483	9313.84
743.823	9215.31
744.162	9289.66
744.502	9375.53
744.841	9359.03
745.181	9364.46
745.52	9360.62
745.86	9426.6
746.199	9467.28
746.538	9494.17
746.877	9558.58
747.216	9582.98
747.556	9636.77
747.895	9737.33
748.234	9765.12
748.573	9729.19
748.911	9865.46
749.25	9906.82
749.589	9902.75
749.928	9971.45
750.267	10134.83
750.605	10133.02
750.944	10230.42
751.283	10299.57
751.621	10398.55
751.96	10455.05
752.298	10632.9
752.636	10683.74
752.975	10681.71
753.313	10801.26
753.651	10934.59
753.989	10955.38
754.327	11055.49
754.666	11194.24
755.004	11371.64
755.342	11463.84
755.679	11596.04
756.017	11686.2
756.355	11796.94
756.693	11933.43
757.031	12027.66
757.368	12185.63
757.706	12380.42
758.044	12573.86
758.381	12638.27
