Data from hue_220_FLMS001491_00004.txt Node
Date: Tue Feb 07 16:38:27 GMT 2017
User: dcchb
Spectrometer: FLMS00149
Trigger mode: 0
Integration Time (sec): 2.000000E-2
Scans to average: 10
Electric dark correction enabled: true
Nonlinearity correction enabled: false
Boxcar width: 0
XAxis mode: Wavelengths
Number of Pixels in Spectrum: 2048
>>>>>Begin Spectral Data<<<<<
341.393	-1.93
341.776	-1.93
342.16	-1.93
342.543	-67.47
342.927	-72.44
343.31	-88.49
343.693	-65.44
344.077	-79.45
344.46	-57.3
344.843	-58.43
345.226	-25.89
345.61	-38.32
345.993	-15.27
346.376	-4.65
346.759	4.62
347.142	39.87
347.525	34.45
347.908	62.7
348.291	74
348.674	108.12
349.057	109.47
349.44	128.46
349.823	143.82
350.206	185.86
350.588	221.56
350.971	224.73
351.354	229.7
351.737	241.9
352.119	252.97
352.502	263.37
352.884	268.11
353.267	298.62
353.65	312.18
354.032	310.6
354.414	303.59
354.797	311.05
355.179	316.02
355.562	317.38
355.944	317.15
356.326	320.77
356.709	326.64
357.091	349.02
357.473	358.73
357.855	335.23
358.238	359.41
358.62	349.92
359.002	337.72
359.384	351.73
359.766	344.95
360.148	338.17
360.53	338.4
360.912	332.97
361.294	334.1
361.676	332.29
362.057	322.8
362.439	335.01
362.821	320.99
363.203	326.64
363.584	344.04
363.966	333.88
364.348	337.04
364.729	322.58
365.111	307.21
365.493	313.54
365.874	334.55
366.256	319.64
366.637	321.45
367.019	290.03
367.4	331.62
367.781	313.31
368.163	325.06
368.544	344.95
368.925	311.28
369.306	323.48
369.688	330.49
370.069	335.68
370.45	317.15
370.831	330.49
371.212	330.03
371.593	321.22
371.974	327.32
372.355	340.65
372.736	308.34
373.117	299.53
373.498	314.67
373.879	316.47
374.26	324.84
374.641	312.63
375.021	310.83
375.402	325.29
375.783	318.06
376.163	330.94
376.544	318.06
376.925	322.12
377.305	328.9
377.686	333.88
378.066	325.51
378.447	324.61
378.827	320.09
379.208	331.39
379.588	338.4
379.968	339.98
380.349	336.81
380.729	333.88
381.109	344.27
381.489	345.63
381.87	350.6
382.25	345.85
382.63	353.99
383.01	334.33
383.39	341.11
383.77	341.78
384.15	377.04
384.53	357.83
384.91	367.55
385.29	341.78
385.67	351.95
386.049	353.99
386.429	353.76
386.809	351.95
387.189	354.67
387.568	358.06
387.948	370.94
388.328	348.56
388.707	372.07
389.087	354.44
389.466	369.13
389.846	357.83
390.225	388.79
390.605	381.33
390.984	370.94
391.363	370.26
391.743	379.07
392.122	367.09
392.501	398.51
392.881	395.12
393.26	383.37
393.639	380.2
394.018	402.8
394.397	394.66
394.776	403.48
395.155	391.5
395.534	400.77
395.913	382.69
396.292	404.16
396.671	435.57
397.05	421.33
397.429	404.38
397.808	400.77
398.186	415.23
398.565	414.55
398.944	400.54
399.323	422.23
399.701	418.62
400.08	437.6
400.458	452.29
400.837	445.06
401.215	447.32
401.594	391.5
401.972	432.86
402.351	429.01
402.729	447.54
403.107	442.8
403.486	466.98
403.864	471.27
404.242	439.41
404.62	462.91
404.999	478.28
405.377	450.48
405.755	455.45
406.133	480.99
406.511	461.33
406.889	473.98
407.267	469.47
407.645	494.32
408.023	509.46
408.401	477.83
408.779	509.24
409.156	492.06
409.534	504.27
409.912	525.96
410.29	547.88
410.667	553.08
411.045	559.63
411.422	566.41
411.8	554.66
412.178	580.65
412.555	587.88
412.933	580.87
413.31	591.04
413.687	597.37
414.065	611.83
414.442	615.22
414.819	617.03
415.197	624.26
415.574	649.8
415.951	659.52
416.328	643.47
416.705	665.62
417.082	664.49
417.46	664.71
417.837	689.57
418.214	711.94
418.591	713.98
418.967	702
419.344	726.18
419.721	738.61
420.098	756.01
420.475	743.81
420.852	768.21
421.228	773.86
421.605	790.13
421.982	808.21
422.358	824.71
422.735	821.09
423.111	827.42
423.488	847.31
423.864	868.1
424.241	880.53
424.617	889.34
424.994	904.93
425.37	916.68
425.746	919.4
426.123	938.38
426.499	975.44
426.875	975.44
427.251	987.42
427.627	998.26
428.003	1029.45
428.379	1036.23
428.756	1021.09
429.132	1050.24
429.507	1076
429.883	1072.84
430.259	1083.69
430.635	1099.5
431.011	1097.7
431.387	1139.28
431.763	1157.13
432.138	1171.14
432.514	1154.64
432.89	1176.57
433.265	1221.08
433.641	1228.54
434.016	1266.73
434.392	1293.17
434.767	1294.98
435.143	1340.18
435.518	1359.84
435.894	1362.55
436.269	1402.77
436.644	1408.88
437.02	1444.81
437.395	1472.15
437.77	1466.73
438.145	1519.38
438.52	1551.7
438.895	1584.69
439.271	1580.17
439.646	1591.92
440.021	1584.01
440.395	1645.03
440.77	1655.2
441.145	1642.99
441.52	1695.65
441.895	1697.46
442.27	1698.81
442.645	1718.7
443.019	1720.28
443.394	1748.53
443.769	1791.92
444.143	1788.3
444.518	1849.77
444.892	1818.58
445.267	1813.84
445.641	1842.99
446.016	1846.38
446.39	1841.86
446.764	1860.39
447.139	1885.7
447.513	1906.26
447.887	1939.93
448.262	1938.35
448.636	1933.38
449.01	2014.51
449.384	2030.55
449.758	1998.24
450.132	2003.89
450.506	2048.18
450.88	2056.09
451.254	2040.95
451.628	2071.46
452.002	2096.31
452.376	2144
452.75	2110.78
453.123	2147.39
453.497	2191
453.871	2172.25
454.244	2197.78
454.618	2250.44
454.992	2252.47
455.365	2320.04
455.739	2351.45
456.112	2369.75
456.486	2371.79
456.859	2404.56
457.232	2451.56
457.606	2430.32
457.979	2459.47
458.352	2496.98
458.725	2523.87
459.099	2574.49
459.472	2577.21
459.845	2601.84
460.218	2610.65
460.591	2634.15
460.964	2695.17
461.337	2734.04
461.71	2755.73
462.083	2787.37
462.456	2791.21
462.829	2797.99
463.201	2787.14
463.574	2849.52
463.947	2916.86
464.32	2946.24
464.692	2973.81
465.065	2972
465.438	3022.39
465.81	3083.63
466.183	3087.7
466.555	3162.28
466.928	3137.64
467.3	3128.83
467.672	3205.21
468.045	3275.27
468.417	3320.69
468.789	3304.42
469.161	3349.39
469.534	3378.09
469.906	3491.08
470.278	3464.41
470.65	3484.08
471.022	3595.71
471.394	3621.47
471.766	3676.39
472.138	3702.15
472.51	3752.32
472.882	3797.06
473.253	3849.94
473.625	3883.16
473.997	3981.01
474.369	3985.53
474.74	4025.98
475.112	4116.83
475.484	4105.75
475.855	4157.28
476.227	4226.65
476.598	4329.7
476.97	4388.46
477.341	4438.85
477.713	4461.9
478.084	4464.16
478.455	4612.18
478.827	4692.18
479.198	4751.39
479.569	4767.21
479.94	4828.22
480.311	4906.86
480.682	4950.25
481.053	5077.93
481.424	5124.03
481.795	5141.88
482.166	5242.9
482.537	5304.37
482.908	5407.41
483.279	5428.43
483.65	5531.7
484.021	5620.97
484.391	5675.88
484.762	5724.92
485.133	5794.52
485.503	5801.75
485.874	5933.73
486.244	5938.25
486.615	6086.49
486.985	6104.12
487.356	6216.66
487.726	6252.14
488.097	6353.38
488.467	6354.28
488.837	6481.28
489.207	6503.2
489.578	6606.7
489.948	6660.26
490.318	6704.56
490.688	6755.18
491.058	6840.37
491.428	6917.66
491.798	6972.57
492.168	7093.92
492.538	7086.24
492.908	7091.21
493.278	7272.68
493.648	7222.28
494.017	7371.66
494.387	7345.89
494.757	7407.36
495.126	7487.36
495.496	7448.94
495.866	7532.33
496.235	7585.66
496.605	7654.36
496.974	7608.03
497.344	7693.23
497.713	7710.86
498.082	7764.41
498.452	7828.82
498.821	7841.47
499.19	7849.61
499.559	7904.3
499.928	7982.71
500.298	8017.52
500.667	8058.19
501.036	8061.13
501.405	8138.87
501.774	8142.71
502.143	8181.8
502.512	8159.88
502.88	8219.32
503.249	8212.76
503.618	8225.87
503.987	8284.85
504.356	8324.63
504.724	8325.08
505.093	8377.51
505.462	8346.09
505.83	8340.22
506.199	8436.49
506.567	8506.99
506.936	8531.85
507.304	8522.59
507.672	8596.93
508.041	8541.12
508.409	8604.84
508.777	8644.17
509.145	8781.56
509.514	8643.71
509.882	8682.36
510.25	8687.78
510.618	8737.27
510.986	8725.97
511.354	8778.85
511.722	8795.35
512.09	8814.78
512.458	8803.71
512.826	8820.88
513.193	8880.77
513.561	8928
513.929	8946.98
514.297	8969.13
514.664	8986.98
515.032	9001.9
515.4	9008
515.767	9086.87
516.135	9163.02
516.502	8994.66
516.869	9089.35
517.237	9048.9
517.604	9050.26
517.972	9127.32
518.339	9067.21
518.706	9057.04
519.073	9131.38
519.44	9092.06
519.808	9177.48
520.175	9152.63
520.542	9188.11
520.909	9256.13
521.276	9125.73
521.643	9242.34
522.009	9297.93
522.376	9320.31
522.743	9219.07
523.11	9340.19
523.477	9333.19
523.843	9384.71
524.21	9463.13
524.577	9397.14
524.943	9419.29
525.31	9396.24
525.676	9435.78
526.043	9490.92
526.409	9471.71
526.776	9531.6
527.142	9504.03
527.508	9535.67
527.874	9601.43
528.241	9526.63
528.607	9552.16
528.973	9559.17
529.339	9534.54
529.705	9566.85
530.071	9595.55
530.437	9558.94
530.803	9614.99
531.169	9573.41
531.535	9524.14
531.901	9572.05
532.267	9570.47
532.632	9595.55
532.998	9518.27
533.364	9540.64
533.73	9480.75
534.095	9587.87
534.461	9565.05
534.826	9534.76
535.192	9562.33
535.557	9542.67
535.923	9502.45
536.288	9555.1
536.653	9495.67
537.019	9521.43
537.384	9463.13
537.749	9472.17
538.114	9423.81
538.479	9450.7
538.845	9455.44
539.21	9414.09
539.575	9457.48
539.94	9419.51
540.305	9377.71
540.67	9379.74
541.034	9320.53
541.399	9386.52
541.764	9339.06
542.129	9251.83
542.494	9259.97
542.858	9257.03
543.223	9294.54
543.587	9271.49
543.952	9213.19
544.316	9212.96
544.681	9185.39
545.045	9159.63
545.41	9135.45
545.774	9224.72
546.138	9141.1
546.503	9145.85
546.867	9085.06
547.231	9108.33
547.595	9054.32
547.959	9006.64
548.324	8995.79
548.688	8995.57
549.052	8963.48
549.416	9018.39
549.779	8970.71
550.143	8975.68
550.507	8995.12
550.871	8970.03
551.235	8892.29
551.599	8947.89
551.962	8891.62
552.326	8858.85
552.689	8897.72
553.053	8803.26
553.417	8763.03
553.78	8907.89
554.143	8796.7
554.507	8812.07
554.87	8777.27
555.234	8835.8
555.597	8743.6
555.96	8757.61
556.323	8769.13
556.686	8731.62
557.05	8726.42
557.413	8706.31
557.776	8761.9
558.139	8720.77
558.502	8736.82
558.865	8738.63
559.228	8818.62
559.59	8842.13
559.953	8797.83
560.316	8801.68
560.679	8791.28
561.041	8821.34
561.404	8843.71
561.767	8782.47
562.129	8797.38
562.492	8883.26
562.854	8815.23
563.217	8824.95
563.579	8844.84
563.941	8854.33
564.304	8825.86
564.666	8839.41
565.028	8926.42
565.39	8888.45
565.753	8919.64
566.115	8936.59
566.477	8946.08
566.839	8995.34
567.201	8980.43
567.563	8982.46
567.925	9025.85
568.287	9059.97
568.648	9011.16
569.01	9074.66
569.372	9087.77
569.734	9062.69
570.095	9098.62
570.457	9104.27
570.819	9156.24
571.18	9150.14
571.542	9175.45
571.903	9183.81
572.265	9245.05
572.626	9233.3
572.987	9239.4
573.349	9265.17
573.71	9296.8
574.071	9264.71
574.432	9333.41
574.794	9332.96
575.155	9380.19
575.516	9269.69
575.877	9351.49
576.238	9366.18
576.599	9380.87
576.96	9479.17
577.32	9498.83
577.681	9463.8
578.042	9527.08
578.403	9490.7
578.763	9491.37
579.124	9535.22
579.485	9574.76
579.845	9651.37
580.206	9592.62
580.566	9637.81
580.927	9631.48
581.287	9723.46
581.648	9705.38
582.008	9678.94
582.368	9660.86
582.728	9735.89
583.089	9707.19
583.449	9810.91
583.809	9853.4
584.169	9857.47
584.529	9734.08
584.889	9859.95
585.249	9826.51
585.609	9820.18
585.969	9904.47
586.329	9870.12
586.688	9915.32
587.048	9917.13
587.408	9912.61
587.768	9971.81
588.127	9985.37
588.487	9979.72
588.846	9994.86
589.206	9995.09
589.565	9989.21
589.925	10037.35
590.284	10021.76
590.643	10058.82
591.003	10052.49
591.362	10144.92
591.721	10119.61
592.08	10014.98
592.44	10141.75
592.799	10141.98
593.158	10076.9
593.517	10156.89
593.876	10188.08
594.235	10144.24
594.593	10102.21
594.952	10138.14
595.311	10141.3
595.67	10125.03
596.029	10262.88
596.387	10240.06
596.746	10260.62
597.104	10283.9
597.463	10267.85
597.822	10249.77
598.18	10231.69
598.538	10288.64
598.897	10311.01
599.255	10212.03
599.613	10331.8
599.972	10290.45
600.33	10271.92
600.688	10266.27
601.046	10313.5
601.404	10376.1
601.762	10296.78
602.12	10332.48
602.478	10454.06
602.836	10404.57
603.194	10330
603.552	10362.09
603.91	10336.1
604.268	10415.87
604.625	10356.89
604.983	10378.81
605.341	10311.01
605.698	10384.01
606.056	10410.45
606.413	10389.88
606.771	10452.93
607.128	10444.8
607.485	10405.47
607.843	10437.11
608.2	10444.34
608.557	10451.8
608.914	10480.73
609.272	10525.7
609.629	10461.97
609.986	10544.45
610.343	10498.58
610.7	10561.86
611.057	10555.53
611.414	10504.46
611.771	10516.21
612.127	10548.52
612.484	10628.75
612.841	10639.59
613.198	10623.55
613.554	10605.92
613.911	10656.09
614.267	10691.57
614.624	10649.54
614.98	10614.96
615.337	10729.99
615.693	10711.23
616.05	10644.79
616.406	10668.97
616.762	10732.7
617.118	10707.61
617.475	10744.45
617.831	10821.51
618.187	10741.96
618.543	10772.7
618.899	10812.24
619.255	10843.66
619.611	10838.23
619.967	10813.15
620.323	10842.3
620.678	10779.02
621.034	10707.61
621.39	10800.04
621.746	10750.78
622.101	10856.08
622.457	10785.13
622.812	10795.3
623.168	10784.9
623.523	10886.37
623.879	10812.92
624.234	10774.96
624.589	10799.59
624.945	10777.67
625.3	10827.38
625.655	10833.94
626.01	10793.49
626.365	10829.87
626.72	10744
627.075	10725.24
627.43	10713.94
627.785	10728.4
628.14	10706.71
628.495	10794.39
628.85	10770.66
629.205	10734.51
629.559	10795.52
629.914	10684.34
630.269	10694.96
630.623	10696.54
630.978	10737.22
631.332	10729.31
631.687	10760.04
632.041	10608.18
632.396	10667.84
632.75	10647.5
633.104	10672.81
633.459	10647.05
633.813	10605.02
634.167	10626.03
634.521	10583.78
634.875	10588.75
635.229	10605.24
635.583	10577.67
635.937	10624.45
636.291	10543.1
636.645	10544.68
636.999	10508.52
637.352	10589.88
637.706	10420.62
638.06	10465.59
638.413	10460.84
638.767	10386.27
639.121	10464.91
639.474	10400.05
639.828	10369.32
640.181	10432.37
640.534	10389.43
640.888	10364.57
641.241	10377.23
641.594	10426.94
641.947	10381.07
642.301	10421.07
642.654	10374.52
643.007	10243.9
643.36	10338.58
643.713	10322.99
644.066	10326.83
644.419	10290.9
644.771	10262.65
645.124	10195.76
645.477	10079.16
645.83	10106.5
646.182	10040.29
646.535	10072.15
646.888	9965.26
647.24	9971.14
647.593	9966.62
647.945	9970.91
648.298	9940.85
648.65	9927.3
649.002	9954.19
649.355	10045.03
649.707	9934.53
650.059	10023.79
650.411	10070.34
650.763	10100.85
651.115	10225.14
651.467	10195.99
651.819	10242.32
652.171	10232.37
652.523	10146.95
652.875	10157.57
653.227	10133.84
653.578	10171.81
653.93	10185.59
654.282	10120.74
654.633	10111.7
654.985	10095.2
655.337	10151.92
655.688	10194.41
656.039	10240.28
656.391	10169.32
656.742	10155.76
657.094	10060.63
657.445	10247.97
657.796	10124.13
658.147	10167.06
658.498	10168.42
658.849	10107.63
659.2	10205.93
659.551	10156.22
659.902	10212.26
660.253	10232.82
660.604	10223.78
660.955	10147.63
661.306	10220.85
661.656	10219.04
662.007	10211.36
662.358	10190.11
662.708	10219.49
663.059	10260.17
663.409	10148.53
663.76	10284.12
664.11	10245.93
664.461	10266.27
664.811	10274.4
665.161	10240.73
665.511	10276.44
665.862	10240.06
666.212	10297.23
666.562	10311.01
666.912	10209.1
667.262	10230.34
667.612	10223.78
667.962	10232.37
668.312	10215.65
668.662	10363.67
669.011	10278.47
669.361	10236.44
669.711	10234.41
670.06	10279.6
670.41	10181.07
670.76	10174.29
671.109	10284.12
671.459	10175.2
671.808	10155.09
672.157	10140.62
672.507	10051.13
672.856	10168.19
673.205	10119.38
673.554	10156.67
673.904	10125.93
674.253	10201.64
674.602	10166.84
674.951	9967.75
675.3	10000.29
675.649	10045.71
675.998	10046.61
676.346	10058.37
676.695	10031.93
677.044	10006.16
677.393	10111.47
677.741	10031.25
678.09	9986.95
678.438	10048.65
678.787	9992.15
679.135	9977.69
679.484	9930.46
679.832	10028.99
680.181	9898.37
680.529	10009.33
680.877	9919.39
681.225	9929.56
681.573	9942.66
681.922	9930.23
682.27	9832.83
682.618	9833.51
682.966	9726.17
683.314	9838.94
683.661	9785.83
684.009	9701.31
684.357	9781.76
684.705	9728.43
685.053	9688.21
685.4	9731.59
685.748	9603.24
686.095	9656.79
686.443	9581.99
686.79	9520.07
687.138	9576.57
687.485	9568.89
687.832	9573.86
688.18	9510.58
688.527	9431.04
688.874	9470.58
689.221	9439.17
689.568	9416.35
689.915	9429.91
690.262	9349.68
690.609	9330.25
690.956	9351.04
691.303	9353.3
691.65	9277.6
691.997	9243.02
692.344	9244.15
692.69	9153.3
693.037	9187.65
693.383	9156.02
693.73	9045.96
694.077	8996.92
694.423	9036.25
694.769	8986.76
695.116	8905.18
695.462	8924.16
695.808	8913.76
696.155	8880.77
696.501	8866.08
696.847	8786.76
697.193	8825.86
697.539	8762.35
697.885	8726.65
698.231	8612.53
698.577	8693.43
698.923	8651.17
699.269	8559.65
699.614	8556.71
699.96	8491.85
700.306	8524.62
700.651	8488.24
700.997	8440.55
701.342	8434.45
701.688	8413.44
702.033	8370.05
702.379	8368.24
702.724	8347.45
703.069	8372.31
703.415	8231.97
703.76	8220
704.105	8244.18
704.45	8212.76
704.795	8142.48
705.14	8178.19
705.485	8141.81
705.83	8058.19
706.175	8070.17
706.52	8039.66
706.865	7967.35
707.209	8013.22
707.554	7978.42
707.899	7954.01
708.243	7989.72
708.588	7932.32
708.932	7899.78
709.277	7812.1
709.621	7909.95
709.966	7777.75
710.31	7862.49
710.654	7707.47
710.998	7759.67
711.342	7681.7
711.687	7681.93
712.031	7719.44
712.375	7656.62
712.719	7629.73
713.063	7671.76
713.407	7616.85
713.75	7580.46
714.094	7593.57
714.438	7553.8
714.782	7574.14
715.125	7527.36
715.469	7581.14
715.812	7541.14
716.156	7505.44
716.499	7473.8
716.843	7529.39
717.186	7443.29
717.53	7438.1
717.873	7464.54
718.216	7474.25
718.559	7462.05
718.902	7397.87
719.246	7337.53
719.589	7400.13
719.932	7365.1
720.275	7397.64
720.617	7328.04
720.96	7306.12
721.303	7255.05
721.646	7336.4
721.989	7280.13
722.331	7330.98
722.674	7271.09
723.016	7312.67
723.359	7283.98
723.701	7326.69
724.044	7253.02
724.386	7220.25
724.729	7252.56
725.071	7314.26
725.413	7273.81
725.755	7276.97
726.097	7189.51
726.439	7134.6
726.782	7183.86
727.124	7226.58
727.465	7175.73
727.807	7173.24
728.149	7115.62
728.491	7224.99
728.833	7206.46
729.175	7164.43
729.516	7177.99
729.858	7172.79
730.199	7141.83
730.541	7138.44
730.882	7179.57
731.224	7181.83
731.565	7104.54
731.906	7113.13
732.248	7153.36
732.589	7126.01
732.93	7101.61
733.271	7072.91
733.612	7170.08
733.953	7151.1
734.294	7183.64
734.635	7161.04
734.976	7157.88
735.317	7149.06
735.658	7142.28
735.999	7130.31
736.339	7119.23
736.68	7203.07
737.021	7163.75
737.361	7114.71
737.702	7214.82
738.042	7114.71
738.383	7187.71
738.723	7235.39
739.063	7147.48
739.404	7228.84
739.744	7227.93
740.084	7215.05
740.424	7215.5
740.764	7162.4
741.104	7267.03
741.444	7271.55
741.784	7190.42
742.124	7334.6
742.464	7325.1
742.804	7308.16
743.143	7322.17
743.483	7336.86
743.823	7365.33
744.162	7432.9
744.502	7417.3
744.841	7438.55
745.181	7555.61
745.52	7525.1
745.86	7537.3
746.199	7558.09
746.538	7632.21
746.877	7622.5
747.216	7704.98
747.556	7737.97
747.895	7804.41
748.234	7845.77
748.573	7901.36
748.911	7968.7
749.25	8040.11
749.589	8032.66
749.928	8122.15
750.267	8160.56
750.605	8226.1
750.944	8242.14
751.283	8348.58
751.621	8497.95
751.96	8521
752.298	8625.41
752.636	8702.47
752.975	8807.78
753.313	8857.95
753.651	9056.81
753.989	9086.41
754.327	9192.85
754.666	9242.34
755.004	9386.07
755.342	9530.92
755.679	9734.31
756.017	9772.72
756.355	10012.72
756.693	10005.71
757.031	10243.22
757.368	10325.03
757.706	10461.97
758.044	10609.54
758.381	10794.62
758.719	10910.09
759.056	11072.12
759.394	11269.41
759.731	11425.56
760.068	11513.24
760.405	11717.53
760.743	11846.79
761.08	12091.53
761.417	12221.47
761.754	12378.53
762.091	12577.17
762.428	12743.27
762.765	12975.12
763.102	13113.65
763.438	13215.8
763.775	13407.2
764.112	13592.28
