Data from hue_20_FLMS001491_94.txt Node
Date: Mon Feb 06 15:35:00 GMT 2017
User: dcchb
Spectrometer: FLMS00149
Trigger mode: 0
Integration Time (sec): 2.000000E-2
Scans to average: 10
Electric dark correction enabled: true
Nonlinearity correction enabled: false
Boxcar width: 0
XAxis mode: Wavelengths
Number of Pixels in Spectrum: 2048
>>>>>Begin Spectral Data<<<<<
341.393	-2.08
341.776	-2.08
342.16	-2.08
342.543	-57.89
342.927	-62.64
343.31	-74.16
343.693	-67.61
344.077	-62.64
344.46	-63.54
344.843	-39.36
345.226	-51.34
345.61	-32.81
345.993	-14.05
346.376	-6.14
346.759	10.8
347.142	30.92
347.525	37.7
347.908	70.24
348.291	73.85
348.674	64.81
349.057	123.34
349.44	131.25
349.823	138.26
350.206	147.3
350.588	198.6
350.971	224.58
351.354	245.37
351.737	227.75
352.119	241.76
352.502	277.69
352.884	277.46
353.267	272.04
353.65	312.94
354.032	305.71
354.414	309.33
354.797	313.4
355.179	316.79
355.562	329.44
355.944	332.38
356.326	341.19
356.709	326.5
357.091	348.65
357.473	355.65
357.855	347.75
358.238	352.49
358.62	331.93
359.002	355.43
359.384	372.6
359.766	347.75
360.148	357.91
360.53	354.98
360.912	350.23
361.294	328.31
361.676	340.06
362.057	333.73
362.439	367.86
362.821	323.56
363.203	320.63
363.584	348.42
363.966	315.43
364.348	325.15
364.729	327.41
365.111	310.91
365.493	336.45
365.874	330.57
366.256	320.63
366.637	321.76
367.019	333.96
367.4	331.93
367.781	337.12
368.163	321.08
368.544	306.39
368.925	316.56
369.306	320.4
369.688	323.56
370.069	332.83
370.45	323.11
370.831	322.21
371.212	309.55
371.593	317.46
371.974	323.79
372.355	316.11
372.736	335.54
373.117	333.51
373.498	330.12
373.879	328.76
374.26	316.56
374.641	331.25
375.021	330.34
375.402	340.29
375.783	325.15
376.163	357.69
376.544	340.29
376.925	342.55
377.305	359.72
377.686	318.14
378.066	346.39
378.447	330.12
378.827	348.65
379.208	355.43
379.588	335.77
379.968	347.07
380.349	344.81
380.729	331.7
381.109	354.07
381.489	351.59
381.87	348.65
382.25	355.43
382.63	369.21
383.01	356.56
383.39	372.38
383.77	361.08
384.15	354.75
384.53	360.17
384.91	360.4
385.29	377.8
385.67	353.85
386.049	363.11
386.429	354.75
386.809	366.5
387.189	377.8
387.568	379.38
387.948	378.7
388.328	386.39
388.707	389.1
389.087	384.81
389.466	388.2
389.846	383.9
390.225	366.5
390.605	379.38
390.984	399.72
391.363	394.07
391.743	390.91
392.122	393.85
392.501	387.07
392.881	376.67
393.26	389.55
393.639	387.07
394.018	388.87
394.397	406.05
394.776	394.75
395.155	398.82
395.534	407.18
395.913	407.18
396.292	436.78
396.671	412.38
397.05	433.39
397.429	402.21
397.808	401.53
398.186	413.96
398.565	411.7
398.944	432.49
399.323	420.51
399.701	416.44
400.08	405.82
400.458	430.45
400.837	427.07
401.215	449.66
401.594	437.01
401.972	441.75
402.351	433.17
402.729	437.01
403.107	450.79
403.486	433.62
403.864	442.88
404.242	467.74
404.62	454.41
404.999	453.73
405.377	462.54
405.755	483.11
406.133	468.42
406.511	452.6
406.889	458.48
407.267	458.7
407.645	469.55
408.023	463.22
408.401	481.53
408.779	473.84
409.156	491.7
409.534	486.95
409.912	489.89
410.29	488.98
410.667	482.2
411.045	504.58
411.422	500.51
411.8	514.97
412.178	510.45
412.555	503.9
412.933	519.94
413.31	537.57
413.687	538.25
414.065	522.43
414.442	549.55
414.819	531.7
415.197	535.99
415.574	531.47
415.951	543.67
416.328	564.91
416.705	551.81
417.082	564.01
417.46	561.52
417.837	580.06
418.214	541.41
418.591	581.41
418.967	560.39
419.344	587.06
419.721	594.74
420.098	580.73
420.475	575.08
420.852	572.15
421.228	606.72
421.605	604.01
421.982	594.07
422.358	593.84
422.735	586.16
423.111	604.24
423.488	610.79
423.864	603.56
424.241	621.41
424.617	656.44
424.994	630.22
425.37	641.97
425.746	606.5
426.123	636.33
426.499	644.69
426.875	636.55
427.251	654.86
427.627	647.4
428.003	674.74
428.379	678.13
428.756	685.14
429.132	693.05
429.507	680.17
429.883	703.44
430.259	712.71
430.635	729.43
431.011	708.64
431.387	709.09
431.763	715.87
432.138	737.11
432.514	724.23
432.89	720.16
433.265	745.93
433.641	752.48
434.016	764.23
434.392	771.46
434.767	773.5
435.143	776.89
435.518	799.71
435.894	774.4
436.269	797.68
436.644	802.2
437.02	832.93
437.395	834.74
437.77	821.18
438.145	839.26
438.52	832.48
438.895	837.68
439.271	855.53
439.646	873.38
440.021	867.51
440.395	871.12
440.77	874.96
441.145	890.78
441.52	907.05
441.895	888.97
442.27	896.66
442.645	915.64
443.019	905.24
443.394	910.89
443.769	924.68
444.143	924.91
444.518	935.75
444.892	955.86
445.267	956.32
445.641	952.02
446.016	959.25
446.39	956.99
446.764	991.8
447.139	967.62
447.513	976.88
447.887	982.98
448.262	971.01
448.636	998.8
449.01	980.72
449.384	1023.21
449.758	1007.39
450.132	1031.57
450.506	1025.69
450.88	1021.63
451.254	1006.26
451.628	1039.03
452.002	1074.05
452.376	1077.44
452.75	1079.93
453.123	1072.25
453.497	1104.11
453.871	1092.58
454.244	1105.47
454.618	1112.24
454.992	1153.6
455.365	1171
455.739	1154.5
456.112	1183.66
456.486	1163.77
456.859	1223.43
457.232	1206.93
457.606	1197.21
457.979	1225.01
458.352	1250.09
458.725	1269.08
459.099	1249.19
459.472	1306.36
459.845	1291.68
460.218	1311.79
460.591	1320.15
460.964	1346.36
461.337	1356.98
461.71	1357.44
462.083	1382.29
462.456	1380.26
462.829	1375.97
463.201	1428.85
463.574	1401.73
463.947	1450.31
464.32	1453.93
464.692	1482.18
465.065	1478.34
465.438	1513.14
465.81	1535.96
466.183	1540.71
466.555	1592.68
466.928	1578.45
467.3	1577.32
467.672	1610.76
468.045	1634.94
468.417	1638.78
468.789	1671.78
469.161	1699.12
469.534	1722.17
469.906	1754.49
470.278	1772.57
470.65	1793.81
471.022	1792.23
471.394	1845.11
471.766	1873.35
472.138	1866.12
472.51	1905.44
472.882	1940.02
473.253	1937.31
473.625	1997.42
473.997	1979.79
474.369	2031.32
474.74	2057.98
475.112	2112.67
475.484	2175.04
475.855	2179.11
476.227	2207.13
476.598	2256.4
476.97	2275.38
477.341	2314.25
477.713	2358.31
478.084	2392.89
478.455	2427.92
478.827	2476.28
479.198	2565.77
479.569	2565.77
479.94	2605.76
480.311	2608.7
480.682	2701.36
481.053	2775.93
481.424	2798.98
481.795	2859.54
482.166	2894.57
482.537	2951.52
482.908	2979.54
483.279	3020.22
483.65	3107.9
484.021	3187.44
484.391	3196.48
484.762	3242.13
485.133	3240.32
485.503	3329.81
485.874	3368.91
486.244	3422.92
486.615	3480.09
486.985	3531.39
487.356	3610.26
487.726	3645.29
488.097	3728.67
488.467	3723.93
488.837	3809.35
489.207	3834.43
489.578	3887.09
489.948	3946.75
490.318	4030.59
490.688	4070.36
491.058	4116.01
491.428	4192.62
491.798	4179.96
492.168	4297.47
492.538	4292.05
492.908	4415.89
493.278	4438.48
493.648	4441.65
494.017	4530.01
494.387	4503.57
494.757	4600.97
495.126	4645.26
495.496	4701.3
495.866	4757.35
496.235	4787.18
496.605	4835.99
496.974	4804.13
497.344	4886.38
497.713	4913.05
498.082	4999.83
498.452	5028.75
498.821	5053.84
499.19	5100.84
499.559	5130.67
499.928	5197.56
500.298	5163.66
500.667	5237.56
501.036	5235.75
501.405	5336.54
501.774	5284.11
502.143	5400.04
502.512	5379.48
502.88	5452.47
503.249	5461.73
503.618	5484.11
503.987	5525.46
504.356	5580.15
504.724	5591.9
505.093	5621.96
505.462	5620.6
505.83	5687.04
506.199	5685.01
506.567	5805.68
506.936	5814.95
507.304	5883.64
507.672	5859.24
508.041	5902.4
508.409	5962.96
508.777	6011.55
509.145	6047.26
509.514	6075.73
509.882	6082.28
510.25	6070.31
510.618	6105.79
510.986	6148.04
511.354	6169.74
511.722	6220.81
512.09	6267.36
512.458	6306.01
512.826	6305.78
513.193	6349.62
513.561	6373.12
513.929	6409.28
514.297	6442.73
514.664	6488.83
515.032	6491.31
515.4	6538.99
515.767	6602.72
516.135	6581.93
516.502	6582.38
516.869	6679.78
517.237	6711.65
517.604	6704.41
517.972	6787.58
518.339	6851.98
518.706	6866.22
519.073	6897.4
519.44	6878.65
519.808	7009.04
520.175	6950.96
520.542	6964.29
520.909	7098.75
521.276	7062.14
521.643	7076.83
522.009	7213.55
522.376	7243.38
522.743	7284.06
523.11	7335.81
523.477	7352.31
523.843	7418.29
524.21	7484.96
524.577	7552.53
524.943	7575.35
525.31	7591.4
525.676	7716.59
526.043	7670.26
526.409	7671.17
526.776	7769.02
527.142	7829.58
527.508	7845.85
527.874	7943.03
528.241	7981.22
528.607	7976.7
528.973	8023.7
529.339	8052.85
529.705	8079.52
530.071	8228.67
530.437	8258.05
530.803	8282.23
531.169	8350.47
531.535	8308.67
531.901	8379.17
532.267	8377.82
532.632	8436.57
532.998	8508.66
533.364	8518.15
533.73	8575.78
534.095	8714.53
534.461	8679.05
534.826	8690.12
535.192	8719.28
535.557	8782.1
535.923	8816.67
536.288	8819.61
536.653	8888.31
537.019	8918.14
537.384	8986.84
537.749	8948.87
538.114	9005.37
538.479	9061.64
538.845	9108.87
539.21	9111.58
539.575	9118.59
539.94	9218.7
540.305	9201.98
540.67	9251.01
541.034	9302.31
541.399	9319.03
541.764	9261.86
542.129	9389.54
542.494	9455.3
542.858	9461.18
543.223	9476.32
543.587	9541.63
543.952	9637.44
544.316	9654.17
544.681	9609.87
545.045	9686.48
545.41	9773.49
545.774	9751.79
546.138	9798.34
546.503	9815.29
546.867	9811.9
547.231	9978.23
547.595	9939.81
547.959	9900.94
548.324	10005.34
548.688	10026.59
549.052	10074.49
549.416	10081.27
549.779	10103.87
550.143	10152.23
550.507	10254.6
550.871	10200.59
551.235	10290.08
551.599	10333.92
551.962	10362.85
552.326	10401.94
552.689	10415.73
553.053	10452.56
553.417	10468.16
553.78	10626.34
554.143	10611.66
554.507	10565.1
554.87	10617.76
555.234	10700.92
555.597	10669.06
555.96	10733.91
556.323	10772.33
556.686	10816.62
557.05	10872.21
557.413	10783.63
557.776	10915.15
558.139	10954.92
558.502	10994.47
558.865	11064.75
559.228	11177.74
559.59	11184.75
559.953	11180.91
560.316	11239.44
560.679	11242.83
561.041	11324.86
561.404	11375.48
561.767	11499.09
562.129	11407.79
562.492	11508.36
562.854	11543.38
563.217	11567.11
563.579	11617.51
563.941	11684.85
564.304	11692.98
564.666	11782.7
565.028	11773.43
565.39	11793.77
565.753	11876.93
566.115	11926.2
566.477	11949.47
566.839	12093.42
567.201	12094.33
567.563	12103.37
567.925	12177.49
568.287	12204.83
568.648	12224.27
569.01	12271.73
569.372	12391.27
569.734	12332.51
570.095	12482.79
570.457	12527.76
570.819	12537.26
571.18	12550.14
571.542	12634.2
571.903	12652.51
572.265	12713.75
572.626	12815.44
572.987	12855.89
573.349	12918.71
573.71	12946.06
574.071	13022.21
574.432	13066.28
574.794	13266.28
575.155	13246.39
575.516	13261.08
575.877	13279.38
576.238	13354.63
576.599	13485.7
576.96	13488.87
577.32	13581.52
577.681	13629.88
578.042	13818.13
578.403	13852.02
578.763	13903.09
579.124	13963.66
579.485	14136.54
579.845	14313.03
580.206	14228.06
580.566	14398
580.927	14498.79
581.287	14651.78
581.648	14694.49
582.008	14824.65
582.368	14950.07
582.728	15104.65
583.089	15190.74
583.449	15341.7
583.809	15452.88
584.169	15622.15
584.529	15729.04
584.889	16010.38
585.249	16159.31
585.609	16196.82
585.969	16474.1
586.329	16701.89
586.688	16900.3
587.048	16972.39
587.408	17096.91
587.768	17431.14
588.127	17602.88
588.487	17859.83
588.846	18075.64
589.206	18316.76
589.565	18466.14
589.925	18767.15
590.284	18935.73
590.643	19346.79
591.003	19469.05
591.362	19804.63
591.721	19941.58
592.08	20289.59
592.44	20564.16
592.799	20688.23
593.158	20952.63
593.517	21356.91
593.876	21628.09
594.235	21747.18
594.593	22077.12
594.952	22463.1
595.311	22618.8
595.67	22957.09
596.029	23454.93
596.387	23681.82
596.746	24026.67
597.104	24112.77
597.463	24444.06
597.822	24757.95
598.18	24999.98
598.538	25364.26
598.897	25750.92
599.255	25778.26
599.613	26456.44
599.972	26555.19
600.33	27008.06
600.688	26973.94
601.046	27531.66
601.404	27839.9
601.762	28010.97
602.12	28448.25
602.478	28702.93
602.836	28934.34
603.194	28958.29
603.552	29273.99
603.91	29535.9
604.268	29841.66
604.625	30113.52
604.983	30419.04
605.341	30554.63
605.698	31024
606.056	31455.18
606.413	31573.59
606.771	31828.05
607.128	32223.07
607.485	32231.43
607.843	32485.43
608.2	32912.31
608.557	33296.48
608.914	33257.39
609.272	33576.02
609.629	33980.53
609.986	34238.38
610.343	34267.08
610.7	34746.39
611.057	34903.9
611.414	34992.48
611.771	35405.81
612.127	35482.87
612.484	35714.72
612.841	36045.79
613.198	35980.48
613.554	36200.59
613.911	36601.03
614.267	36750.18
614.624	36869.27
614.98	37026.55
615.337	37451.63
615.693	37490.05
616.05	37519.2
616.406	38017.94
616.762	38104.49
617.118	38187.88
617.475	38242.57
617.831	38492.96
618.187	38820.86
618.543	38842.33
618.899	39161.41
619.255	39313.05
619.611	39254.29
619.967	39576.09
620.323	39649.76
620.678	39767.73
621.034	39662.42
621.39	39828.29
621.746	39875.97
622.101	40390.08
622.457	40134.04
622.812	40307.6
623.168	40594.37
623.523	40524.54
623.879	40883.18
624.234	40601.15
624.589	40935.83
624.945	41022.61
625.3	41163.4
625.655	41111.19
626.01	41184.41
626.365	41277.74
626.72	41283.17
627.075	41440.45
627.43	41478.64
627.785	41357.06
628.14	41545.76
628.495	41769.48
628.85	41828.69
629.205	41638.41
629.559	42100.55
629.914	41769.03
630.269	41853.32
630.623	41793.43
630.978	41793.43
631.332	42065.52
631.687	41949.59
632.041	42062.35
632.396	42129.25
632.75	42025.52
633.104	42155.01
633.459	41981
633.813	42090.38
634.167	42145.06
634.521	42023.71
634.875	42148
635.229	41964.5
635.583	41962.24
635.937	42101.22
636.291	42031.85
636.645	41969.02
636.999	41983.26
637.352	42204.05
637.706	42005.41
638.06	42169.24
638.413	42030.04
638.767	42049.7
639.121	42053.54
639.474	41757.96
639.828	41964.28
640.181	42165.85
640.534	41973.32
640.888	41975.13
641.241	41805.64
641.594	41919.31
641.947	42108
642.301	41869.59
642.654	41997.05
643.007	41965.41
643.36	42069.59
643.713	41889.03
644.066	42067.78
644.419	41817.84
644.771	41492.43
645.124	41156.62
645.477	41042.04
645.83	40942.61
646.182	40771.99
646.535	40691.09
646.888	40847.02
647.24	40649.51
647.593	40756.63
647.945	40720.24
648.298	40503.75
648.65	40480.48
649.002	40258.56
649.355	40664.65
649.707	40380.59
650.059	40632.56
650.411	41147.12
650.763	41268.03
651.115	41638.18
651.467	41483.84
651.819	41463.73
652.171	41405.65
652.523	41488.13
652.875	41308.02
653.227	41204.3
653.578	41461.01
653.93	41328.36
654.282	41189.38
654.633	41153.23
654.985	41160.23
655.337	41190.96
655.688	41221.47
656.039	41334.01
656.391	41015.15
656.742	41211.08
657.094	41189.61
657.445	41246.1
657.796	41149.61
658.147	40927.7
658.498	41130.63
658.849	41095.15
659.2	41011.53
659.551	40943.29
659.902	41191.19
660.253	41099.89
660.604	41140.57
660.955	40976.51
661.306	41053.12
661.656	40946.45
662.007	41069.39
662.358	41070.74
662.708	41036.39
663.059	40896.06
663.409	40753.01
663.76	41030.74
664.11	40966.79
664.461	41050.4
664.811	41025.32
665.161	40833.91
665.511	40795.95
665.862	40934.47
666.212	41075.04
666.562	41006.79
666.912	40902.38
667.262	40848.15
667.612	41032.1
667.962	40958.88
668.312	40985.09
668.662	41135.37
669.011	41047.47
669.361	40957.07
669.711	41007.24
670.06	40844.31
670.41	40832.1
670.76	40811.99
671.109	40867.36
671.459	40906.45
671.808	40808.38
672.157	40818.55
672.507	40592.56
672.856	40444.32
673.205	40675.27
673.554	40859.67
673.904	40747.36
674.253	40832.78
674.602	40661.71
674.951	40103.08
675.3	40035.29
675.649	40660.36
675.998	40605.22
676.346	40634.82
676.695	40739.9
677.044	40287.03
677.393	40399.35
677.741	40501.04
678.09	40595.5
678.438	40413.58
678.787	40353.47
679.135	40308.05
679.484	40079.13
679.832	40267.15
680.181	40054.05
680.529	40138.56
680.877	40132.91
681.225	39928.63
681.573	40194.61
681.922	39969.08
682.27	39876.65
682.618	39939.25
682.966	39744.9
683.314	39724.79
683.661	39708.07
684.009	39580.39
684.357	39502.42
684.705	39438.69
685.053	39556.21
685.4	39512.14
685.748	39251.81
686.095	39171.36
686.443	39220.62
686.79	39067.63
687.138	39093.84
687.485	39109.21
687.832	39004.81
688.18	39061.53
688.527	38861.99
688.874	38710.35
689.221	38678.94
689.568	38629
689.915	38526.63
690.262	38479.17
690.609	38431.72
690.956	38269.91
691.303	38293.19
691.65	37976.13
691.997	38087.32
692.344	37866.31
692.69	37863.82
693.037	37876.93
693.383	37448.01
693.73	37601.68
694.077	37647.56
694.423	37437.62
694.769	37402.36
695.116	37325.98
695.462	37298.64
695.808	37049.38
696.155	37071.3
696.501	36905.65
696.847	36876.28
697.193	36670.18
697.539	36831.98
697.885	36471.54
698.231	36461.37
698.577	36381.6
698.923	36343.41
699.269	36297.99
699.614	36087.82
699.96	35915.4
700.306	35959.69
700.651	35867.04
700.997	35795.17
701.342	35597.89
701.688	35648.74
702.033	35512.47
702.379	35522.41
702.724	35331.91
703.069	35256.88
703.415	35032.03
703.76	34969.43
704.105	35055.31
704.45	34971.47
704.795	34821.64
705.14	34636.11
705.485	34670.68
705.83	34548.43
706.175	34701.42
706.52	34466.4
706.865	34244.48
707.209	34359.05
707.554	34078.84
707.899	34302.78
708.243	34118.83
708.588	34015.11
708.932	33769.47
709.277	33760.65
709.621	33808.33
709.966	33614.22
710.31	33612.41
710.654	33335.58
710.998	33487.66
711.342	33445.18
711.687	33292.42
712.031	33311.85
712.375	33067.79
712.719	33033.67
713.063	33148.01
713.407	33265.52
713.75	32872.77
714.094	32955.7
714.438	32751.19
714.782	32800.45
715.125	32718.19
715.469	32688.59
715.812	32479.56
716.156	32436.39
716.499	32386.22
716.843	32522.49
717.186	32243.18
717.53	32418.09
717.873	32367.69
718.216	32154.37
718.559	32191.88
718.902	31911.21
719.246	31948.5
719.589	31852.45
719.932	31735.85
720.275	31783.53
720.617	31795.28
720.96	31695.85
721.303	31547.83
721.646	31628.5
721.989	31392.35
722.331	31484.55
722.674	31437.78
723.016	31462.18
723.359	31220.61
723.701	31374.05
724.044	31184.9
724.386	30956.66
724.729	31162.98
725.071	31092.93
725.413	31036.88
725.755	31095.64
726.097	30959.6
726.439	30757.79
726.782	30838.47
727.124	30998.24
727.465	30725.25
727.807	30740.17
728.149	30712.82
728.491	30572.26
728.833	30617.91
729.175	30388.99
729.516	30313.28
729.858	30366.39
730.199	30363.23
730.541	30392.83
730.882	30294.98
731.224	30249.78
731.565	30110.35
731.906	30313.06
732.248	30252.95
732.589	30030.35
732.93	29885.27
733.271	29957.36
733.612	30061.31
733.953	29886.18
734.294	29850.7
734.635	29924.59
734.976	29713.3
735.317	29649.35
735.658	29617.26
735.999	29656.13
736.339	29559.86
736.68	29728.89
737.021	29567.32
737.361	29463.59
737.702	29581.33
738.042	29350.82
738.383	29427.66
738.723	29421.33
739.063	29297.04
739.404	29396.47
739.744	29344.04
740.084	29126.65
740.424	29163.03
740.764	29022.7
741.104	29139.98
741.444	28963.94
741.784	28900.67
742.124	29064.96
742.464	28877.84
742.804	28933.89
743.143	28850.05
743.483	28891.85
743.823	28679.66
744.162	28745.64
744.502	28721.46
744.841	28607.79
745.181	28646.44
745.52	28501.13
745.86	28597.17
746.199	28520.56
746.538	28392.21
746.877	28431.53
747.216	28458.19
747.556	28472.66
747.895	28433.56
748.234	28331.64
748.573	28259.1
748.911	28104.53
749.25	28188.37
749.589	28180.69
749.928	28134.81
750.267	28164.64
750.605	28139.33
750.944	28126
751.283	27922.84
751.621	27974.14
751.96	27818.21
752.298	27961.03
752.636	27932.78
752.975	27554.04
753.313	27632.23
753.651	27761.94
753.989	27646.46
754.327	27574.83
754.666	27528.5
755.004	27405.11
755.342	27484.43
755.679	27428.16
756.017	27301.84
756.355	27328.28
756.693	27287.6
757.031	27162.18
757.368	27043.54
757.706	27064.56
758.044	27005.35
758.381	26976.88
