Data from hue_32_FLMS001491_00014.txt Node
Date: Tue Feb 07 17:22:58 GMT 2017
User: dcchb
Spectrometer: FLMS00149
Trigger mode: 0
Integration Time (sec): 2.000000E-2
Scans to average: 10
Electric dark correction enabled: true
Nonlinearity correction enabled: false
Boxcar width: 0
XAxis mode: Wavelengths
Number of Pixels in Spectrum: 2048
>>>>>Begin Spectral Data<<<<<
341.393	-12.29
341.776	-12.29
342.16	-12.29
342.543	-53.42
342.927	-64.94
343.31	-63.81
343.693	-51.61
344.077	-55.22
344.46	-64.26
344.843	-58.84
345.226	-36.92
345.61	-41.44
345.993	-24.26
346.376	-27.2
346.759	-18.39
347.142	27.49
347.525	32.91
347.908	73.36
348.291	88.27
348.674	99.35
349.057	120.59
349.44	116.07
349.823	165.56
350.206	191.1
350.588	215.5
350.971	216.63
351.354	223.86
351.737	217.54
352.119	242.85
352.502	266.12
352.884	272.68
353.267	302.05
353.65	316.29
354.032	290.98
354.414	320.81
354.797	328.04
355.179	332.79
355.562	326.69
355.944	321.04
356.326	324.65
356.709	348.83
357.091	368.49
357.473	358.32
357.855	333.01
358.238	335.73
358.62	355.84
359.002	334.14
359.384	340.47
359.766	339.79
360.148	328.95
360.53	353.58
360.912	349.28
361.294	355.39
361.676	335.5
362.057	318.78
362.439	338.89
362.821	335.27
363.203	339.57
363.584	338.44
363.966	326.01
364.348	323.97
364.729	339.57
365.111	325.1
365.493	330.98
365.874	338.89
366.256	312.9
366.637	302.73
367.019	333.47
367.4	334.37
367.781	311.32
368.163	305.9
368.544	299.57
368.925	301.15
369.306	319.68
369.688	326.69
370.069	297.08
370.45	309.06
370.831	309.06
371.212	330.3
371.593	302.96
371.974	321.04
372.355	321.26
372.736	325.33
373.117	315.84
373.498	309.29
373.879	319.91
374.26	344.76
374.641	319.23
375.021	336.18
375.402	327.82
375.783	338.89
376.163	313.35
376.544	349.51
376.925	300.25
377.305	305.9
377.686	331.21
378.066	328.27
378.447	330.08
378.827	343.86
379.208	333.24
379.588	309.96
379.968	349.74
380.349	353.35
380.729	336.4
381.109	344.76
381.489	372.79
381.87	331.21
382.25	366.23
382.63	348.61
383.01	345.44
383.39	337.31
383.77	349.74
384.15	346.57
384.53	333.01
384.91	340.02
385.29	339.34
385.67	354.26
386.049	363.3
386.429	349.51
386.809	371.43
387.189	343.64
387.568	353.58
387.948	360.13
388.328	350.87
388.707	369.62
389.087	363.3
389.466	378.89
389.846	366.23
390.225	355.16
390.605	379.57
390.984	375.05
391.363	376.85
391.743	350.87
392.122	385.44
392.501	361.04
392.881	364.2
393.26	370.98
393.639	380.7
394.018	383.41
394.397	402.62
394.776	371.88
395.155	363.07
395.534	380.47
395.913	404.2
396.292	397.42
396.671	383.41
397.05	383.18
397.429	386.12
397.808	402.39
398.186	401.26
398.565	396.51
398.944	404.42
399.323	389.06
399.701	395.16
400.08	387.7
400.458	401.49
400.837	415.95
401.215	421.6
401.594	412.79
401.972	394.48
402.351	408.49
402.729	391.54
403.107	422.95
403.486	435.38
403.864	434.03
404.242	421.15
404.62	436.74
404.999	423.86
405.377	433.35
405.755	409.62
406.133	435.38
406.511	432.67
406.889	433.12
407.267	449.62
407.645	445.33
408.023	418.21
408.401	446.68
408.779	435.16
409.156	416.4
409.534	442.62
409.912	467.47
410.29	454.14
410.667	441.26
411.045	453.46
411.422	456.63
411.8	454.59
412.178	472.45
412.555	459.34
412.933	480.58
413.31	485.78
413.687	470.19
414.065	488.72
414.442	492.11
414.819	482.16
415.197	474.25
415.574	479
415.951	514.48
416.328	527.13
416.705	514.7
417.082	497.53
417.46	512.22
417.837	510.86
418.214	491.2
418.591	516.96
418.967	511.77
419.344	519
419.721	510.18
420.098	521.03
420.475	532.1
420.852	531.65
421.228	538.66
421.605	530.52
421.982	542.5
422.358	542.95
422.735	550.18
423.111	550.86
423.488	551.99
423.864	561.48
424.241	564.87
424.617	570.52
424.994	557.41
425.37	562.16
425.746	543.86
426.123	582.5
426.499	576.85
426.875	582.95
427.251	589.05
427.627	593.35
428.003	599.9
428.379	603.29
428.756	593.12
429.132	630.86
429.507	628.37
429.883	632.22
430.259	669.5
430.635	649.84
431.011	646.68
431.387	647.58
431.763	650.52
432.138	655.94
432.514	670.41
432.89	665.43
433.265	686.68
433.641	659.56
434.016	672.21
434.392	674.25
434.767	694.59
435.143	721.25
435.518	695.49
435.894	717.64
436.269	717.18
436.644	705.89
437.02	692.78
437.395	718.99
437.77	729.84
438.145	728.94
438.52	725.77
438.895	753.34
439.271	740.46
439.646	766.45
440.021	744.75
440.395	744.75
440.77	747.92
441.145	770.74
441.52	782.95
441.895	777.97
442.27	782.95
442.645	790.4
443.019	811.19
443.394	800.35
443.769	833.57
444.143	803.28
444.518	798.76
444.892	785.66
445.267	802.83
445.641	837.18
446.016	811.87
446.39	827.24
446.764	846.67
447.139	831.31
447.513	843.28
447.887	836.73
448.262	850.74
448.636	833.79
449.01	846.22
449.384	851.87
449.758	881.7
450.132	887.12
450.506	879.67
450.88	913.34
451.254	891.19
451.628	915.6
452.002	902.94
452.376	908.37
452.75	936.84
453.123	949.27
453.497	921.25
453.871	966.44
454.244	946.56
454.618	942.04
454.992	995.82
455.365	962.83
455.739	1017.29
456.112	1012.09
456.486	1001.7
456.859	1021.13
457.232	1038.31
457.606	1031.3
457.979	1061.36
458.352	1083.28
458.725	1074.69
459.099	1101.58
459.472	1130.51
459.845	1122.6
460.218	1093.9
460.591	1120.56
460.964	1100.68
461.337	1128.47
461.71	1160.56
462.083	1199.43
462.456	1187.91
462.829	1186.1
463.201	1204.18
463.574	1230.39
463.947	1204.4
464.32	1248.02
464.692	1271.97
465.065	1262.25
465.438	1271.97
465.81	1293.44
466.183	1337.51
466.555	1352.65
466.928	1345.19
467.3	1344.29
467.672	1386.55
468.045	1406.21
468.417	1416.15
468.789	1424.74
469.161	1452.53
469.534	1478.29
469.906	1532.98
470.278	1538.41
470.65	1538.41
471.022	1555.58
471.394	1589.93
471.766	1605.07
472.138	1631.96
472.51	1655.69
472.882	1693.66
473.253	1736.14
473.625	1724.39
473.997	1804.61
474.369	1786.08
474.74	1835.8
475.112	1871.5
475.484	1939.53
475.855	1975.23
476.227	1972.97
476.598	2029.47
476.97	2053.65
477.341	2130.48
477.713	2128.67
478.084	2187.88
478.455	2250.48
478.827	2267.2
479.198	2337.71
479.569	2403.24
479.94	2450.47
480.311	2525.27
480.682	2553.52
481.053	2656.79
481.424	2679.62
481.795	2732.27
482.166	2826.96
482.537	2830.12
482.908	2926.39
483.279	3002.1
483.65	3057.91
484.021	3111.7
484.391	3212.03
484.762	3263.33
485.133	3284.8
485.503	3381.52
485.874	3470.11
486.244	3557.56
486.615	3603.89
486.985	3742.64
487.356	3820.83
487.726	3858.12
488.097	3968.17
488.467	3994.61
488.837	4141.28
489.207	4179.24
489.578	4294.94
489.948	4396.18
490.318	4513.24
490.688	4509.85
491.058	4573.81
491.428	4694.93
491.798	4758.89
492.168	4919.33
492.538	4915.94
492.908	5051.08
493.278	5125.43
493.648	5142.15
494.017	5245.43
494.387	5307.8
494.757	5405.2
495.126	5464.4
495.496	5519.77
495.866	5606.1
496.235	5740.1
496.605	5783.72
496.974	5849.7
497.344	5946.65
497.713	5989.81
498.082	6005.86
498.452	6122.01
498.821	6159.75
499.19	6220.54
499.559	6329.92
499.928	6404.49
500.298	6464.38
500.667	6495.34
501.036	6563.81
501.405	6634.54
501.774	6693.07
502.143	6780.08
502.512	6786.63
502.88	6844.26
503.249	6923.58
503.618	6927.87
503.987	7085.83
504.356	7049.45
504.724	7114.53
505.093	7196.34
505.462	7245.15
505.83	7278.14
506.199	7407.18
506.567	7451.7
506.936	7442.66
507.304	7624.8
507.672	7562.88
508.041	7639.94
508.409	7752.03
508.777	7756.77
509.145	7778.69
509.514	7843.78
509.882	7960.84
510.25	7936.88
510.618	8003.77
510.986	8031.34
511.354	8177.33
511.722	8308.85
512.09	8304.33
512.458	8267.27
512.826	8366.47
513.193	8430.88
513.561	8401.28
513.929	8462.29
514.297	8575.96
514.664	8556.75
515.032	8618.22
515.4	8720.14
515.767	8749.74
516.135	8740.93
516.502	8764.43
516.869	8918.32
517.237	8926.91
517.604	8769.18
517.972	9008.49
518.339	9057.53
518.706	9025.44
519.073	9034.93
519.44	9136.17
519.808	9251.88
520.175	9241.93
520.542	9281.25
520.909	9361.03
521.276	9355.38
521.643	9427.46
522.009	9457.07
522.376	9551.98
522.743	9603.5
523.11	9672.2
523.477	9831.3
523.843	9824.06
524.21	9919.2
524.577	9985.87
524.943	9985.87
525.31	10043.04
525.676	10126.2
526.043	10151.06
526.409	10211.85
526.776	10377.72
527.142	10364.39
527.508	10373.2
527.874	10453.65
528.241	10563.93
528.607	10615.46
528.973	10627.43
529.339	10658.39
529.705	10739.07
530.071	10823.59
530.437	10891.61
530.803	10971.38
531.169	10933.19
531.535	10997.82
531.901	11044.82
532.267	11149.45
532.632	11174.99
532.998	11173.63
533.364	11260.41
533.73	11308.54
534.095	11374.08
534.461	11415.66
534.826	11553.51
535.192	11471.48
535.557	11613.4
535.923	11640.97
536.288	11636.22
536.653	11688.42
537.019	11685.94
537.384	11742.21
537.749	11852.71
538.114	11855.65
538.479	11859.26
538.845	11921.18
539.21	12004.57
539.575	12078.92
539.94	12090.44
540.305	12188.97
540.67	12247.5
541.034	12257.9
541.399	12331.79
541.764	12312.81
542.129	12348.52
542.494	12381.06
542.858	12440.04
543.223	12478.68
543.587	12567.72
543.952	12517.55
544.316	12653.14
544.681	12638
545.045	12689.3
545.41	12799.58
545.774	12800.93
546.138	12866.47
546.503	12905.11
546.867	12947.82
547.231	13047.71
547.595	13032.11
547.959	13130.42
548.324	13057.88
548.688	13175.39
549.052	13259.23
549.416	13209.74
549.779	13280.92
550.143	13419.68
550.507	13522.05
550.871	13496.96
551.235	13454.7
551.599	13520.24
551.962	13642.04
552.326	13668.48
552.689	13680.01
553.053	13715.94
553.417	13724.53
553.78	13858.99
554.143	13875.48
554.507	13876.61
554.87	13988.47
555.234	14104.63
555.597	13983.05
555.96	14096.49
556.323	14134.68
556.686	14125.87
557.05	14245.64
557.413	14274.57
557.776	14281.12
558.139	14383.94
558.502	14393.89
558.865	14501.45
559.228	14622.36
559.59	14609.02
559.953	14656.93
560.316	14734.67
560.679	14773.76
561.041	14771.96
561.404	14906.42
561.767	14938.96
562.129	14920.88
562.492	15051.27
562.854	15022.35
563.217	15137.82
563.579	15176.92
563.941	15307.76
564.304	15352.73
564.666	15431.15
565.028	15397.25
565.39	15357.7
565.753	15508.21
566.115	15546.4
566.477	15599.73
566.839	15656.9
567.201	15805.6
567.563	15726.73
567.925	15857.8
568.287	15961.53
568.648	15863
569.01	15946.61
569.372	16165.14
569.734	16108.42
570.095	16207.4
570.457	16278.81
570.819	16350.67
571.18	16377.11
571.542	16468.86
571.903	16607.84
572.265	16585.24
572.626	16661.62
572.987	16740.94
573.349	16847.61
573.71	16903.88
574.071	17030.65
574.432	17039.92
574.794	17366.92
575.155	17238.78
575.516	17298.67
575.877	17410.98
576.238	17511.55
576.599	17726.91
576.96	17723.29
577.32	17792.44
577.681	17977.52
578.042	18059.78
578.403	18212.32
578.763	18300.68
579.124	18394.01
579.485	18647.56
579.845	18780.66
580.206	18869.02
580.566	19000.09
580.927	19092.29
581.287	19413.64
581.648	19403.92
582.008	19712.62
582.368	19860.64
582.728	20045.49
583.089	20179.27
583.449	20449.55
583.809	20589.66
584.169	20813.83
584.529	20950.32
584.889	21322.97
585.249	21443.87
585.609	21574.04
585.969	21983.52
586.329	22048.38
586.688	22278.88
587.048	22532.66
587.408	22698.3
587.768	22944.62
588.127	23147.1
588.487	23357.72
588.846	23837.48
589.206	23769.01
589.565	24119.96
589.925	24492.83
590.284	24752.03
590.643	24961.07
591.003	25224.56
591.362	25677.21
591.721	25863.87
592.08	26168.04
592.44	26460.01
592.799	26791.98
593.158	26807.12
593.517	27191.74
593.876	27611.84
594.235	27671.05
594.593	28056.13
594.952	28294.99
595.311	28481.65
595.67	28869.44
596.029	29171.58
596.387	29375.64
596.746	29674.62
597.104	29814.5
597.463	30140.14
597.822	30424.2
598.18	30624.42
598.538	30821.48
598.897	31334.01
599.255	31279.77
599.613	32042.91
599.972	32105.29
600.33	32342.79
600.688	32404.03
601.046	32725.61
601.404	33084.02
601.762	33321.75
602.12	33641.52
602.478	33781.63
602.836	34000.38
603.194	34006.7
603.552	34310.88
603.91	34406.69
604.268	34876.96
604.625	34861.37
604.983	35362.6
605.341	35455.71
605.698	35738.64
606.056	35981.57
606.413	36066.31
606.771	36367.55
607.128	36593.08
607.485	36625.84
607.843	36878.49
608.2	37147.64
608.557	37386.73
608.914	37444.35
609.272	37824.68
609.629	37918.92
609.986	38250.21
610.343	38103.32
610.7	38584.21
611.057	38687.49
611.414	38819.46
611.771	38872.34
612.127	39224.19
612.484	39266.91
612.841	39660.57
613.198	39488.14
613.554	39665.09
613.911	39965.42
614.267	39963.38
614.624	40126.77
614.98	40157.73
615.337	40603.37
615.693	40589.13
616.05	40595.23
616.406	41013.07
616.762	40936.47
617.118	41085.16
617.475	41156.35
617.831	41308.89
618.187	41496.23
618.543	41593.62
618.899	41936.44
619.255	41891.24
619.611	41973.5
619.967	42204.91
620.323	42239.03
620.678	42158.13
621.034	42199.26
621.39	42354.28
621.746	42348.18
622.101	42803.76
622.457	42659.13
622.812	42688.06
623.168	42895.28
623.523	42962.63
623.879	43110.42
624.234	42920.82
624.589	43203.75
624.945	43167.37
625.3	43280.81
625.655	43341.37
626.01	43386.8
626.365	43545.44
626.72	43456.4
627.075	43604.87
627.43	43526.45
627.785	43503.18
628.14	43718.54
628.495	43756.96
628.85	43720.35
629.205	43596.74
629.559	43794.92
629.914	43695.04
630.269	43914.24
630.623	43694.81
630.978	43632.67
631.332	43915.6
631.687	44014.13
632.041	43887.57
632.396	43925.09
632.75	43787.92
633.104	44069.26
633.459	43788.14
633.813	43911.53
634.167	43845.99
634.521	43840.12
634.875	43893.45
635.229	43838.08
635.583	43660.24
635.937	43716.73
636.291	43641.03
636.645	43859.55
636.999	43807.58
637.352	43839.44
637.706	43667.69
638.06	43731.65
638.413	43754.25
638.767	43733.23
639.121	43740.91
639.474	43521.48
639.828	43584.08
640.181	43754.02
640.534	43744.75
640.888	43627.92
641.241	43389.73
641.594	43538.66
641.947	43644.19
642.301	43570.07
642.654	43696.17
643.007	43561.26
643.36	43480.13
643.713	43535.72
644.066	43728.26
644.419	43457.08
644.771	43219.8
645.124	42847.83
645.477	42698.91
645.83	42647.61
646.182	42442.64
646.535	42332.14
646.888	42332.36
647.24	42274.74
647.593	42479.02
647.945	42212.82
648.298	42139.15
648.65	42130.56
649.002	42098.92
649.355	42141.41
649.707	42269.31
650.059	42405.35
650.411	42848.05
650.763	42856.19
651.115	43271.32
651.467	42912.01
651.819	43174.83
652.171	43049.4
652.523	42914.27
652.875	42942.29
653.227	42790.2
653.578	43082.85
653.93	42959.24
654.282	42879.69
654.633	42841.73
654.985	42782.52
655.337	42901.61
655.688	42876.08
656.039	43022.29
656.391	42573.49
656.742	42743.42
657.094	42805.34
657.445	42802.63
657.796	42810.32
658.147	42649.19
658.498	42609.87
658.849	42761.05
659.2	42581.39
659.551	42446.93
659.902	42741.62
660.253	42582.07
660.604	42670.88
660.955	42618
661.306	42730.32
661.656	42538.91
662.007	42709.07
662.358	42693.03
662.708	42517.44
663.059	42591.79
663.409	42298.24
663.76	42674.05
664.11	42658.91
664.461	42745.01
664.811	42615.52
665.161	42559.93
665.511	42404.45
665.862	42554.28
666.212	42497.78
666.562	42583.43
666.912	42515.63
667.262	42445.8
667.612	42502.07
667.962	42512.24
668.312	42335.98
668.662	42548.85
669.011	42531.9
669.361	42478.12
669.711	42378.01
670.06	42293.04
670.41	42228.41
670.76	42191.8
671.109	42371.23
671.459	42366.71
671.808	42330.1
672.157	42514.05
672.507	42036.32
672.856	42223.21
673.205	42150.22
673.554	42298.01
673.904	42140.28
674.253	42460.95
674.602	42237.45
674.951	41615.32
675.3	41633.85
675.649	42097.79
675.998	42085.36
676.346	42237.45
676.695	42312.93
677.044	41905.25
677.393	42060.05
677.741	42030.9
678.09	42075.65
678.438	41828.65
678.787	41839.95
679.135	41969.21
679.484	41565.6
679.832	41800.62
680.181	41806.5
680.529	41839.72
680.877	41537.13
681.225	41562.44
681.573	41834.75
681.922	41398.6
682.27	41192.28
682.618	41519.28
682.966	41227.08
683.314	41342.78
683.661	41318.83
684.009	41073.64
684.357	41065.28
684.705	40897.37
685.053	41115.22
685.4	40933.75
685.748	40878.61
686.095	40790.03
686.443	40713.42
686.79	40564.72
687.138	40765.62
687.485	40659.41
687.832	40448.8
688.18	40514.56
688.527	40416.25
688.874	40406.31
689.221	40267.56
689.568	40121.35
689.915	40032.08
690.262	40050.61
690.609	39941.92
690.956	39834.57
691.303	39772.43
691.65	39725.88
691.997	39626.67
692.344	39333.12
692.69	39315.27
693.037	39372.67
693.383	39102.62
693.73	39171.77
694.077	39037.98
694.423	38894.26
694.769	38886.35
695.116	38808.84
695.462	38586.47
695.808	38580.14
696.155	38706.47
696.501	38249.53
696.847	38458.11
697.193	38163.43
697.539	38330.88
697.885	37987.39
698.231	37873.5
698.577	38021.29
698.923	37835.3
699.269	37582.88
699.614	37530
699.96	37562.09
700.306	37462.89
700.651	37293.62
700.997	37135.44
701.342	37118.49
701.688	37101.31
702.033	36899.51
702.379	37047.08
702.724	36942.9
703.069	36935.22
703.415	36510.14
703.76	36558.5
704.105	36570.71
704.45	36386.98
704.795	36252.07
705.14	36054.79
705.485	36166.2
705.83	35934.34
706.175	36039.87
706.52	35833.1
706.865	35710.39
707.209	35713.1
707.554	35760.78
707.899	35694.8
708.243	35432.88
708.588	35350.62
708.932	35263.85
709.277	35173.23
709.621	35269.72
709.966	35002.16
710.31	35125.77
710.654	34759.91
710.998	34813.69
711.342	34831.54
711.687	34683.75
712.031	34671.55
712.375	34511.78
712.719	34537.31
713.063	34652.11
713.407	34719.23
713.75	34490.99
714.094	34346.36
714.438	34208.73
714.782	34236.08
715.125	34038.12
715.469	34051.9
715.812	33951.79
716.156	33826.37
716.499	33780.72
716.843	33830.89
717.186	33642.65
717.53	33787.73
717.873	33893.94
718.216	33659.82
718.559	33474.06
718.902	33202.43
719.246	33301.64
719.589	33190
719.932	33262.32
720.275	33145.03
720.617	33069.1
720.96	32971.93
721.303	33148.42
721.646	32980.74
721.989	32780.07
722.331	32939.84
722.674	32884.7
723.016	32823.68
723.359	32791.14
723.701	32717.7
724.044	32636.12
724.386	32428.44
724.729	32540.98
725.071	32414.88
725.413	32473.64
725.755	32503.24
726.097	32245.62
726.439	32216.24
726.782	32135.57
727.124	32362.45
727.465	32070.03
727.807	32074.1
728.149	31976.02
728.491	32045.63
728.833	31942.13
729.175	31854.9
729.516	31737.39
729.858	31753.66
730.199	31837.27
730.541	31750.04
730.882	31743.94
731.224	31744.62
731.565	31613.77
731.906	31583.72
732.248	31588.92
732.589	31415.13
732.93	31272.09
733.271	31336.04
733.612	31248.36
733.953	31369.03
734.294	31142.15
734.635	31098.31
734.976	31271.41
735.317	31062.83
735.658	30993.68
735.999	30953.45
736.339	30997.74
736.68	31032.09
737.021	30975.6
737.361	30750.07
737.702	30943.96
738.042	30820.12
738.383	30673.91
738.723	30750.97
739.063	30630.07
739.404	30680.69
739.744	30516.18
740.084	30485.89
740.424	30358.89
740.764	30420.36
741.104	30477.08
741.444	30397.31
741.784	30292.23
742.124	30344.2
742.464	30353.69
742.804	30216.97
743.143	30188.05
743.483	30144.21
743.823	29955.96
744.162	30023.31
744.502	30010.65
744.841	29858.34
745.181	29997.54
745.52	29884.55
745.86	29918.22
746.199	29828.96
746.538	29778.12
746.877	29861.05
747.216	29707.16
747.556	29698.34
747.895	29650.89
748.234	29631
748.573	29337
748.911	29425.36
749.25	29292.25
749.589	29359.82
749.928	29357.34
750.267	29343.32
750.605	29303.55
750.944	29292.7
751.283	29102.88
751.621	29155.31
751.96	28969.55
752.298	29003.67
752.636	29052.48
752.975	28918.7
753.313	28800.51
753.651	28954.41
753.989	28747.63
754.327	28635.09
754.666	28607.52
755.004	28643.68
755.342	28643.46
755.679	28563.68
756.017	28356.68
756.355	28421.54
756.693	28369.79
757.031	28260.42
757.368	28068.33
757.706	28051.83
