Data from hue_330_FLMS001491_74.txt Node
Date: Mon Feb 06 15:45:52 GMT 2017
User: dcchb
Spectrometer: FLMS00149
Trigger mode: 0
Integration Time (sec): 2.000000E-2
Scans to average: 10
Electric dark correction enabled: true
Nonlinearity correction enabled: false
Boxcar width: 0
XAxis mode: Wavelengths
Number of Pixels in Spectrum: 2048
>>>>>Begin Spectral Data<<<<<
341.393	-21.68
341.776	-21.68
342.16	-21.68
342.543	-44.73
342.927	-74.11
343.31	-81.34
343.693	-78.4
344.077	-66.42
344.46	-50.83
344.843	-61.23
345.226	-49.7
345.61	-38.85
345.993	-42.47
346.376	-11.06
346.759	20.58
347.142	23.97
347.525	43.85
347.908	71.88
348.291	79.11
348.674	116.4
349.057	124.53
349.44	133.34
349.823	141.25
350.206	178.09
350.588	180.8
350.971	201.59
351.354	211.99
351.737	223.06
352.119	259.67
352.502	258.09
352.884	261.93
353.267	284.75
353.65	306.45
354.032	314.36
354.414	313.9
354.797	298.09
355.179	329.72
355.562	327.69
355.944	341.47
356.326	335.6
356.709	331.3
357.091	344.19
357.473	350.97
357.855	320.46
358.238	325.88
358.62	323.4
359.002	329.5
359.384	357.74
359.766	337.18
360.148	323.85
360.53	337.86
360.912	328.59
361.294	354.36
361.676	332.43
362.057	340.8
362.439	340.34
362.821	332.43
363.203	326.56
363.584	319.55
363.966	319.33
364.348	322.27
364.729	324.53
365.111	310.06
365.493	316.39
365.874	300.12
366.256	324.98
366.637	312.1
367.019	293.79
367.4	320.46
367.781	302.61
368.163	309.38
368.544	310.29
368.925	315.49
369.306	319.1
369.688	304.41
370.069	310.51
370.45	313.68
370.831	310.06
371.212	320.91
371.593	303.06
371.974	329.5
372.355	317.75
372.736	309.38
373.117	304.19
373.498	310.29
373.879	310.51
374.26	311.42
374.641	320.91
375.021	311.19
375.402	315.49
375.783	298.31
376.163	331.3
376.544	318.88
376.925	312.1
377.305	322.49
377.686	314.81
378.066	317.75
378.447	348.03
378.827	333.56
379.208	337.41
379.588	310.06
379.968	327.46
380.349	329.5
380.729	331.76
381.109	333.56
381.489	310.51
381.87	332.89
382.25	346.9
382.63	315.94
383.01	324.75
383.39	335.15
383.77	352.55
384.15	360.23
384.53	343.73
384.91	355.03
385.29	356.39
385.67	348.71
386.049	358.87
386.429	341.02
386.809	339.21
387.189	333.34
387.568	336.95
387.948	356.61
388.328	358.65
388.707	360
389.087	378.31
389.466	375.82
389.846	372.89
390.225	368.14
390.605	367.24
390.984	363.39
391.363	367.01
391.743	382.83
392.122	367.46
392.501	369.95
392.881	359.78
393.26	382.15
393.639	383.51
394.018	383.28
394.397	380.8
394.776	381.92
395.155	375.15
395.534	372.66
395.913	384.64
396.292	380.34
396.671	382.38
397.05	382.38
397.429	382.38
397.808	397.29
398.186	381.7
398.565	388.93
398.944	399.1
399.323	377.41
399.701	398.87
400.08	390.74
400.458	399.1
400.837	410.62
401.215	405.88
401.594	397.52
401.972	408.59
402.351	400.91
402.729	396.84
403.107	429.16
403.486	438.42
403.864	433.45
404.242	415.82
404.62	416.5
404.999	428.7
405.377	429.38
405.755	438.19
406.133	452.88
406.511	438.65
406.889	434.13
407.267	452.88
407.645	461.7
408.023	446.56
408.401	463.05
408.779	464.63
409.156	456.5
409.534	464.86
409.912	471.19
410.29	477.06
410.667	489.94
411.045	481.58
411.422	491.07
411.8	506.67
412.178	514.35
412.555	519.1
412.933	506.89
413.31	503.28
413.687	513.45
414.065	536.5
414.442	522.71
414.819	543.5
415.197	519.77
415.574	568.59
415.951	561.81
416.328	553.9
416.705	564.29
417.082	589.15
417.46	565.87
417.837	596.61
418.214	580.56
418.591	593.67
418.967	599.55
419.344	593.9
419.721	624.18
420.098	608.36
420.475	620.34
420.852	626.89
421.228	643.39
421.605	647
421.982	647
422.358	676.83
422.735	665.31
423.111	657.85
423.488	676.15
423.864	659.21
424.241	689.49
424.617	691.75
424.994	707.11
425.37	694.91
425.746	672.31
426.123	706.21
426.499	729.94
426.875	720.22
427.251	704.4
427.627	735.59
428.003	741.92
428.379	761.8
428.756	752.76
429.132	775.59
429.507	775.36
429.883	792.76
430.259	804.29
430.635	793.67
431.011	821.91
431.387	840.22
431.763	827.34
432.138	842.7
432.514	844.29
432.89	869.37
433.265	876.38
433.641	886.32
434.016	880.44
434.392	867.79
434.767	925.87
435.143	911.18
435.518	908.01
435.894	942.14
436.269	927
436.644	961.8
437.02	952.76
437.395	966.54
437.77	961.34
438.145	987.78
438.52	992.3
438.895	1009.03
439.271	970.61
439.646	979.2
440.021	1009.48
440.395	1044.96
440.77	1031.4
441.145	1025.07
441.52	1054.22
441.895	1045.41
442.27	1088.57
442.645	1053.09
443.019	1064.17
443.394	1086.99
443.769	1061.68
444.143	1078.4
444.518	1084.28
444.892	1106.88
445.267	1078.18
445.641	1088.57
446.016	1086.54
446.39	1102.13
446.764	1130.38
447.139	1129.7
447.513	1099.19
447.887	1101.45
448.262	1118.63
448.636	1117.5
449.01	1156.82
449.384	1151.85
449.758	1146.88
450.132	1191.85
450.506	1161.34
450.88	1195.69
451.254	1180.77
451.628	1181.23
452.002	1186.42
452.376	1185.75
452.75	1223.03
453.123	1203.6
453.497	1219.64
453.871	1226.42
454.244	1251.51
454.618	1261.9
454.992	1256.7
455.365	1268.91
455.739	1316.36
456.112	1312.07
456.486	1291.96
456.859	1298.74
457.232	1330.37
457.606	1341.22
457.979	1338.74
458.352	1352.07
458.725	1369.92
459.099	1409.24
459.472	1364.27
459.845	1391.16
460.218	1403.59
460.591	1427.32
460.964	1434.78
461.337	1451.28
461.71	1453.08
462.083	1463.7
462.456	1471.61
462.829	1474.1
463.201	1527.66
463.574	1512.52
463.947	1511.16
464.32	1555
464.692	1576.02
465.065	1598.16
465.438	1589.35
465.81	1614.89
466.183	1611.5
466.555	1649.24
466.928	1669.35
467.3	1626.19
467.672	1658.28
468.045	1685.39
468.417	1700.99
468.789	1727.2
469.161	1729.46
469.534	1736.24
469.906	1777.59
470.278	1769.01
470.65	1810.59
471.022	1851.49
471.394	1843.81
471.766	1865.95
472.138	1890.59
472.51	1902.11
472.882	1955.44
473.253	1943.69
473.625	1957.93
473.997	2012.16
474.369	2037.7
474.74	2042.67
475.112	2081.09
475.484	2109.56
475.855	2149.11
476.227	2113.18
476.598	2190.01
476.97	2191.37
477.341	2257.81
477.713	2246.28
478.084	2270.01
478.455	2324.7
478.827	2312.5
479.198	2392.04
479.569	2407.86
479.94	2428.2
480.311	2470.68
480.682	2514.75
481.053	2564.92
481.424	2620.28
481.795	2609.89
482.166	2623.45
482.537	2670.68
482.908	2733.73
483.279	2746.38
483.65	2783.67
484.021	2818.25
484.391	2831.13
484.762	2861.41
485.133	2913.16
485.503	2930.11
485.874	2948.41
486.244	3020.5
486.615	3059.82
486.985	3097.56
487.356	3135.75
487.726	3146.15
488.097	3238.35
488.467	3212.59
488.837	3261.62
489.207	3321.28
489.578	3345.01
489.948	3335.29
490.318	3423.88
490.688	3429.3
491.058	3473.37
491.428	3511.79
491.798	3497.78
492.168	3567.38
492.538	3581.16
492.908	3659.13
493.278	3655.96
493.648	3635.62
494.017	3676.98
494.387	3740.71
494.757	3794.26
495.126	3800.14
495.496	3850.31
495.866	3865.68
496.235	3874.94
496.605	3863.87
496.974	3907.93
497.344	3930.53
497.713	3985.9
498.082	3952.45
498.452	4036.07
498.821	4019.57
499.19	4011.89
499.559	4107.7
499.928	4116.74
500.298	4132.33
500.667	4174.59
501.036	4146.35
501.405	4161.71
501.774	4185.89
502.143	4194.48
502.512	4231.09
502.88	4248.49
503.249	4267.7
503.618	4288.94
503.987	4286.46
504.356	4340.46
504.724	4319.45
505.093	4347.24
505.462	4358.77
505.83	4429.73
506.199	4415.94
506.567	4415.94
506.936	4455.72
507.304	4536.17
507.672	4478.77
508.041	4512.44
508.409	4570.52
508.777	4555.37
509.145	4618.88
509.514	4549.5
509.882	4647.12
510.25	4636.05
510.618	4623.85
510.986	4614.81
511.354	4651.19
511.722	4671.53
512.09	4740.68
512.458	4715.37
512.826	4721.47
513.193	4726.44
513.561	4779.78
513.929	4777.29
514.297	4858.64
514.664	4844.86
515.032	4842.6
515.4	4831.98
515.767	4907.91
516.135	4874.24
516.502	4923.27
516.869	4914.91
517.237	4856.61
517.604	4924.4
517.972	4949.49
518.339	4968.02
518.706	4960.11
519.073	4974.57
519.44	5009.83
519.808	5045.08
520.175	5016.61
520.542	5099.54
520.909	5093.44
521.276	5108.81
521.643	5075.81
522.009	5169.37
522.376	5170.73
522.743	5124.4
523.11	5201.46
523.477	5236.94
523.843	5234.45
524.21	5278.07
524.577	5325.98
524.943	5314
525.31	5352.64
525.676	5367.78
526.043	5403.94
526.409	5477.16
526.776	5470.15
527.142	5454.56
527.508	5509.25
527.874	5536.14
528.241	5544.28
528.607	5599.19
528.973	5642.8
529.339	5643.71
529.705	5666.98
530.071	5718.28
530.437	5732.29
530.803	5792.63
531.169	5800.09
531.535	5819.3
531.901	5813.87
532.267	5798.96
532.632	5887.32
532.998	5857.49
533.364	5896.81
533.73	5932.74
534.095	6020.65
534.461	5982.46
534.826	6071.94
535.192	6069.01
535.557	6064.94
535.923	6124.15
536.288	6093.19
536.653	6192.39
537.019	6159.4
537.384	6192.39
537.749	6195.56
538.114	6218.16
538.479	6344.25
538.845	6292.73
539.21	6285.95
539.575	6292.96
539.94	6359.62
540.305	6409.56
540.67	6372.5
541.034	6410.47
541.399	6461.54
541.764	6452.05
542.129	6508.32
542.494	6521.2
542.858	6584.7
543.223	6543.57
543.587	6640.97
543.952	6624.7
544.316	6646.39
544.681	6692.27
545.045	6695.88
545.41	6830.34
545.774	6751.02
546.138	6812.04
546.503	6805.71
546.867	6890.23
547.231	6849.1
547.595	6941.07
547.959	6885.26
548.324	6923.9
548.688	6964.8
549.052	6979.04
549.416	6993.28
549.779	7038.93
550.143	6968.64
550.507	7083.67
550.871	7101.52
551.235	7133.84
551.599	7143.33
551.962	7164.8
552.326	7258.81
552.689	7270.11
553.053	7219.94
553.417	7212.03
553.78	7317.79
554.143	7348.52
554.507	7247.51
554.87	7371.12
555.234	7434.39
555.597	7383.1
555.96	7406.83
556.323	7396.66
556.686	7468.07
557.05	7523.21
557.413	7514.17
557.776	7558.69
558.139	7520.72
558.502	7569.53
558.865	7602.75
559.228	7606.82
559.59	7662.64
559.953	7694.73
560.316	7731.11
560.679	7699.47
561.041	7782.86
561.404	7799.81
561.767	7804.78
562.129	7794.39
562.492	7897.43
562.854	7889.07
563.217	7896.3
563.579	7914.83
563.941	7943.31
564.304	8023.53
564.666	8020.59
565.028	8008.17
565.39	8009.3
565.753	8097.2
566.115	8153.7
566.477	8114.38
566.839	8211.1
567.201	8236.86
567.563	8212.68
567.925	8280.7
568.287	8292.23
568.648	8310.53
569.01	8377.65
569.372	8412
569.734	8391.21
570.095	8485.44
570.457	8477.98
570.819	8527.47
571.18	8594.36
571.542	8665.32
571.903	8659.22
572.265	8747.58
572.626	8756.39
572.987	8778.77
573.349	8782.83
573.71	8876.84
574.071	8930.4
574.432	9000.68
574.794	8968.37
575.155	9139.21
575.516	9109.61
575.877	9185.76
576.238	9268.25
576.599	9372.2
576.96	9475.7
577.32	9436.6
577.681	9623.49
578.042	9642.02
578.403	9781.45
578.763	9812.86
579.124	9943.26
579.485	10040.2
579.845	10150.93
580.206	10210.37
580.566	10357.48
580.927	10512.96
581.287	10602.22
581.648	10729.45
582.008	10907.98
582.368	11074.53
582.728	11227.52
583.089	11311.36
583.449	11568.52
583.809	11685.58
584.169	11907.72
584.529	12033.14
584.889	12315.85
585.249	12404.43
585.609	12680.81
585.969	12900.01
586.329	13095.26
586.688	13350.17
587.048	13515.36
587.408	13767.56
587.768	14020.89
588.127	14189.47
588.487	14406.41
588.846	14725.95
589.206	14859.74
589.565	15125.49
589.925	15425.15
590.284	15606.84
590.643	15916.43
591.003	16211.34
591.362	16499.92
591.721	16786.69
592.08	17084.08
592.44	17495.6
592.799	17662.6
593.158	17840
593.517	18212.87
593.876	18503.26
594.235	18801.1
594.593	19045.84
594.952	19339.39
595.311	19528.31
595.67	19966.95
596.029	20292.14
596.387	20588.63
596.746	20930.09
597.104	21130.31
597.463	21326.46
597.822	21732.78
598.18	21944.75
598.538	22248.47
598.897	22627.44
599.255	22742.47
599.613	23277.82
599.972	23380.64
600.33	23722.33
600.688	23872.83
601.046	24235.08
601.404	24657.44
601.762	24782.19
602.12	25244.77
602.478	25372.91
602.836	25715.04
603.194	25903.97
603.552	26125.88
603.91	26251.53
604.268	26677.73
604.625	26785.75
604.983	27088.79
605.341	27208.11
605.698	27494.88
606.056	27865.5
606.413	27973.06
606.771	28313.62
607.128	28589.09
607.485	28751.57
607.843	28902.98
608.2	29272.46
608.557	29577.32
608.914	29676.3
609.272	29935.05
609.629	30108.6
609.986	30409.61
610.343	30448.48
610.7	30905.87
611.057	31143.83
611.414	31216.82
611.771	31304.95
612.127	31610.48
612.484	31888.89
612.841	32128.21
613.198	32129.11
613.554	32310.58
613.911	32723.9
614.267	32763.67
614.624	32882.99
614.98	33134.96
615.337	33384.22
615.693	33377.67
616.05	33486.59
616.406	34020.36
616.762	33930.87
617.118	33915.96
617.475	34110.98
617.831	34403.4
618.187	34430.75
618.543	34694.24
618.899	34952.54
619.255	34964.97
619.611	34889.04
619.967	35221.01
620.323	35287.22
620.678	35263.49
621.034	35340.33
621.39	35364.06
621.746	35520.44
622.101	35920.88
622.457	35830.26
622.812	35894.44
623.168	36153.64
623.523	36086.97
623.879	36465.04
624.234	36160.65
624.589	36489
624.945	36715.88
625.3	36718.37
625.655	36582.78
626.01	36912.94
626.365	36853.51
626.72	36993.84
627.075	36956.33
627.43	37053.05
627.785	37019.15
628.14	37190
628.495	37336.21
628.85	37222.09
629.205	37343.66
629.559	37408.52
629.914	37256.21
630.269	37446.49
630.623	37368.3
630.978	37296.21
631.332	37525.36
631.687	37606.03
632.041	37507.95
632.396	37597.9
632.75	37436.77
633.104	37744.56
633.459	37461.4
633.813	37497.33
634.167	37524.45
634.521	37598.35
634.875	37801.96
635.229	37700.94
635.583	37446.71
635.937	37676.76
636.291	37521.51
636.645	37737.33
636.999	37640.61
637.352	37718.34
637.706	37497.11
638.06	37697.33
638.413	37680.83
638.767	37514.73
639.121	37649.87
639.474	37432.25
639.828	37447.84
640.181	37639.02
640.534	37583.43
640.888	37551.34
641.241	37551.57
641.594	37570.1
641.947	37726.48
642.301	37485.58
642.654	37567.39
643.007	37568.07
643.36	37523.32
643.713	37497.33
644.066	37663.2
644.419	37348.18
644.771	37057.57
645.124	36893.73
645.477	36753.17
645.83	36628.43
646.182	36558.6
646.535	36470.02
646.888	36530.58
647.24	36410.81
647.593	36517.47
647.945	36496.23
648.298	36442.67
648.65	36324.48
649.002	36164.71
649.355	36458.94
649.707	36305.73
650.059	36500.3
650.411	36858.25
650.763	36986.39
651.115	37269.32
651.467	37237.91
651.819	37236.78
652.171	37149.09
652.523	37137.57
652.875	37077.23
653.227	36918.14
653.578	37182.09
653.93	37182.09
654.282	36913.62
654.633	36926.73
654.985	37021.87
655.337	36893.06
655.688	36947.29
656.039	37134.18
656.391	36740.29
656.742	36933.51
657.094	36959.04
657.445	36949.78
657.796	36849.89
658.147	36806.96
658.498	36800.85
658.849	36740.52
659.2	36763.34
659.551	36705.04
659.902	36945.03
660.253	36768.31
660.604	37015.09
660.955	36757.01
661.306	36867.97
661.656	36648.54
662.007	36769.22
662.358	36780.06
662.708	36724.25
663.059	36794.75
663.409	36616.68
663.76	36824.13
664.11	36766.05
664.461	36700.29
664.811	36825.03
665.161	36652.84
665.511	36602.44
665.862	36735.09
666.212	36795.66
666.562	36823.45
666.912	36629.79
667.262	36694.64
667.612	36683.12
667.962	36705.94
668.312	36529.68
668.662	36841.98
669.011	36673.63
669.361	36624.14
669.711	36536.91
670.06	36526.74
670.41	36433.63
670.76	36425.5
671.109	36627.53
671.459	36624.59
671.808	36463.46
672.157	36522.9
672.507	36425.72
672.856	36457.59
673.205	36427.3
673.554	36560.86
673.904	36465.04
674.253	36611.03
674.602	36533.29
674.951	35900.31
675.3	35710.49
675.649	36405.61
675.998	36363.35
676.346	36233.86
676.695	36376.23
677.044	36158.16
677.393	36324.93
677.741	36313.64
678.09	36273.18
678.438	36157.48
678.787	36164.49
679.135	36230.7
679.484	35943.48
679.832	36128.56
680.181	35971.05
680.529	36027.09
680.877	35893.99
681.225	35901.44
681.573	36154.77
681.922	35950.93
682.27	35718.85
682.618	35803.59
682.966	35647.66
683.314	35862.8
683.661	35725.4
684.009	35466.65
684.357	35399.31
684.705	35397.05
685.053	35448.35
685.4	35402.7
685.748	35197.05
686.095	35190.73
686.443	35130.84
686.79	35085.19
687.138	35106.21
687.485	35094.46
687.832	34943.5
688.18	34984.4
688.527	34935.59
688.874	34831.19
689.221	34699.89
689.568	34694.24
689.915	34583.06
690.262	34579.9
690.609	34474.59
690.956	34396.17
691.303	34454.25
691.65	34211.32
691.997	34195.5
692.344	34038.22
692.69	33939.69
693.037	33946.01
693.383	33645.46
693.73	33817.43
694.077	33627.38
694.423	33603.42
694.769	33553.48
695.116	33587.61
695.462	33509.42
695.808	33322.3
696.155	33412.24
696.501	33148.3
696.847	33166.83
697.193	32937.91
697.539	33031.91
697.885	32852.26
698.231	32664.47
698.577	32803.9
698.923	32706.5
699.269	32617.69
699.614	32351.25
699.96	32282.78
700.306	32450.69
700.651	32235.1
700.997	32198.94
701.342	32304.48
701.688	32107.19
702.033	31925.05
702.379	31953.07
702.724	31845.5
703.069	31867.2
703.415	31582.23
703.76	31506.08
704.105	31650.26
704.45	31457.27
704.795	31257.72
705.14	31244.62
705.485	31159.87
705.83	31037.39
706.175	31034.45
706.52	30954
706.865	30917.39
707.209	30842.37
707.554	30752.88
707.899	30831.07
708.243	30669.04
708.588	30620.45
708.932	30347.46
709.277	30401.93
709.621	30455.71
709.966	30175.72
710.31	30317.41
710.654	30084.65
710.998	30107.02
711.342	30106.79
711.687	29974.37
712.031	29834.48
712.375	29845.78
712.719	29842.17
713.063	29655.28
713.407	29870.64
713.75	29689.63
714.094	29661.38
714.438	29571.89
714.782	29484.89
715.125	29446.92
715.469	29436.98
715.812	29278.57
716.156	29182.98
716.499	29253.93
716.843	29215.52
717.186	29027.73
717.53	29193.37
717.873	29210.09
718.216	29006.71
718.559	28864.79
718.902	28770.33
719.246	28935.75
719.589	28714.74
719.932	28619.15
720.275	28578.02
720.617	28489.43
720.96	28583.67
721.303	28380.96
721.646	28513.39
721.989	28261.42
722.331	28365.82
722.674	28249.89
723.016	28398.59
723.359	28189.78
723.701	28199.05
724.044	27989.33
724.386	28042.89
724.729	28035.66
725.071	27870.02
725.413	27971.26
725.755	27974.65
726.097	27818.94
726.439	27734.43
726.782	27756.12
727.124	27865.5
727.465	27668.21
727.807	27646.97
728.149	27616.69
728.491	27511.83
728.833	27488.56
729.175	27373.31
729.516	27286.53
729.858	27351.39
730.199	27284.72
730.541	27362.23
730.882	27298.51
731.224	27247.43
731.565	27169.24
731.906	27122.92
732.248	27076.14
732.589	26954.79
732.93	27026.87
733.271	26827.78
733.612	26998.63
733.953	26890.61
734.294	26882.7
734.635	26777.16
734.976	26881.79
735.317	26701.01
735.658	26759.31
735.999	26649.26
736.339	26624.17
736.68	26730.84
737.021	26655.81
737.361	26509.37
737.702	26624.85
738.042	26536.49
738.383	26423.73
738.723	26443.84
739.063	26419.21
739.404	26368.36
739.744	26229.38
740.084	26271.64
740.424	26277.97
740.764	26229.15
741.104	26287.23
741.444	26038.43
741.784	25934.02
742.124	26084.3
742.464	25970.18
742.804	25880.92
743.143	25939.45
743.483	25924.98
743.823	25771.09
744.162	25795.49
744.502	25877.07
744.841	25670.75
745.181	25793.91
745.52	25737.19
745.86	25538.55
746.199	25685.44
746.538	25556.63
746.877	25510.08
747.216	25526.8
747.556	25415.17
747.895	25442.96
748.234	25346.92
748.573	25297.65
748.911	25292.46
749.25	25236.86
749.589	25147.83
749.928	25134.72
750.267	25148.96
750.605	25069.86
750.944	25041.16
751.283	24962.97
751.621	25007.94
751.96	24816.54
752.298	24826.93
752.636	24866.93
752.975	24681.17
753.313	24696.99
753.651	24790.77
753.989	24502.65
754.327	24528.63
754.666	24476.66
755.004	24382.65
755.342	24379.71
755.679	24454.06
756.017	24285.03
756.355	24350.11
756.693	24174.52
757.031	24210.23
757.368	24066.27
757.706	24230.11
758.044	23922.77
758.381	24036.9
758.719	23895.66
759.056	23758.94
759.394	23799.61
759.731	23639.62
760.068	23629.68
