Data from hue_22_FLMS001491_00088.txt Node
Date: Tue Feb 07 17:10:47 GMT 2017
User: dcchb
Spectrometer: FLMS00149
Trigger mode: 0
Integration Time (sec): 2.000000E-2
Scans to average: 10
Electric dark correction enabled: true
Nonlinearity correction enabled: false
Boxcar width: 0
XAxis mode: Wavelengths
Number of Pixels in Spectrum: 2048
>>>>>Begin Spectral Data<<<<<
341.393	-10.75
341.776	-10.75
342.16	-10.75
342.543	-87.58
342.927	-86.9
343.31	-86.9
343.693	-43.74
344.077	-68.6
344.46	-63.63
344.843	-72.44
345.226	-28.83
345.61	-45.55
345.993	-17.75
346.376	-0.13
346.759	18.4
347.142	35.13
347.525	37.16
347.908	49.82
348.291	95.24
348.674	94.33
349.057	97.5
349.44	121.9
349.823	128.68
350.206	171.85
350.588	181.34
350.971	208.91
351.354	231.05
351.737	234.89
352.119	243.26
352.502	262.46
352.884	266.08
353.267	296.81
353.65	297.94
354.032	304.72
354.414	309.24
354.797	322.12
355.179	323.93
355.562	329.58
355.944	324.38
356.326	333.42
356.709	363.93
357.091	344.72
357.473	352.41
357.855	305.63
358.238	335.46
358.62	321.67
359.002	349.69
359.384	362.35
359.766	348.56
360.148	356.02
360.53	328.23
360.912	332.52
361.294	346.76
361.676	323.03
362.057	329.81
362.439	335.23
362.821	327.1
363.203	314.44
363.584	338.85
363.966	327.32
364.348	329.13
364.729	311.05
365.111	338.62
365.493	323.25
365.874	315.12
366.256	295.68
366.637	325.74
367.019	316.93
367.4	314.89
367.781	305.85
368.163	325.29
368.544	316.47
368.925	328
369.306	328.45
369.688	302.69
370.069	318.96
370.45	322.8
370.831	345.63
371.212	304.72
371.593	330.03
371.974	313.76
372.355	298.17
372.736	328
373.117	298.17
373.498	336.81
373.879	323.25
374.26	300.2
374.641	314.67
375.021	300.43
375.402	331.39
375.783	321.22
376.163	324.61
376.544	317.6
376.925	323.03
377.305	335.01
377.686	328.68
378.066	333.88
378.447	330.49
378.827	333.42
379.208	340.43
379.588	333.42
379.968	331.84
380.349	340.65
380.729	336.59
381.109	329.36
381.489	341.11
381.87	350.6
382.25	346.98
382.63	367.32
383.01	337.27
383.39	353.76
383.77	344.5
384.15	370.03
384.53	354.21
384.91	370.94
385.29	349.02
385.67	352.18
386.049	365.06
386.429	366.19
386.809	351.28
387.189	355.57
387.568	361.45
387.948	362.8
388.328	376.36
388.707	357.38
389.087	379.75
389.466	376.81
389.846	349.92
390.225	388.79
390.605	385.17
390.984	375.68
391.363	365.96
391.743	376.13
392.122	380.88
392.501	390.37
392.881	383.37
393.26	388.11
393.639	399.86
394.018	385.4
394.397	387.89
394.776	389.24
395.155	393.76
395.534	411.39
395.913	391.73
396.292	393.08
396.671	400.99
397.05	395.12
397.429	412.52
397.808	414.1
398.186	404.83
398.565	413.2
398.944	395.34
399.323	408.22
399.701	423.36
400.08	410.94
400.458	421.1
400.837	417.26
401.215	402.35
401.594	418.17
401.972	451.61
402.351	422.91
402.729	395.34
403.107	431.95
403.486	421.1
403.864	419.52
404.242	457.71
404.62	438.73
404.999	434.44
405.377	425.62
405.755	449.35
406.133	445.28
406.511	460.88
406.889	457.26
407.267	446.87
407.645	463.14
408.023	468.56
408.401	471.27
408.779	474.89
409.156	470.82
409.534	485.51
409.912	472.63
410.29	453.42
410.667	484.38
411.045	466.3
411.422	477.15
411.8	480.54
412.178	477.6
412.555	493.19
412.933	476.47
413.31	497.26
413.687	494.55
414.065	486.19
414.442	512.18
414.819	500.88
415.197	508.33
415.574	521.89
415.951	524.38
416.328	523.47
416.705	495
417.082	502.68
417.46	530.25
417.837	545.4
418.214	526.19
418.591	532.29
418.967	562.57
419.344	553.76
419.721	529.12
420.098	563.47
420.475	569.12
420.852	565.73
421.228	558.28
421.605	567.09
421.982	564.6
422.358	572.06
422.735	559.63
423.111	588.11
423.488	573.64
423.864	590.14
424.241	605.28
424.617	604.15
424.994	593.3
425.37	595.79
425.746	615.68
426.123	598.28
426.499	598.5
426.875	627.65
427.251	621.1
427.627	636.92
428.003	642.34
428.379	641.44
428.756	640.08
429.132	655.9
429.507	651.61
429.883	655.67
430.259	656.58
430.635	671.04
431.011	662.91
431.387	674.88
431.763	677.82
432.138	689.12
432.514	707.42
432.89	697.26
433.265	707.42
433.641	716.01
434.016	733.41
434.392	725.96
434.767	732.28
435.143	726.63
435.518	742.45
435.894	754.88
436.269	767.31
436.644	774.77
437.02	784.26
437.395	779.74
437.77	778.16
438.145	796.69
438.52	798.04
438.895	783.81
439.271	800.98
439.646	815.22
440.021	814.09
440.395	825.39
440.77	817.7
441.145	818.61
441.52	839.17
441.895	839.4
442.27	855.67
442.645	880.98
443.019	855.67
443.394	865.16
443.769	864.93
444.143	867.87
444.518	879.17
444.892	891.6
445.267	883.69
445.641	884.37
446.016	889.34
446.39	902.9
446.764	921.43
447.139	905.61
447.513	905.61
447.887	932.96
448.262	912.17
448.636	918.49
449.01	909.23
449.384	918.94
449.758	941.32
450.132	956.91
450.506	958.27
450.88	968.89
451.254	961.88
451.628	993.52
452.002	977.93
452.376	1002.11
452.75	1036.46
453.123	1003.01
453.497	1022.9
453.871	1043.01
454.244	1043.24
454.618	1050.24
454.992	1058.6
455.365	1073.07
455.739	1067.19
456.112	1130.69
456.486	1097.7
456.859	1115.32
457.232	1129.33
457.606	1133.18
457.979	1139.28
458.352	1173.63
458.725	1168.43
459.099	1195.1
459.472	1189.67
459.845	1218.6
460.218	1243.46
460.591	1240.74
460.964	1248.43
461.337	1275.32
461.71	1283.68
462.083	1277.58
462.456	1286.39
462.829	1299.73
463.201	1330.91
463.574	1331.59
463.947	1340.4
464.32	1386.05
464.692	1372.94
465.065	1418.14
465.438	1424.24
465.81	1448.42
466.183	1441.87
466.555	1458.59
466.928	1485.26
467.3	1452.04
467.672	1486.39
468.045	1537.69
468.417	1547.18
468.789	1580.62
469.161	1567.97
469.534	1633.28
469.906	1633.95
470.278	1645.48
470.65	1678.92
471.022	1717.34
471.394	1735.19
471.766	1736.1
472.138	1762.31
472.51	1770
472.882	1830.33
473.253	1825.59
473.625	1879.15
473.997	1921.86
474.369	1934.29
474.74	1971.57
475.112	1994.85
475.484	2017.45
475.855	2057.22
476.227	2084.56
476.598	2113.72
476.97	2159.82
477.341	2220.15
477.713	2257.89
478.084	2271.23
478.455	2334.27
478.827	2362.97
479.198	2420.6
479.569	2415.63
479.94	2515.51
480.311	2504.67
480.682	2564.55
481.053	2628.05
481.424	2678.45
481.795	2705.79
482.166	2766.81
482.537	2782.17
482.908	2890.64
483.279	2894.26
483.65	2960.02
484.021	2986.46
484.391	3076.4
484.762	3126.8
485.133	3124.08
485.503	3207.25
485.874	3280.46
486.244	3320.01
486.615	3384.64
486.985	3429.39
487.356	3531.98
487.726	3514.58
488.097	3569.95
488.467	3633
488.837	3718.19
489.207	3748.7
489.578	3812.65
489.948	3845.2
490.318	3930.39
490.688	3941.92
491.058	4016.26
491.428	4069.14
491.798	4124.51
492.168	4154.57
492.538	4206.99
492.908	4275.24
493.278	4294.45
493.648	4373.09
494.017	4424.84
494.387	4454.9
494.757	4505.52
495.126	4547.1
495.496	4576.25
495.866	4602.24
496.235	4682.91
496.605	4704.83
496.974	4753.65
497.344	4806.07
497.713	4911.38
498.082	4898.5
498.452	4984.37
498.821	4957.26
499.19	4947.09
499.559	5033.19
499.928	5030.02
500.298	5085.61
500.667	5136.24
501.036	5135.56
501.405	5240.41
501.774	5210.13
502.143	5217.59
502.512	5280.86
502.88	5362.22
503.249	5351.6
503.618	5393.18
503.987	5410.58
504.356	5469.11
504.724	5485.38
505.093	5500.97
505.462	5501.65
505.83	5558.82
506.199	5590.69
506.567	5635.43
506.936	5686.05
507.304	5714.07
507.672	5716.11
508.041	5795.65
508.409	5792.71
508.777	5881.98
509.145	5879.04
509.514	5916.1
509.882	5953.16
510.25	6015.99
510.618	6010.11
510.986	5988.87
511.354	6075.65
511.722	6119.03
512.09	6059.15
512.458	6118.36
512.826	6182.08
513.193	6251.69
513.561	6205.13
513.929	6251.01
514.297	6327.39
514.664	6362.42
515.032	6407.84
515.4	6433.83
515.767	6458.46
516.135	6443.55
516.502	6407.16
516.869	6575.75
517.237	6560.15
517.604	6538.68
517.972	6615.29
518.339	6665.23
518.706	6613.26
519.073	6632.24
519.44	6732.13
519.808	6806.7
520.175	6726.02
520.542	6844.89
520.909	6879.69
521.276	6897.09
521.643	6917.43
522.009	6990.88
522.376	6986.81
522.743	7020.03
523.11	7082.85
523.477	7140.48
523.843	7161.27
524.21	7290.75
524.577	7325.56
524.943	7276.97
525.31	7383.41
525.676	7347.25
526.043	7451.88
526.409	7526.45
526.776	7566.91
527.142	7567.58
527.508	7597.64
527.874	7710.18
528.241	7716.73
528.607	7686.9
528.973	7764.64
529.339	7758.31
529.705	7883.96
530.071	7905.88
530.437	7930.51
530.803	7953.34
531.169	8049.38
531.535	8022.03
531.901	8049.38
532.267	8105.2
532.632	8157.85
532.998	8193.33
533.364	8164.4
533.73	8262.48
534.095	8323.5
534.461	8334.12
534.826	8406.21
535.192	8441.46
535.557	8432.19
535.923	8458.63
536.288	8545.86
536.653	8547.44
537.019	8580.44
537.384	8625.41
537.749	8610.95
538.114	8667.22
538.479	8699.98
538.845	8753.54
539.21	8714.67
539.575	8803.71
539.94	8877.38
540.305	8938.85
540.67	8889.58
541.034	8892.29
541.399	8967.55
541.764	8952.86
542.129	9010.94
542.494	9044.61
542.858	9118.96
543.223	9140.2
543.587	9152.85
543.952	9148.33
544.316	9234.66
544.681	9189.01
545.045	9331.15
545.41	9451.15
545.774	9440.98
546.138	9485.05
546.503	9484.14
546.867	9469
547.231	9523.92
547.595	9546.29
547.959	9554.65
548.324	9649.56
548.688	9703.35
549.052	9626.51
549.416	9679.17
549.779	9655.44
550.143	9766.85
550.507	9800.29
550.871	9804.36
551.235	9822.67
551.599	9945.37
551.962	9913.06
552.326	9995.32
552.689	10034.19
553.053	10010.91
553.417	10053.62
553.78	10167.74
554.143	10091.81
554.507	10221.75
554.87	10227.17
555.234	10232.15
555.597	10231.92
555.96	10260.39
556.323	10358.24
556.686	10314.63
557.05	10443.21
557.413	10477.34
557.776	10468.07
558.139	10537
558.502	10514.62
558.865	10552.36
559.228	10598.01
559.59	10618.58
559.953	10659.48
560.316	10793.04
560.679	10734.51
561.041	10854.73
561.404	10833.26
561.767	10903.09
562.129	10913.26
562.492	11066.93
562.854	10983.09
563.217	10939.25
563.579	11089.3
563.941	11138.11
564.304	11181.73
564.666	11193.93
565.028	11279.58
565.39	11271.89
565.753	11326.58
566.115	11382.62
566.477	11430.98
566.839	11497.42
567.201	11511.21
567.563	11577.65
567.925	11596.63
568.287	11684.54
568.648	11699.9
569.01	11772.44
569.372	11795.49
569.734	11801.37
570.095	11873.46
570.457	11927.92
570.819	11963.63
571.18	11968.82
571.542	12060.57
571.903	12108.71
572.265	12176.28
572.626	12269.38
572.987	12247.01
573.349	12308.25
573.71	12481.35
574.071	12396.61
574.432	12534.91
574.794	12644.74
575.155	12654.46
575.516	12621.46
575.877	12674.34
576.238	12771.06
576.599	12868.24
576.96	12971.96
577.32	13079.75
577.681	13077.95
578.042	13222.12
578.403	13298.28
578.763	13413.08
579.124	13459.63
579.485	13661.43
579.845	13774.2
580.206	13846.06
580.566	13891.26
580.927	14073.85
581.287	14142.1
581.648	14344.58
582.008	14453.05
582.368	14595.2
582.728	14724.91
583.089	14937.79
583.449	15076.99
583.809	15196.76
584.169	15416.19
584.529	15498.45
584.889	15837.65
585.249	15902.05
585.609	16066.12
585.969	16321.25
586.329	16449.16
586.688	16714.01
587.048	16978.41
587.408	17143.83
587.768	17322.13
588.127	17546.76
588.487	17787.43
588.846	18153.75
589.206	18247.75
589.565	18571.36
589.925	18937.45
590.284	19047.51
590.643	19419.02
591.003	19828.05
591.362	20037.99
591.721	20320.47
592.08	20576.06
592.44	20930.4
592.799	21201.8
593.158	21426.88
593.517	21717.49
593.876	21994.55
594.235	22308.44
594.593	22640.63
594.952	23095.99
595.311	23238.36
595.67	23662.53
596.029	24044.44
596.387	24314.94
596.746	24761.03
597.104	24905.21
597.463	25163.51
597.822	25574.57
598.18	25762.36
598.538	26205.74
598.897	26648.66
599.255	26646.86
599.613	27344.69
599.972	27572.26
600.33	27911.46
600.688	28000.72
601.046	28396.87
601.404	28742.17
601.762	29066.91
602.12	29516.38
602.478	29714.35
602.836	30091.51
603.194	30168.12
603.552	30610.37
603.91	30779.63
604.268	31209.22
604.625	31334.64
604.983	31820.96
605.341	31996.32
605.698	32408.74
606.056	32677.88
606.413	32821.38
606.771	33180.92
607.128	33404.42
607.485	33571.19
607.843	33923.05
608.2	34338.18
608.557	34703.59
608.914	34694.1
609.272	35183.35
609.629	35412.05
609.986	35727.97
610.343	35825.6
610.7	36150.11
611.057	36344.45
611.414	36542.19
611.771	36776.76
612.127	37148.27
612.484	37158.67
612.841	37527.25
613.198	37657.64
613.554	37819.9
613.911	38141.92
614.267	38403.83
614.624	38517.28
614.98	38754.11
615.337	39021.45
615.693	39062.57
616.05	39359.06
616.406	39565.84
616.762	39570.58
617.118	39927.64
617.475	39983.45
617.831	40270.45
618.187	40370.11
618.543	40438.36
618.899	40833.38
619.255	40862.53
619.611	40945.69
619.967	41372.8
620.323	41477.88
620.678	41403.53
621.034	41616.18
621.39	41562.85
621.746	41797.42
622.101	42224.98
622.457	42059.11
622.812	42221.59
623.168	42317.4
623.523	42420
623.879	42608.92
624.234	42378.87
624.589	42653.44
624.945	42809.82
625.3	42996.93
625.655	42911.29
626.01	42955.81
626.365	42978.63
626.72	43076.25
627.075	43172.52
627.43	43247.1
627.785	43277.38
628.14	43510.14
628.495	43468.33
628.85	43619.06
629.205	43445.28
629.559	43705.84
629.914	43732.28
630.269	43820.87
630.623	43763.69
630.978	43719.85
631.332	43994.2
631.687	44063.57
632.041	43876.91
632.396	44040.75
632.75	43837.82
633.104	44004.14
633.459	43886.18
633.813	44097.47
634.167	43990.58
634.521	44030.13
634.875	44051.14
635.229	44127.3
635.583	43908.1
635.937	43998.94
636.291	44005.5
636.645	44145.83
636.999	43886.18
637.352	43977.02
637.706	43843.69
638.06	44096.11
638.413	43964.14
638.767	43872.17
639.121	43974.31
639.474	43823.81
639.828	43847.76
640.181	43974.99
640.534	43950.36
640.888	43788.1
641.241	43818.61
641.594	43813.86
641.947	43982.67
642.301	43825.61
642.654	43860.87
643.007	43974.76
643.36	43803.24
643.713	43798.5
644.066	43949.45
644.419	43684.83
644.771	43477.6
645.124	43241.45
645.477	43199.19
645.83	42813.21
646.182	42741.35
646.535	42662.48
646.888	42742.25
647.24	42558.75
647.593	42830.61
647.945	42551.97
648.298	42661.12
648.65	42488.93
649.002	42544.97
649.355	42611.86
649.707	42514.91
650.059	42781.12
650.411	43206.19
650.763	43242.58
651.115	43661.1
651.467	43555.11
651.819	43550.59
652.171	43297.04
652.523	43330.03
652.875	43359.18
653.227	43202.8
653.578	43527.99
653.93	43327.55
654.282	43246.19
654.633	43143.37
654.985	43167.33
655.337	43234.22
655.688	43339.52
656.039	43450.93
656.391	43028.57
656.742	43227.66
657.094	43217.04
657.445	43316.25
657.796	43207.78
658.147	43195.8
658.498	43064.28
658.849	43163.71
659.2	43074.22
659.551	42958.74
659.902	43168.46
660.253	43024.05
660.604	43153.09
660.955	42889.14
661.306	43123.03
661.656	43050.27
662.007	43095.01
662.358	43033.54
662.708	43121.9
663.059	43135.46
663.409	42846.43
663.76	43107.44
664.11	43121.22
664.461	43196.03
664.811	43116.03
665.161	43205.52
665.511	42843.72
665.862	43024.05
666.212	43018.4
666.562	43130.04
666.912	42839.2
667.262	42961.91
667.612	42945.64
667.962	43024.5
668.312	42930.5
668.662	43240.09
669.011	43002.36
669.361	42951.51
669.711	42880.55
670.06	42806.66
670.41	42894.56
670.76	42698.41
671.109	42950.83
671.459	42745.19
671.808	42777.96
672.157	42910.83
672.507	42626.32
672.856	42669.03
673.205	42689.82
673.554	42792.87
673.904	42550.84
674.253	42956.03
674.602	42595.59
674.951	42159.44
675.3	41954.7
675.649	42615.02
675.998	42501.35
676.346	42476.95
676.695	42672.88
677.044	42277.63
677.393	42439.43
677.741	42610.5
678.09	42385.88
678.438	42237.63
678.787	42412.09
679.135	42468.81
679.484	42185.2
679.832	42327.35
680.181	41955.61
680.529	42238.08
680.877	42000.8
681.225	41985.21
681.573	42327.8
681.922	41865.66
682.27	41830.19
682.618	41955.15
682.966	41813.91
683.314	41857.08
683.661	41624.99
684.009	41456.41
684.357	41573.7
684.705	41490.53
685.053	41560.59
685.4	41457.54
685.748	41204.21
686.095	41268.39
686.443	41115.4
686.79	41198.79
687.138	41175.51
687.485	41177.55
687.832	40946.14
688.18	41059.81
688.527	40861.62
688.874	40804.68
689.221	40604.45
689.568	40629.09
689.915	40547.73
690.262	40490.56
690.609	40527.62
690.956	40371.69
691.303	40226.16
691.65	40026.62
691.997	40027.52
692.344	39650.81
692.69	39920.18
693.037	39840.86
693.383	39352.51
693.73	39636.8
694.077	39460.3
694.423	39491.49
694.769	39343.92
695.116	39254.43
695.462	39139.86
695.808	38997.94
696.155	39104.61
696.501	38911.62
696.847	38770.38
697.193	38461.69
697.539	38825.07
697.885	38424.4
698.231	38280.45
698.577	38406.09
698.923	38372.88
699.269	38133.56
699.614	37950.51
699.96	37925.88
700.306	37900.35
700.651	37720.24
700.997	37553.91
701.342	37720.69
701.688	37529.96
702.033	37409.96
702.379	37373.58
702.724	37273.47
703.069	37398.44
703.415	36983.31
703.76	37132.91
704.105	37100.59
704.45	36810.2
704.795	36738.34
705.14	36528.63
705.485	36585.13
705.83	36586.71
706.175	36601.17
706.52	36461.51
706.865	36225.59
707.209	36221.07
707.554	36067.4
707.899	36110.34
708.243	35891.36
708.588	35831.93
708.932	35733.62
709.277	35645.26
709.621	35661.31
709.966	35472.61
710.31	35567.3
710.654	35177.25
710.998	35236.01
711.342	35236.23
711.687	35166.63
712.031	34987.65
712.375	34765.29
712.719	35157.37
713.063	35017.48
713.407	35059.29
713.75	34755.57
714.094	34743.37
714.438	34527.55
714.782	34545.18
715.125	34395.58
715.469	34618.85
715.812	34385.41
716.156	34136.6
716.499	34169.37
716.843	34152.65
717.186	33979.09
717.53	34155.81
717.873	34183.38
718.216	34154.23
718.559	33856.16
718.902	33701.13
719.246	33965.53
719.589	33580.01
719.932	33521.03
720.275	33538.88
720.617	33601.93
720.96	33344.08
721.303	33435.6
721.646	33370.29
721.989	33057.99
722.331	33263.18
722.674	33351.76
723.016	33278.32
723.359	33213.01
723.701	33235.38
724.044	33024.99
724.386	32806.92
724.729	32962.17
725.071	32784.32
725.413	32867.94
725.755	32791.78
726.097	32772.57
726.439	32517.21
726.782	32573.03
727.124	32583.2
727.465	32455.06
727.807	32353.15
728.149	32408.96
728.491	32337.55
728.833	32267.5
729.175	32273.37
729.516	32180.95
729.858	32091.68
730.199	32203.55
730.541	32041.97
730.882	31945.93
731.224	32046.49
731.565	31882.88
731.906	31886.49
732.248	31891.01
732.589	31734.63
732.93	31644.92
733.271	31634.52
733.612	31723.56
733.953	31717.68
734.294	31471.81
734.635	31478.14
734.976	31528.54
735.317	31471.59
735.658	31365.38
735.999	31400.86
736.339	31349.11
736.68	31406.73
737.021	31124.93
737.361	31156.79
737.702	31211.71
738.042	31079.73
738.383	31028.21
738.723	31146.17
739.063	31004.93
739.404	31169.22
739.744	30836.8
740.084	30789.35
740.424	30831.6
740.764	30710.48
741.104	30862.79
741.444	30723.36
741.784	30504.61
742.124	30667.77
742.464	30581.67
742.804	30501.22
743.143	30410.37
743.483	30361.11
743.823	30309.36
744.162	30338.51
744.502	30347.55
744.841	30156.82
745.181	30413.99
745.52	30224.39
745.86	30155.01
746.199	30200.89
746.538	30130.61
746.877	30142.13
747.216	30187.55
747.556	29999.76
747.895	30049.03
748.234	29978.29
748.573	29918.18
748.911	29808.81
749.25	29745.53
749.589	29737.4
749.928	29759.99
750.267	29678.19
750.605	29597.74
750.944	29536.95
751.283	29424.64
751.621	29564.52
751.96	29358.42
752.298	29305.32
752.636	29272.55
752.975	29176.05
753.313	29082.27
753.651	29250.63
753.989	28981.71
754.327	28938.32
754.666	28788.27
755.004	28851.09
755.342	28911.88
755.679	28778.55
756.017	28651.77
756.355	28790.98
756.693	28532.68
757.031	28629.85
757.368	28491.55
757.706	28432.8
758.044	28334.27
758.381	28418.56
758.719	28238.45
