Data from hue_190_FLMS001491_00050.txt Node
Date: Tue Feb 07 16:45:21 GMT 2017
User: dcchb
Spectrometer: FLMS00149
Trigger mode: 0
Integration Time (sec): 2.000000E-2
Scans to average: 10
Electric dark correction enabled: true
Nonlinearity correction enabled: false
Boxcar width: 0
XAxis mode: Wavelengths
Number of Pixels in Spectrum: 2048
>>>>>Begin Spectral Data<<<<<
341.393	-20.66
341.776	-20.66
342.16	-20.66
342.543	-59.53
342.927	-77.84
343.31	-56.14
343.693	-63.6
344.077	-71.28
344.46	-81.23
344.843	-60.89
345.226	-31.06
345.61	-22.7
345.993	-29.7
346.376	-23.83
346.759	15.95
347.142	38.54
347.525	50.75
347.908	48.94
348.291	70.86
348.674	83.97
349.057	131.42
349.44	115.6
349.823	135.04
350.206	167.13
350.588	197.64
350.971	197.18
351.354	229.95
351.737	235.6
352.119	266.33
352.502	244.41
352.884	270.63
353.267	265.43
353.65	289.84
354.032	310.4
354.414	321.02
354.797	303.4
355.179	293.68
355.562	331.87
355.944	301.59
356.326	311.98
356.709	347.01
357.091	337.07
357.473	346.11
357.855	348.14
358.238	321.47
358.62	345.88
359.002	346.11
359.384	357.86
359.766	328.25
360.148	349.5
360.53	327.35
360.912	330.97
361.294	324.86
361.676	358.54
362.057	329.84
362.439	324.64
362.821	325.54
363.203	343.17
363.584	309.27
363.966	312.89
364.348	329.16
364.729	314.02
365.111	307.24
365.493	336.62
365.874	326.22
366.256	322.6
366.637	311.76
367.019	328.48
367.4	309.95
367.781	347.01
368.163	301.14
368.544	304.07
368.925	307.69
369.306	317.86
369.688	315.83
370.069	314.24
370.45	290.51
370.831	321.25
371.212	293.9
371.593	311.76
371.974	329.16
372.355	304.3
372.736	317.41
373.117	315.83
373.498	323.06
373.879	300.46
374.26	317.41
374.641	323.73
375.021	309.72
375.402	310.18
375.783	325.09
376.163	316.95
376.544	295.03
376.925	337.29
377.305	309.72
377.686	321.93
378.066	330.06
378.447	327.12
378.827	325.32
379.208	327.8
379.588	323.73
379.968	323.73
380.349	324.86
380.729	310.63
381.109	315.83
381.489	339.78
381.87	323.06
382.25	331.64
382.63	337.07
383.01	344.75
383.39	345.2
383.77	314.7
384.15	331.87
384.53	339.1
384.91	350.63
385.29	370.29
385.67	346.33
386.049	315.37
386.429	337.29
386.809	328.93
387.189	360.12
387.568	345.88
387.948	338.88
388.328	373.68
388.707	354.69
389.087	356.28
389.466	364.19
389.846	352.66
390.225	362.83
390.605	372.55
390.984	370.29
391.363	359.44
391.743	356.73
392.122	363.28
392.501	371.42
392.881	364.19
393.26	360.12
393.639	398.31
394.018	367.12
394.397	373
394.776	382.49
395.155	364.19
395.534	382.04
395.913	398.76
396.292	362.15
396.671	373.45
397.05	401.25
397.429	373.22
397.808	398.76
398.186	394.47
398.565	420.68
398.944	391.76
399.323	393.79
399.701	402.15
400.08	401.47
400.458	406.22
400.837	420.23
401.215	413.9
401.594	404.64
401.972	406.67
402.351	417.07
402.729	409.83
403.107	414.58
403.486	433.34
403.864	435.37
404.242	429.04
404.62	426.56
404.999	428.59
405.377	434.69
405.755	439.21
406.133	459.78
406.511	437.18
406.889	451.64
407.267	459.55
407.645	476.27
408.023	453.45
408.401	481.7
408.779	476.27
409.156	477.85
409.534	501.58
409.912	498.87
410.29	499.1
410.667	526.21
411.045	516.95
411.422	529.6
411.8	547.91
412.178	534.58
412.555	539.77
412.933	538.42
413.31	555.59
413.687	598.3
414.065	591.75
414.442	584.97
414.819	587.91
415.197	596.04
415.574	579.77
415.951	621.35
416.328	630.62
416.705	632.88
417.082	640.56
417.46	634.69
417.837	667.23
418.214	662.26
418.591	673.56
418.967	647.12
419.344	694.35
419.721	689.15
420.098	716.04
420.475	702.93
420.852	723.5
421.228	714.23
421.605	723.5
421.982	749.71
422.358	758.07
422.735	779.77
423.111	800.11
423.488	803.95
423.864	818.41
424.241	834.46
424.617	851.86
424.994	828.81
425.37	847.34
425.746	859.31
426.123	864.74
426.499	881.46
426.875	916.71
427.251	924.17
427.627	925.3
428.003	917.84
428.379	974.34
428.756	982.25
429.132	990.38
429.507	988.58
429.883	976.6
430.259	1008.46
430.635	1002.13
431.011	1020.89
431.387	1046.2
431.763	1051.62
432.138	1092.75
432.514	1095.24
432.89	1102.47
433.265	1119.65
433.641	1166.88
434.016	1170.04
434.392	1184.95
434.767	1233.32
435.143	1259.3
435.518	1247.33
435.894	1272.41
436.269	1310.15
436.644	1305.4
437.02	1325.29
437.395	1337.72
437.77	1367.55
438.145	1394.21
438.52	1393.54
438.895	1432.86
439.271	1461.33
439.646	1498.17
440.021	1504.04
440.395	1506.53
440.77	1515.34
441.145	1531.16
441.52	1587.66
441.895	1583.59
442.27	1601.67
442.645	1618.84
443.019	1652.51
443.394	1672.17
443.769	1685.96
444.143	1685.28
444.518	1727.77
444.892	1691.16
445.267	1750.14
445.641	1722.12
446.016	1785.62
446.39	1784.26
446.764	1772.96
447.139	1780.19
447.513	1804.6
447.887	1841.21
448.262	1819.51
448.636	1898.83
449.01	1900.19
449.384	1895.22
449.758	1948.32
450.132	1954.43
450.506	1987.87
450.88	1957.14
451.254	1958.72
451.628	2001.88
452.002	2001.66
452.376	2064.03
452.75	2049.79
453.123	2098.38
453.497	2135.44
453.871	2138.15
454.244	2174.99
454.618	2184.25
454.992	2188.32
455.365	2226.51
455.739	2258.6
456.112	2277.13
456.486	2303.8
456.859	2332.5
457.232	2375.88
457.606	2364.58
457.979	2394.41
458.352	2465.6
458.725	2493.62
459.099	2512.38
459.472	2568.42
459.845	2577.23
460.218	2584.24
460.591	2588.53
460.964	2650.9
461.337	2709.66
461.71	2734.52
462.083	2791.69
462.456	2749.21
462.829	2785.14
463.201	2816.32
463.574	2852.03
463.947	2887.96
464.32	3018.58
464.692	2982.2
465.065	3007.73
465.438	3076.88
465.81	3112.59
466.183	3151.68
466.555	3225.13
466.928	3222.87
467.3	3261.06
467.672	3287.95
468.045	3369.98
468.417	3391.22
468.789	3449.3
469.161	3442.75
469.534	3539.7
469.906	3569.3
470.278	3595.74
470.65	3640.03
471.022	3737.88
471.394	3793.25
471.766	3838.44
472.138	3877.77
472.51	3958.67
472.882	4031.66
473.253	4048.83
473.625	4100.81
473.997	4206.34
474.369	4253.8
474.74	4322.27
475.112	4357.53
475.484	4461.48
475.855	4520.69
476.227	4592.32
476.598	4668.93
476.97	4737.63
477.341	4823.5
477.713	4899.66
478.084	4947.12
478.455	5039.32
478.827	5089.71
479.198	5287.67
479.569	5273.21
479.94	5406.99
480.311	5461
480.682	5590.94
481.053	5719.07
481.424	5834.78
481.795	5872.29
482.166	5930.14
482.537	6020.53
482.908	6150.93
483.279	6215.33
483.65	6331.49
484.021	6459.17
484.391	6533.06
484.762	6553.63
485.133	6652.16
485.503	6765.37
485.874	6921.3
486.244	6959.72
486.615	7061.86
486.985	7197
487.356	7338.01
487.726	7361.06
488.097	7515.86
488.467	7582.53
488.837	7768.06
489.207	7798.11
489.578	7862.52
489.948	7963.53
490.318	8079.46
490.688	8088.05
491.058	8171.44
491.428	8338.89
491.798	8403.07
492.168	8581.6
492.538	8607.36
492.908	8668.6
493.278	8780.46
493.648	8770.52
494.017	8811.87
494.387	9012.55
494.757	9004.64
495.126	9097.29
495.496	9052.54
495.866	9185.42
496.235	9330.73
496.605	9265.87
496.974	9318.07
497.344	9422.48
497.713	9460.44
498.082	9497.5
498.452	9536.83
498.821	9550.16
499.19	9653.21
499.559	9689.82
499.928	9764.84
500.298	9778.63
500.667	9952.41
501.036	9794.9
501.405	9991.73
501.774	9937.04
502.143	10075.79
502.512	10038.06
502.88	10153.98
503.249	10056.59
503.618	10196.24
503.987	10200.08
504.356	10240.99
504.724	10276.47
505.093	10269.91
505.462	10281.44
505.83	10323.7
506.199	10368.67
506.567	10362.34
506.936	10422.23
507.304	10567.76
507.672	10549.23
508.041	10547.65
508.409	10639.17
508.777	10706.29
509.145	10628.77
509.514	10592.62
509.882	10737.02
510.25	10633.29
510.618	10776.57
510.986	10661.99
511.354	10822.22
511.722	10811.14
512.09	10893.4
512.458	10771.82
512.826	10858.82
513.193	10895.43
513.561	10856.11
513.929	10943.79
514.297	10991.7
514.664	11020.4
515.032	11020.85
515.4	11038.25
515.767	10987.18
516.135	11078.48
516.502	11042.55
516.869	11136.78
517.237	11095.2
517.604	11024.02
517.972	11109.89
518.339	11072.83
518.706	11057.92
519.073	11043
519.44	11080.06
519.808	11138.59
520.175	11094.07
520.542	11175.2
520.909	11204.58
521.276	11180.17
521.643	11165.26
522.009	11256.78
522.376	11328.64
522.743	11197.35
523.11	11229.44
523.477	11298.81
523.843	11336.55
524.21	11304.91
524.577	11374.07
524.943	11261.3
525.31	11357.57
525.676	11352.6
526.043	11322.09
526.409	11394.4
526.776	11353.05
527.142	11342.65
527.508	11356.66
527.874	11351.47
528.241	11372.94
528.607	11335.2
528.973	11324.58
529.339	11236.67
529.705	11284.35
530.071	11316.67
530.437	11299.49
530.803	11290.23
531.169	11265.59
531.535	11249.55
531.901	11184.47
532.267	11095.88
532.632	11181.53
532.998	11104.69
533.364	11018.82
533.73	10938.37
534.095	10995.32
534.461	11010.69
534.826	10943.57
535.192	10920.74
535.557	10987.63
535.923	10819.96
536.288	10854.98
536.653	10879.16
537.019	10768.43
537.384	10716.91
537.749	10652.28
538.114	10693.86
538.479	10629
538.845	10635.33
539.21	10584.26
539.575	10521.66
539.94	10457.71
540.305	10405.5
540.67	10374.77
541.034	10348.1
541.399	10308.33
541.764	10281.44
542.129	10205.96
542.494	10185.62
542.858	10180.88
543.223	10054.1
543.587	10064.95
543.952	9944.5
544.316	9989.24
544.681	9818.63
545.045	9811.85
545.41	9813.43
545.774	9798.74
546.138	9678.97
546.503	9688.69
546.867	9604.62
547.231	9630.38
547.595	9524.17
547.959	9557.39
548.324	9450.05
548.688	9447.11
549.052	9324.85
549.416	9302.03
549.779	9293.67
550.143	9281.46
550.507	9264.74
550.871	9202.37
551.235	9084.18
551.599	9177.74
551.962	9066.1
552.326	9048.25
552.689	9038.99
553.053	8886
553.417	8929.16
553.78	8955.37
554.143	8861.82
554.507	8819.78
554.87	8857.07
555.234	8813.23
555.597	8711.31
555.96	8681.25
556.323	8655.27
556.686	8689.84
557.05	8678.09
557.413	8637.41
557.776	8570.07
558.139	8546.34
558.502	8523.07
558.865	8469.51
559.228	8499.56
559.59	8433.13
559.953	8437.19
560.316	8525.33
560.679	8386.35
561.041	8457.08
561.404	8460.7
561.767	8384.54
562.129	8403.75
562.492	8406.23
562.854	8375.27
563.217	8302.96
563.579	8297.76
563.941	8346.57
564.304	8329.17
564.666	8361.26
565.028	8316.29
565.39	8358.55
565.753	8326.69
566.115	8290.76
566.477	8296.86
566.839	8305.67
567.201	8260.47
567.563	8246.69
567.925	8300.25
568.287	8335.73
568.648	8242.4
569.01	8319.91
569.372	8277.42
569.734	8247.59
570.095	8313.58
570.457	8296.18
570.819	8278.55
571.18	8240.36
571.542	8314.03
571.903	8289.85
572.265	8301.83
572.626	8309.74
572.987	8281.49
573.349	8282.85
573.71	8318.33
574.071	8240.14
574.432	8299.8
574.794	8303.41
575.155	8208.72
575.516	8207.82
575.877	8251.21
576.238	8232
576.599	8285.78
576.96	8246.92
577.32	8244.88
577.681	8253.24
578.042	8218.22
578.403	8173.25
578.763	8217.54
579.124	8228.16
579.485	8219.8
579.845	8228.61
580.206	8248.5
580.566	8245.56
580.927	8200.36
581.287	8244.43
581.648	8143.64
582.008	8207.59
582.368	8129.86
582.728	8176.18
583.089	8168.73
583.449	8177.77
583.809	8133.92
584.169	8122.63
584.529	8170.08
584.889	8149.29
585.249	8168.73
585.609	8092.12
585.969	8163.3
586.329	8109.52
586.688	8115.62
587.048	8114.26
587.408	8085.79
587.768	8050.31
588.127	8055.96
588.487	8025.23
588.846	8065.23
589.206	8008.96
589.565	7996.53
589.925	8048.73
590.284	7992.91
590.643	7962.86
591.003	7980.93
591.362	8029.75
591.721	8008.28
592.08	7977.32
592.44	7946.13
592.799	7962.4
593.158	7963.31
593.517	7911.56
593.876	7929.86
594.235	7893.7
594.593	7922.63
594.952	7863.2
595.311	7898.45
595.67	7913.82
596.029	7927.15
596.387	7946.13
596.746	7890.09
597.104	7919.92
597.463	7860.49
597.822	7841.95
598.18	7808.06
598.538	7843.31
598.897	7839.47
599.255	7796.31
599.613	7902.52
599.972	7743.65
600.33	7828.17
600.688	7793.14
601.046	7789.3
601.404	7807.15
601.762	7865.68
602.12	7871.56
602.478	7803.09
602.836	7895.29
603.194	7832.92
603.552	7803.99
603.91	7747.95
604.268	7765.12
604.625	7803.99
604.983	7839.47
605.341	7753.82
605.698	7821.62
606.056	7841.95
606.413	7751.79
606.771	7825.23
607.128	7865.68
607.485	7769.41
607.843	7742.3
608.2	7787.72
608.557	7801.5
608.914	7809.64
609.272	7837.89
609.629	7846.93
609.986	7882.41
610.343	7795.63
610.7	7867.26
611.057	7834.72
611.414	7807.38
611.771	7840.37
612.127	7795.63
612.484	7876.08
612.841	7859.58
613.198	7801.5
613.554	7826.36
613.911	7906.59
614.267	7849.19
614.624	7859.81
614.98	7884.89
615.337	7862.97
615.693	7912.46
616.05	7898.9
616.406	7910.88
616.762	7831.79
617.118	7869.3
617.475	7838.34
617.831	7879.24
618.187	7936.87
618.543	7923.53
618.899	7938.22
619.255	7920.37
619.611	7983.42
619.967	7932.35
620.323	7933.93
620.678	7961.27
621.034	7935.74
621.39	7917.66
621.746	7908.62
622.101	7978.45
622.457	7903.65
622.812	7944.78
623.168	7910.2
623.523	7962.63
623.879	7933.03
624.234	7927.6
624.589	7849.64
624.945	7904.33
625.3	7893.93
625.655	7892.8
626.01	7925.57
626.365	7950.43
626.72	7870.43
627.075	7916.98
627.43	7903.42
627.785	7878.79
628.14	7959.69
628.495	7859.36
628.85	7886.25
629.205	7863.42
629.559	7924.21
629.914	7910.65
630.269	7831.79
630.623	7809.64
630.978	7816.42
631.332	7848.73
631.687	7837.21
632.041	7856.42
632.396	7853.93
632.75	7765.12
633.104	7884.89
633.459	7768.74
633.813	7763.99
634.167	7740.49
634.521	7810.77
634.875	7724.22
635.229	7720.6
635.583	7730.77
635.937	7694.61
636.291	7723.99
636.645	7705.01
636.999	7622.53
637.352	7672.47
637.706	7652.81
638.06	7672.24
638.413	7629.98
638.767	7628.63
639.121	7632.24
639.474	7592.24
639.828	7619.59
640.181	7619.14
640.534	7594.73
640.888	7590.89
641.241	7562.19
641.594	7570.32
641.947	7583.88
642.301	7564.67
642.654	7520.83
643.007	7608.51
643.36	7547.95
643.713	7561.28
644.066	7567.16
644.419	7484.68
644.771	7501.62
645.124	7387.05
645.477	7421.63
645.83	7364
646.182	7253.72
646.535	7283.78
646.888	7324.45
647.24	7257.56
647.593	7335.53
647.945	7284.91
648.298	7317.67
648.65	7229.09
649.002	7269.09
649.355	7315.64
649.707	7258.92
650.059	7350.67
650.411	7366.04
650.763	7385.92
651.115	7557.44
651.467	7457.78
651.819	7471.34
652.171	7494.17
652.523	7441.29
652.875	7430.67
653.227	7424.34
653.578	7496.2
653.93	7452.59
654.282	7462.08
654.633	7410.33
654.985	7439.71
655.337	7471.34
655.688	7438.35
656.039	7509.08
656.391	7445.58
656.742	7494.17
657.094	7476.77
657.445	7527.61
657.796	7510.21
658.147	7522.87
658.498	7512.7
658.849	7510.66
659.2	7480.61
659.551	7509.53
659.902	7493.26
660.253	7522.87
660.604	7580.49
660.955	7467.73
661.306	7577.55
661.656	7494.39
662.007	7595.18
662.358	7505.92
662.708	7498.01
663.059	7538.69
663.409	7470.21
663.76	7575.75
664.11	7601.74
664.461	7472.7
664.811	7575.3
665.161	7568.97
665.511	7525.13
665.862	7585.01
666.212	7535.75
666.562	7572.36
666.912	7488.52
667.262	7521.74
667.612	7544.11
667.962	7530.55
668.312	7564.67
668.662	7596.09
669.011	7542.98
669.361	7551.34
669.711	7511.34
670.06	7545.47
670.41	7547.05
670.76	7498.24
671.109	7578.68
671.459	7519.03
671.808	7525.58
672.157	7496.65
672.507	7470.67
672.856	7462.76
673.205	7466.15
673.554	7520.61
673.904	7409.42
674.253	7574.39
674.602	7449.65
674.951	7378.01
675.3	7376.88
675.649	7402.87
675.998	7467.5
676.346	7472.92
676.695	7462.76
677.044	7458.69
677.393	7428.86
677.741	7385.92
678.09	7454.62
678.438	7369.88
678.787	7365.58
679.135	7406.49
679.484	7355.64
679.832	7386.37
680.181	7286.72
680.529	7328.3
680.877	7266.15
681.225	7253.04
681.573	7343.21
681.922	7316.77
682.27	7254.17
682.618	7230.9
682.966	7224.8
683.314	7260.28
683.661	7232.03
684.009	7196.1
684.357	7200.62
684.705	7151.35
685.053	7179.37
685.4	7115.42
685.748	7083.78
686.095	7074.07
686.443	7000.17
686.79	7005.37
687.138	7058.7
687.485	7054.4
687.832	7006.5
688.18	7023.45
688.527	6950.9
688.874	6941.19
689.221	6912.04
689.568	6868.2
689.915	6895.99
690.262	6896.44
690.609	6901.41
690.956	6835.88
691.303	6853.05
691.65	6798.37
691.997	6775.54
692.344	6700.74
692.69	6693.28
693.037	6730.12
693.383	6590.91
693.73	6628.65
694.077	6599.28
694.423	6590.91
694.769	6585.26
695.116	6583
695.462	6535.77
695.808	6489.45
696.155	6540.07
696.501	6480.63
696.847	6483.35
697.193	6409
697.539	6418.04
697.885	6352.73
698.231	6373.52
698.577	6323.58
698.923	6361.54
699.269	6315.89
699.614	6230.25
699.96	6230.02
700.306	6242.9
700.651	6161.55
700.997	6211.49
701.342	6150.93
701.688	6090.14
702.033	6117.03
702.379	6063.24
702.724	6065.96
703.069	6128.78
703.415	6013.08
703.76	6025.28
704.105	5999.97
704.45	5964.94
704.795	5931.72
705.14	5920.2
705.485	5881.1
705.83	5895.34
706.175	5909.12
706.52	5880.42
706.865	5831.16
707.209	5801.33
707.554	5796.13
707.899	5801.78
708.243	5783.48
708.588	5794.33
708.932	5741.22
709.277	5691.28
709.621	5701.67
709.966	5653.31
710.31	5647.66
710.654	5642.92
710.998	5641.11
711.342	5616.25
711.687	5610.38
712.031	5604.73
712.375	5590.94
712.719	5548.23
713.063	5548.23
713.407	5620.09
713.75	5585.74
714.094	5575.8
714.438	5515.46
714.782	5513.88
715.125	5503.94
715.469	5509.13
715.812	5470.04
716.156	5489.7
716.499	5467.1
716.843	5427.78
717.186	5473.43
717.53	5500.77
717.873	5493.99
718.216	5420.1
718.559	5435.92
718.902	5428.01
719.246	5382.58
719.589	5357.95
719.932	5410.61
720.275	5378.29
720.617	5341
720.96	5369.7
721.303	5341
721.646	5375.35
721.989	5358.86
722.331	5387.56
722.674	5380.78
723.016	5310.72
723.359	5371.29
723.701	5345.75
724.044	5334.22
724.386	5283.38
724.729	5327.9
725.071	5298.29
725.413	5336.26
725.755	5295.81
726.097	5286.99
726.439	5226.2
726.782	5282.25
727.124	5296.49
727.465	5279.31
727.807	5260.33
728.149	5260.33
728.491	5232.31
728.833	5205.64
729.175	5283.15
729.516	5255.58
729.858	5280.89
730.199	5277.73
730.541	5271.17
730.882	5277.28
731.224	5281.12
731.565	5238.86
731.906	5282.02
732.248	5270.27
732.589	5249.93
732.93	5264.17
733.271	5243.83
733.612	5281.34
733.953	5250.84
734.294	5293.1
734.635	5281.34
734.976	5291.97
735.317	5271.17
735.658	5214.45
735.999	5303.94
736.339	5257.84
736.68	5330.83
737.021	5320.44
737.361	5317.28
737.702	5293.1
738.042	5316.82
738.383	5290.38
738.723	5323.15
739.063	5352.08
739.404	5356.14
739.744	5398.86
740.084	5397.27
740.424	5406.76
740.764	5388.69
741.104	5403.15
741.444	5442.47
741.784	5411.06
742.124	5452.19
742.464	5449.93
742.804	5456.03
743.143	5489.25
743.483	5503.49
743.823	5537.83
744.162	5584.39
744.502	5585.29
744.841	5579.42
745.181	5592.97
745.52	5632.97
745.86	5641.79
746.199	5684.27
746.538	5772.18
746.877	5789.58
747.216	5796.36
747.556	5863.02
747.895	5892.4
748.234	5890.37
748.573	5945.28
748.911	6047.43
749.25	6064.83
749.589	6059.4
749.928	6181.89
750.267	6260.08
750.605	6313.63
750.944	6307.98
751.283	6464.59
751.621	6515.89
751.96	6553.18
752.298	6677.01
752.636	6751.59
752.975	6854.41
753.313	6850.12
753.651	7027.74
753.989	7130.79
754.327	7240.61
754.666	7312.03
755.004	7487.39
755.342	7536.43
755.679	7749.98
756.017	7763.09
756.355	7933.03
756.693	8037.43
757.031	8245.56
757.368	8329.63
757.706	8423.86
758.044	8656.85
758.381	8828.37
758.719	8901.81
759.056	9121.02
759.394	9229.04
759.731	9339.99
760.068	9538.63
760.405	9699.99
760.743	9829.47
761.08	10002.58
761.417	10131.61
761.754	10311.27
762.091	10531.38
762.428	10630.81
762.765	10782.89
763.102	11064.69
763.438	11155.09
763.775	11239.83
764.112	11546.49
764.449	11691.8
764.785	11888.4
765.122	11993.94
765.458	12100.6
765.795	12232.8
766.131	12468.27
766.467	12658.33
766.804	12765.67
767.14	12841.6
