Data from hue_90_FLMS001491_67.txt Node
Date: Mon Feb 06 15:25:28 GMT 2017
User: dcchb
Spectrometer: FLMS00149
Trigger mode: 0
Integration Time (sec): 2.000000E-2
Scans to average: 10
Electric dark correction enabled: true
Nonlinearity correction enabled: false
Boxcar width: 0
XAxis mode: Wavelengths
Number of Pixels in Spectrum: 2048
>>>>>Begin Spectral Data<<<<<
341.393	-3.64
341.776	-3.64
342.16	-3.64
342.543	-39.8
342.927	-58.56
343.31	-68.28
343.693	-80.03
344.077	-69.18
344.46	-60.14
344.843	-56.75
345.226	-36.86
345.61	-23.53
345.993	4.72
346.376	-7.94
346.759	15.79
347.142	21.21
347.525	46.3
347.908	48.78
348.291	67.54
348.674	93.98
349.057	104.38
349.44	128.78
349.823	147.99
350.206	157.26
350.588	190.25
350.971	211.49
351.354	216.69
351.737	236.58
352.119	268.89
352.502	264.15
352.884	291.04
353.267	258.72
353.65	317.48
354.032	315.9
354.414	315.44
354.797	319.51
355.179	296.46
355.562	326.97
355.944	353.86
356.326	339.85
356.709	350.02
357.091	349.12
357.473	374.65
357.855	360.41
358.238	346.86
358.62	348.89
359.002	343.01
359.384	355.44
359.766	347.76
360.148	342.79
360.53	350.7
360.912	333.97
361.294	349.57
361.676	345.95
362.057	347.53
362.439	345.73
362.821	319.29
363.203	331.94
363.584	334.88
363.966	326.52
364.348	339.4
364.729	330.81
365.111	343.47
365.493	324.71
365.874	330.36
366.256	323.58
366.637	312.73
367.019	323.58
367.4	348.21
367.781	313.18
368.163	312.51
368.544	312.51
368.925	315.67
369.306	341.43
369.688	308.66
370.069	307.08
370.45	335.78
370.831	326.97
371.212	310.92
371.593	328.78
371.974	330.81
372.355	322.68
372.736	317.48
373.117	325.39
373.498	324.26
373.879	322.45
374.26	319.96
374.641	334.88
375.021	324.71
375.402	338.49
375.783	329.68
376.163	327.19
376.544	350.92
376.925	320.42
377.305	332.84
377.686	324.03
378.066	338.72
378.447	325.84
378.827	368.1
379.208	336.46
379.588	346.4
379.968	354.09
380.349	347.76
380.729	341.66
381.109	355.22
381.489	347.53
381.87	356.35
382.25	353.41
382.63	362.45
383.01	346.4
383.39	357.93
383.77	330.36
384.15	343.24
384.53	361.32
384.91	359.06
385.29	366.29
385.67	364.93
386.049	364.93
386.429	354.99
386.809	365.39
387.189	366.74
387.568	356.12
387.948	345.5
388.328	369.23
388.707	389.57
389.087	359.51
389.466	386.63
389.846	372.62
390.225	383.92
390.605	376.01
390.984	378.72
391.363	385.5
391.743	370.58
392.122	366.06
392.501	385.5
392.881	377.59
393.26	384.82
393.639	385.5
394.018	398.15
394.397	384.59
394.776	399.51
395.155	394.09
395.534	407.64
395.913	397.02
396.292	394.09
396.671	384.37
397.05	399.06
397.429	413.07
397.808	397.02
398.186	396.57
398.565	404.03
398.944	423.69
399.323	409.23
399.701	414.2
400.08	409
400.458	413.52
400.837	447.42
401.215	418.72
401.594	400.19
401.972	430.24
402.351	443.12
402.729	422.33
403.107	433.41
403.486	423.92
403.864	443.8
404.242	426.85
404.62	426.18
404.999	449.9
405.377	432.28
405.755	433.86
406.133	422.56
406.511	443.58
406.889	436.57
407.267	457.81
407.645	443.8
408.023	444.93
408.401	456.68
408.779	452.16
409.156	454.42
409.534	476.57
409.912	477.93
410.29	458.26
410.667	476.8
411.045	476.34
411.422	494.87
411.8	486.51
412.178	480.19
412.555	491.48
412.933	495.78
413.31	499.62
413.687	501.65
414.065	493.07
414.442	520.86
414.819	523.35
415.197	511.6
415.574	506.17
415.951	512.73
416.328	511.82
416.705	516.34
417.082	534.87
417.46	552.73
417.837	532.84
418.214	561.31
418.591	533.97
418.967	516.34
419.344	531.26
419.721	532.39
420.098	533.52
420.475	522.67
420.852	557.47
421.228	557.47
421.605	557.7
421.982	547.08
422.358	550.92
422.735	569.9
423.111	586.17
423.488	594.31
423.864	578.26
424.241	609
424.617	568.32
424.994	571.03
425.37	589.79
425.746	598.15
426.123	610.35
426.499	618.03
426.875	619.39
427.251	629.79
427.627	647.86
428.003	623.91
428.379	654.42
428.756	628.2
429.132	666.39
429.507	657.58
429.883	650.58
430.259	668.43
430.635	650.58
431.011	661.65
431.387	675.89
431.763	688.32
432.138	698.48
432.514	694.87
432.89	697.13
433.265	709.11
433.641	726.05
434.016	716.34
434.392	719.95
434.767	727.86
435.143	733.51
435.518	757.01
435.894	767.86
436.269	755.21
436.644	767.18
437.02	773.96
437.395	760.63
437.77	780.52
438.145	759.05
438.52	810.12
438.895	802.44
439.271	807.41
439.646	789.78
440.021	823.68
440.395	828.2
440.77	837.46
441.145	825.49
441.52	846.28
441.895	830.23
442.27	854.86
442.645	888.99
443.019	880.4
443.394	870.46
443.769	892.15
444.143	876.11
444.518	878.14
444.892	890.12
445.267	894.64
445.641	907.52
446.016	900.97
446.39	901.19
446.764	909.55
447.139	940.29
447.513	906.61
447.887	908.42
448.262	919.72
448.636	948.65
449.01	934.86
449.384	964.92
449.758	968.08
450.132	945.48
450.506	952.72
450.88	955.65
451.254	979.83
451.628	975.54
452.002	1003.79
452.376	1008.53
452.75	989.32
453.123	1010.34
453.497	1054.41
453.871	1045.37
454.244	1062.99
454.618	1083.11
454.992	1085.37
455.365	1076.55
455.739	1118.13
456.112	1122.43
456.486	1135.54
456.859	1142.54
457.232	1161.75
457.606	1148.87
457.979	1158.36
458.352	1163.11
458.725	1210.34
459.099	1187.96
459.472	1229.32
459.845	1248.98
460.218	1289.66
460.591	1268.41
460.964	1271.58
461.337	1282.42
461.71	1340.73
462.083	1344.57
462.456	1334.85
462.829	1340.73
463.201	1385.02
463.574	1415.08
463.947	1421.18
464.32	1462.53
464.692	1431.57
465.065	1455.3
465.438	1494.17
465.81	1502.08
466.183	1531.68
466.555	1590.89
466.928	1576.43
467.3	1597.44
467.672	1619.14
468.045	1657.1
468.417	1698.91
468.789	1712.7
469.161	1700.72
469.534	1758.57
469.906	1784.78
470.278	1796.76
470.65	1831.34
471.022	1872.92
471.394	1900.26
471.766	1945.91
472.138	1979.58
472.51	2049.86
472.882	2069.75
473.253	2102.29
473.625	2175.73
473.997	2203.76
474.369	2247.6
474.74	2260.7
475.112	2319.68
475.484	2403.3
475.855	2434.94
476.227	2469.74
476.598	2568.72
476.97	2604.65
477.341	2689.84
477.713	2755.61
478.084	2783.85
478.455	2902.72
478.827	2926
479.198	3060.68
479.569	3089.61
479.94	3194.69
480.311	3258.64
480.682	3347.68
481.053	3488.24
481.424	3588.8
481.795	3675.13
482.166	3743.83
482.537	3821.57
482.908	3975.46
483.279	4084.61
483.65	4158.28
484.021	4316.02
484.391	4393.98
484.762	4513.3
485.133	4598.49
485.503	4708.1
485.874	4862.44
486.244	4946.96
486.615	5087.3
486.985	5242.32
487.356	5409.77
487.726	5524.57
488.097	5668.3
488.467	5710.1
488.837	5933.38
489.207	6082.3
489.578	6178.57
489.948	6346.25
490.318	6532.46
490.688	6671.43
491.058	6748.95
491.428	6903.75
491.798	7007.7
492.168	7239.33
492.538	7302.6
492.908	7542.6
493.278	7686.55
493.648	7797.28
494.017	7946.66
494.387	8101.91
494.757	8230.26
495.126	8378.28
495.496	8513.19
495.866	8523.36
496.235	8706.41
496.605	8904.82
496.974	9044.93
497.344	9156.34
497.713	9280.86
498.082	9375.77
498.452	9585.26
498.821	9672.26
499.19	9722.2
499.559	9919.94
499.928	10082.87
500.298	10118.58
500.667	10351.56
501.036	10269.76
501.405	10542.29
501.774	10574.38
502.143	10701.16
502.512	10740.93
502.88	10863.87
503.249	10966.46
503.618	11068.61
503.987	11142.5
504.356	11304.53
504.724	11319.67
505.093	11446.9
505.462	11509.05
505.83	11617.29
506.199	11697.74
506.567	11829.27
506.936	11882.6
507.304	11996.27
507.672	12130.5
508.041	12109.71
508.409	12250.05
508.777	12410.04
509.145	12495.69
509.514	12462.69
509.882	12506.76
510.25	12607.32
510.618	12657.49
510.986	12742.46
511.354	12775.68
511.722	12901.78
512.09	12986.97
512.458	13010.7
512.826	13144.26
513.193	13126.63
513.561	13184.48
513.929	13303.8
514.297	13470.8
514.664	13391.48
515.032	13512.84
515.4	13526.62
515.767	13572.72
516.135	13564.59
516.502	13609.33
516.869	13843
517.237	13749.67
517.604	13690.69
517.972	13857.69
518.339	14010.45
518.706	13943.56
519.073	13919.83
519.44	14076.66
519.808	14151.69
520.175	14049.32
520.542	14160.96
520.909	14245.25
521.276	14221.07
521.643	14273.72
522.009	14399.14
522.376	14426.49
522.743	14452.93
523.11	14565.24
523.477	14557.1
523.843	14641.85
524.21	14711.22
524.577	14695.63
524.943	14715.52
525.31	14752.35
525.676	14840.26
526.043	14830.09
526.409	15002.52
526.776	15060.14
527.142	15019.01
527.508	15024.89
527.874	15057.88
528.241	15020.37
528.607	15015.85
528.973	15140.82
529.339	15066.24
529.705	15107.15
530.071	15162.74
530.437	15207.03
530.803	15165
531.169	15349.85
531.535	15101.95
531.901	15197.76
532.267	15223.53
532.632	15255.84
532.998	15175.62
533.364	15230.31
533.73	15162.06
534.095	15223.75
534.461	15219.23
534.826	15179.91
535.192	15231.66
535.557	15187.14
535.923	15176.52
536.288	15193.7
536.653	15273.24
537.019	15000.48
537.384	15044.77
537.749	15124.09
538.114	15115.73
538.479	15040.25
538.845	14998.45
539.21	14894.5
539.575	14905.57
539.94	14980.14
540.305	14942.18
540.67	14859.47
541.034	14829.86
541.399	14857.43
541.764	14729.75
542.129	14783.99
542.494	14744.22
542.858	14752.35
543.223	14680.04
543.587	14725.01
543.952	14612.69
544.316	14582.19
544.681	14452.7
545.045	14535.86
545.41	14585.12
545.774	14480.04
546.138	14451.57
546.503	14383.32
546.867	14385.13
547.231	14473.04
547.595	14380.16
547.959	14369.99
548.324	14279.14
548.688	14222.42
549.052	14145.36
549.416	14139.94
549.779	14118.02
550.143	14129.09
550.507	14177
550.871	14121.63
551.235	14031.24
551.599	14068.53
551.962	14047.96
552.326	13988.08
552.689	14090.67
553.053	13922.32
553.417	13922.09
553.78	14139.04
554.143	13877.8
554.507	13809.1
554.87	13915.09
555.234	13939.72
555.597	13812.04
555.96	13857.01
556.323	13908.76
556.686	13727.52
557.05	13751.47
557.413	13732.04
557.776	13710.35
558.139	13774.52
558.502	13690.01
558.865	13739.72
559.228	13749.89
559.59	13789.89
559.953	13721.64
560.316	13841.64
560.679	13831.02
561.041	13763.23
561.404	13759.61
561.767	13813.85
562.129	13720.51
562.492	13744.7
562.854	13750.8
563.217	13739.72
563.579	13772.94
563.941	13773.85
564.304	13859.27
564.666	13914.18
565.028	13828.53
565.39	13831.02
565.753	13824.24
566.115	13802.55
566.477	13989.21
566.839	13897.91
567.201	13839.38
567.563	13937.23
567.925	13924.58
568.287	13914.18
568.648	13914.18
569.01	13954.41
569.372	13991.24
569.734	14005.93
570.095	14116.89
570.457	14109.88
570.819	14049.09
571.18	14020.17
571.542	14131.8
571.903	14077.79
572.265	14068.98
572.626	14117.79
572.987	14156.89
573.349	14102.88
573.71	14154.63
574.071	14148.07
574.432	14206.15
574.794	14287.51
575.155	14199.6
575.516	14140.62
575.877	14220.16
576.238	14167.06
576.599	14278.47
576.96	14187.17
577.32	14179.71
577.681	14227.39
578.042	14185.14
578.403	14214.97
578.763	14152.14
579.124	14253.16
579.485	14274.62
579.845	14290.44
580.206	14267.17
580.566	14238.24
580.927	14265.36
581.287	14320.5
581.648	14220.84
582.008	14299.93
582.368	14238.02
582.728	14198.02
583.089	14200.28
583.449	14191.24
583.809	14181.75
584.169	14216.1
584.529	14118.47
584.889	14291.57
585.249	14176.77
585.609	14123.89
585.969	14205.93
586.329	14139.26
586.688	14118.7
587.048	14116.89
587.408	14047.51
587.768	14066.04
588.127	14107.17
588.487	14021.52
588.846	14177.45
589.206	14026.72
589.565	13966.38
589.925	13982.2
590.284	14053.16
590.643	14077.12
591.003	14021.07
591.362	14073.95
591.721	13957.57
592.08	13954.86
592.44	14028.98
592.799	14013.61
593.158	13980.62
593.517	13953.96
593.876	13959.15
594.235	13891.58
594.593	14055.87
594.952	13976.1
595.311	13821.53
595.67	13935.65
596.029	14050.45
596.387	13960.96
596.746	13974.07
597.104	13878.02
597.463	13920.51
597.822	13926.39
598.18	13929.32
598.538	13941.75
598.897	13917.8
599.255	13785.82
599.613	13977.68
599.972	13941.07
600.33	13880.96
600.688	13840.96
601.046	13841.87
601.404	13870.79
601.762	13854.3
602.12	13991.92
602.478	13904.01
602.836	13978.59
603.194	13819.72
603.552	13889.78
603.91	13809.1
604.268	13858.36
604.625	13774.98
604.983	13893.17
605.341	13885.03
605.698	13941.53
606.056	13870.12
606.413	13844.58
606.771	13898.36
607.128	13941.07
607.485	13908.08
607.843	13852.49
608.2	13954.63
608.557	13915.31
608.914	13907.63
609.272	13955.99
609.629	13955.99
609.986	14002.77
610.343	13927.52
610.7	14061.52
611.057	14047.96
611.414	13930.23
611.771	14037.57
612.127	14058.59
612.484	14030.34
612.841	14056.1
613.198	13995.08
613.554	14088.87
613.911	14103.1
614.267	14060.39
614.624	13999.38
614.98	14079.6
615.337	14191.46
615.693	14189.66
616.05	14160.05
616.406	14245.02
616.762	14106.72
617.118	14077.79
617.475	14177.23
617.831	14153.5
618.187	14176.77
618.543	14199.6
618.899	14269.88
619.255	14129.32
619.611	14183.55
619.967	14226.72
620.323	14285.47
620.678	14197.56
621.034	14291.35
621.39	14123.22
621.746	14163.67
622.101	14328.41
622.457	14265.81
622.812	14298.35
623.168	14376.09
623.523	14262.2
623.879	14291.57
624.234	14221.29
624.589	14299.93
624.945	14299.26
625.3	14230.56
625.655	14229.43
626.01	14313.72
626.365	14274.62
626.72	14262.87
627.075	14275.3
627.43	14178.81
627.785	14295.87
628.14	14299.48
628.495	14124.35
628.85	14281.18
629.205	14172.71
629.559	14221.07
629.914	14211.58
630.269	14144.46
630.623	14094.97
630.978	14076.66
631.332	14163.67
631.687	14220.16
632.041	14130.45
632.396	14081.64
632.75	14054.74
633.104	14079.83
633.459	14014.97
633.813	14027.17
634.167	13926.16
634.521	14007.29
634.875	14008.64
635.229	14021.75
635.583	13984.69
635.937	13975.88
636.291	13977.23
636.645	13905.82
636.999	13919.38
637.352	13869.44
637.706	13870.79
638.06	13888.19
638.413	13896.56
638.767	13731.36
639.121	13853.39
639.474	13706.73
639.828	13807.52
640.181	13777.01
640.534	13778.59
640.888	13756.45
641.241	13659.5
641.594	13640.29
641.947	13667.41
642.301	13741.53
642.654	13645.26
643.007	13644.13
643.36	13642.1
643.713	13659.05
644.066	13678.93
644.419	13635.09
644.771	13438.71
645.124	13353.52
645.477	13363.01
645.83	13316.23
646.182	13199.17
646.535	13189.46
646.888	13196.91
647.24	13189.23
647.593	13183.13
647.945	13122.34
648.298	13121.43
648.65	13159.4
649.002	13109.68
649.355	13175.67
649.707	13097.48
650.059	13219.29
650.411	13334.31
650.763	13323.69
651.115	13457.25
651.467	13477.81
651.819	13449.11
652.171	13502.67
652.523	13436.68
652.875	13409.34
653.227	13319.85
653.578	13501.99
653.93	13439.39
654.282	13442.33
654.633	13384.93
654.985	13449.56
655.337	13427.87
655.688	13454.99
656.039	13530.46
656.391	13373.41
656.742	13454.53
657.094	13447.3
657.445	13506.51
657.796	13431.71
658.147	13444.59
658.498	13453.86
658.849	13460.63
659.2	13523.46
659.551	13444.36
659.902	13523.46
660.253	13460.41
660.604	13514.19
660.955	13419.96
661.306	13498.15
661.656	13470.13
662.007	13488.43
662.358	13414.31
662.708	13416.34
663.059	13458.15
663.409	13386.29
663.76	13516.9
664.11	13509.9
664.461	13618.14
664.811	13556.68
665.161	13543.8
665.511	13572.27
665.862	13560.75
666.212	13574.98
666.562	13605.49
666.912	13499.5
667.262	13581.08
667.612	13533.63
667.962	13594.87
668.312	13546.51
668.662	13568.43
669.011	13524.81
669.361	13534.76
669.711	13550.12
670.06	13513.51
670.41	13494.76
670.76	13473.97
671.109	13588.32
671.459	13449.34
671.808	13504.93
672.157	13502.44
672.507	13392.16
672.856	13426.96
673.205	13411.82
673.554	13531.82
673.904	13385.83
674.253	13496.79
674.602	13389.22
674.951	13216.57
675.3	13146.29
675.649	13379.05
675.998	13361.65
676.346	13344.25
676.695	13277.81
677.044	13195.56
677.393	13289.34
677.741	13391.26
678.09	13306.97
678.438	13241.43
678.787	13281.66
679.135	13298.38
679.484	13202.11
679.832	13157.59
680.181	13083.24
680.529	13049.8
680.877	13095.45
681.225	13102.45
681.573	13235.78
681.922	12970.93
682.27	13065.16
682.618	13049.8
682.966	12930.48
683.314	13010.03
683.661	12909.91
684.009	12899.07
684.357	12928.45
684.705	12840.09
685.053	12789.92
685.4	12780.65
685.748	12780.88
686.095	12718.28
686.443	12655.68
686.79	12694.78
687.138	12698.39
687.485	12643.03
687.832	12662.24
688.18	12564.16
688.527	12502.47
688.874	12569.81
689.221	12493.43
689.568	12467.21
689.915	12394.45
690.262	12394.9
690.609	12350.16
690.956	12364.84
691.303	12256.6
691.65	12178.41
691.997	12218.63
692.344	12177.05
692.69	12098.86
693.037	12147.45
693.383	12043.04
693.73	12067.68
694.077	11911.3
694.423	11936.16
694.769	11899.32
695.116	11862.26
695.462	11845.54
695.808	11786.33
696.155	11750.17
696.501	11681.25
696.847	11676.73
697.193	11590.18
697.539	11567.13
697.885	11543.62
698.231	11447.35
698.577	11424.53
698.923	11384.98
699.269	11375.94
699.614	11246.46
699.96	11261.14
700.306	11233.12
700.651	11208.04
700.997	11158.32
701.342	11137.31
701.688	11085.56
702.033	11066.57
702.379	11006.91
702.724	10971.21
703.069	10930.53
703.415	10828.16
703.76	10862.96
704.105	10825.68
704.45	10778.67
704.795	10679.92
705.14	10789.07
705.485	10643.53
705.83	10602.63
706.175	10643.08
706.52	10623.87
706.865	10546.59
707.209	10529.86
707.554	10494.61
707.899	10453.93
708.243	10413.71
708.588	10385.91
708.932	10312.47
709.277	10321.96
709.621	10365.8
709.966	10315.86
710.31	10328.74
710.654	10315.63
710.998	10237.67
711.342	10258.01
711.687	10181.4
712.031	10159.03
712.375	10044.91
712.719	10018.24
713.063	10173.26
713.407	10092.36
713.75	10100.05
714.094	10051.91
714.438	9963.55
714.782	10039.71
715.125	9941.86
715.469	9926.04
715.812	9907.51
716.156	9857.57
716.499	9868.19
716.843	9916.1
717.186	9869.77
717.53	9901.41
717.873	9806.72
718.216	9868.64
718.559	9749.32
718.902	9712.03
719.246	9785.48
719.589	9734.41
719.932	9673.16
720.275	9659.83
720.617	9670.9
720.96	9654.86
721.303	9657.12
721.646	9663.67
721.989	9604.24
722.331	9619.83
722.674	9622.54
723.016	9599.27
723.359	9643.33
723.701	9598.59
724.044	9555.88
724.386	9518.82
724.729	9593.84
725.071	9529.89
725.413	9506.61
725.755	9540.29
726.097	9448.54
726.439	9364.02
726.782	9492.6
727.124	9472.27
727.465	9427.07
727.807	9424.36
728.149	9473.85
728.491	9369.89
728.833	9433.85
729.175	9424.81
729.516	9379.16
729.858	9436.33
730.199	9424.81
730.541	9436.11
730.882	9330.35
731.224	9451.47
731.565	9323.12
731.906	9369.44
732.248	9390.23
732.589	9289.9
732.93	9361.99
733.271	9366.28
733.612	9372.38
733.953	9431.36
734.294	9372.15
734.635	9281.76
734.976	9394.75
735.317	9321.76
735.658	9326.05
735.999	9409.22
736.339	9360.63
736.68	9408.76
737.021	9356.79
737.361	9382.1
737.702	9364.25
738.042	9438.37
738.383	9459.84
738.723	9460.06
739.063	9431.14
739.404	9479.27
739.744	9371.7
740.084	9455.32
740.424	9470.23
740.764	9474.07
741.104	9525.37
741.444	9557.01
741.784	9513.85
742.124	9565.6
742.464	9559.95
742.804	9545.71
743.143	9551.81
743.483	9610.11
743.823	9592.04
744.162	9602.43
744.502	9698.7
744.841	9699.83
745.181	9704.35
745.52	9750
745.86	9838.36
746.199	9847.4
746.538	9834.29
746.877	9968.98
747.216	10011.23
747.556	9937.56
747.895	10066.6
748.234	10148.18
748.573	10166.48
748.911	10277.67
749.25	10262.75
749.589	10324.22
749.928	10450.54
750.267	10540.94
750.605	10559.02
750.944	10625.68
751.283	10693.7
751.621	10782.06
751.96	10894.6
752.298	10921.94
752.636	11071.09
752.975	11159.68
753.313	11282.61
753.651	11424.08
753.989	11482.38
754.327	11608.71
754.666	11670.85
755.004	11879.66
755.342	11987
755.679	12118.52
756.017	12335.24
756.355	12402.81
756.693	12612.3
757.031	12704.27
757.368	12835.11
757.706	12977.48
758.044	13129.34
