Data from hue_340_FLMS001491_98.txt Node
Date: Mon Feb 06 15:43:54 GMT 2017
User: dcchb
Spectrometer: FLMS00149
Trigger mode: 0
Integration Time (sec): 2.000000E-2
Scans to average: 10
Electric dark correction enabled: true
Nonlinearity correction enabled: false
Boxcar width: 0
XAxis mode: Wavelengths
Number of Pixels in Spectrum: 2048
>>>>>Begin Spectral Data<<<<<
341.393	-15.08
341.776	-15.08
342.16	-15.08
342.543	-51.24
342.927	-70.68
343.31	-76.1
343.693	-68.64
344.077	-64.12
344.46	-65.25
344.843	-62.54
345.226	-48.08
345.61	-30.23
345.993	-28.87
346.376	-6.5
346.759	8.19
347.142	41.41
347.525	52.48
347.908	60.17
348.291	82.99
348.674	85.03
349.057	120.05
349.44	129.54
349.823	142.2
350.206	169.54
350.588	188.98
350.971	220.62
351.354	216.77
351.737	235.3
352.119	246.6
352.502	242.99
352.884	265.36
353.267	279.15
353.65	292.7
354.032	284.57
354.414	313.95
354.797	307.85
355.179	325.02
355.562	321.18
355.944	337.45
356.326	329.54
356.709	310.1
357.091	323.66
357.473	340.16
357.855	337.22
358.238	323.89
358.62	332.03
359.002	326.6
359.384	346.04
359.766	332.93
360.148	337.45
360.53	337.9
360.912	342.19
361.294	327.05
361.676	320.95
362.057	351.23
362.439	302.2
362.821	327.28
363.203	336.09
363.584	337.9
363.966	317.34
364.348	318.47
364.729	327.28
365.111	312.59
365.493	312.14
365.874	321.63
366.256	300.61
366.637	292.7
367.019	292.93
367.4	313.95
367.781	307.85
368.163	306.94
368.544	300.61
368.925	298.35
369.306	316.66
369.688	302.42
370.069	313.95
370.45	318.69
370.831	303.33
371.212	302.87
371.593	319.82
371.974	298.81
372.355	283.89
372.736	303.78
373.117	317.11
373.498	306.26
373.879	318.69
374.26	293.61
374.641	305.36
375.021	288.86
375.402	333.38
375.783	318.01
376.163	299.48
376.544	297
376.925	313.04
377.305	302.87
377.686	310.33
378.066	320.05
378.447	334.74
378.827	322.99
379.208	330.44
379.588	332.03
379.968	318.92
380.349	322.76
380.729	316.88
381.109	323.44
381.489	338.8
381.87	326.6
382.25	307.85
382.63	315.98
383.01	320.95
383.39	331.35
383.77	309.2
384.15	321.86
384.53	325.7
384.91	345.58
385.29	346.71
385.67	329.31
386.049	349.2
386.429	331.12
386.809	339.26
387.189	349.43
387.568	337.67
387.948	330.9
388.328	349.88
388.707	358.47
389.087	343.32
389.466	344.91
389.846	356.43
390.225	356.43
390.605	332.93
390.984	352.82
391.363	351.46
391.743	334.51
392.122	365.7
392.501	354.4
392.881	370.89
393.26	354.17
393.639	366.15
394.018	347.62
394.397	350.33
394.776	357.79
395.155	366.15
395.534	369.09
395.913	361.85
396.292	369.09
396.671	379.26
397.05	378.35
397.429	365.92
397.808	371.57
398.186	358.24
398.565	354.4
398.944	379.48
399.323	374.74
399.701	381.52
400.08	383.55
400.458	383.55
400.837	385.81
401.215	381.29
401.594	370.44
401.972	382.87
402.351	386.26
402.729	381.29
403.107	389.88
403.486	395.07
403.864	381.74
404.242	384.23
404.62	379.48
404.999	393.04
405.377	397.56
405.755	399.59
406.133	382.42
406.511	419.25
406.889	408.41
407.267	421.06
407.645	387.16
408.023	406.37
408.401	419.48
408.779	435.53
409.156	424.23
409.534	420.84
409.912	416.77
410.29	454.06
410.667	438.46
411.045	439.37
411.422	435.53
411.8	434.62
412.178	447.05
412.555	462.64
412.933	473.49
413.31	472.36
413.687	468.07
414.065	466.26
414.442	488.41
414.819	485.47
415.197	485.24
415.574	475.75
415.951	485.02
416.328	467.61
416.705	495.18
417.082	495.41
417.46	520.04
417.837	508.52
418.214	499.7
418.591	513.04
418.967	529.76
419.344	509.87
419.721	491.34
420.098	528.18
420.475	523.88
420.852	533.38
421.228	562.3
421.605	537.9
421.982	552.81
422.358	541.51
422.735	555.75
423.111	552.13
423.488	570.89
423.864	560.95
424.241	576.31
424.617	585.8
424.994	596.2
425.37	567.27
425.746	571.34
426.123	582.41
426.499	606.82
426.875	591.45
427.251	588.06
427.627	608.63
428.003	595.3
428.379	604.11
428.756	613.83
429.132	617.89
429.507	618.57
429.883	624.67
430.259	636.88
430.635	652.69
431.011	648.85
431.387	678.68
431.763	657.21
432.138	649.76
432.514	666.48
432.89	678
433.265	698.8
433.641	708.74
434.016	687.95
434.392	695.41
434.767	714.84
435.143	716.2
435.518	722.52
435.894	721.85
436.269	734.73
436.644	751.9
437.02	766.82
437.395	765.23
437.77	776.53
438.145	759.81
438.52	776.08
438.895	783.99
439.271	773.6
439.646	796.65
440.021	772.01
440.395	777.89
440.77	791
441.145	793.26
441.52	801.17
441.895	776.76
442.27	806.36
442.645	807.94
443.019	801.62
443.394	819.7
443.769	834.38
444.143	817.89
444.518	845.23
444.892	838
445.267	833.25
445.641	824.22
446.016	820.15
446.39	878
446.764	870.99
447.139	861.73
447.513	860.82
447.887	855.85
448.262	881.16
448.636	862.63
449.01	872.58
449.384	876.42
449.758	879.36
450.132	877.1
450.506	885
450.88	892.69
451.254	885
451.628	912.35
452.002	909.64
452.376	909.86
452.75	925.46
453.123	922.97
453.497	941.95
453.871	939.92
454.244	943.08
454.618	963.2
454.992	977.43
455.365	976.75
455.739	959.58
456.112	963.42
456.486	973.59
456.859	993.48
457.232	996.19
457.606	1017.66
457.979	1014.27
458.352	1056.75
458.725	1023.76
459.099	1059.24
459.472	1037.09
459.845	1056.07
460.218	1065.57
460.591	1056.3
460.964	1070.76
461.337	1084.55
461.71	1120.03
462.083	1104.66
462.456	1097.65
462.829	1109.63
463.201	1116.41
463.574	1136.98
463.947	1130.42
464.32	1138.56
464.692	1145.79
465.065	1174.71
465.438	1172.68
465.81	1159.57
466.183	1211.32
466.555	1226.24
466.928	1225.11
467.3	1255.84
467.672	1228.72
468.045	1268.95
468.417	1254.71
468.789	1263.07
469.161	1289.29
469.534	1301.72
469.906	1339.23
470.278	1346.91
470.65	1340.13
471.022	1374.03
471.394	1383.52
471.766	1379.91
472.138	1417.42
472.51	1434.14
472.882	1464.65
473.253	1458.55
473.625	1472.79
473.997	1479.57
474.369	1511.43
474.74	1517.98
475.112	1567.92
475.484	1553.69
475.855	1569.96
476.227	1594.14
476.598	1638.66
476.97	1651.09
477.341	1684.53
477.713	1663.74
478.084	1690.18
478.455	1725.43
478.827	1771.76
479.198	1794.36
479.569	1778.09
479.94	1839.1
480.311	1868.03
480.682	1884.75
481.053	1916.62
481.424	1941.7
481.795	1969.95
482.166	1975.6
482.537	2042.49
482.908	2032.55
483.279	2067.57
483.65	2109.15
484.021	2113
484.391	2164.07
484.762	2126.1
485.133	2194.12
485.503	2230.96
485.874	2249.26
486.244	2289.94
486.615	2293.1
486.985	2321.8
487.356	2384.85
487.726	2411.07
488.097	2432.08
488.467	2447.45
488.837	2521.12
489.207	2515.92
489.578	2547.33
489.948	2577.84
490.318	2610.38
490.688	2624.62
491.058	2646.54
491.428	2688.12
491.798	2708.91
492.168	2745.3
492.538	2792.53
492.908	2788.46
493.278	2803.37
493.648	2851.96
494.017	2844.95
494.387	2870.94
494.757	2882.92
495.126	2906.87
495.496	2948.23
495.866	2950.49
496.235	3000.66
496.605	2993.65
496.974	3017.6
497.344	3016.7
497.713	3009.24
498.082	3092.63
498.452	3110.03
498.821	3085.63
499.19	3100.09
499.559	3155.68
499.928	3167.2
500.298	3200.2
500.667	3234.77
501.036	3218.95
501.405	3224.15
501.774	3241.78
502.143	3260.99
502.512	3303.7
502.88	3286.52
503.249	3279.07
503.618	3336.47
503.987	3362.45
504.356	3388.22
504.724	3390.93
505.093	3380.98
505.462	3380.08
505.83	3432.06
506.199	3414.2
506.567	3469.12
506.936	3510.47
507.304	3497.14
507.672	3486.52
508.041	3446.52
508.409	3530.13
508.777	3537.59
509.145	3549.12
509.514	3529
509.882	3583.47
510.25	3592.28
510.618	3626.18
510.986	3612.62
511.354	3603.58
511.722	3664.37
512.09	3665.5
512.458	3667.08
512.826	3647.64
513.193	3718.83
513.561	3698.49
513.929	3720.64
514.297	3766.51
514.664	3763.12
515.032	3771.93
515.4	3817.58
515.767	3762.44
516.135	3799.96
516.502	3818.26
516.869	3823.23
517.237	3845.38
517.604	3824.81
517.972	3844.7
518.339	3870.01
518.706	3863.46
519.073	3861.42
519.44	3883.8
519.808	3919.28
520.175	3917.69
520.542	3935.55
520.909	3952.95
521.276	3930.35
521.643	3979.84
522.009	3991.59
522.376	4003.34
522.743	4001.76
523.11	4062.55
523.477	4046.96
523.843	4104.13
524.21	4094.41
524.577	4121.76
524.943	4124.92
525.31	4146.16
525.676	4162.43
526.043	4253.73
526.409	4196.33
526.776	4275.42
527.142	4289.21
527.508	4250.57
527.874	4305.71
528.241	4331.02
528.607	4291.7
528.973	4334.63
529.339	4355.65
529.705	4374.63
530.071	4403.33
530.437	4403.33
530.803	4439.94
531.169	4461.86
531.535	4450.33
531.901	4485.59
532.267	4533.95
532.632	4553.38
532.998	4578.47
533.364	4614.4
533.73	4656.66
534.095	4604.23
534.461	4653.49
534.826	4607.39
535.192	4642.87
535.557	4678.35
535.923	4665.24
536.288	4709.31
536.653	4730.78
537.019	4773.26
537.384	4816.43
537.749	4784.34
538.114	4768.74
538.479	4819.14
538.845	4815.52
539.21	4808.29
539.575	4873.15
539.94	4895.3
540.305	4928.97
540.67	4946.37
541.034	4968.74
541.399	5001.51
541.764	4988.17
542.129	5004.67
542.494	5022.07
542.858	5053.93
543.223	5060.94
543.587	5105.46
543.952	5086.02
544.316	5085.12
544.681	5144.78
545.045	5156.53
545.41	5199.02
545.774	5187.04
546.138	5238.79
546.503	5217.09
546.867	5251.44
547.231	5287.38
547.595	5338
547.959	5300.03
548.324	5327.83
548.688	5275.4
549.052	5359.69
549.416	5360.14
549.779	5371.44
550.143	5407.15
550.507	5456.86
550.871	5458.67
551.235	5451.89
551.599	5512
551.962	5480.59
552.326	5476.3
552.689	5561.94
553.053	5575.05
553.417	5542.96
553.78	5651.21
554.143	5566.46
554.507	5627.93
554.87	5682.84
555.234	5687.36
555.597	5655.73
555.96	5711.77
556.323	5737.08
556.686	5697.76
557.05	5760.81
557.413	5780.92
557.776	5754.71
558.139	5800.58
558.502	5797.87
558.865	5816.4
559.228	5864.76
559.59	5843.52
559.953	5828.83
560.316	5947.92
560.679	5919.22
561.041	5969.62
561.404	5941.82
561.767	5973.46
562.129	6015.27
562.492	6066.34
562.854	6061.82
563.217	6035.38
563.579	6112.21
563.941	6121.48
564.304	6110.18
564.666	6111.99
565.028	6152.44
565.39	6184.3
565.753	6252.55
566.115	6246.67
566.477	6214.81
566.839	6251.42
567.201	6304.07
567.563	6290.51
567.925	6306.11
568.287	6321.7
568.648	6343.17
569.01	6387.46
569.372	6428.59
569.734	6384.07
570.095	6472.65
570.457	6506.33
570.819	6510.39
571.18	6527.57
571.542	6570.05
571.903	6611.86
572.265	6622.93
572.626	6665.87
572.987	6699.77
573.349	6799.43
573.71	6778.64
574.071	6848.01
574.432	6897.73
574.794	6937.05
575.155	6983.83
575.516	6962.36
575.877	7105.41
576.238	7090.04
576.599	7169.36
576.96	7283.03
577.32	7199.19
577.681	7306.31
578.042	7475.34
578.403	7490.03
578.763	7538.62
579.124	7643.02
579.485	7719.18
579.845	7828.78
580.206	7894.09
580.566	8002.56
580.927	8123.01
581.287	8244.13
581.648	8304.7
582.008	8406.16
582.368	8570.45
582.728	8720.96
583.089	8901.74
583.449	8993.27
583.809	9148.97
584.169	9282.52
584.529	9391.9
584.889	9583.08
585.249	9716.19
585.609	9862.85
585.969	10089.96
586.329	10233.23
586.688	10463.06
587.048	10573.34
587.408	10852.65
587.768	10959.77
588.127	11238.86
588.487	11362.47
588.846	11620.09
589.206	11737.83
589.565	12122.9
589.925	12338.49
590.284	12538.94
590.643	12815.99
591.003	13177.34
591.362	13318.8
591.721	13562.64
592.08	13809.18
592.44	14039.01
592.799	14343.41
593.158	14590.18
593.517	14810.51
593.876	15166.44
594.235	15357.39
594.593	15666.54
594.952	15916.7
595.311	16192.85
595.67	16513.97
596.029	16852.72
596.387	17101.98
596.746	17505.13
597.104	17547.17
597.463	17798.23
597.822	18194.15
598.18	18422.4
598.538	18555.73
598.897	18981.7
599.255	19072.32
599.613	19694.91
599.972	19840.89
600.33	20142.13
600.688	20322.91
601.046	20671.6
601.404	20983.91
601.762	21252.83
602.12	21579.38
602.478	21678.13
602.836	22051.91
603.194	22232.92
603.552	22438.34
603.91	22716.3
604.268	22902.73
604.625	23132.1
604.983	23407.58
605.341	23600.11
605.698	24031.29
606.056	24277.61
606.413	24459.53
606.771	24750.37
607.128	24923.24
607.485	25059.51
607.843	25260.41
608.2	25655.88
608.557	25897.45
608.914	25937.45
609.272	26279.37
609.629	26518
609.986	26774.27
610.343	26874.38
610.7	27189.85
611.057	27342.16
611.414	27495.38
611.771	27693.79
612.127	27950.51
612.484	28049.04
612.841	28341.68
613.198	28361.8
613.554	28587.55
613.911	28874.78
614.267	28964.04
614.624	29082.68
614.98	29441.77
615.337	29609.9
615.693	29606.28
616.05	29729.9
616.406	30022.77
616.762	30113.16
617.118	30332.14
617.475	30313.38
617.831	30559.03
618.187	30776.42
618.543	30879.02
618.899	31067.49
619.255	31150.42
619.611	31251.66
619.967	31405.33
620.323	31558.55
620.678	31503.18
621.034	31573.46
621.39	31740.01
621.746	31734.14
622.101	32165.76
622.457	32054.58
622.812	32240.79
623.168	32522.14
623.523	32442.37
623.879	32672.87
624.234	32426.1
624.589	32685.52
624.945	32695.92
625.3	32852.07
625.655	32905.18
626.01	33086.19
626.365	33128.9
626.72	33154.89
627.075	33240.09
627.43	33245.96
627.785	33240.09
628.14	33453.64
628.495	33411.83
628.85	33452.74
629.205	33334.1
629.559	33539.97
629.914	33595.78
630.269	33694.99
630.623	33641.66
630.978	33520.31
631.332	33845.04
631.687	33861.77
632.041	33847.08
632.396	33836.45
632.75	33670.58
633.104	33748.55
633.459	33747.87
633.813	33792.39
634.167	33763.01
634.521	33761.65
634.875	33993.06
635.229	33965.72
635.583	33720.07
635.937	33823.12
636.291	33899.73
636.645	33887.75
636.999	33791.03
637.352	34012.5
637.706	33859.73
638.06	33962.33
638.413	33939.05
638.767	33874.42
639.121	33916
639.474	33865.83
639.828	33906.51
640.181	33899.28
640.534	33810.24
640.888	33872.61
641.241	33751.03
641.594	33814.08
641.947	34043
642.301	33717.36
642.654	33922.33
643.007	33882.78
643.36	33868.54
643.713	33831.94
644.066	33910.58
644.419	33731.15
644.771	33445.5
645.124	33287.54
645.477	33263.36
645.83	32979.98
646.182	32788.57
646.535	32903.37
646.888	32875.35
647.24	32754
647.593	33046.42
647.945	32878.74
648.298	32826.31
648.65	32640.1
649.002	32682.59
649.355	32696.37
649.707	32702.47
650.059	32812.98
650.411	33184.95
650.763	33312.85
651.115	33584.94
651.467	33508.78
651.819	33566.41
652.171	33492.06
652.523	33233.53
652.875	33439.4
653.227	33167.09
653.578	33601.88
653.93	33417.03
654.282	33248.22
654.633	33224.72
654.985	33276.7
655.337	33358.5
655.688	33324.15
656.039	33478.95
656.391	33214.1
656.742	33280.09
657.094	33121.22
657.445	33381.33
657.796	33188.56
658.147	33163.48
658.498	33234.66
658.849	33247.09
659.2	33193.53
659.551	33083.03
659.902	33299.75
660.253	33263.36
660.604	33232.63
660.955	33054.1
661.306	33323.47
661.656	33155.12
662.007	33144.72
662.358	33126.19
662.708	33078.73
663.059	33250.26
663.409	32928.91
663.76	33238.73
664.11	33173.2
664.461	33198.51
664.811	33139.3
665.161	33164.38
665.511	33073.31
665.862	33112.18
666.212	33329.58
666.562	33246.87
666.912	33202.57
667.262	33045.74
667.612	33092.75
667.962	33162.8
668.312	33057.27
668.662	33234.21
669.011	33193.31
669.361	33074.67
669.711	33043.03
670.06	33025.85
670.41	32953.31
670.76	32945.86
671.109	32958.06
671.459	32986.76
671.808	32921.45
672.157	32928.23
672.507	32739.99
672.856	32888.01
673.205	32785.18
673.554	33003.03
673.904	32816.14
674.253	33075.8
674.602	32953.77
674.951	32532.99
675.3	32236.5
675.649	32855.69
675.998	32737.95
676.346	32857.05
676.695	32927.78
677.044	32572.08
677.393	32685.3
677.741	32736.14
678.09	32590.16
678.438	32664.06
678.787	32589.03
679.135	32674.9
679.484	32428.13
679.832	32516.72
680.181	32544.29
680.529	32542.93
680.877	32395.81
681.225	32366.66
681.573	32555.58
681.922	32293.44
682.27	32204.41
682.618	32206.89
682.966	32278.08
683.314	32269.94
683.661	32010.74
684.009	31950.4
684.357	31953.34
684.705	31924.64
685.053	31911.53
685.4	31968.93
685.748	31857.3
686.095	31898.43
686.443	31614.37
686.79	31512.67
687.138	31633.12
687.485	31724.42
687.832	31634.03
688.18	31716.28
688.527	31398.33
688.874	31431.55
689.221	31390.87
689.568	31143.87
689.915	31179.35
690.262	31198.56
690.609	30915.85
690.956	30966.93
691.303	30853.48
691.65	30779.36
691.997	30794.5
692.344	30627.73
692.69	30614.39
693.037	30607.39
693.383	30370.78
693.73	30400.61
694.077	30216.44
694.423	30266.61
694.769	30110
695.116	30146.38
695.462	30184.35
695.808	29910.23
696.155	30049.21
696.501	29736.68
696.847	29885.37
697.193	29536.91
697.539	29712.72
697.885	29471.6
698.231	29487.87
698.577	29423.92
698.923	29361.77
699.269	29153.64
699.614	29205.39
699.96	29114.09
700.306	29072.74
700.651	28969.24
700.997	28889.92
701.342	28793.42
701.688	28824.61
702.033	28611.06
702.379	28749.13
702.724	28585.52
703.069	28654.67
703.415	28264.62
703.76	28412.42
704.105	28363.38
704.45	28296.26
704.795	28198.41
705.14	27985.31
705.485	27981.92
705.83	28005.87
706.175	27999.32
706.52	27993.9
706.865	27923.62
707.209	27721.59
707.554	27658.99
707.899	27724.07
708.243	27466.68
708.588	27607.01
708.932	27400.01
709.277	27300.58
709.621	27268.94
709.966	27115.73
710.31	27220.58
710.654	27025.11
710.998	27047.48
711.342	26967.48
711.687	26923.42
712.031	26862.18
712.375	26709.64
712.719	26875.51
713.063	26655.85
713.407	26837.32
713.75	26625.35
714.094	26708.73
714.438	26534.05
714.782	26409.98
715.125	26397.1
715.469	26452.47
715.812	26298.57
716.156	26201.85
716.499	26177
716.843	26284.34
717.186	26023.33
717.53	26025.13
717.873	26129.99
718.216	25998.69
718.559	25841.18
718.902	25641.42
719.246	25852.03
719.589	25724.58
719.932	25748.76
720.275	25725.03
720.617	25542.66
720.96	25563.9
721.303	25538.59
721.646	25580.85
721.989	25552.83
722.331	25536.33
722.674	25325.72
723.016	25276.91
723.359	25363.23
723.701	25445.26
724.044	25174.31
724.386	25042.34
724.729	25121.66
725.071	25076.01
725.413	25089.34
725.755	25075.78
726.097	25029.91
726.439	24902
726.782	24828.1
727.124	24963.92
727.465	24887.76
727.807	24836.92
728.149	24804.15
728.491	24676.47
728.833	24675.79
729.175	24589.47
729.516	24619.3
729.858	24602.35
730.199	24526.64
730.541	24523.93
730.882	24444.16
731.224	24612.52
731.565	24367.33
731.906	24358.29
732.248	24371.85
732.589	24363.03
732.93	24160.33
733.271	24237.84
733.612	24180.66
733.953	24273.54
734.294	24165.3
734.635	23945.19
734.976	24212.08
735.317	23937.73
735.658	23954
735.999	23985.64
736.339	23849.6
736.68	23876.04
737.021	23754.23
737.361	23644.41
737.702	23844.4
738.042	23807.34
738.383	23762.6
738.723	23883.27
739.063	23624.97
739.404	23726.89
739.744	23563.05
740.084	23530.96
740.424	23599.89
740.764	23517.86
741.104	23585.65
741.444	23474.47
741.784	23441.02
742.124	23430.85
742.464	23372.1
742.804	23349.73
743.143	23290.07
743.483	23278.99
743.823	23178.66
744.162	23141.82
744.502	23190.41
744.841	23111.31
745.181	23149.28
745.52	23111.09
745.86	23001.26
746.199	23015.5
746.538	22937.08
746.877	22968.94
747.216	23026.57
747.556	22883.07
747.895	22924.65
748.234	22708.16
748.573	22820.25
748.911	22674.04
749.25	22700.02
749.589	22565.11
749.928	22709.29
750.267	22636.3
750.605	22653.25
750.944	22628.61
751.283	22490.09
751.621	22507.94
751.96	22360.6
752.298	22474.04
752.636	22338.23
752.975	22287.15
753.313	22186.82
753.651	22260.26
753.989	22243.54
754.327	22076.09
754.666	22016.88
755.004	22117.22
755.342	22050.1
755.679	21979.37
756.017	21843.55
756.355	21864.11
756.693	21885.58
757.031	21790.44
757.368	21715.64
757.706	21764.91
758.044	21575.99
758.381	21601.52
758.719	21476.33
759.056	21479.04
759.394	21455.76
759.731	21253.06
760.068	21338.48
760.405	21216
760.743	21159.95
761.08	21166.28
761.417	21079.95
761.754	21086.06
