Data from hue_80_FLMS001491_1.txt Node
Date: Mon Feb 06 15:22:21 GMT 2017
User: dcchb
Spectrometer: FLMS00149
Trigger mode: 0
Integration Time (sec): 2.000000E-2
Scans to average: 10
Electric dark correction enabled: true
Nonlinearity correction enabled: false
Boxcar width: 0
XAxis mode: Wavelengths
Number of Pixels in Spectrum: 2048
>>>>>Begin Spectral Data<<<<<
341.393	-16.88
341.776	-16.88
342.16	-16.88
342.543	-63.43
342.927	-83.77
343.31	-86.25
343.693	-75.18
344.077	-66.59
344.46	-40.61
344.843	-44.22
345.226	-42.41
345.61	-36.31
345.993	-32.92
346.376	-6.93
346.759	24.25
347.142	17.7
347.525	56.57
347.908	77.36
348.291	73.74
348.674	89.11
349.057	92.72
349.44	123.68
349.823	148.32
350.206	164.59
350.588	174.3
350.971	194.42
351.354	212.72
351.737	226.28
352.119	244.58
352.502	277.58
352.884	264.47
353.267	266.96
353.65	282.78
354.032	304.92
354.414	325.94
354.797	297.69
355.179	327.75
355.562	343.56
355.944	325.26
356.326	322.55
356.709	317.8
357.091	357.58
357.473	344.92
357.855	351.02
358.238	343.11
358.62	323.68
359.002	353.51
359.384	348.99
359.766	342.89
360.148	332.72
360.53	318.71
360.912	336.56
361.294	341.08
361.676	336.56
362.057	352.38
362.439	346.05
362.821	330.23
363.203	310.12
363.584	324.36
363.966	323.68
364.348	327.29
364.729	320.74
365.111	321.87
365.493	303.57
365.874	307.63
366.256	308.09
366.637	316.9
367.019	307.41
367.4	317.12
367.781	316.9
368.163	333.85
368.544	312.38
368.925	285.26
369.306	319.16
369.688	316.22
370.069	304.92
370.45	312.38
370.831	301.98
371.212	296.11
371.593	321.19
371.974	342.21
372.355	312.6
372.736	296.56
373.117	320.51
373.498	320.97
373.879	308.99
374.26	302.44
374.641	315.32
375.021	307.63
375.402	317.58
375.783	312.83
376.163	318.25
376.544	324.36
376.925	332.04
377.305	334.53
377.686	326.62
378.066	327.07
378.447	325.26
378.827	317.35
379.208	313.51
379.588	338.82
379.968	321.19
380.349	335.88
380.729	337.91
381.109	328.42
381.489	337.69
381.87	323.45
382.25	329.78
382.63	330.91
383.01	341.98
383.39	350.34
383.77	374.07
384.15	332.94
384.53	334.75
384.91	334.07
385.29	357.35
385.67	373.39
386.049	350.8
386.429	358.93
386.809	348.31
387.189	326.62
387.568	369.33
387.948	339.04
388.328	356.45
388.707	357.35
389.087	351.25
389.466	329.55
389.846	365.26
390.225	356.67
390.605	370.23
390.984	357.58
391.363	361.19
391.743	373.62
392.122	362.32
392.501	368.87
392.881	366.39
393.26	380.4
393.639	372.49
394.018	379.5
394.397	377.46
394.776	372.72
395.155	376.33
395.534	368.65
395.913	384.24
396.292	370.46
396.671	366.16
397.05	376.33
397.429	371.13
397.808	382.21
398.186	357.35
398.565	398.25
398.944	395.54
399.323	409.1
399.701	384.24
400.08	405.26
400.458	387.63
400.837	404.13
401.215	404.13
401.594	391.02
401.972	409.55
402.351	395.99
402.729	398.48
403.107	393.96
403.486	396.44
403.864	381.76
404.242	403.45
404.62	389.21
404.999	401.64
405.377	402.09
405.755	412.94
406.133	420.17
406.511	421.3
406.889	422.66
407.267	419.72
407.645	432.38
408.023	432.6
408.401	438.7
408.779	431.47
409.156	438.48
409.534	441.87
409.912	451.36
410.29	444.8
410.667	457.91
411.045	463.56
411.422	450.91
411.8	445.71
412.178	448.42
412.555	457.91
412.933	457.01
413.31	478.25
413.687	443
414.065	464.01
414.442	479.61
414.819	470.34
415.197	479.38
415.574	499.04
415.951	481.64
416.328	485.48
416.705	504.01
417.082	495.42
417.46	454.75
417.837	475.09
418.214	488.65
418.591	473.28
418.967	501.53
419.344	514.86
419.721	522.77
420.098	503.11
420.475	517.35
420.852	503.79
421.228	518.02
421.605	542.88
421.982	527.97
422.358	525.03
422.735	526.61
423.111	553.5
423.488	522.54
423.864	545.14
424.241	549.21
424.617	540.85
424.994	563.67
425.37	577.91
425.746	572.71
426.123	563.22
426.499	551.92
426.875	558.25
427.251	569.32
427.627	588.98
428.003	578.81
428.379	590.56
428.756	572.48
429.132	584.01
429.507	590.79
429.883	607.74
430.259	607.74
430.635	611.35
431.011	619.26
431.387	625.36
431.763	626.72
432.138	620.62
432.514	628.98
432.89	639.83
433.265	633.27
433.641	653.39
434.016	653.84
434.392	676.66
434.767	668.3
435.143	660.84
435.518	701.3
435.894	683.89
436.269	694.97
436.644	701.07
437.02	690.9
437.395	688.19
437.77	699.04
438.145	727.74
438.52	724.35
438.895	723.44
439.271	741.07
439.646	764.34
440.021	774.74
440.395	756.21
440.77	736.77
441.145	721.41
441.52	762.08
441.895	756.66
442.27	767.06
442.645	758.92
443.019	778.36
443.394	773.16
443.769	798.47
444.143	793.95
444.518	814.74
444.892	788.52
445.267	797.56
445.641	824
446.016	826.94
446.39	805.25
446.764	822.65
447.139	854.74
447.513	849.99
447.887	825.59
448.262	833.72
448.636	837.79
449.01	855.19
449.384	881.4
449.758	848.41
450.132	880.5
450.506	862.87
450.88	895.87
451.254	911.23
451.628	882.08
452.002	916.88
452.376	911.01
452.75	912.14
453.123	947.39
453.497	937.9
453.871	937.67
454.244	945.58
454.618	965.02
454.992	974.51
455.365	991.01
455.739	993.49
456.112	1013.15
456.486	992.81
456.859	1016.99
457.232	1053.83
457.606	1025.81
457.979	1043.88
458.352	1069.87
458.725	1067.61
459.099	1064.45
459.472	1081.17
459.845	1112.58
460.218	1118.01
460.591	1119.82
460.964	1149.64
461.337	1164.11
461.71	1193.03
462.083	1169.53
462.456	1189.19
462.829	1184.67
463.201	1217.89
463.574	1254.95
463.947	1282.3
464.32	1270.77
464.692	1282.3
465.065	1303.99
465.438	1349.64
465.81	1337.44
466.183	1386.47
466.555	1396.87
466.928	1386.47
467.3	1435.74
467.672	1427.83
468.045	1474.61
468.417	1498.11
468.789	1503.53
469.161	1534.49
469.534	1557.54
469.906	1587.83
470.278	1602.29
470.65	1659.01
471.022	1669.41
471.394	1673.25
471.766	1717.31
472.138	1775.84
472.51	1807.03
472.882	1838.89
473.253	1887.48
473.625	1951.43
473.997	1963.41
474.369	1973.58
474.74	2017.87
475.112	2100.58
475.484	2124.76
475.855	2169.28
476.227	2222.39
476.598	2334.47
476.97	2313.91
477.341	2406.11
477.713	2444.98
478.084	2475.26
478.455	2545.54
478.827	2615.82
479.198	2706.21
479.569	2762.94
479.94	2891.75
480.311	2892.42
480.682	3010.16
481.053	3156.6
481.424	3200.44
481.795	3267.56
482.166	3348.91
482.537	3469.13
482.908	3553.42
483.279	3629.13
483.65	3711.39
484.021	3836.35
484.391	3954.99
484.762	4037.93
485.133	4111.15
485.503	4203.12
485.874	4368.09
486.244	4413.97
486.615	4563.34
486.985	4752.04
487.356	4859.6
487.726	4968.08
488.097	5088.98
488.467	5176.43
488.837	5347.27
489.207	5471.11
489.578	5617.32
489.948	5711.33
490.318	5854.15
490.688	5957.2
491.058	6133.92
491.428	6319.45
491.798	6402.16
492.168	6621.37
492.538	6678.31
492.908	6875.14
493.278	7026.78
493.648	7118.98
494.017	7261.12
494.387	7423.6
494.757	7509.03
495.126	7676.93
495.496	7786.98
495.866	7945.4
496.235	8059.75
496.605	8218.16
496.974	8309.46
497.344	8479.17
497.713	8612.95
498.082	8692.95
498.452	8874.64
498.821	9014.07
499.19	9123.9
499.559	9272.82
499.928	9298.58
500.298	9476.66
500.667	9684.79
501.036	9694.05
501.405	9831.22
501.774	9897.66
502.143	10042.74
502.512	10175.17
502.88	10343.3
503.249	10352.34
503.618	10557.08
503.987	10600.24
504.356	10770.86
504.724	10745.1
505.093	10870.97
505.462	11069.61
505.83	11185.54
506.199	11269.15
506.567	11427.11
506.936	11430.05
507.304	11626.21
507.672	11664.85
508.041	11774.45
508.409	11793.43
508.777	11916.82
509.145	12081.11
509.514	12169.92
509.882	12288.11
510.25	12326.75
510.618	12416.47
510.986	12504.15
511.354	12646.97
511.722	12688.55
512.09	12812.16
512.458	12931.26
512.826	12985.94
513.193	13085.38
513.561	13116.11
513.929	13271.36
514.297	13376.44
514.664	13465.93
515.032	13468.19
515.4	13617.34
515.767	13655.76
516.135	13755.19
516.502	13668.86
516.869	13895.98
517.237	13963.77
517.604	13957.67
517.972	14137.78
518.339	14233.14
518.706	14192.47
519.073	14236.98
519.44	14415.74
519.808	14499.12
520.175	14465.9
520.542	14547.03
520.909	14616.64
521.276	14619.57
521.643	14728.72
522.009	14798.55
522.376	14990.86
522.743	14963.29
523.11	15076.51
523.477	15268.37
523.843	15275.15
524.21	15442.38
524.577	15455.94
524.943	15423.17
525.31	15556.5
525.676	15675.59
526.043	15723.05
526.409	15746.55
526.776	15928.47
527.142	15845.3
527.508	15932.76
527.874	16035.13
528.241	16116.48
528.607	16027.45
528.973	16198.06
529.339	16137.5
529.705	16234.22
530.071	16344.27
530.437	16369.58
530.803	16297.5
531.169	16446.64
531.535	16436.7
531.901	16344.95
532.267	16455.01
532.632	16551.5
532.998	16547.66
533.364	16671.04
533.73	16590.37
534.095	16760.53
534.461	16704.94
534.826	16805.28
535.192	16774.09
535.557	16763.02
535.923	16827.65
536.288	16744.49
536.653	16847.31
537.019	16744.72
537.384	16701.78
537.749	16790.82
538.114	16790.82
538.479	16825.16
538.845	16812.28
539.21	16794.88
539.575	16793.98
539.94	16800.53
540.305	16939.06
540.67	16848.44
541.034	16783.13
541.399	16917.59
541.764	16880.08
542.129	16881.89
542.494	16918.04
542.858	16871.27
543.223	16792.85
543.587	16948.55
543.952	16784.04
544.316	16721.21
544.681	16821.55
545.045	16808.89
545.41	16836.01
545.774	16899.51
546.138	16789.23
546.503	16766.64
546.867	16746.07
547.231	16857.48
547.595	16828.55
547.959	16783.81
548.324	16840.31
548.688	16777.26
549.052	16799.85
549.416	16704.49
549.779	16808.67
550.143	16804.83
550.507	16845.73
550.871	16793.53
551.235	16714.66
551.599	16838.27
551.962	16738.16
552.326	16756.01
552.689	16833.53
553.053	16754.43
553.417	16781.1
553.78	16889.34
554.143	16808.44
554.507	16814.77
554.87	16808.44
555.234	16880.98
555.597	16779.74
555.96	16820.65
556.323	16771.61
556.686	16832.4
557.05	16909.23
557.413	16833.3
557.776	16841.44
558.139	16871.04
558.502	16940.42
558.865	16892.06
559.228	17085.05
559.59	16989.23
559.953	16998.27
560.316	17171.82
560.679	17141.99
561.041	17075.78
561.404	17172.73
561.767	17223.8
562.129	17212.95
562.492	17451.59
562.854	17203.69
563.217	17217.47
563.579	17240.07
563.941	17338.82
564.304	17399.84
564.666	17516.67
565.028	17416.56
565.39	17455.2
565.753	17460.85
566.115	17497.69
566.477	17458.14
566.839	17638.93
567.201	17612.04
567.563	17737.46
567.925	17705.82
568.287	17659.27
568.648	17734.29
569.01	17870.56
569.372	17867.17
569.734	17696.78
570.095	17871.92
570.457	17910.11
570.819	17894.97
571.18	17906.04
571.542	17967.51
571.903	17974.74
572.265	18012.48
572.626	17991.01
572.987	18166.37
573.349	18129.99
573.71	18187.39
574.071	18186.94
574.432	18295.41
574.794	18359.81
575.155	18272.58
575.516	18182.19
575.877	18306.93
576.238	18304.45
576.599	18416.31
576.96	18378.57
577.32	18353.03
577.681	18329.08
578.042	18472.35
578.403	18412.24
578.763	18317.56
579.124	18413.37
579.485	18423.09
579.845	18484.33
580.206	18374.95
580.566	18400.49
580.927	18469.64
581.287	18508.51
581.648	18459.47
582.008	18495.63
582.368	18527.49
582.728	18511.45
583.089	18418.8
583.449	18421.96
583.809	18410.43
584.169	18445.91
584.529	18521.62
584.889	18554.39
585.249	18489.3
585.609	18449.75
585.969	18478
586.329	18379.7
586.688	18451.79
587.048	18412.02
587.408	18387.84
587.768	18405.46
588.127	18255.41
588.487	18355.75
588.846	18475.29
589.206	18255.64
589.565	18271.45
589.925	18470.32
590.284	18327.72
590.643	18287.05
591.003	18397.33
591.362	18415.18
591.721	18411.11
592.08	18331.79
592.44	18355.07
592.799	18394.39
593.158	18279.82
593.517	18281.17
593.876	18292.02
594.235	18332.47
594.593	18278.69
594.952	18324.56
595.311	18245.01
595.67	18357.78
596.029	18392.13
596.387	18347.16
596.746	18360.49
597.104	18324.33
597.463	18325.24
597.822	18415.86
598.18	18218.12
598.538	18348.74
598.897	18339.7
599.255	18235.75
599.613	18501.96
599.972	18350.32
600.33	18410.43
600.688	18282.08
601.046	18342.64
601.404	18443.65
601.762	18395.29
602.12	18385.8
602.478	18431.45
602.836	18491.79
603.194	18394.39
603.552	18349.87
603.91	18386.71
604.268	18434.84
604.625	18330.44
604.983	18390.1
605.341	18285.92
605.698	18410.21
606.056	18480.49
606.413	18446.14
606.771	18485.23
607.128	18468.29
607.485	18359.36
607.843	18464.9
608.2	18479.36
608.557	18582.86
608.914	18542.41
609.272	18551.67
609.629	18577.44
609.986	18628.96
610.343	18535.63
610.7	18787.6
611.057	18622.41
611.414	18625.34
611.771	18719.8
612.127	18756.87
612.484	18706.92
612.841	18750.54
613.198	18784.89
613.554	18691.78
613.911	18866.92
614.267	18705.79
614.624	18743.08
614.98	18771.1
615.337	18960.02
615.693	18832.57
616.05	18877.09
616.406	18934.49
616.762	18810.65
617.118	18946.01
617.475	18936.97
617.831	18950.31
618.187	18925.9
618.543	18989.4
618.899	19169.06
619.255	19050.19
619.611	19046.8
619.967	19104.43
620.323	19125.67
620.678	19025.56
621.034	19039.57
621.39	19058.33
621.746	19035.28
622.101	19257.42
622.457	19054.71
622.812	19151.66
623.168	19239.11
623.523	19172
623.879	19169.96
624.234	19105.78
624.589	19173.58
624.945	19149.62
625.3	19104.88
625.655	19109.17
626.01	19238.21
626.365	19244.31
626.72	19147.59
627.075	19125.44
627.43	19081.15
627.785	19042.73
628.14	19131.32
628.495	19198.66
628.85	19120.7
629.205	19005.67
629.559	19190.3
629.914	19109.62
630.269	19131.77
630.623	19043.41
630.978	19001.83
631.332	19095.39
631.687	19198.44
632.041	19008.84
632.396	19092.68
632.75	18958.67
633.104	19025.56
633.459	18929.06
633.813	18890.87
634.167	18939.91
634.521	18888.61
634.875	18865.79
635.229	18818.11
635.583	18751.67
635.937	18786.02
636.291	18771.55
636.645	18761.39
636.999	18679.81
637.352	18875.73
637.706	18614.04
638.06	18769.29
638.413	18711.89
638.767	18611.78
639.121	18663.31
639.474	18602.07
639.828	18587.83
640.181	18608.85
640.534	18689.07
640.888	18555.06
641.241	18500.38
641.594	18536.08
641.947	18606.81
642.301	18441.85
642.654	18564.78
643.007	18494.27
643.36	18604.78
643.713	18454.05
644.066	18475.07
644.419	18380.38
644.771	18337.22
645.124	18126.37
645.477	18170.44
645.83	17957.56
646.182	17905.36
646.535	17880.73
646.888	17969.09
647.24	17770
647.593	17930.9
647.945	17965.47
648.298	17811.35
648.65	17746.72
649.002	17802.54
649.355	17779.72
649.707	17747.63
650.059	17873.27
650.411	18026.94
650.763	18036.66
651.115	18300.83
651.467	18157.79
651.819	18187.39
652.171	18218.57
652.523	18239.82
652.875	18219.48
653.227	18115.07
653.578	18311.91
653.93	18259.48
654.282	18112.59
654.633	18032.82
654.985	18169.76
655.337	18104
655.688	18080.5
656.039	18197.78
656.391	18118.69
656.742	18043.21
657.094	18168.18
657.445	18157.33
657.796	18194.62
658.147	18158.24
658.498	18134.96
658.849	18316.88
659.2	18137.67
659.551	18155.3
659.902	18145.13
660.253	18167.05
660.604	18125.7
660.955	18116.66
661.306	18244.79
661.656	18131.8
662.007	18124.11
662.358	18192.81
662.708	18147.62
663.059	18259.93
663.409	18096.54
663.76	18275.3
664.11	18256.09
664.461	18219.93
664.811	18226.71
665.161	18204.11
665.511	18179.48
665.862	18215.64
666.212	18146.26
666.562	18224.9
666.912	18284.56
667.262	18211.12
667.612	18178.12
667.962	18268.06
668.312	18246.14
668.662	18216.09
669.011	18188.97
669.361	18204.56
669.711	18115.53
670.06	18065.58
670.41	18150.1
670.76	18129.09
671.109	18214.28
671.459	18155.3
671.808	18111.91
672.157	18152.81
672.507	17999.82
672.856	18007.28
673.205	18081.18
673.554	18035.98
673.904	18089.99
674.253	18100.16
674.602	18042.31
674.951	17787.85
675.3	17654.07
675.649	17945.59
675.998	17947.4
676.346	17924.12
676.695	18039.82
677.044	17898.81
677.393	17955.53
677.741	17945.81
678.09	17870.11
678.438	17795.76
678.787	17903.78
679.135	17864.23
679.484	17774.97
679.832	17806.61
680.181	17768.64
680.529	17827.17
680.877	17724.12
681.225	17654.3
681.573	17818.36
681.922	17576.11
682.27	17545.82
682.618	17558.7
682.966	17414.3
683.314	17519.61
683.661	17540.4
684.009	17387.86
684.357	17345.83
684.705	17282.55
685.053	17314.19
685.4	17395.77
685.748	17185.38
686.095	17226.06
686.443	17112.39
686.79	17104.25
687.138	17024.26
687.485	17079.85
687.832	17065.16
688.18	16993.75
688.527	16965.27
688.874	16949.23
689.221	16940.87
689.568	16923.69
689.915	16765.73
690.262	16843.24
690.609	16734.09
690.956	16636.02
691.303	16584.27
691.65	16634.44
691.997	16474.89
692.344	16450.94
692.69	16419.53
693.037	16369.58
693.383	16305.63
693.73	16303.82
694.077	16216.59
694.423	16148.57
694.769	16126.88
695.116	16061.12
695.462	15976.37
695.808	15939.76
696.155	15983.61
696.501	15860.67
696.847	15860.9
697.193	15742.03
697.539	15736.15
697.885	15583.39
698.231	15515.82
698.577	15580.68
698.923	15522.83
699.269	15460.23
699.614	15300.23
699.96	15273.34
700.306	15371.19
700.651	15250.74
700.997	15166.9
701.342	15153.12
701.688	15089.62
702.033	14984.76
702.379	15007.36
702.724	14947.02
703.069	15097.07
703.415	14820.92
703.76	14762.85
704.105	14771.66
704.45	14784.09
704.795	14666.58
705.14	14704.54
705.485	14541.16
705.83	14509.29
706.175	14572.34
706.52	14505
706.865	14354.95
707.209	14393.59
707.554	14342.74
707.899	14366.25
708.243	14306.36
708.588	14308.17
708.932	14076.76
709.277	14079.47
709.621	14143.88
709.966	14129.64
710.31	14065.46
710.654	13914.96
710.998	13982.3
711.342	13958.35
711.687	13831.57
712.031	13753.16
712.375	13761.52
712.719	13852.14
713.063	13798.35
713.407	13815.3
713.75	13740.95
714.094	13692.82
714.438	13621.18
714.782	13655.08
715.125	13558.13
715.469	13575.31
715.812	13511.13
716.156	13497.79
716.499	13355.88
716.843	13475.87
717.186	13387.06
717.53	13547.29
717.873	13465.03
718.216	13383.45
718.559	13301.42
718.902	13271.13
719.246	13212.15
719.589	13284.69
719.932	13260.51
720.275	13168.31
720.617	13207.41
720.96	13112.49
721.303	13185.71
721.646	13100.97
721.989	13071.59
722.331	13111.59
722.674	13027.07
723.016	13143
723.359	13039.5
723.701	13072.04
724.044	13014.64
724.386	12953.85
724.729	13056
725.071	13027.3
725.413	13014.42
725.755	12975.55
726.097	12827.3
726.439	12926.74
726.782	12900.97
727.124	12906.85
727.465	12945.94
727.807	12864.82
728.149	12826.4
728.491	12887.64
728.833	12829.34
729.175	12780.07
729.516	12732.17
729.858	12863.91
730.199	12856.46
730.541	12836.8
730.882	12734.88
731.224	12911.6
731.565	12711.15
731.906	12788.66
732.248	12821.65
732.589	12719.28
732.93	12741.88
733.271	12704.37
733.612	12714.54
733.953	12844.93
734.294	12664.14
734.635	12686.74
734.976	12738.04
735.317	12684.48
735.658	12637.48
735.999	12685.84
736.339	12689.68
736.68	12700.98
737.021	12699.4
737.361	12674.31
737.702	12757.25
738.042	12762.9
738.383	12659.4
738.723	12722
739.063	12737.36
739.404	12678.61
739.744	12730.58
740.084	12627.54
740.424	12754.76
740.764	12723.13
741.104	12758.38
741.444	12737.36
741.784	12663.69
742.124	12811.26
742.464	12810.81
742.804	12735.55
743.143	12850.35
743.483	12875.89
743.823	12827.53
744.162	12878.15
744.502	12955.21
744.841	12903.23
745.181	12963.57
745.52	12886.29
745.86	13048.32
746.199	13005.83
746.538	13116.79
746.877	13157.46
747.216	13224.13
747.556	13205.6
747.895	13211.7
748.234	13261.42
748.573	13257.8
748.911	13377.12
749.25	13451.24
749.589	13383.22
749.928	13585.02
750.267	13672.93
750.605	13660.5
750.944	13653.5
751.283	13752.7
751.621	13892.81
751.96	13881.06
752.298	13975.52
752.636	14175.52
752.975	14114.28
753.313	14171.45
753.651	14405.34
753.989	14444.44
754.327	14516.07
754.666	14527.15
755.004	14745.22
755.342	14771.66
755.679	14973.46
756.017	14917.42
756.355	15155.83
