Data from hue_30_FLMS001491_66.txt Node
Date: Mon Feb 06 15:05:46 GMT 2017
User: dcchb
Spectrometer: FLMS00149
Trigger mode: 0
Integration Time (sec): 2.000000E-2
Scans to average: 10
Electric dark correction enabled: true
Nonlinearity correction enabled: false
Boxcar width: 0
XAxis mode: Wavelengths
Number of Pixels in Spectrum: 2048
>>>>>Begin Spectral Data<<<<<
341.393	-12.74
341.776	-12.74
342.16	-12.74
342.543	-50.48
342.927	-57.94
343.31	-76.24
343.693	-73.76
344.077	-80.76
344.46	-60.42
344.843	-29.69
345.226	-46.64
345.61	-39.63
345.993	-22.46
346.376	1.05
346.759	17.77
347.142	27.26
347.525	40.82
347.908	57.09
348.291	77.2
348.674	102.51
349.057	105.9
349.44	116.3
349.823	147.71
350.206	168.95
350.588	215.73
350.971	201.04
351.354	244.2
351.737	248.95
352.119	262.06
352.502	259.34
352.884	284.88
353.267	297.76
353.65	302.73
354.032	302.96
354.414	319.68
354.797	308.61
355.179	316.52
355.562	318.32
355.944	333.69
356.326	340.92
356.709	325.78
357.091	335.73
357.473	345.44
357.855	346.57
358.238	330.53
358.62	358.32
359.002	346.8
359.384	352.67
359.766	330.75
360.148	356.97
360.53	339.12
360.912	344.76
361.294	346.57
361.676	331.43
362.057	334.6
362.439	354.48
362.821	309.96
363.203	339.12
363.584	327.82
363.966	328.72
364.348	328.04
364.729	321.49
365.111	324.88
365.493	330.3
365.874	333.24
366.256	335.05
366.637	337.53
367.019	328.04
367.4	343.41
367.781	330.08
368.163	318.32
368.544	314.48
368.925	329.17
369.306	314.71
369.688	320.58
370.069	306.12
370.45	305.9
370.831	309.06
371.212	322.62
371.593	327.82
371.974	307.93
372.355	305.44
372.736	322.17
373.117	326.01
373.498	315.39
373.879	321.04
374.26	327.82
374.641	328.95
375.021	340.92
375.402	303.64
375.783	324.88
376.163	328.49
376.544	333.01
376.925	332.34
377.305	316.07
377.686	336.86
378.066	355.16
378.447	337.76
378.827	342.96
379.208	357.87
379.588	358.78
379.968	337.08
380.349	336.63
380.729	331.88
381.109	314.94
381.489	335.5
381.87	362.17
382.25	347.48
382.63	336.4
383.01	341.38
383.39	355.84
383.77	349.28
384.15	361.26
384.53	350.19
384.91	358.55
385.29	365.56
385.67	345.67
386.049	366.46
386.429	365.56
386.809	389.74
387.189	347.02
387.568	377.53
387.948	368.27
388.328	364.43
388.707	398.32
389.087	369.62
389.466	378.44
389.846	378.66
390.225	354.93
390.605	365.33
390.984	395.61
391.363	391.54
391.743	389.96
392.122	377.76
392.501	367.59
392.881	394.03
393.26	360.58
393.639	394.93
394.018	394.26
394.397	362.84
394.776	384.76
395.155	380.92
395.534	390.19
395.913	380.47
396.292	389.51
396.671	388.15
397.05	408.72
397.429	403.75
397.808	409.62
398.186	405.33
398.565	386.35
398.944	380.24
399.323	413.01
399.701	409.62
400.08	399
400.458	425.67
400.837	407.81
401.215	414.59
401.594	410.98
401.972	418.89
402.351	424.76
402.729	386.12
403.107	421.15
403.486	415.72
403.864	428.83
404.242	428.83
404.62	447.59
404.999	422.95
405.377	414.82
405.755	439.23
406.133	419.79
406.511	453.69
406.889	438.77
407.267	448.04
407.645	440.36
408.023	459.56
408.401	469.51
408.779	471.09
409.156	458.89
409.534	449.17
409.912	456.4
410.29	456.85
410.667	462.73
411.045	477.42
411.422	478.77
411.8	465.67
412.178	477.64
412.555	477.42
412.933	474.93
413.31	490.07
413.687	502.27
414.065	497.08
414.442	484.2
414.819	480.58
415.197	514.48
415.574	526
415.951	507.47
416.328	505.89
416.705	514.7
417.082	514.03
417.46	521.03
417.837	524.42
418.214	503.86
418.591	561.71
418.967	523.97
419.344	544.53
419.721	547.7
420.098	541.82
420.475	560.35
420.852	541.6
421.228	555.38
421.605	532.78
421.982	552.44
422.358	561.48
422.735	556.96
423.111	570.52
423.488	549.05
423.864	565.78
424.241	570.75
424.617	570.52
424.994	579.56
425.37	601.48
425.746	585.66
426.123	604.65
426.499	579.34
426.875	610.75
427.251	592.67
427.627	604.87
428.003	613.46
428.379	600.13
428.756	624.76
429.132	611.42
429.507	638.32
429.883	628.83
430.259	637.41
430.635	643.06
431.011	656.17
431.387	655.94
431.763	681.93
432.138	647.58
432.514	676.96
432.89	689.16
433.265	690.52
433.641	701.59
434.016	701.82
434.392	719.44
434.767	707.47
435.143	723.06
435.518	705.43
435.894	722.16
436.269	723.29
436.644	742.49
437.02	742.27
437.395	728.48
437.77	765.09
438.145	758.09
438.52	737.97
438.895	749.27
439.271	767.8
439.646	790.63
440.021	783.85
440.395	769.39
440.77	788.6
441.145	769.84
441.52	806
441.895	801.25
442.27	815.49
442.645	802.38
443.019	830.85
443.394	831.76
443.769	830.85
444.143	830.63
444.518	845.09
444.892	833.57
445.267	848.25
445.641	857.29
446.016	839.89
446.39	840.35
446.764	849.84
447.139	852.55
447.513	859.1
447.887	879.89
448.262	878.99
448.636	863.62
449.01	904.75
449.384	887.8
449.758	903.62
450.132	916.28
450.506	920.79
450.88	921.25
451.254	904.3
451.628	928.93
452.002	931.64
452.376	972.09
452.75	955.37
453.123	965.09
453.497	992.66
453.871	988.14
454.244	998.08
454.618	987.46
454.992	1021.36
455.365	999.44
455.739	1011.87
456.112	1024.07
456.486	1054.8
456.859	1027.01
457.232	1061.36
457.606	1075.14
457.979	1085.99
458.352	1116.27
458.725	1115.14
459.099	1105.65
459.472	1127.57
459.845	1135.93
460.218	1139.55
460.591	1155.82
460.964	1166.44
461.337	1184.74
461.71	1191.3
462.083	1207.12
462.456	1221.8
462.829	1194.46
463.201	1238.75
463.574	1266.55
463.947	1263.84
464.32	1297.73
464.692	1299.32
465.065	1293.89
465.438	1334.57
465.81	1348.81
466.183	1353.55
466.555	1363.04
466.928	1374.34
467.3	1405.98
467.672	1421.12
468.045	1450.5
468.417	1475.81
468.789	1468.35
469.161	1490.5
469.534	1497.05
469.906	1521.68
470.278	1532.76
470.65	1572.98
471.022	1624.05
471.394	1633.09
471.766	1634.9
472.138	1662.7
472.51	1669.93
472.882	1752.64
473.253	1741.79
473.625	1754.9
473.997	1816.82
474.369	1820.66
474.74	1858.62
475.112	1902.24
475.484	1933.65
475.855	1955.12
476.227	1962.8
476.598	2035.12
476.97	2094.32
477.341	2092.52
477.713	2142.01
478.084	2150.14
478.455	2216.81
478.827	2260.42
479.198	2340.64
479.569	2349.01
479.94	2406.41
480.311	2452.28
480.682	2510.58
481.053	2567.98
481.424	2649.56
481.795	2675.78
482.166	2734.08
482.537	2737.92
482.908	2813.4
483.279	2844.81
483.65	2912.16
484.021	2986.05
484.391	3045.94
484.762	3072.83
485.133	3130
485.503	3210.45
485.874	3253.62
486.244	3335.42
486.615	3397.11
486.985	3459.49
487.356	3528.41
487.726	3596.2
488.097	3683.21
488.467	3693.15
488.837	3823.09
489.207	3860.15
489.578	3934.73
489.948	3971.34
490.318	4007.04
490.688	4081.16
491.058	4192.35
491.428	4235.96
491.798	4306.69
492.168	4351.21
492.538	4414.49
492.908	4508.27
493.278	4593.69
493.648	4603.41
494.017	4698.77
494.387	4746.91
494.757	4812.22
495.126	4894.25
495.496	4876.4
495.866	4921.37
496.235	5012.89
496.605	5069.61
496.974	5143.51
497.344	5172.21
497.713	5173.11
498.082	5281.36
498.452	5358.19
498.821	5359.55
499.19	5383.5
499.559	5450.62
499.928	5515.48
500.298	5555.93
500.667	5637.96
501.036	5657.39
501.405	5662.59
501.774	5747.79
502.143	5837.05
502.512	5801.57
502.88	5848.12
503.249	5893.55
503.618	5962.7
503.987	5996.14
504.356	6012.86
504.724	6102.81
505.093	6158.4
505.462	6117.72
505.83	6168.57
506.199	6256.7
506.567	6371.27
506.936	6341.44
507.304	6368.34
507.672	6406.98
508.041	6436.13
508.409	6514.55
508.777	6523.13
509.145	6605.17
509.514	6625.96
509.882	6653.98
510.25	6676.35
510.618	6667.31
510.986	6790.47
511.354	6818.94
511.722	6798.83
512.09	6938.94
512.458	6916.12
512.826	6992.95
513.193	6989.34
513.561	7011.03
513.929	7089.9
514.297	7148.2
514.664	7119.5
515.032	7167.64
515.4	7206.73
515.767	7231.59
516.135	7317.24
516.502	7204.25
516.869	7381.64
517.237	7392.94
517.604	7364.24
517.972	7442.43
518.339	7513.39
518.706	7452.83
519.073	7506.38
519.44	7630.45
519.808	7642.43
520.175	7690.11
520.542	7748.19
520.909	7737.56
521.276	7720.84
521.643	7899.59
522.009	7885.81
522.376	7948.18
522.743	7955.64
523.11	8041.96
523.477	8098.69
523.843	8155.41
524.21	8207.84
524.577	8206.71
524.943	8268.4
525.31	8327.83
525.676	8315.4
526.043	8374.84
526.409	8432.69
526.776	8518.79
527.142	8556.07
527.508	8567.6
527.874	8705.68
528.241	8709.74
528.607	8727.82
528.973	8767.14
529.339	8806.24
529.705	8867.7
530.071	8911.55
530.437	8961.71
530.803	8952.67
531.169	9086.23
531.535	9090.98
531.901	9129.84
532.267	9188.6
532.632	9229.73
532.998	9256.4
533.364	9332.1
533.73	9339.78
534.095	9366.45
534.461	9451.64
534.826	9459.78
535.192	9489.16
535.557	9617.29
535.923	9567.57
536.288	9559.66
536.653	9666.55
537.019	9679.43
537.384	9684.63
537.749	9781.35
538.114	9842.82
538.479	9764.4
538.845	9883.27
539.21	9885.76
539.575	9962.37
539.94	10007.56
540.305	10038.97
540.67	9966.43
541.034	10116.49
541.399	10098.63
541.764	10111.74
542.129	10238.74
542.494	10298.85
542.858	10335.91
543.223	10301.11
543.587	10382.47
543.952	10353.54
544.316	10473.54
544.681	10402.13
545.045	10512.18
545.41	10628.79
545.774	10591.5
546.138	10596.25
546.503	10673.08
546.867	10699.75
547.231	10789.46
547.595	10807.54
547.959	10863.13
548.324	10855
548.688	10926.41
549.052	10992.85
549.416	10986.97
549.779	11003.02
550.143	10956.92
550.507	11050.25
550.871	11128.89
551.235	11203.91
551.599	11244.14
551.962	11250.92
552.326	11384.02
552.689	11335.66
553.053	11379.73
553.417	11345.61
553.78	11488.2
554.143	11450.24
554.507	11427.19
554.87	11504.25
555.234	11615.43
555.597	11563
555.96	11641.64
556.323	11661.76
556.686	11694.3
557.05	11825.82
557.413	11806.84
557.776	11837.8
558.139	11865.37
558.502	11857
558.865	11949.43
559.228	11959.37
559.59	12045.02
559.953	12079.82
560.316	12156.43
560.679	12138.81
561.041	12280.5
561.404	12270.55
561.767	12400.49
562.129	12349.2
562.492	12497.67
562.854	12459.25
563.217	12438.46
563.579	12579.02
563.941	12579.7
564.304	12660.37
564.666	12686.14
565.028	12725.46
565.39	12719.81
565.753	12856.53
566.115	12845.68
566.477	12861.72
566.839	12963.87
567.201	12952.12
567.563	13044.32
567.925	13064.88
568.287	13143.75
568.648	13204.54
569.01	13248.61
569.372	13308.94
569.734	13247.25
570.095	13337.19
570.457	13532.21
570.819	13495.38
571.18	13551.65
571.542	13611.53
571.903	13614.02
572.265	13718.65
572.626	13753.9
572.987	13875.71
573.349	13900.57
573.71	14024.63
574.071	13986.67
574.432	14110.5
574.794	14299.2
575.155	14258.07
575.516	14293.1
575.877	14385.07
576.238	14531.74
576.599	14634.11
576.96	14735.8
577.32	14754.78
577.681	14823.03
578.042	15030.71
578.403	15106.18
578.763	15204.71
579.124	15260.08
579.485	15473.86
579.845	15665.49
580.206	15735.09
580.566	15842.89
580.927	15930.57
581.287	16149.1
581.648	16191.81
582.008	16461.86
582.368	16478.58
582.728	16822.98
583.089	16914.27
583.449	17077.66
583.809	17297.31
584.169	17502.73
584.529	17676.29
584.889	17918.77
585.249	18082.15
585.609	18154.24
585.969	18452.31
586.329	18695.47
586.688	18838.29
587.048	19110.37
587.408	19371.16
587.768	19545.62
588.127	19815.67
588.487	19984.93
588.846	20421.07
589.206	20430.34
589.565	20705.13
589.925	21174.95
590.284	21252.01
590.643	21553.7
591.003	21887.93
591.362	22124.98
591.721	22448.14
592.08	22608.36
592.44	22991.4
592.799	23228.91
593.158	23518.17
593.517	23826.18
593.876	24143.46
594.235	24380.97
594.593	24594.97
594.952	24944.57
595.311	25111.35
595.67	25419.13
596.029	25878.1
596.387	26214.59
596.746	26389.96
597.104	26681.93
597.463	26819.1
597.822	27260.89
598.18	27340.89
598.538	27638.96
598.897	28055.22
599.255	28151.94
599.613	28871.25
599.972	28864.02
600.33	29229.2
600.688	29275.53
601.046	29715.52
601.404	30131.33
601.762	30216.52
602.12	30562.95
602.478	30774.02
602.836	30982.6
603.194	31070.51
603.552	31449.48
603.91	31592.3
604.268	32055.8
604.625	31903.94
604.983	32335.79
605.341	32434.77
605.698	32771.71
606.056	33035.66
606.413	33327.17
606.771	33521.75
607.128	33744.11
607.485	33801.06
607.843	34020.26
608.2	34404.89
608.557	34611.43
608.914	34506.35
609.272	35044.19
609.629	35330.74
609.986	35545.87
610.343	35471.3
610.7	35927.78
611.057	36083.71
611.414	36209.13
611.771	36365.29
612.127	36476.92
612.484	36612.29
612.841	36866.52
613.198	36935.89
613.554	37093.86
613.911	37513.05
614.267	37523.9
614.624	37601.19
614.98	37812.71
615.337	38020.61
615.693	38151.91
616.05	38273.94
616.406	38535.17
616.762	38592.35
617.118	38676.86
617.475	38740.59
617.831	39052.67
618.187	39129.96
618.543	39087.48
618.899	39461.7
619.255	39567.24
619.611	39711.64
619.967	39837.74
620.323	39982.82
620.678	39879.77
621.034	39904.4
621.39	39957.28
621.746	40033.66
622.101	40510.71
622.457	40268.23
622.812	40465.52
623.168	40603.37
623.523	40663.25
623.879	40676.81
624.234	40694.89
624.589	40893.76
624.945	40873.42
625.3	40921.78
625.655	40951.61
626.01	41168.55
626.365	41263.46
626.72	41219.4
627.075	41350.69
627.43	41226.18
627.785	41342.78
628.14	41438.83
628.495	41538.03
628.85	41599.73
629.205	41526.51
629.559	41728.99
629.914	41619.16
630.269	41553.4
630.623	41412.61
630.978	41478.37
631.332	41710.23
631.687	41748.87
632.041	41574.87
632.396	41787.07
632.75	41571.48
633.104	41770.34
633.459	41666.39
633.813	41611.25
634.167	41888.76
634.521	41834.3
634.875	41740.96
635.229	41788.2
635.583	41558.37
635.937	41515.43
636.291	41485.15
636.645	41696.9
636.999	41526.73
637.352	41714.98
637.706	41413.29
638.06	41666.16
638.413	41618.48
638.767	41522.44
639.121	41593.17
639.474	41405.61
639.828	41442.44
640.181	41384.82
640.534	41712.72
640.888	41394.08
641.241	41246.97
641.594	41369
641.947	41572.38
642.301	41459.16
642.654	41356.79
643.007	41458.71
643.36	41464.59
643.713	41271.82
644.066	41320.86
644.419	41385.95
644.771	40984.37
645.124	40764.04
645.477	40532.18
645.83	40365.86
646.182	40189.14
646.535	40157.5
646.888	40198.63
647.24	39975.59
647.593	40168.58
647.945	40171.29
648.298	39977.17
648.65	39971.52
649.002	39946.21
649.355	39976.72
649.707	39879.54
650.059	40165.64
650.411	40620.99
650.763	40699.86
651.115	40874.09
651.467	40821.21
651.819	40907.54
652.171	40833.42
652.523	40839.29
652.875	40762.01
653.227	40558.17
653.578	40887.88
653.93	40761.1
654.282	40647.66
654.633	40501.68
654.985	40582.8
655.337	40589.13
655.688	40660.09
656.039	40743.7
656.391	40428.91
656.742	40470.49
657.094	40519.3
657.445	40611.73
657.796	40518.62
658.147	40512.75
658.498	40477.27
658.849	40564.27
659.2	40421.23
659.551	40444.95
659.902	40573.99
660.253	40487.66
660.604	40329.48
660.955	40270.27
661.306	40453.54
661.656	40421.68
662.007	40343.49
662.358	40360.44
662.708	40331.96
663.059	40301.68
663.409	40130.84
663.76	40329.93
664.11	40232.98
664.461	40335.58
664.811	40387.1
665.161	40374.45
665.511	40271.85
665.862	40322.02
666.212	40439.98
666.562	40373.77
666.912	40265.98
667.262	40275.47
667.612	40119.99
667.962	40299.65
668.312	40233.43
668.662	40379.19
669.011	40312.08
669.361	40276.6
669.711	40223.72
670.06	40154.11
670.41	40029.6
670.76	40079.31
671.109	40240.89
671.459	40106.88
671.808	40104.85
672.157	40216.94
672.507	39861.92
672.856	39824.18
673.205	40022.14
673.554	40095.36
673.904	39887.45
674.253	40183.72
674.602	39978.3
674.951	39364.08
675.3	39159.56
675.649	39941.46
675.998	39893.78
676.346	39778.76
676.695	40028.69
677.044	39701.47
677.393	39828.7
677.741	39875.02
678.09	39785.08
678.438	39738.53
678.787	39854.01
679.135	39696.72
679.484	39418.99
679.832	39651.08
680.181	39375.83
680.529	39609.04
680.877	39456.73
681.225	39357.98
681.573	39446.79
681.922	39350.74
682.27	39218.09
682.618	39129.51
682.966	39117.3
683.314	39202.05
683.661	38960.47
684.009	38867.82
684.357	38797.31
684.705	38770.87
685.053	38789.4
685.4	38660.82
685.748	38592.57
686.095	38528.62
686.443	38446.81
686.79	38281.85
687.138	38466.93
687.485	38313.71
687.832	38333.6
688.18	38237.55
688.527	38156.88
688.874	38109.2
689.221	38128.4
689.568	37885.02
689.915	37852.03
690.262	37899.26
690.609	37899.03
690.956	37670.34
691.303	37541.75
691.65	37488.87
691.997	37500.4
692.344	37284.36
692.69	37217.02
693.037	37228.54
693.383	36977.47
693.73	37077.13
694.077	36891.6
694.423	36704.94
694.769	36742.45
695.116	36560.31
695.462	36530.48
695.808	36346.98
696.155	36461.56
696.501	36143.6
696.847	36132.75
697.193	35934.79
697.539	35931.85
697.885	35765.08
698.231	35666.1
698.577	35736.6
698.923	35752.87
699.269	35527.57
699.614	35413
699.96	35229.72
700.306	35353.56
700.651	35205.77
700.997	35093.91
701.342	35035.83
701.688	34849.17
702.033	34869.73
702.379	34921.48
702.724	34751.77
703.069	34807.81
703.415	34337.77
703.76	34535.05
704.105	34563.75
704.45	34398.78
704.795	34138.23
705.14	34111.11
705.485	34069.98
705.83	33859.36
706.175	33979.36
706.52	33781.4
706.865	33702.98
707.209	33671.57
707.554	33562.42
707.899	33684.68
708.243	33439.49
708.588	33357.23
708.932	33269.32
709.277	33259.38
709.621	33191.13
709.966	32937.13
710.31	33025.49
710.654	32715.21
710.998	32841.09
711.342	32842.44
711.687	32617.14
712.031	32559.74
712.375	32439.51
712.719	32561.32
713.063	32478.61
713.407	32544.37
713.75	32325.84
714.094	32315.45
714.438	32196.81
714.782	32157.49
715.125	32059.64
715.469	32096.7
715.812	32011.73
716.156	31784.62
716.499	31846.08
716.843	31855.35
717.186	31658.29
717.53	31815.35
717.873	31861.22
718.216	31675.69
718.559	31562.48
718.902	31287.45
719.246	31429.37
719.589	31274.57
719.932	31256.95
720.275	31228.47
720.617	31188.25
720.96	31125.65
721.303	31000.91
721.646	31078.19
721.989	30793.46
722.331	31020.57
722.674	30981.02
723.016	30826.68
723.359	30866
723.701	30763.4
724.044	30740.35
724.386	30424.65
724.729	30612.44
725.071	30533.58
725.413	30494.25
725.755	30413.13
726.097	30362.05
726.439	30232.79
726.782	30345.56
727.124	30435.05
727.465	30085.9
727.807	30118.9
728.149	30102.85
728.491	30005.45
728.833	30014.49
729.175	30059.69
729.516	29888.17
729.858	29873.48
730.199	29827.61
730.541	29708.06
730.882	29625.12
731.224	29778.12
731.565	29566.82
731.906	29615.41
732.248	29609.31
732.589	29399.82
732.93	29416.77
733.271	29333.16
733.612	29325.7
733.953	29323.89
734.294	29261.97
734.635	29193.72
734.976	29405.02
735.317	29097.46
735.658	29137.45
735.999	29099.49
736.339	29065.14
736.68	29159.37
737.021	28870.12
737.361	28915.99
737.702	28995.31
738.042	28969.55
738.383	28890.91
738.723	28927.52
739.063	28711.48
739.404	28791.02
739.744	28671.25
740.084	28730.01
740.424	28607.52
740.764	28559.84
741.104	28709.44
741.444	28473.29
741.784	28399.17
742.124	28393.97
742.464	28459.28
742.804	28401.65
743.143	28294.76
743.483	28243.92
743.823	28165.95
744.162	28142.45
744.502	28190.81
744.841	28095.22
745.181	28167.99
745.52	28130.02
745.86	28039.4
746.199	27945.17
746.538	27964.6
746.877	27979.97
747.216	28030.59
747.556	27900.88
747.895	27921.21
748.234	27790.82
748.573	27685.06
748.911	27655.91
749.25	27672.41
749.589	27569.59
749.928	27622.47
750.267	27504.73
750.605	27541.79
750.944	27258.41
751.283	27347.9
751.621	27481
751.96	27228.58
752.298	27222.7
752.636	27340.67
752.975	27117.39
753.313	26973.67
753.651	27121.24
753.989	27037.62
754.327	26918.53
754.666	26797.63
755.004	26887.12
755.342	26767.35
755.679	26779.78
756.017	26594.92
756.355	26601.48
756.693	26568.48
757.031	26553.34
757.368	26494.36
757.706	26360.13
758.044	26375.27
758.381	26334.59
758.719	26116.06
