Data from hue_330_FLMS001491_53.txt Node
Date: Mon Feb 06 15:45:35 GMT 2017
User: dcchb
Spectrometer: FLMS00149
Trigger mode: 0
Integration Time (sec): 2.000000E-2
Scans to average: 10
Electric dark correction enabled: true
Nonlinearity correction enabled: false
Boxcar width: 0
XAxis mode: Wavelengths
Number of Pixels in Spectrum: 2048
>>>>>Begin Spectral Data<<<<<
341.393	1.47
341.776	1.47
342.16	1.47
342.543	-64.52
342.927	-67.91
343.31	-57.74
343.693	-71.3
344.077	-40.79
344.46	-58.19
344.843	-54.35
345.226	-49.15
345.61	-33.56
345.993	-26.33
346.376	-15.25
346.759	6.67
347.142	13.22
347.525	46.89
347.908	71.52
348.291	68.36
348.674	91.86
349.057	108.13
349.44	135.93
349.823	139.54
350.206	169.6
350.588	203.05
350.971	225.19
351.354	224.51
351.737	238.98
352.119	268.58
352.502	265.87
352.884	263.16
353.267	296.83
353.65	287.79
354.032	306.32
354.414	305.19
354.797	315.13
355.179	316.04
355.562	347.45
355.944	328.01
356.326	310.39
356.709	321.46
357.091	328.47
357.473	352.65
357.855	352.42
358.238	350.61
358.62	311.07
359.002	342.93
359.384	331.18
359.766	359.2
360.148	337.96
360.53	355.36
360.912	339.77
361.294	317.62
361.676	331.63
362.057	311.74
362.439	347.45
362.821	337.51
363.203	323.04
363.584	334.79
363.966	332.08
364.348	301.35
364.729	324.85
365.111	330.27
365.493	321.91
365.874	310.39
366.256	305.42
366.637	311.07
367.019	311.07
367.4	305.19
367.781	323.72
368.163	322.14
368.544	299.31
368.925	330.27
369.306	321.01
369.688	329.14
370.069	295.47
370.45	333.21
370.831	319.2
371.212	315.13
371.593	302.48
371.974	318.3
372.355	351.29
372.736	318.75
373.117	328.69
373.498	311.07
373.879	326.21
374.26	325.08
374.641	318.3
375.021	297.51
375.402	334.79
375.783	332.53
376.163	340.89
376.544	339.77
376.925	326.88
377.305	331.18
377.686	322.59
378.066	338.18
378.447	326.88
378.827	337.73
379.208	335.92
379.588	314
379.968	348.13
380.349	335.02
380.729	356.71
381.109	361.23
381.489	334.57
381.87	316.49
382.25	337.96
382.63	338.64
383.01	327.79
383.39	336.6
383.77	338.41
384.15	337.05
384.53	349.03
384.91	343.61
385.29	349.71
385.67	362.36
386.049	366.21
386.429	349.48
386.809	364.62
387.189	337.05
387.568	372.53
387.948	358.75
388.328	365.75
388.707	373.44
389.087	348.8
389.466	373.89
389.846	347.67
390.225	360.78
390.605	373.66
390.984	358.52
391.363	389.71
391.743	382.93
392.122	371.85
392.501	373.66
392.881	389.03
393.26	405.75
393.639	384.74
394.018	396.71
394.397	377.05
394.776	372.31
395.155	385.64
395.534	378.18
395.913	385.64
396.292	395.13
396.671	384.51
397.05	378.86
397.429	375.24
397.808	389.71
398.186	360.33
398.565	403.49
398.944	388.58
399.323	372.08
399.701	397.84
400.08	398.52
400.458	403.04
400.837	395.36
401.215	422.02
401.594	415.92
401.972	415.7
402.351	413.21
402.729	414.34
403.107	421.12
403.486	415.24
403.864	438.29
404.242	406.2
404.62	458.86
404.999	446.2
405.377	434.9
405.755	436.26
406.133	454.11
406.511	435.81
406.889	450.5
407.267	469.93
407.645	467.9
408.023	468.12
408.401	458.41
408.779	471.29
409.156	474
409.534	488.24
409.912	469.48
410.29	505.86
410.667	485.75
411.045	478.52
411.422	495.92
411.8	521.46
412.178	501.79
412.555	540.66
412.933	525.52
413.31	502.92
413.687	521.91
414.065	531.17
414.442	533.66
414.819	545.18
415.197	544.96
415.574	568.23
415.951	558.29
416.328	562.36
416.705	551.74
417.082	568.01
417.46	582.24
417.837	613.43
418.214	584.96
418.591	609.14
418.967	581.11
419.344	600.32
419.721	621.57
420.098	623.37
420.475	628.57
420.852	617.05
421.228	648.68
421.605	648.46
421.982	629.93
422.358	659.76
422.735	658.17
423.111	685.97
423.488	675.58
423.864	671.06
424.241	702.92
424.617	677.84
424.994	701.79
425.37	699.53
425.746	683.94
426.123	709.47
426.499	695.01
426.875	719.87
427.251	727.1
427.627	721.9
428.003	747.89
428.379	751.96
428.756	761.45
429.132	774.33
429.507	773.88
429.883	785.18
430.259	785.86
430.635	798.06
431.011	794.89
431.387	816.36
431.763	830.37
432.138	844.16
432.514	850.94
432.89	872.86
433.265	840.32
433.641	873.99
434.016	889.36
434.392	876.47
434.767	909.02
435.143	897.49
435.518	913.08
435.894	916.93
436.269	917.6
436.644	914.89
437.02	933.2
437.395	951.27
437.77	966.64
438.145	945.85
438.52	987.43
438.895	995.12
439.271	1010.93
439.646	989.24
440.021	1031.27
440.395	1005.74
440.77	1016.81
441.145	1025.17
441.52	1030.37
441.895	1046.87
442.27	1015.45
442.645	1031.5
443.019	1043.48
443.394	1058.62
443.769	1081.21
444.143	1064.27
444.518	1053.87
444.892	1073.08
445.267	1086.19
445.641	1109.46
446.016	1098.62
446.39	1091.16
446.764	1080.31
447.139	1119.63
447.513	1094.32
447.887	1128.22
448.262	1076.69
448.636	1136.58
449.01	1149.91
449.384	1141.1
449.758	1158.27
450.132	1170.03
450.506	1165.96
450.88	1127.99
451.254	1154.21
451.628	1172.29
452.002	1197.82
452.376	1176.13
452.75	1197.14
453.123	1188.78
453.497	1204.83
453.871	1239.4
454.244	1253.19
454.618	1225.84
454.992	1266.75
455.365	1257.71
455.739	1275.56
456.112	1303.58
456.486	1268.33
456.859	1283.02
457.232	1309.91
457.606	1318.27
457.979	1323.02
458.352	1344.48
458.725	1343.35
459.099	1362.34
459.472	1398.95
459.845	1401.21
460.218	1414.99
460.591	1409.57
460.964	1435.56
461.337	1452.28
461.71	1459.74
462.083	1457.48
462.456	1466.52
462.829	1482.79
463.201	1502.22
463.574	1482.56
463.947	1505.16
464.32	1530.24
464.692	1530.69
465.065	1536.12
465.438	1592.84
465.81	1560.98
466.183	1614.76
466.555	1611.6
466.928	1630.13
467.3	1621.31
467.672	1691.14
468.045	1715.77
468.417	1710.58
468.789	1679.84
469.161	1724.81
469.534	1764.81
469.906	1775.43
470.278	1777.92
470.65	1810.46
471.022	1811.14
471.394	1855.43
471.766	1884.58
472.138	1862.89
472.51	1941.3
472.882	1953.73
473.253	1921.19
473.625	1961.87
473.997	1997.8
474.369	2041.64
474.74	2034.64
475.112	2053.84
475.484	2122.32
475.855	2145.14
476.227	2123.67
476.598	2185.59
476.97	2164.58
477.341	2236.89
477.713	2240.05
478.084	2261.52
478.455	2310.79
478.827	2317.79
479.198	2419.03
479.569	2373.61
479.94	2467.84
480.311	2450.9
480.682	2488.18
481.053	2563.66
481.424	2584
481.795	2616.77
482.166	2635.75
482.537	2694.96
482.908	2727.27
483.279	2719.14
483.65	2774.96
484.021	2811.56
484.391	2840.94
484.762	2855.18
485.133	2915.29
485.503	2917.32
485.874	2992.8
486.244	2995.97
486.615	3031.22
486.985	3082.07
487.356	3147.37
487.726	3119.13
488.097	3196.87
488.467	3194.83
488.837	3197.54
489.207	3305.79
489.578	3335.84
489.948	3353.92
490.318	3409.97
490.688	3407.71
491.058	3455.62
491.428	3491.77
491.798	3494.71
492.168	3551.43
492.538	3561.38
492.908	3629.17
493.278	3663.52
493.648	3668.72
494.017	3714.59
494.387	3762.95
494.757	3752.33
495.126	3804.53
495.496	3780.35
495.866	3769.28
496.235	3841.82
496.605	3898.32
496.974	3915.26
497.344	3975.6
497.713	3942.61
498.082	3975.15
498.452	4003.4
498.821	4001.82
499.19	4009.95
499.559	4061.93
499.928	4093.34
500.298	4119.33
500.667	4112.1
501.036	4114.58
501.405	4178.99
501.774	4159.33
502.143	4196.61
502.512	4202.49
502.88	4219.66
503.249	4238.65
503.618	4247.91
503.987	4279.1
504.356	4302.6
504.724	4329.94
505.093	4289.27
505.462	4329.04
505.83	4385.99
506.199	4386.66
506.567	4446.78
506.936	4443.39
507.304	4471.86
507.672	4465.76
508.041	4494.68
508.409	4506.21
508.777	4550.05
509.145	4516.15
509.514	4522.48
509.882	4623.49
510.25	4575.59
510.618	4584.4
510.986	4651.97
511.354	4675.7
511.722	4689.03
512.09	4698.07
512.458	4699.88
512.826	4698.97
513.193	4741.01
513.561	4750.04
513.929	4752.08
514.297	4764.51
514.664	4837.27
515.032	4826.65
515.4	4877.95
515.767	4866.43
516.135	4865.75
516.502	4876.82
516.869	4902.81
517.237	4934.9
517.604	4898.06
517.972	4971.51
518.339	4965.63
518.706	5003.37
519.073	4997.04
519.44	4974.67
519.808	5050.15
520.175	5048.57
520.542	5068.68
520.909	5108.23
521.276	5124.95
521.643	5168.79
522.009	5139.64
522.376	5142.58
522.743	5190.94
523.11	5213.54
523.477	5257.38
523.843	5257.6
524.21	5264.83
524.577	5376.47
524.943	5319.07
525.31	5387.54
525.676	5406.07
526.043	5466.64
526.409	5503.7
526.776	5506.86
527.142	5498.95
527.508	5568.33
527.874	5592.51
528.241	5584.15
528.607	5618.5
528.973	5672.51
529.339	5689.45
529.705	5734.88
530.071	5740.75
530.437	5827.3
530.803	5822.33
531.169	5802.67
531.535	5804.25
531.901	5851.48
532.267	5874.08
532.632	5938.26
532.998	5887.87
533.364	5961.31
533.73	5965.38
534.095	5978.49
534.461	6011.25
534.826	6058.71
535.192	6060.29
535.557	6120.63
535.923	6119.95
536.288	6136.22
536.653	6152.72
537.019	6203.34
537.384	6234.53
537.749	6223.9
538.114	6298.7
538.479	6262.55
538.845	6338.7
539.21	6290.57
539.575	6320.85
539.94	6407.85
540.305	6394.07
540.67	6436.78
541.034	6437.23
541.399	6484.01
541.764	6496.21
542.129	6527.17
542.494	6593.61
542.858	6600.39
543.223	6605.14
543.587	6678.81
543.952	6720.16
544.316	6702.76
544.681	6662.54
545.045	6700.28
545.41	6784.34
545.774	6799.26
546.138	6816.2
546.503	6838.8
546.867	6839.71
547.231	6893.94
547.595	6907.5
547.959	6925.13
548.324	6978.01
548.688	6954.73
549.052	6990.66
549.416	7031.34
549.779	7051.45
550.143	7097.33
550.507	7147.72
550.871	7125.58
551.235	7127.38
551.599	7175.29
551.962	7183.65
552.326	7144.78
552.689	7242.41
553.053	7226.14
553.417	7299.58
553.78	7333.48
554.143	7330.32
554.507	7379.58
554.87	7326.7
555.234	7424.55
555.597	7357.66
555.96	7397.43
556.323	7523.98
556.686	7422.52
557.05	7543.42
557.413	7499.58
557.776	7577.77
558.139	7577.31
558.502	7582.06
558.865	7693.92
559.228	7679.23
559.59	7668.16
559.953	7679.23
560.316	7764.65
560.679	7775.05
561.041	7803.3
561.404	7839.68
561.767	7850.08
562.129	7808.04
562.492	7920.81
562.854	7918.55
563.217	7900.24
563.579	7949.51
563.941	8062.95
564.304	8081.71
564.666	8068.38
565.028	8085.32
565.39	8092.1
565.753	8072.44
566.115	8140.92
566.477	8198.54
566.839	8177.07
567.201	8253.23
567.563	8311.53
567.925	8261.36
568.287	8356.5
568.648	8391.98
569.01	8417.29
569.372	8455.48
569.734	8425.65
570.095	8549.27
570.457	8532.54
570.819	8574.12
571.18	8618.19
571.542	8703.84
571.903	8692.99
572.265	8765.31
572.626	8831.97
572.987	8831.75
573.349	8863.61
573.71	8900.67
574.071	9040.33
574.432	9040.55
574.794	9213.66
575.155	9175.69
575.516	9163.71
575.877	9223.15
576.238	9285.52
576.599	9422.24
576.96	9448
577.32	9488.23
577.681	9589.69
578.042	9723.25
578.403	9695
578.763	9826.97
579.124	9898.84
579.485	10106.51
579.845	10138.15
580.206	10174.99
580.566	10316.9
580.927	10492.04
581.287	10599.38
581.648	10725.25
582.008	10914.85
582.368	10942.88
582.728	11151.23
583.089	11298.12
583.449	11360.04
583.809	11518.45
584.169	11834.38
584.529	11928.84
584.889	12234.14
585.249	12316.4
585.609	12481.37
585.969	12815.14
586.329	12917.06
586.688	13102.14
587.048	13298.07
587.408	13527.67
587.768	13785.29
588.127	13976.69
588.487	14184.82
588.846	14565.61
589.206	14726.96
589.565	14910.23
589.925	15208.53
590.284	15456.43
590.643	15700.27
591.003	15901.16
591.362	16302.06
591.721	16588.83
592.08	16866.34
592.44	17195.37
592.799	17514.45
593.158	17724.17
593.517	18087.1
593.876	18288.22
594.235	18503.58
594.593	18845.95
594.952	19165.94
595.311	19492.48
595.67	19751.23
596.029	20163.88
596.387	20417.2
596.746	20672.34
597.104	21022.39
597.463	21067.58
597.822	21703.72
598.18	21853.55
598.538	22013.55
598.897	22571.95
599.255	22621.89
599.613	23158.83
599.972	23397.24
600.33	23727.17
600.688	23838.13
601.046	24326.25
601.404	24594.72
601.762	24748.39
602.12	25055.5
602.478	25301.59
602.836	25754.01
603.194	25841.24
603.552	26280.55
603.91	26424.28
604.268	26825.17
604.625	26934.55
604.983	27346.06
605.341	27391.94
605.698	27835.31
606.056	28003.9
606.413	28298.13
606.771	28541.28
607.128	28875.74
607.485	28963.87
607.843	29155.05
608.2	29608.15
608.557	29737.64
608.914	29741.93
609.272	30332.2
609.629	30494.23
609.986	30818.06
610.343	30819.64
610.7	31318.16
611.057	31423.24
611.414	31666.17
611.771	31807.19
612.127	31978.93
612.484	32169.66
612.841	32427.96
613.198	32527.17
613.554	32640.61
613.911	33026.36
614.267	33112.91
614.624	33353.81
614.98	33591.55
615.337	33949.95
615.693	33804.87
616.05	34042.83
616.406	34224.3
616.762	34339.78
617.118	34564.18
617.475	34749.93
617.831	34913.09
618.187	35085.52
618.543	35186.53
618.899	35498.84
619.255	35580.65
619.611	35670.14
619.967	35929.34
620.323	36052.5
620.678	35986.29
621.034	36112.61
621.39	36133.4
621.746	36201.65
622.101	36675.76
622.457	36485.48
622.812	36747.85
623.168	36918.01
623.523	37021.96
623.879	37028.52
624.234	36970.44
624.589	37139.7
624.945	37368.4
625.3	37402.07
625.655	37483.65
626.01	37588.96
626.365	37726.13
626.72	37688.61
627.075	37783.3
627.43	37889.29
627.785	37852.9
628.14	37890.64
628.495	37983.97
628.85	38013.8
629.205	37983.75
629.559	38238.88
629.914	38119.79
630.269	38248.15
630.623	38177.41
630.978	38093.12
631.332	38319.11
631.687	38447.92
632.041	38490.85
632.396	38541.7
632.75	38500.8
633.104	38491.76
633.459	38434.36
633.813	38369.27
634.167	38460.12
634.521	38519.1
634.875	38542.83
635.229	38503.96
635.583	38343.29
635.937	38357.3
636.291	38450.85
636.645	38547.35
636.999	38616.95
637.352	38657.63
637.706	38334.7
638.06	38550.51
638.413	38488.59
638.767	38334.92
639.121	38549.61
639.474	38342.38
639.828	38422.61
640.181	38409.72
640.534	38399.56
640.888	38366.56
641.241	38248.82
641.594	38361.14
641.947	38268.03
642.301	38346.9
642.654	38395.04
643.007	38457.86
643.36	38374.25
643.713	38381.7
644.066	38524.52
644.419	38207.7
644.771	37948.27
645.124	37703.75
645.477	37759.35
645.83	37534.04
646.182	37364.55
646.535	37342.18
646.888	37389.41
647.24	37137.44
647.593	37342.41
647.945	37258.12
648.298	37070.1
648.65	37279.13
649.002	37132.24
649.355	37187.84
649.707	37223.09
650.059	37348.28
650.411	37774.94
650.763	37832.79
651.115	38141.71
651.467	38054.48
651.819	38085.67
652.171	38001.15
652.523	37894.71
652.875	37932.67
653.227	37689.97
653.578	38040.47
653.93	38017.87
654.282	37778.55
654.633	37721.61
654.985	37777.42
655.337	37779.23
655.688	37820.81
656.039	37860.36
656.391	37697.65
656.742	37627.37
657.094	37513.02
657.445	37740.14
657.796	37749.63
658.147	37543.08
658.498	37550.31
658.849	37700.59
659.2	37710.53
659.551	37558.22
659.902	37639.8
660.253	37599.8
660.604	37579.92
660.955	37374.72
661.306	37677.54
661.656	37677.09
662.007	37618.11
662.358	37532.91
662.708	37725.22
663.059	37635.51
663.409	37501.73
663.76	37682.51
664.11	37720.93
664.461	37636.64
664.811	37538.79
665.161	37492.91
665.511	37507.6
665.862	37461.95
666.212	37721.61
666.562	37647.71
666.912	37533.36
667.262	37459.24
667.612	37391.45
667.962	37609.07
668.312	37457.21
668.662	37561.84
669.011	37539.92
669.361	37420.15
669.711	37363.88
670.06	37430.54
670.41	37182.19
670.76	37331.79
671.109	37424.67
671.459	37318.23
671.808	37519.58
672.157	37456.53
672.507	37250.21
672.856	37235.52
673.205	37295.18
673.554	37319.81
673.904	37191.45
674.253	37501.05
674.602	37303.99
674.951	36681.86
675.3	36668.98
675.649	37264.9
675.998	37040.27
676.346	37119.14
676.695	37335.63
677.044	36923.89
677.393	37079.82
677.741	37176.54
678.09	37036.2
678.438	36996.2
678.787	37041.4
679.135	37049.53
679.484	36760.05
679.832	37000.95
680.181	36656.1
680.529	36876.66
680.877	36659.04
681.225	36659.04
681.573	36926.37
681.922	36638.47
682.27	36493.62
682.618	36457.23
682.966	36487.29
683.314	36636.21
683.661	36386.05
684.009	36198.03
684.357	36200.97
684.705	36159.39
685.053	36116.23
685.4	36108.09
685.748	36020.63
686.095	35963.46
686.443	35867.64
686.79	35805.05
687.138	36026.06
687.485	35886.85
687.832	35758.95
688.18	35789.45
688.527	35625.62
688.874	35516.24
689.221	35363.25
689.568	35553.3
689.915	35290.03
690.262	35406.19
690.609	35273.08
690.956	35142.47
691.303	35171.39
691.65	34936.14
691.997	34986.31
692.344	34776.37
692.69	34849.82
693.037	34708.13
693.383	34390.17
693.73	34582.25
694.077	34427.68
694.423	34420.9
694.769	34225.43
695.116	34277.86
695.462	34341.81
695.808	34073.12
696.155	34104.53
696.501	33793.12
696.847	33841.48
697.193	33633.13
697.539	33719.23
697.885	33500.7
698.231	33370.53
698.577	33441.72
698.923	33358.56
699.269	33179.13
699.614	33034.05
699.96	32986.36
700.306	32995.86
700.651	32919.25
700.997	32866.37
701.342	32727.39
701.688	32730.33
702.033	32641.97
702.379	32540.95
702.724	32401.29
703.069	32545.7
703.415	32126.73
703.76	32228.19
704.105	32157.01
704.45	32002.21
704.795	31877.69
705.14	31762.22
705.485	31808.54
705.83	31608.77
706.175	31724.93
706.52	31613.07
706.865	31492.84
707.209	31427.99
707.554	31400.19
707.899	31340.08
708.243	31292.4
708.588	31245.17
708.932	30978.28
709.277	30981.45
709.621	31157.03
709.966	30843.37
710.31	30878.85
710.654	30612.19
710.998	30663.94
711.342	30730.15
711.687	30597.27
712.031	30484.51
712.375	30349.37
712.719	30583.94
713.063	30395.92
713.407	30418.3
713.75	30200.22
714.094	30248.58
714.438	30064.63
714.782	30137.63
715.125	29929.27
715.469	29963.17
715.812	29796.39
716.156	29749.39
716.499	29682.72
716.843	29619.67
717.186	29482.73
717.53	29583.29
717.873	29706.9
718.216	29644.76
718.559	29527.47
718.902	29181.72
719.246	29382.84
719.589	29286.12
719.932	29143.53
720.275	29065.34
720.617	29115.28
720.96	29051.78
721.303	29051.55
721.646	29027.15
721.989	28798.23
722.331	28938.79
722.674	28886.36
723.016	28792.8
723.359	28788.96
723.701	28793.48
724.044	28653.14
724.386	28472.13
724.729	28614.5
725.071	28588.74
725.413	28535.41
725.755	28461.96
726.097	28248.64
726.439	28197.34
726.782	28228.75
727.124	28247.96
727.465	28146.94
727.807	28252.25
728.149	28107.85
728.491	28066.72
728.833	28118.02
729.175	27999.38
729.516	27938.36
729.858	27842.32
730.199	27835.54
730.541	27892.71
730.882	27727.52
731.224	27858.59
731.565	27656.79
731.906	27717.35
732.248	27642.32
732.589	27535.89
732.93	27498.6
733.271	27510.12
733.612	27405.27
733.953	27483.23
734.294	27377.92
734.635	27332.95
734.976	27345.16
735.317	27271.71
735.658	27184.03
735.999	27149.91
736.339	27147.42
736.68	27252.28
737.021	26990.59
737.361	26909.24
737.702	27034.2
738.042	26912.4
738.383	26878.5
738.723	26892.06
739.063	26756.02
739.404	26932.51
739.744	26783.82
740.084	26670.37
740.424	26769.58
740.764	26726.42
741.104	26766.41
741.444	26589.7
741.784	26431.73
742.124	26532.75
742.464	26401.9
742.804	26441.9
743.143	26261.8
743.483	26323.04
743.823	26273.77
744.162	26241.23
744.502	26231.51
744.841	26229.03
745.181	26203.04
745.52	26172.53
745.86	26176.15
746.199	26094.12
746.538	26022.03
746.877	26080.56
747.216	26170.95
747.556	25875.36
747.895	25996.94
748.234	25899.54
748.573	25798.08
748.911	25898.64
749.25	25694.35
749.589	25629.72
749.928	25709.49
750.267	25647.57
750.605	25530.06
750.944	25473.12
751.283	25517.18
751.621	25444.19
751.96	25317.19
752.298	25440.35
752.636	25359.22
752.975	25139.11
753.313	25111.77
753.651	25170.07
753.989	25039.91
754.327	25032.9
754.666	24912.45
755.004	24806.01
755.342	24940.47
755.679	24889.63
756.017	24701.38
756.355	24835.39
756.693	24717.66
757.031	24672.68
757.368	24541.16
757.706	24572.35
758.044	24508.17
758.381	24414.39
758.719	24291.68
759.056	24357.89
759.394	24223.66
