Data from hue_20_FLMS001491_88.txt Node
Date: Mon Feb 06 15:34:48 GMT 2017
User: dcchb
Spectrometer: FLMS00149
Trigger mode: 0
Integration Time (sec): 2.000000E-2
Scans to average: 10
Electric dark correction enabled: true
Nonlinearity correction enabled: false
Boxcar width: 0
XAxis mode: Wavelengths
Number of Pixels in Spectrum: 2048
>>>>>Begin Spectral Data<<<<<
341.393	-7.9
341.776	-7.9
342.16	-7.9
342.543	-51.28
342.927	-78.85
343.31	-57.39
343.693	-67.55
344.077	-65.97
344.46	-46.09
344.843	-56.03
345.226	-32.98
345.61	-29.59
345.993	-22.58
346.376	-4.73
346.759	5.89
347.142	26.23
347.525	30.3
347.908	46.34
348.291	79.11
348.674	74.81
349.057	120.24
349.44	122.27
349.823	149.61
350.206	142.84
350.588	215.6
350.971	217.64
351.354	220.12
351.737	229.16
352.119	218.54
352.502	268.03
352.884	260.57
353.267	294.7
353.65	305.77
354.032	302.38
354.414	289.95
354.797	305.54
355.179	320.01
355.562	319.33
355.944	302.83
356.326	347.12
356.709	337.86
357.091	340.34
357.473	342.6
357.855	336.28
358.238	316.39
358.62	325.66
359.002	355.26
359.384	349.84
359.766	356.84
360.148	345.99
360.53	333.79
360.912	329.72
361.294	334.47
361.676	336.28
362.057	337.63
362.439	339.44
362.821	323.62
363.203	323.17
363.584	315.71
363.966	332.89
364.348	343.73
364.729	322.94
365.111	308.48
365.493	305.77
365.874	327.01
366.256	317.75
366.637	326.56
367.019	312.32
367.4	322.49
367.781	306.22
368.163	317.07
368.544	309.61
368.925	316.84
369.306	325.66
369.688	316.39
370.069	310.06
370.45	324.98
370.831	346.9
371.212	317.97
371.593	301.25
371.974	306.9
372.355	297.86
372.736	312.77
373.117	332.89
373.498	322.04
373.879	316.16
374.26	316.16
374.641	319.1
375.021	315.26
375.402	327.69
375.783	334.92
376.163	339.67
376.544	323.17
376.925	335.37
377.305	326.79
377.686	340.57
378.066	343.73
378.447	323.85
378.827	342.6
379.208	328.14
379.588	338.99
379.968	330.85
380.349	329.5
380.729	336.73
381.109	345.32
381.489	341.25
381.87	329.95
382.25	348.93
382.63	350.51
383.01	357.97
383.39	346.9
383.77	344.41
384.15	357.29
384.53	344.64
384.91	332.43
385.29	333.34
385.67	351.64
386.049	347.58
386.429	375.6
386.809	372.43
387.189	353.45
387.568	365.65
387.948	356.61
388.328	380.8
388.707	347.35
389.087	354.13
389.466	363.62
389.846	336.05
390.225	354.13
390.605	373.56
390.984	376.5
391.363	364.07
391.743	362.04
392.122	380.57
392.501	377.41
392.881	364.07
393.26	382.38
393.639	383.51
394.018	381.47
394.397	374.24
394.776	381.47
395.155	366.33
395.534	395.26
395.913	383.96
396.292	413.79
396.671	368.82
397.05	379.67
397.429	376.05
397.808	395.71
398.186	391.64
398.565	397.52
398.944	397.97
399.323	384.18
399.701	388.93
400.08	405.88
400.458	411.53
400.837	437.06
401.215	399.55
401.594	386.67
401.972	391.42
402.351	392.32
402.729	399.33
403.107	424.86
403.486	421.7
403.864	400.46
404.242	419.44
404.62	421.47
404.999	423.51
405.377	429.83
405.755	403.62
406.133	433.45
406.511	417.63
406.889	426.67
407.267	437.74
407.645	419.89
408.023	414.69
408.401	432.55
408.779	428.48
409.156	435.26
409.534	438.65
409.912	422.38
410.29	475.71
410.667	444.07
411.045	438.65
411.422	432.32
411.8	455.82
412.178	467.35
412.555	468.48
412.933	473.67
413.31	468.02
413.687	473.45
414.065	493.56
414.442	471.19
414.819	490.17
415.197	488.36
415.574	487.23
415.951	477.52
416.328	469.61
416.705	496.72
417.082	510.96
417.46	480
417.837	505.76
418.214	515.71
418.591	505.31
418.967	509.61
419.344	501.02
419.721	541.24
420.098	505.54
420.475	505.31
420.852	544.86
421.228	530.62
421.605	541.47
421.982	524.97
422.358	535.82
422.735	530.4
423.111	534.01
423.488	529.27
423.864	571.3
424.241	569.26
424.617	532.88
424.994	540.79
425.37	544.86
425.746	552.99
426.123	572.88
426.499	565.87
426.875	571.52
427.251	576.72
427.627	572.65
428.003	583.05
428.379	590.06
428.756	583.5
429.132	580.11
429.507	603.39
429.883	588.7
430.259	615.37
430.635	616.5
431.011	609.72
431.387	610.39
431.763	625.99
432.138	640
432.514	642.48
432.89	663.27
433.265	643.61
433.641	650.17
434.016	646.78
434.392	659.66
434.767	677.51
435.143	676.38
435.518	687.91
435.894	677.74
436.269	703.72
436.644	692.43
437.02	706.21
437.395	720.9
437.77	715.02
438.145	729.49
438.52	701.69
438.895	710.28
439.271	708.24
439.646	745.98
440.021	732.88
440.395	728.81
440.77	741.92
441.145	727.68
441.52	774.46
441.895	753.21
442.27	762.48
442.645	733.55
443.019	773.33
443.394	754.34
443.769	778.3
444.143	772.88
444.518	790.95
444.892	777.17
445.267	795.25
445.641	792.54
446.016	796.6
446.39	781.01
446.764	786.89
447.139	798.19
447.513	826.89
447.887	804.29
448.262	828.69
448.636	828.47
449.01	846.77
449.384	820.78
449.758	840.44
450.132	833.21
450.506	865.3
450.88	856.49
451.254	855.58
451.628	877.05
452.002	887.45
452.376	866.66
452.75	883.83
453.123	870.5
453.497	881.8
453.871	922.48
454.244	929.03
454.618	905.3
454.992	943.27
455.365	932.42
455.739	961.8
456.112	946.88
456.486	972.19
456.859	980.78
457.232	976.94
457.606	1001.57
457.979	1013.77
458.352	1011.74
458.725	1016.03
459.099	1012.87
459.472	1056.26
459.845	1046.99
460.218	1049.93
460.591	1069.36
460.964	1091.28
461.337	1066.2
461.71	1109.59
462.083	1130.38
462.456	1124.05
462.829	1135.13
463.201	1148.68
463.574	1153.43
463.947	1185.75
464.32	1168.12
464.692	1174.45
465.065	1196.59
465.438	1217.16
465.81	1217.84
466.183	1253.09
466.555	1279.75
466.928	1274.33
467.3	1282.92
467.672	1289.02
468.045	1319.3
468.417	1301
468.789	1348.91
469.161	1362.92
469.534	1385.51
469.906	1399.98
470.278	1439.07
470.65	1417.15
471.022	1443.59
471.394	1469.81
471.766	1486.75
472.138	1506.64
472.51	1532.4
472.882	1552.97
473.253	1581.22
473.625	1593.19
473.997	1637.71
474.369	1644.04
474.74	1677.26
475.112	1699.63
475.484	1715.45
475.855	1751.83
476.227	1754.09
476.598	1810.36
476.97	1871.6
477.341	1919.51
477.713	1914.77
478.084	1945.05
478.455	1960.19
478.827	1987.08
479.198	2047.42
479.569	2058.94
479.94	2110.47
480.311	2118.38
480.682	2186.17
481.053	2234.98
481.424	2264.14
481.795	2309.11
482.166	2351.14
482.537	2389.33
482.908	2453.06
483.279	2446.73
483.65	2535.77
484.021	2552.04
484.391	2590.68
484.762	2674.07
485.133	2669.55
485.503	2702.99
485.874	2806.04
486.244	2777.34
486.615	2866.61
486.985	2886.94
487.356	2958.13
487.726	3016.43
488.097	3074.51
488.467	3079.48
488.837	3171.46
489.207	3214.84
489.578	3207.61
489.948	3266.59
490.318	3335.29
490.688	3366.03
491.058	3406.03
491.428	3454.39
491.798	3521.5
492.168	3577.1
492.538	3561.5
492.908	3617.77
493.278	3713.59
493.648	3710.65
494.017	3781.38
494.387	3804.21
494.757	3839.24
495.126	3856.86
495.496	3922.85
495.866	3930.31
496.235	4002.39
496.605	4003.98
496.974	4043.98
497.344	4061.83
497.713	4089.85
498.082	4163.97
498.452	4206.46
498.821	4194.25
499.19	4214.14
499.559	4255.27
499.928	4279.45
500.298	4305.89
500.667	4349.5
501.036	4359.9
501.405	4440.35
501.774	4454.36
502.143	4448.48
502.512	4516.51
502.88	4573
503.249	4523.96
503.618	4580.23
503.987	4600.12
504.356	4602.15
504.724	4642.15
505.093	4695.48
505.462	4681.92
505.83	4740
506.199	4756.95
506.567	4829.04
506.936	4796.5
507.304	4849.83
507.672	4886.44
508.041	4883.5
508.409	4946.55
508.777	4946.32
509.145	4933.44
509.514	5021.8
509.882	5048.69
510.25	5038.75
510.618	5082.82
510.986	5065.64
511.354	5094.8
511.722	5128.69
512.09	5169.82
512.458	5158.07
512.826	5216.37
513.193	5218.18
513.561	5250.95
513.929	5261.34
514.297	5306.77
514.664	5314.68
515.032	5318.52
515.4	5358.97
515.767	5382.7
516.135	5378.4
516.502	5382.25
516.869	5424.05
517.237	5436.26
517.604	5493.2
517.972	5500.89
518.339	5539.98
518.706	5511.96
519.073	5544.73
519.44	5619.98
519.808	5619.75
520.175	5650.94
520.542	5654.78
520.909	5685.06
521.276	5673.76
521.643	5769.35
522.009	5760.31
522.376	5792.63
522.743	5803.03
523.11	5858.39
523.477	5880.99
523.843	5924.83
524.21	5977.26
524.577	5994.88
524.943	6018.84
525.31	6055.22
525.676	6100.19
526.043	6126.63
526.409	6144.49
526.776	6192.85
527.142	6207.08
527.508	6269.91
527.874	6303.58
528.241	6323.24
528.607	6354.88
528.973	6392.61
529.339	6391.71
529.705	6469.45
530.071	6463.12
530.437	6522.1
530.803	6562.55
531.169	6573.63
531.535	6574.3
531.901	6597.81
532.267	6676.22
532.632	6703.79
532.998	6694.75
533.364	6729.78
533.73	6762.1
534.095	6806.16
534.461	6803.45
534.826	6901.3
535.192	6951.47
535.557	6957.57
535.923	6948.76
536.288	6998.93
536.653	6960.51
537.019	6944.69
537.384	6985.14
537.749	7009.1
538.114	7054.52
538.479	7084.57
538.845	7165.25
539.21	7145.59
539.575	7161.41
539.94	7203.21
540.305	7281.4
540.67	7289.31
541.034	7333.15
541.399	7323.66
541.764	7333.38
542.129	7425.81
542.494	7438.69
542.858	7411.57
543.223	7532.47
543.587	7536.77
543.952	7512.36
544.316	7588.74
544.681	7576.76
545.045	7642.53
545.41	7721.39
545.774	7690.21
546.138	7736.08
546.503	7815.63
546.867	7751.67
547.231	7829.41
547.595	7833.25
547.959	7836.42
548.324	7836.19
548.688	7866.7
549.052	7948.28
549.416	7939.69
549.779	8052.68
550.143	7971.56
550.507	8053.14
550.871	8029.41
551.235	8034.38
551.599	8190.31
551.962	8181.72
552.326	8206.35
552.689	8193.7
553.053	8232.34
553.417	8251.55
553.78	8366.57
554.143	8247.25
554.507	8320.7
554.87	8372.45
555.234	8491.54
555.597	8431.2
555.96	8453.58
556.323	8481.83
556.686	8532.45
557.05	8586.46
557.413	8517.98
557.776	8589.62
558.139	8584.2
558.502	8643.18
558.865	8688.15
559.228	8776.96
559.59	8754.59
559.953	8768.82
560.316	8886.56
560.679	8815.6
561.041	8818.99
561.404	8925.2
561.767	8941.7
562.129	8987.57
562.492	9040.45
562.854	8998.87
563.217	8992.77
563.579	9000.46
563.941	9034.8
564.304	9095.37
564.666	9199.09
565.028	9234.35
565.39	9260.56
565.753	9303.27
566.115	9324.29
566.477	9322.48
566.839	9376.26
567.201	9436.6
567.563	9369.71
567.925	9531.51
568.287	9470.05
568.648	9491.52
569.01	9580.1
569.372	9639.08
569.734	9633.43
570.095	9687.67
570.457	9700.32
570.819	9823.94
571.18	9844.73
571.542	9855.57
571.903	9835.69
572.265	9879.3
572.626	9974.44
572.987	10052.63
573.349	10069.81
573.71	10165.62
574.071	10145.51
574.432	10228.67
574.794	10407.88
575.155	10344.15
575.516	10395.67
575.877	10510.47
576.238	10556.8
576.599	10619.4
576.96	10662.33
577.32	10747.98
577.681	10854.64
578.042	10917.47
578.403	11028.42
578.763	11027.52
579.124	11150.46
579.485	11343.9
579.845	11390.68
580.206	11441.97
580.566	11599.94
580.927	11700.27
581.287	11924.22
581.648	11931.23
582.008	12144.78
582.368	12219.81
582.728	12474.49
583.089	12506.35
583.449	12781.6
583.809	12890.75
584.169	13114.7
584.529	13270.85
584.889	13619.32
585.249	13666.32
585.609	13797.62
585.969	14118.51
586.329	14206.65
586.688	14485.96
587.048	14771.6
587.408	14945.38
587.768	15157.13
588.127	15434.41
588.487	15669.21
588.846	16031.91
589.206	16189.19
589.565	16389.87
589.925	16770.65
590.284	16986.91
590.643	17386.45
591.003	17665.76
591.362	17931.97
591.721	18299.42
592.08	18651.5
592.44	18917.03
592.799	19163.13
593.158	19490.58
593.517	19832.26
593.876	20123.33
594.235	20507.5
594.593	20771.67
594.952	21090.76
595.311	21402.84
595.67	21745.21
596.029	22204.18
596.387	22620.44
596.746	22859.53
597.104	23101.1
597.463	23499.96
597.822	23846.17
598.18	24057.91
598.538	24519.82
598.897	24874.39
599.255	25029.19
599.613	25758.66
599.972	25814.7
600.33	26335.59
600.688	26518.86
601.046	26927.22
601.404	27303.03
601.762	27535.56
602.12	27994.53
602.478	28334.64
602.836	28672.71
603.194	28826.15
603.552	29180.04
603.91	29353.82
604.268	29879.23
604.625	30029.06
604.983	30446.22
605.341	30576.16
605.698	31017.73
606.056	31280.32
606.413	31596.92
606.771	31966.86
607.128	32374.98
607.485	32455.88
607.843	32762.54
608.2	33297.67
608.557	33437.1
608.914	33439.59
609.272	33888.84
609.629	34252.67
609.986	34691.53
610.343	34695.6
610.7	35068.24
611.057	35256.71
611.414	35602.69
611.771	35757.94
612.127	36107.31
612.484	36263.02
612.841	36499.62
613.198	36662.78
613.554	37023.22
613.911	37278.58
614.267	37308.86
614.624	37441.06
614.98	37840.6
615.337	38098
615.693	38249.4
616.05	38351.1
616.406	38623.86
616.762	38582.73
617.118	38800.58
617.475	38982.04
617.831	39345.65
618.187	39446.89
618.543	39674
618.899	39863.37
619.255	39967.1
619.611	40069.24
619.967	40320.08
620.323	40602.11
620.678	40603.01
621.034	40560.53
621.39	40789.68
621.746	40762.78
622.101	41496.32
622.457	41095.43
622.812	41228.76
623.168	41548.07
623.523	41577.68
623.879	41633.72
624.234	41584.91
624.589	41863.32
624.945	42029.19
625.3	42165.69
625.655	42197.1
626.01	42262.63
626.365	42327.71
626.72	42417.88
627.075	42597.09
627.43	42589.63
627.785	42496.07
628.14	42734.03
628.495	42698.78
628.85	42733.13
629.205	42777.87
629.559	42949.39
629.914	42908.72
630.269	42939
630.623	42922.05
630.978	42942.16
631.332	43195.49
631.687	43213.57
632.041	43099.45
632.396	43192.32
632.75	43178.31
633.104	43294.47
633.459	43165.43
633.813	43208.82
634.167	43334.02
634.521	43352.55
634.875	43365.88
635.229	43202.04
635.583	43046.79
635.937	43359.1
636.291	43191.65
636.645	43304.64
636.999	43160.69
637.352	43392.32
637.706	43112.1
638.06	43211.53
638.413	43288.37
638.767	43094.7
639.121	43281.59
639.474	43150.74
639.828	43145.32
640.181	43153.46
640.534	43304.41
640.888	43168.6
641.241	43076.4
641.594	43135.6
641.947	43235.94
642.301	43105.55
642.654	43122.5
643.007	43169.27
643.36	43023.52
643.713	43052.22
644.066	43304.41
644.419	42899.23
644.771	42739
645.124	42395.51
645.477	42412.68
645.83	42125.91
646.182	41923.66
646.535	41966.82
646.888	42048.85
647.24	41831.23
647.593	42090.43
647.945	41964.56
648.298	41796.66
648.65	41702.42
649.002	41673.49
649.355	41870.55
649.707	41674.17
650.059	42065.8
650.411	42310.54
650.763	42541.72
651.115	42888.38
651.467	42690.87
651.819	42726.35
652.171	42630.08
652.523	42510.31
652.875	42533.81
653.227	42386.24
653.578	42803.41
653.93	42660.81
654.282	42449.97
654.633	42426.92
654.985	42552.57
655.337	42473.02
655.688	42484.32
656.039	42630.76
656.391	42310.31
656.742	42371.56
657.094	42340.6
657.445	42387.15
657.796	42321.84
658.147	42400.26
658.498	42351.89
658.849	42386.47
659.2	42300.37
659.551	42280.03
659.902	42378.56
660.253	42228.51
660.604	42276.19
660.955	42186.93
661.306	42371.78
661.656	42119.36
662.007	42204.78
662.358	42296.08
662.708	42190.54
663.059	42234.61
663.409	42108.51
663.76	42325
664.11	42270.32
664.461	42216.31
664.811	42235.97
665.161	42178.11
665.511	42121.17
665.862	42165.91
666.212	42277.55
666.562	42237.32
666.912	42227.83
667.262	42109.42
667.612	42085.69
667.962	42183.99
668.312	42124.1
668.662	42294.27
669.011	42128.4
669.361	42020.83
669.711	42006.14
670.06	42002.98
670.41	41910.78
670.76	41941.74
671.109	41985.12
671.459	41949.65
671.808	41929.99
672.157	42010.66
672.507	41704.45
672.856	41732.48
673.205	41852.47
673.554	41993.26
673.904	41832.81
674.253	42071.9
674.602	41943.09
674.951	41350.11
675.3	41181.76
675.649	41700.84
675.998	41730.44
676.346	41768.41
676.695	41837.33
677.044	41457
677.393	41635.53
677.741	41728.18
678.09	41627.85
678.438	41450.68
678.787	41557.34
679.135	41478.02
679.484	41408.87
679.832	41440.73
680.181	41203.45
680.529	41467.62
680.877	41214.52
681.225	41261.08
681.573	41395.76
681.922	41123
682.27	41044.58
682.618	41124.13
682.966	40988.77
683.314	41020.63
683.661	40890.69
684.009	40764.37
684.357	40754.87
684.705	40503.58
685.053	40736.8
685.4	40608.21
685.748	40302.01
686.095	40348.56
686.443	40195.34
686.79	40173.87
687.138	40269.24
687.485	40249.13
687.832	40051.39
688.18	40194.89
688.527	40012.07
688.874	39930.72
689.221	39899.3
689.568	39818.63
689.915	39590.61
690.262	39697.73
690.609	39449.15
690.956	39388.58
691.303	39401.46
691.65	39151.98
691.997	39245.76
692.344	39068.37
692.69	38984.98
693.037	39025.88
693.383	38544.31
693.73	38822.72
694.077	38604.2
694.423	38606
694.769	38393.58
695.116	38399.68
695.462	38236.52
695.808	38277.43
696.155	38389.51
696.501	38079.69
696.847	37999.69
697.193	37756.08
697.539	37834.05
697.885	37681.06
698.231	37572.36
698.577	37493.04
698.923	37433.61
699.269	37230.22
699.614	37053.28
699.96	37104.8
700.306	37101.86
700.651	36932.83
700.997	36745.71
701.342	36782.1
701.688	36699.84
702.033	36648.99
702.379	36587.07
702.724	36459.17
703.069	36517.02
703.415	36136.69
703.76	36152.74
704.105	36082.91
704.45	36071.38
704.795	35864.38
705.14	35834.1
705.485	35764.27
705.83	35642.47
706.175	35656.93
706.52	35477.95
706.865	35347.11
707.209	35437.95
707.554	35217.62
707.899	35226.88
708.243	35125.42
708.588	35083.39
708.932	34724.52
709.277	34677.52
709.621	34956.61
709.966	34569.5
710.31	34686.56
710.654	34329.73
710.998	34537.86
711.342	34455.38
711.687	34320.47
712.031	34232.33
712.375	34079.8
712.719	34183.97
713.063	34195.73
713.407	34185.1
713.75	33846.13
714.094	34020.36
714.438	33720.71
714.782	33811.55
715.125	33577.66
715.469	33730.43
715.812	33628.96
716.156	33347.16
716.499	33416.08
716.843	33370.66
717.186	33294.05
717.53	33384.67
717.873	33228.29
718.216	33219.71
718.559	33047.96
718.902	32848.42
719.246	33126.83
719.589	32902.43
719.932	32812.94
720.275	32697.23
720.617	32590.12
720.96	32630.79
721.303	32667.63
721.646	32555.32
721.989	32329.11
722.331	32491.36
722.674	32453.4
723.016	32364.36
723.359	32170.69
723.701	32384.02
724.044	32119.85
724.386	32014.99
724.729	32226.51
725.071	32127.98
725.413	32050.47
725.755	31874.88
726.097	31893.19
726.439	31709.91
726.782	31723.02
727.124	31908.1
727.465	31698.16
727.807	31695
728.149	31580.43
728.491	31523.48
728.833	31569.35
729.175	31517.6
729.516	31359.19
729.858	31334.11
730.199	31393.99
730.541	31296.59
730.882	31172.98
731.224	31336.59
731.565	31126.2
731.906	31153.55
732.248	31127.33
732.589	30845.98
732.93	30780.22
733.271	30879.88
733.612	30867.9
733.953	30851.63
734.294	30794.01
734.635	30603.28
734.976	30695.93
735.317	30575.26
735.658	30494.81
735.999	30563.28
736.339	30535.03
736.68	30605.54
737.021	30396.05
737.361	30300.69
737.702	30526.22
738.042	30286.22
738.383	30201.71
738.723	30361.02
739.063	30189.28
739.404	30266.11
739.744	30169.39
740.084	29994.48
740.424	30020.24
740.764	29973.92
741.104	30046.23
741.444	29922.17
741.784	29762.62
742.124	29784.99
742.464	29750.19
742.804	29761.27
743.143	29679.46
743.483	29703.64
743.823	29525.34
744.162	29537.09
744.502	29523.98
744.841	29270.66
745.181	29514.27
745.52	29312.46
745.86	29403.31
746.199	29341.62
746.538	29238.57
746.877	29340.26
747.216	29272.69
747.556	29214.39
747.895	29185.46
748.234	28977.78
748.573	29094.39
748.911	29067.05
749.25	29025.69
749.589	28938.24
749.928	28898.69
750.267	28891.68
750.605	28819.6
750.944	28780.95
751.283	28648.98
751.621	28724.91
751.96	28516.78
752.298	28542.54
752.636	28581.41
752.975	28404.01
753.313	28359.95
753.651	28403.56
753.989	28253.73
754.327	28255.09
754.666	28184.13
755.004	28193.17
755.342	28202.66
755.679	28218.03
756.017	27904.82
756.355	28056.45
756.693	27889.22
757.031	27879.06
757.368	27799.06
757.706	27675.67
758.044	27615.56
758.381	27732.62
758.719	27540.31
759.056	27644.03
759.394	27457.37
759.731	27220.54
760.068	27275.23
760.405	27190.26
760.743	27149.81
