Data from hue_90_FLMS001491_24.txt Node
Date: Mon Feb 06 15:24:54 GMT 2017
User: dcchb
Spectrometer: FLMS00149
Trigger mode: 0
Integration Time (sec): 2.000000E-2
Scans to average: 10
Electric dark correction enabled: true
Nonlinearity correction enabled: false
Boxcar width: 0
XAxis mode: Wavelengths
Number of Pixels in Spectrum: 2048
>>>>>Begin Spectral Data<<<<<
341.393	-9.05
341.776	-9.05
342.16	-9.05
342.543	-69.16
342.927	-66.23
343.31	-74.81
343.693	-85.89
344.077	-60.58
344.46	-61.03
344.843	-41.82
345.226	-38.66
345.61	-17.87
345.993	-22.16
346.376	-12.44
346.759	17.61
347.142	33.88
347.525	51.74
347.908	39.98
348.291	69.14
348.674	94.67
349.057	108.23
349.44	136.25
349.823	150.72
350.206	159.76
350.588	202.92
350.971	187.33
351.354	211.05
351.737	224.16
352.119	240.21
352.502	235.91
352.884	271.17
353.267	272.52
353.65	278.4
354.032	288.34
354.414	291.5
354.797	307.55
355.179	317.27
355.562	305.29
355.944	335.57
356.326	338.06
356.709	347.32
357.091	335.57
357.473	329.69
357.855	352.07
358.238	339.19
358.62	347.32
359.002	317.72
359.384	322.92
359.766	334.89
360.148	351.84
360.53	325.63
360.912	307.55
361.294	314.33
361.676	322.24
362.057	343.71
362.439	320.2
362.821	322.46
363.203	330.82
363.584	320.66
363.966	319.98
364.348	311.62
364.729	318.4
365.111	303.93
365.493	320.2
365.874	320.43
366.256	294.22
366.637	303.93
367.019	316.59
367.4	312.52
367.781	316.14
368.163	328.56
368.544	313.2
368.925	303.03
369.306	326.76
369.688	321.11
370.069	308.23
370.45	295.8
370.831	319.3
371.212	310.94
371.593	294.67
371.974	313.42
372.355	312.75
372.736	318.62
373.117	306.19
373.498	319.07
373.879	302.58
374.26	304.61
374.641	315.46
375.021	313.42
375.402	323.14
375.783	319.07
376.163	332.41
376.544	330.82
376.925	319.98
377.305	320.2
377.686	318.4
378.066	327.66
378.447	331.28
378.827	350.71
379.208	320.66
379.588	332.41
379.968	347.55
380.349	342.8
380.729	327.43
381.109	331.05
381.489	320.66
381.87	352.29
382.25	348
382.63	338.51
383.01	346.42
383.39	345.97
383.77	353.65
384.15	358.17
384.53	320.2
384.91	331.5
385.29	351.84
385.67	345.97
386.049	354.33
386.429	342.35
386.809	368.34
387.189	367.89
387.568	346.19
387.948	362.91
388.328	349.58
388.707	342.35
389.087	359.98
389.466	364.72
389.846	352.29
390.225	352.74
390.605	372.86
390.984	363.82
391.363	376.25
391.743	378.28
392.122	379.18
392.501	379.41
392.881	358.62
393.26	379.86
393.639	372.18
394.018	360.43
394.397	386.42
394.776	384.83
395.155	376.02
395.534	382.57
395.913	400.43
396.292	393.42
396.671	388.68
397.05	399.52
397.429	408.11
397.808	406.75
398.186	400.65
398.565	399.75
398.944	394.33
399.323	398.17
399.701	390.26
400.08	407.43
400.458	430.03
400.837	414.66
401.215	423.48
401.594	387.32
401.972	407.88
402.351	408.34
402.729	408.11
403.107	412.4
403.486	410.82
403.864	431.16
404.242	423.03
404.62	418.51
404.999	419.86
405.377	428.68
405.755	424.38
406.133	449.47
406.511	436.58
406.889	446.08
407.267	443.82
407.645	444.27
408.023	464.83
408.401	469.8
408.779	442.46
409.156	475.23
409.534	456.47
409.912	440.65
410.29	476.58
410.667	483.14
411.045	478.84
411.422	477.04
411.8	463.7
412.178	479.75
412.555	479.97
412.933	479.75
413.31	465.28
413.687	495.34
414.065	477.94
414.442	498.5
414.819	519.75
415.197	520.42
415.574	508.9
415.951	536.69
416.328	530.14
416.705	536.92
417.082	515
417.46	531.72
417.837	508
418.214	522.68
418.591	532.18
418.967	528.56
419.344	522.46
419.721	543.93
420.098	535.34
420.475	536.69
420.852	542.8
421.228	564.49
421.605	565.17
421.982	562.91
422.358	576.47
422.735	588.44
423.111	574.21
423.488	596.81
423.864	575.11
424.241	579.86
424.617	602.46
424.994	593.64
425.37	608.56
425.746	615.11
426.123	613.98
426.499	628.44
426.875	617.6
427.251	613.76
427.627	643.13
428.003	631.16
428.379	638.84
428.756	637.26
429.132	639.52
429.507	657.14
429.883	641.1
430.259	670.25
430.635	637.71
431.011	670.7
431.387	686.3
431.763	660.53
432.138	702.79
432.514	687.88
432.89	704.6
433.265	706.63
433.641	737.59
434.016	715.22
434.392	731.04
434.767	730.59
435.143	730.36
435.518	757.48
435.894	763.36
436.269	769.91
436.644	775.56
437.02	789.34
437.395	763.36
437.77	799.96
438.145	788.67
438.52	790.25
438.895	789.8
439.271	772.39
439.646	805.84
440.021	809
440.395	827.31
440.77	822.11
441.145	818.95
441.52	839.29
441.895	859.4
442.27	864.6
442.645	863.47
443.019	859.62
443.394	853.75
443.769	865.5
444.143	879.96
444.518	884.48
444.892	876.12
445.267	917.02
445.641	897.14
446.016	906.4
446.39	918.83
446.764	921.09
447.139	923.8
447.513	953.86
447.887	919.74
448.262	917.02
448.636	913.41
449.01	975.1
449.384	959.28
449.758	972.16
450.132	977.59
450.506	972.39
450.88	973.52
451.254	985.72
451.628	993.18
452.002	980.75
452.376	1034.76
452.75	1031.15
453.123	1046.29
453.497	1032.5
453.871	1077.25
454.244	1082.22
454.618	1103.91
454.992	1101.65
455.365	1077.02
455.739	1128.09
456.112	1127.87
456.486	1142.78
456.859	1169.22
457.232	1183.68
457.606	1196.79
457.979	1212.84
458.352	1206.28
458.725	1226.85
459.099	1209.67
459.472	1272.95
459.845	1263.46
460.218	1277.47
460.591	1265.94
460.964	1299.61
461.337	1305.94
461.71	1356.11
462.083	1376.9
462.456	1415.54
462.829	1386.39
463.201	1400.4
463.574	1405.6
463.947	1407.86
464.32	1457.35
464.692	1448.99
465.065	1501.19
465.438	1516.78
465.81	1529.44
466.183	1549.32
466.555	1599.72
466.928	1580.06
467.3	1590.68
467.672	1613.5
468.045	1697.34
468.417	1706.38
468.789	1714.74
469.161	1716.32
469.534	1754.74
469.906	1818.24
470.278	1832.03
470.65	1864.8
471.022	1892.14
471.394	1929.2
471.766	1973.95
472.138	1992.25
472.51	2039.03
472.882	2072.93
473.253	2125.13
473.625	2141.85
473.997	2184.56
474.369	2247.61
474.74	2251.68
475.112	2343.2
475.484	2395.86
475.855	2395.4
476.227	2449.19
476.598	2548.85
476.97	2634.27
477.341	2686.69
477.713	2721.5
478.084	2780.7
478.455	2851.66
478.827	2953.58
479.198	3011.43
479.569	3104.76
479.94	3175.04
480.311	3194.48
480.682	3320.35
481.053	3431.08
481.424	3546.79
481.795	3567.8
482.166	3668.36
482.537	3717.18
482.908	3854.57
483.279	3951.75
483.65	4042.59
484.021	4171.4
484.391	4253.89
484.762	4332.53
485.133	4469.92
485.503	4545.4
485.874	4687.55
486.244	4768.9
486.615	4978.61
486.985	5041.21
487.356	5140.19
487.726	5267.87
488.097	5410.24
488.467	5492.95
488.837	5662.89
489.207	5795.09
489.578	5929.32
489.948	6026.04
490.318	6176.32
490.688	6220.61
491.058	6396.65
491.428	6566.82
491.798	6673.03
492.168	6848.85
492.538	6949.86
492.908	7049.74
493.278	7184.88
493.648	7326.12
494.017	7498.09
494.387	7564.98
494.757	7646.34
495.126	7824.86
495.496	7915.26
495.866	8039.77
496.235	8166.1
496.605	8305.76
496.974	8391.86
497.344	8531.74
497.713	8626.65
498.082	8737.38
498.452	8895.57
498.821	8988.68
499.19	8939.19
499.559	9162.46
499.928	9204.04
500.298	9325.39
500.667	9508.89
501.036	9492.62
501.405	9677.02
501.774	9692.39
502.143	9834.08
502.512	9891.93
502.88	10034.52
503.249	10063.68
503.618	10166.72
503.987	10212.15
504.356	10298.7
504.724	10433.84
505.093	10448.75
505.462	10553.15
505.83	10552.7
506.199	10688.07
506.567	10855.97
506.936	10887.16
507.304	11034.27
507.672	11028.4
508.041	11138.22
508.409	11163.99
508.777	11278.33
509.145	11345.22
509.514	11333.7
509.882	11488.27
510.25	11492.57
510.618	11555.84
510.986	11632
511.354	11721.94
511.722	11792.9
512.09	11891.88
512.458	11936.17
512.826	11970.97
513.193	11963.51
513.561	12105.66
513.929	12144.07
514.297	12205.31
514.664	12175.26
515.032	12307.68
515.4	12321.7
515.767	12402.82
516.135	12529.37
516.502	12351.53
516.869	12639.43
517.237	12558.07
517.604	12532.09
517.972	12716.49
518.339	12728.92
518.706	12712.87
519.073	12835.13
519.44	12840.33
519.808	12925.3
520.175	12870.83
520.542	13054.78
520.909	13055.69
521.276	13012.53
521.643	13106.31
522.009	13180.43
522.376	13222.46
522.743	13232.41
523.11	13284.83
523.477	13393.53
523.843	13380.88
524.21	13487.09
524.577	13499.52
524.943	13605.96
525.31	13552.62
525.676	13631.27
526.043	13667.42
526.409	13690.7
526.776	13736.35
527.142	13690.47
527.508	13826.06
527.874	13919.85
528.241	13888.66
528.607	13871.71
528.973	13932.27
529.339	13914.65
529.705	14033.74
530.071	13998.94
530.437	14001.43
530.803	14045.04
531.169	14053.63
531.535	14010.01
531.901	14024.02
532.267	13970.69
532.632	14096.79
532.998	14002.56
533.364	14047.3
533.73	14111.71
534.095	14058.6
534.461	14088.2
534.826	14072.38
535.192	14071.71
535.557	14203.91
535.923	14149.44
536.288	14083.68
536.653	14134.08
537.019	14010.01
537.384	14036.68
537.749	14031.71
538.114	14058.83
538.479	13969.56
538.845	13984.93
539.21	13946.96
539.575	13975.44
539.94	13957.13
540.305	13946.74
540.67	13900.86
541.034	13901.99
541.399	13953.07
541.764	13846.18
542.129	13829.9
542.494	13911.03
542.858	13923.91
543.223	13873.29
543.587	13916.68
543.952	13739.74
544.316	13818.38
544.681	13716.69
545.045	13712.62
545.41	13812.73
545.774	13672.39
546.138	13663.13
546.503	13657.93
546.867	13596.46
547.231	13676.91
547.595	13673.52
547.959	13625.84
548.324	13572.51
548.688	13515.79
549.052	13563.25
549.416	13504.94
549.779	13560.53
550.143	13497.48
550.507	13481.44
550.871	13466.07
551.235	13370.71
551.599	13520.99
551.962	13430.59
552.326	13473.08
552.689	13441.89
553.053	13340.43
553.417	13321.67
553.78	13454.77
554.143	13333.87
554.507	13400.76
554.87	13326.42
555.234	13344.27
555.597	13322.12
555.96	13270.37
556.323	13307.43
556.686	13269.92
557.05	13346.08
557.413	13287.77
557.776	13352.63
558.139	13309.01
558.502	13236.47
558.865	13323.7
559.228	13407.54
559.59	13344.72
559.953	13386.75
560.316	13412.06
560.679	13394.21
561.041	13439.63
561.404	13434.89
561.767	13448.67
562.129	13396.24
562.492	13500.87
562.854	13492.74
563.217	13398.73
563.579	13419.52
563.941	13477.82
564.304	13513.75
564.666	13621.77
565.028	13648.89
565.39	13511.95
565.753	13624.71
566.115	13646.41
566.477	13624.03
566.839	13667.2
567.201	13662.68
567.563	13671.49
567.925	13693.19
568.287	13702.9
568.648	13768.21
569.01	13753.52
569.372	13828.77
569.734	13755.1
570.095	13810.47
570.457	13884.14
570.819	13816.57
571.18	13889.79
571.542	13917.59
571.903	13890.47
572.265	13917.81
572.626	13977.47
572.987	13934.53
573.349	13960.07
573.71	14094.98
574.071	14008.66
574.432	14042.78
574.794	14052.27
575.155	14120.97
575.516	14003.91
575.877	14072.84
576.238	14082.1
576.599	14087.98
576.96	14132.04
577.32	14104.47
577.681	14163
578.042	14144.02
578.403	14245.94
578.763	14160.29
579.124	14155.09
579.485	14240.74
579.845	14237.8
580.206	14214.98
580.566	14203
580.927	14134.3
581.287	14159.16
581.648	14175.66
582.008	14178.37
582.368	14266.5
582.728	14193.96
583.089	14205.26
583.449	14116
583.809	14112.61
584.169	14130.46
584.529	14032.84
584.889	14276.45
585.249	14127.07
585.609	14130.46
585.969	14155.55
586.329	14096.56
586.688	14112.38
587.048	14123
587.408	14113.51
587.768	14150.12
588.127	14054.76
588.487	14043.01
588.846	14161.65
589.206	14034.87
589.565	14049.79
589.925	14122.1
590.284	14104.93
590.643	14106.28
591.003	13995.55
591.362	14068.54
591.721	14087.98
592.08	14042.1
592.44	14078.03
592.799	14008.21
593.158	14016.79
593.517	13986.28
593.876	14013.63
594.235	14085.49
594.593	13921.2
594.952	13992.61
595.311	14009.56
595.67	13948.09
596.029	14029.67
596.387	14050.46
596.746	14019.5
597.104	13980.86
597.463	13932.95
597.822	13984.25
598.18	13968.21
598.538	13891.82
598.897	13997.13
599.255	13917.36
599.613	14121.2
599.972	14007.53
600.33	14062.67
600.688	13949
601.046	13933.86
601.404	14003.01
601.762	13990.35
602.12	14101.54
602.478	14012.5
602.836	14068.77
603.194	13976.79
603.552	13967.53
603.91	13963.23
604.268	14056.11
604.625	13957.36
604.983	14025.61
605.341	13982.22
605.698	14073.51
606.056	14064.47
606.413	13985.38
606.771	14024.02
607.128	14057.02
607.485	14013.63
607.843	14045.49
608.2	13995.55
608.557	14083.46
608.914	14030.13
609.272	14098.82
609.629	14189.44
609.986	14074.42
610.343	14030.13
610.7	14234.19
611.057	14163.46
611.414	14198.48
611.771	14236.45
612.127	14218.37
612.484	14172.72
612.841	14274.64
613.198	14184.02
613.554	14203.23
613.911	14291.81
614.267	14227.63
614.624	14324.13
614.98	14234.64
615.337	14297.01
615.693	14282.1
616.05	14270.57
616.406	14396.44
616.762	14353.28
617.118	14297.46
617.475	14282.1
617.831	14292.27
618.187	14372.26
618.543	14338.82
618.899	14447.74
619.255	14457.01
619.611	14446.84
619.967	14451.58
620.323	14442.77
620.678	14485.03
621.034	14417.91
621.39	14408.19
621.746	14399.38
622.101	14510.79
622.457	14433.05
622.812	14335.43
623.168	14469.66
623.523	14456.78
623.879	14526.16
624.234	14443.67
624.589	14449.32
624.945	14492.26
625.3	14459.94
625.655	14425.14
626.01	14520.28
626.365	14420.4
626.72	14518.7
627.075	14457.91
627.43	14478.02
627.785	14395.99
628.14	14453.84
628.495	14433.05
628.85	14440.28
629.205	14406.84
629.559	14462.88
629.914	14388.76
630.269	14422.88
630.623	14385.6
630.978	14278.71
631.332	14434.86
631.687	14417.91
632.041	14293.4
632.396	14332.26
632.75	14263.34
633.104	14287.29
633.459	14230.57
633.813	14193.74
634.167	14232.38
634.521	14175.21
634.875	14207.3
635.229	14184.02
635.583	14151.03
635.937	14160.74
636.291	14173.17
636.645	14095.66
636.999	14060.41
637.352	14097.02
637.706	14035.1
638.06	14141.08
638.413	14104.25
638.767	13988.32
639.121	13969.79
639.474	14016.79
639.828	13917.36
640.181	13983.57
640.534	13912.61
640.888	13908.77
641.241	13849.34
641.594	13799.17
641.947	13925.95
642.301	13800.3
642.654	13890.47
643.007	13905.83
643.36	13840.07
643.713	13804.14
644.066	13887.76
644.419	13845.95
644.771	13699.74
645.124	13629.91
645.477	13547.43
645.83	13503.81
646.182	13449.8
646.535	13415.23
646.888	13496.35
647.24	13338.84
647.593	13410.48
647.945	13332.52
648.298	13259.75
648.65	13301.56
649.002	13245.97
649.355	13290.26
649.707	13294.33
650.059	13385.4
650.411	13497.26
650.763	13520.08
651.115	13672.17
651.467	13651.38
651.819	13514.88
652.171	13660.42
652.523	13529.35
652.875	13643.47
653.227	13541.32
653.578	13653.86
653.93	13570.25
654.282	13489.35
654.633	13597.82
654.985	13573.41
655.337	13553.53
655.688	13555.34
656.039	13643.69
656.391	13553.75
656.742	13562.12
657.094	13625.39
657.445	13583.13
657.796	13599.18
658.147	13546.07
658.498	13533.64
658.849	13594.2
659.2	13583.13
659.551	13500.65
659.902	13626.07
660.253	13484.6
660.604	13639.4
660.955	13532.29
661.306	13605.05
661.656	13606.63
662.007	13588.1
662.358	13525.28
662.708	13542
663.059	13544.71
663.409	13419.52
663.76	13626.29
664.11	13580.19
664.461	13591.27
664.811	13685.95
665.161	13578.61
665.511	13597.14
665.862	13555.34
666.212	13647.08
666.562	13655.9
666.912	13641.89
667.262	13650.93
667.612	13608.67
667.962	13575.45
668.312	13600.76
668.662	13658.38
669.011	13563.02
669.361	13569.8
669.711	13600.98
670.06	13610.02
670.41	13468.78
670.76	13557.37
671.109	13575.9
671.459	13544.49
671.808	13538.61
672.157	13535.22
672.507	13471.95
672.856	13484.83
673.205	13428.56
673.554	13517.6
673.904	13382.68
674.253	13526.64
674.602	13420.2
674.951	13274.67
675.3	13249.81
675.649	13413.19
675.998	13365.28
676.346	13377.94
676.695	13435.56
677.044	13319.86
677.393	13370.26
677.741	13420.88
678.09	13292.29
678.438	13265.63
678.787	13312.18
679.135	13301.78
679.484	13275.57
679.832	13243.25
680.181	13136.82
680.529	13263.59
680.877	13203.48
681.225	13225.63
681.573	13195.8
681.922	13139.75
682.27	13123.71
682.618	13015.91
682.966	13038.74
683.314	13076.25
683.661	13046.42
684.009	12893.21
684.357	12924.84
684.705	12840.33
685.053	12898.4
685.4	12885.97
685.748	12796.71
686.095	12768.46
686.443	12702.02
686.79	12755.58
687.138	12767.33
687.485	12729.59
687.832	12630.39
688.18	12666.32
688.527	12661.57
688.874	12645.08
689.221	12574.34
689.568	12523.72
689.915	12537.96
690.262	12565.76
690.609	12475.59
690.956	12361.92
691.303	12387.91
691.65	12238.53
691.997	12274.69
692.344	12215.94
692.69	12189.95
693.037	12227.69
693.383	12115.37
693.73	12096.84
694.077	12039.22
694.423	11987.24
694.769	11976.62
695.116	11898.2
695.462	11915.38
695.808	11842.39
696.155	11935.04
696.501	11722.16
696.847	11808.04
697.193	11642.39
697.539	11702.5
697.885	11690.3
698.231	11588.83
698.577	11535.05
698.923	11485.79
699.269	11484.43
699.614	11416.41
699.96	11316.3
700.306	11341.16
700.651	11279.46
700.997	11231.78
701.342	11201.27
701.688	11213.93
702.033	11201.05
702.379	11197.66
702.724	11105.46
703.069	11111.33
703.415	10996.53
703.76	11070.43
704.105	10957.44
704.45	10963.09
704.795	10891.9
705.14	10852.58
705.485	10889.19
705.83	10781.62
706.175	10761.28
706.52	10754.51
706.865	10748.4
707.209	10680.38
707.554	10709.08
707.899	10726.71
708.243	10566.26
708.588	10593.83
708.932	10509.09
709.277	10512.93
709.621	10466.83
709.966	10366.94
710.31	10429.77
710.654	10342.76
710.998	10413.05
711.342	10336.44
711.687	10283.56
712.031	10203.33
712.375	10210.11
712.719	10216.89
713.063	10257.8
713.407	10195.65
713.75	10166.72
714.094	10156.78
714.438	10104.13
714.782	10154.07
715.125	10066.61
715.469	10065.94
715.812	9987.52
716.156	9953.4
716.499	9948.2
716.843	10021.19
717.186	9999.5
717.53	10048.99
717.873	9955.66
718.216	9930.57
718.559	9828.65
718.902	9822.55
719.246	9850.8
719.589	9875.21
719.932	9837.02
720.275	9796.79
720.617	9812.16
720.96	9773.06
721.303	9806.51
721.646	9820.74
721.989	9654.42
722.331	9696.23
722.674	9707.75
723.016	9698.26
723.359	9663.46
723.701	9741.2
724.044	9689.22
724.386	9644.48
724.729	9649.68
725.071	9623.46
725.413	9644.25
725.755	9608.32
726.097	9533.29
726.439	9592.95
726.782	9578.49
727.124	9590.02
727.465	9530.81
727.807	9510.24
728.149	9603.35
728.491	9510.24
728.833	9600.64
729.175	9561.09
729.516	9548.66
729.858	9488.78
730.199	9546.18
730.541	9529.45
730.882	9549.11
731.224	9503.24
731.565	9496.91
731.906	9510.92
732.248	9437.48
732.589	9451.49
732.93	9460.98
733.271	9434.77
733.612	9413.98
733.953	9466.86
734.294	9426.4
734.635	9411.26
734.976	9455.1
735.317	9387.08
735.658	9414.88
735.999	9433.86
736.339	9490.58
736.68	9462.79
737.021	9420.53
737.361	9309.57
737.702	9430.47
738.042	9435.67
738.383	9406.74
738.723	9492.84
739.063	9427.31
739.404	9450.58
739.744	9470.02
740.084	9464.6
740.424	9458.72
740.764	9514.09
741.104	9523.58
741.444	9475.22
741.784	9482.22
742.124	9491.04
742.464	9524.93
742.804	9521.32
743.143	9515.89
743.483	9635.66
743.823	9605.83
744.162	9556.57
744.502	9641.31
744.841	9577.59
745.181	9707.3
745.52	9653.07
745.86	9792.04
746.199	9703.91
746.538	9717.24
746.877	9804.25
747.216	9856.9
747.556	9927.86
747.895	9941.19
748.234	9926.96
748.573	10017.35
748.911	10023.68
749.25	10044.47
749.589	10104.8
749.928	10158.14
750.267	10269.09
750.605	10263.9
750.944	10341.18
751.283	10391.8
751.621	10496.21
751.96	10548.86
752.298	10559.26
752.636	10654.62
752.975	10716.77
753.313	10814.16
753.651	11013.48
753.989	11014.16
754.327	11081.95
754.666	11085.8
755.004	11360.37
755.342	11376.64
755.679	11457.09
756.017	11580.92
756.355	11719
756.693	11782.95
757.031	11911.54
757.368	12040.35
757.706	12173.9
758.044	12222.72
758.381	12391.3
758.719	12518.53
