Data from hue_100_FLMS001491_00028.txt Node
Date: Tue Feb 07 17:02:56 GMT 2017
User: dcchb
Spectrometer: FLMS00149
Trigger mode: 0
Integration Time (sec): 2.000000E-2
Scans to average: 10
Electric dark correction enabled: true
Nonlinearity correction enabled: false
Boxcar width: 0
XAxis mode: Wavelengths
Number of Pixels in Spectrum: 2048
>>>>>Begin Spectral Data<<<<<
341.393	-12.87
341.776	-12.87
342.16	-12.87
342.543	-52.87
342.927	-70.04
343.31	-59.42
343.693	-63.49
344.077	-54.9
344.46	-54.9
344.843	-45.18
345.226	-48.12
345.61	-34.79
345.993	-28.91
346.376	-22.81
346.759	9.51
347.142	20.8
347.525	42.5
347.908	62.84
348.291	74.36
348.674	92.67
349.057	109.84
349.44	142.84
349.823	151.65
350.206	146
350.588	180.35
350.971	209.05
351.354	216.96
351.737	240.91
352.119	251.98
352.502	251.98
352.884	290.63
353.267	279.55
353.65	291.53
354.032	294.92
354.414	302.38
354.797	302.83
355.179	315.03
355.562	333.56
355.944	307.12
356.326	359.78
356.709	332.43
357.091	338.08
357.473	342.15
357.855	332.89
358.238	337.41
358.62	343.06
359.002	334.02
359.384	342.15
359.766	355.26
360.148	343.51
360.53	360.23
360.912	345.54
361.294	339.89
361.676	319.55
362.057	322.94
362.439	336.95
362.821	332.43
363.203	326.33
363.584	341.02
363.966	302.83
364.348	324.3
364.729	325.43
365.111	324.75
365.493	327.01
365.874	334.92
366.256	309.61
366.637	317.07
367.019	331.3
367.4	320.23
367.781	335.6
368.163	327.69
368.544	311.87
368.925	313.68
369.306	332.89
369.688	305.09
370.069	310.51
370.45	302.83
370.831	330.17
371.212	296.28
371.593	323.85
371.974	321.81
372.355	341.47
372.736	313
373.117	300.35
373.498	333.79
373.879	328.14
374.26	350.74
374.641	300.8
375.021	312.77
375.402	324.07
375.783	327.92
376.163	314.58
376.544	337.63
376.925	321.59
377.305	343.73
377.686	330.17
378.066	335.37
378.447	338.99
378.827	337.86
379.208	322.49
379.588	316.62
379.968	332.43
380.349	347.35
380.729	346.22
381.109	348.03
381.489	339.67
381.87	352.1
382.25	343.73
382.63	331.53
383.01	355.26
383.39	354.81
383.77	343.96
384.15	356.61
384.53	364.3
384.91	366.56
385.29	379.67
385.67	369.5
386.049	348.71
386.429	345.09
386.809	351.87
387.189	376.95
387.568	391.64
387.948	364.52
388.328	360.68
388.707	362.04
389.087	350.51
389.466	380.8
389.846	379.67
390.225	371.08
390.605	363.17
390.984	367.46
391.363	378.31
391.743	395.26
392.122	381.7
392.501	395.94
392.881	385.09
393.26	373.34
393.639	379.21
394.018	388.03
394.397	405.65
394.776	385.31
395.155	406.33
395.534	397.52
395.913	404.98
396.292	429.83
396.671	413.11
397.05	399.33
397.429	371.53
397.808	414.24
398.186	424.86
398.565	407.46
398.944	407.69
399.323	427.57
399.701	447.46
400.08	420.34
400.458	426.44
400.837	415.37
401.215	433.22
401.594	431.87
401.972	425.31
402.351	440.91
402.729	447.69
403.107	424.64
403.486	440.91
403.864	414.92
404.242	425.99
404.62	465.54
404.999	445.88
405.377	432.77
405.755	453.79
406.133	451.3
406.511	458.53
406.889	472.09
407.267	460.79
407.645	482.26
408.023	463.05
408.401	470.51
408.779	473
409.156	496.27
409.534	484.3
409.912	491.3
410.29	503.05
410.667	514.35
411.045	500.79
411.422	495.14
411.8	512.09
412.178	491.98
412.555	510.74
412.933	521.81
413.31	503.73
413.687	520.23
414.065	534.24
414.442	515.25
414.819	536.5
415.197	538.98
415.574	537.85
415.951	557.06
416.328	539.66
416.705	548.02
417.082	542.15
417.46	552.09
417.837	549.83
418.214	566.55
418.591	586.67
418.967	555.71
419.344	576.72
419.721	583.73
420.098	595.25
420.475	591.86
420.852	588.7
421.228	596.38
421.605	601.58
421.982	603.84
422.358	606.33
422.735	599.09
423.111	604.29
423.488	628.47
423.864	620.11
424.241	651.97
424.617	637.51
424.994	642.94
425.37	622.37
425.746	643.39
426.123	647.68
426.499	663.95
426.875	683.16
427.251	670.73
427.627	672.31
428.003	673.22
428.379	687.68
428.756	698.07
429.132	696.49
429.507	698.98
429.883	698.98
430.259	694.91
430.635	729.49
431.011	737.85
431.387	732.2
431.763	747.57
432.138	735.14
432.514	747.79
432.89	765.64
433.265	748.7
433.641	784.85
434.016	779.2
434.392	812.42
434.767	810.84
435.143	792.76
435.518	798.19
435.894	815.13
436.269	821.24
436.644	832.76
437.02	829.82
437.395	838.64
437.77	859.2
438.145	874.57
438.52	861.69
438.895	854.45
439.271	875.47
439.646	897.84
440.021	898.52
440.395	890.39
440.77	921.35
441.145	910.27
441.52	925.19
441.895	912.08
442.27	953.66
442.645	953.66
443.019	928.13
443.394	941.01
443.769	947.56
444.143	951.63
444.518	973.55
444.892	948.01
445.267	963.83
445.641	982.81
446.016	985.52
446.39	973.1
446.764	1015.58
447.139	984.17
447.513	1011.06
447.887	1019.65
448.262	1047.44
448.636	1011.96
449.01	1024.17
449.384	1052.19
449.758	1044.05
450.132	1077.27
450.506	1076.14
450.88	1082.92
451.254	1071.4
451.628	1102.36
452.002	1118.85
452.376	1106.43
452.75	1128.57
453.123	1132.64
453.497	1117.72
453.871	1147.78
454.244	1147.55
454.618	1184.84
454.992	1195.24
455.365	1203.15
455.739	1233.43
456.112	1232.98
456.486	1220.32
456.859	1264.61
457.232	1268.68
457.606	1297.83
457.979	1298.06
458.352	1345.74
458.725	1340.09
459.099	1355.01
459.472	1368.11
459.845	1387.1
460.218	1408.11
460.591	1436.13
460.964	1420.09
461.337	1465.06
461.71	1496.47
462.083	1456.02
462.456	1506.42
462.829	1542.35
463.201	1509.58
463.574	1546.19
463.947	1572.63
464.32	1628.67
464.692	1621.21
465.065	1625.28
465.438	1660.08
465.81	1682
466.183	1724.71
466.555	1740.31
466.928	1776.92
467.3	1816.46
467.672	1797.26
468.045	1841.32
468.417	1843.81
468.789	1915.67
469.161	1944.37
469.534	2003.13
469.906	1992.05
470.278	2035.89
470.65	2053.52
471.022	2095.55
471.394	2140.3
471.766	2208.32
472.138	2230.01
472.51	2266.4
472.882	2338.48
473.253	2373.06
473.625	2432.27
473.997	2458.03
474.369	2507.07
474.74	2523.56
475.112	2658.48
475.484	2686.05
475.855	2756.55
476.227	2790.68
476.598	2832.26
476.97	2912.03
477.341	2997.9
477.713	3133.72
478.084	3134.39
478.455	3235.86
478.827	3306.37
479.198	3415.52
479.569	3460.26
479.94	3610.54
480.311	3670.65
480.682	3814.6
481.053	3912.68
481.424	3968.05
481.795	4027.93
482.166	4190.86
482.537	4249.62
482.908	4408.03
483.279	4494.13
483.65	4649.84
484.021	4789.27
484.391	4890.06
484.762	4921.69
485.133	5062.93
485.503	5200.56
485.874	5375.69
486.244	5446.65
486.615	5676.48
486.985	5800.99
487.356	5908.56
487.726	6010.03
488.097	6232.62
488.467	6319.62
488.837	6501.54
489.207	6678.48
489.578	6839.16
489.948	6920.51
490.318	7161.63
490.688	7236.43
491.058	7429.42
491.428	7629.64
491.798	7694.5
492.168	7939.92
492.538	8070.31
492.908	8268.95
493.278	8403.63
493.648	8491.54
494.017	8617.41
494.387	8823.74
494.757	8915.49
495.126	9098.53
495.496	9290.17
495.866	9365.64
496.235	9585.3
496.605	9642.02
496.974	9816.48
497.344	9962.01
497.713	10075.46
498.082	10215.34
498.452	10377.14
498.821	10471.6
499.19	10566.52
499.559	10725.38
499.928	10840.18
500.298	11002.44
500.667	11196.1
501.036	11201.08
501.405	11318.13
501.774	11454.18
502.143	11545.47
502.512	11609.43
502.88	11738.91
503.249	11790.21
503.618	11950.89
503.987	12014.16
504.356	12193.14
504.724	12212.35
505.093	12352.46
505.462	12454.15
505.83	12557.88
506.199	12653.01
506.567	12859.11
506.936	12834.7
507.304	13020.24
507.672	13165.54
508.041	13147.47
508.409	13245.09
508.777	13398.31
509.145	13501.35
509.514	13496.83
509.882	13576.15
510.25	13623.16
510.618	13723.27
510.986	13747.9
511.354	14001.68
511.722	13943.83
512.09	14155.57
512.458	14073.54
512.826	14177.04
513.193	14250.26
513.561	14269.7
513.929	14460.42
514.297	14511.72
514.664	14533.87
515.032	14576.13
515.4	14728.44
515.767	14657.71
516.135	14712.4
516.502	14668.78
516.869	14966.4
517.237	14934.31
517.604	14915.78
517.972	15083.69
518.339	15137.92
518.706	15161.2
519.073	15164.36
519.44	15324.13
519.808	15436.44
520.175	15408.42
520.542	15518.25
520.909	15589.66
521.276	15515.76
521.643	15665.59
522.009	15755.08
522.376	15752.59
522.743	15767.96
523.11	15861.74
523.477	15986.26
523.843	15982.87
524.21	16093.38
524.577	16158.69
524.943	16179.93
525.31	16224.67
525.676	16322.07
526.043	16374.95
526.409	16344.67
526.776	16452.46
527.142	16498.79
527.508	16536.53
527.874	16623.31
528.241	16588.05
528.607	16521.84
528.973	16696.07
529.339	16610.42
529.705	16682.97
530.071	16832.57
530.437	16770.19
530.803	16775.84
531.169	16884.54
531.535	16835.73
531.901	16842.74
532.267	16807.03
532.632	16915.5
532.998	16848.38
533.364	16907.37
533.73	16967.48
534.095	16931.32
534.461	16839.12
534.826	17041.15
535.192	16899.46
535.557	16983.75
535.923	16811.78
536.288	16902.85
536.653	16882.06
537.019	16783.75
537.384	16864.88
537.749	16880.7
538.114	16784.66
538.479	16732.46
538.845	16737.43
539.21	16756.18
539.575	16706.02
539.94	16688.39
540.305	16796.63
540.67	16618.56
541.034	16760.03
541.399	16760.25
541.764	16678.9
542.129	16706.24
542.494	16655.85
542.858	16570.43
543.223	16544.44
543.587	16652.23
543.952	16472.12
544.316	16522.74
544.681	16323.2
545.045	16397.78
545.41	16458.79
545.774	16405.91
546.138	16394.61
546.503	16348.06
546.867	16261.73
547.231	16306.93
547.595	16393.03
547.959	16172.47
548.324	16217.67
548.688	16199.59
549.052	16195.52
549.416	16225.35
549.779	16120.49
550.143	16108.52
550.507	16160.95
550.871	16107.16
551.235	15993.27
551.599	16012.7
551.962	16065.81
552.326	16047.05
552.689	16088.63
553.053	15913.04
553.417	15906.71
553.78	16033.49
554.143	15946.71
554.507	15930.89
554.87	15959.37
555.234	15954.4
555.597	15891.35
555.96	15848.86
556.323	15900.39
556.686	15817.9
557.05	15902.42
557.413	15891.12
557.776	15866.26
558.139	15932.93
558.502	15870.56
558.865	15809.09
559.228	15890.22
559.59	15896.09
559.953	15889.54
560.316	15984.68
560.679	15994.17
561.041	15956.2
561.404	16007.5
561.767	16080.95
562.129	15909.88
562.492	15933.38
562.854	15982.87
563.217	15958.46
563.579	16014.28
563.941	16058.12
564.304	16046.82
564.666	16096.09
565.028	16116.43
565.39	16064.45
565.753	16176.31
566.115	16165.69
566.477	16184.67
566.839	16213.6
567.201	16251.11
567.563	16256.54
567.925	16349.87
568.287	16220.15
568.648	16273.94
569.01	16356.42
569.372	16394.39
569.734	16381.96
570.095	16442.75
570.457	16456.53
570.819	16485
571.18	16473.48
571.542	16484.55
571.903	16521.39
572.265	16526.81
572.626	16468.28
572.987	16451.11
573.349	16507.6
573.71	16595.51
574.071	16577.66
574.432	16633.7
574.794	16725.68
575.155	16639.58
575.516	16546.02
575.877	16696.75
576.238	16627.15
576.599	16672.8
576.96	16726.13
577.32	16718.44
577.681	16804.54
578.042	16748.5
578.403	16699.46
578.763	16686.58
579.124	16807.26
579.485	16803.19
579.845	16815.62
580.206	16719.57
580.566	16813.13
580.927	16730.65
581.287	16769.52
581.648	16704.89
582.008	16835.73
582.368	16653.59
582.728	16757.09
583.089	16754.38
583.449	16688.84
583.809	16796.41
584.169	16709.86
584.529	16721.16
584.889	16726.35
585.249	16621.05
585.609	16595.06
585.969	16722.06
586.329	16593.02
586.688	16687.48
587.048	16578.56
587.408	16598.22
587.768	16587.37
588.127	16503.99
588.487	16664.43
588.846	16602.52
589.206	16518.22
589.565	16502.41
589.925	16636.64
590.284	16547.6
590.643	16519.13
591.003	16618.79
591.362	16504.44
591.721	16546.92
592.08	16519.58
592.44	16558.9
592.799	16546.92
593.158	16467.6
593.517	16454.72
593.876	16487.04
594.235	16436.64
594.593	16456.3
594.952	16491.56
595.311	16412.01
595.67	16427.83
596.029	16506.7
596.387	16557.54
596.746	16423.76
597.104	16412.01
597.463	16397.55
597.822	16424.22
598.18	16444.33
598.538	16411.79
598.897	16487.49
599.255	16285.91
599.613	16448.62
599.972	16390.77
600.33	16430.99
600.688	16344.9
601.046	16371.11
601.404	16479.35
601.762	16412.01
602.12	16575.62
602.478	16457.66
602.836	16541.95
603.194	16423.31
603.552	16369.3
603.91	16369.98
604.268	16409.53
604.625	16405.46
604.983	16444.1
605.341	16353.03
605.698	16442.07
606.056	16495.17
606.413	16453.59
606.771	16474.16
607.128	16542.18
607.485	16480.71
607.843	16450.66
608.2	16547.83
608.557	16559.8
608.914	16501.95
609.272	16588.5
609.629	16586.02
609.986	16703.53
610.343	16592.57
610.7	16560.26
611.057	16699.69
611.414	16570.2
611.771	16601.39
612.127	16589.18
612.484	16708.73
612.841	16713.7
613.198	16696.07
613.554	16629.18
613.911	16734.49
614.267	16752.34
614.624	16790.08
614.98	16753.47
615.337	16819.46
615.693	16771.1
616.05	16783.98
616.406	16885.9
616.762	16769.06
617.118	16771.1
617.475	16785.56
617.831	16893.58
618.187	16870.08
618.543	16858.33
618.899	16932.68
619.255	17015.84
619.611	16920.25
619.967	17033.46
620.323	16950.3
620.678	16942.62
621.034	16858.1
621.39	16889.51
621.746	16903.07
622.101	17157.76
622.457	16888.16
622.812	17009.28
623.168	17047.48
623.523	16943.75
623.879	17090.86
624.234	16993.92
624.589	17094.93
624.945	16995.5
625.3	16994.82
625.655	16891.55
626.01	17009.74
626.365	16986.69
626.72	16921.38
627.075	16910.98
627.43	17049.51
627.785	16914.82
628.14	16974.48
628.495	16949.4
628.85	16945.56
629.205	16880.7
629.559	16937.2
629.914	16815.84
630.269	16914.37
630.623	16800.02
630.978	16785.56
631.332	16937.87
631.687	16804.32
632.041	16699.01
632.396	16810.65
632.75	16651.78
633.104	16677.54
633.459	16680.25
633.813	16676.41
634.167	16673.47
634.521	16624.21
634.875	16644.77
635.229	16592.12
635.583	16564.78
635.937	16549.41
636.291	16573.82
636.645	16510.31
636.999	16551.67
637.352	16527.94
637.706	16393.26
638.06	16537.21
638.413	16443.65
638.767	16426.7
639.121	16538.79
639.474	16383.99
639.828	16353.26
640.181	16335.18
640.534	16327.95
640.888	16280.94
641.241	16191.9
641.594	16256.08
641.947	16285.69
642.301	16212.47
642.654	16207.05
643.007	16278.46
643.36	16265.58
643.713	16190.77
644.066	16216.76
644.419	16134.05
644.771	16016.77
645.124	15936.54
645.477	15845.02
645.83	15780.39
646.182	15826.26
646.535	15706.27
646.888	15770.22
647.24	15600.06
647.593	15727.74
647.945	15707.4
648.298	15608.19
648.65	15509.66
649.002	15510.57
649.355	15678.7
649.707	15661.3
650.059	15692.48
650.411	15971.8
650.763	15881.18
651.115	16060.38
651.467	16094.05
651.819	16026.03
652.171	15967.5
652.523	15905.13
652.875	16101.29
653.227	15866.94
653.578	16036.2
653.93	15996.88
654.282	15910.56
654.633	15765.25
654.985	15897.22
655.337	15965.02
655.688	16004.11
656.039	15980.16
656.391	15976.77
656.742	15992.59
657.094	16000.05
657.445	15977.67
657.796	15877.34
658.147	15943.78
658.498	15976.32
658.849	16008.18
659.2	16008.41
659.551	15992.14
659.902	15918.92
660.253	16007.28
660.604	15974.96
660.955	15929.31
661.306	15973.83
661.656	15941.29
662.007	16066.26
662.358	15971.8
662.708	15924.34
663.059	15962.31
663.409	15898.58
663.76	16026.03
664.11	16033.49
664.461	16126.37
664.811	16090.89
665.161	16015.86
665.511	15968.41
665.862	15999.82
666.212	16126.6
666.562	16031.46
666.912	16013.15
667.262	16034.39
667.612	16101.96
667.962	16023.32
668.312	15980.61
668.662	16024.9
669.011	16061.51
669.361	16003.44
669.711	15951.69
670.06	16027.84
670.41	16005.24
670.76	15932.7
671.109	15975.19
671.459	15864.46
671.808	15934.28
672.157	15964.34
672.507	15855.64
672.856	15895.19
673.205	15853.38
673.554	15935.19
673.904	15816.55
674.253	15995.75
674.602	15868.75
674.951	15715.76
675.3	15492.04
675.649	15839.37
675.998	15798.02
676.346	15795.98
676.695	15776.1
677.044	15664.91
677.393	15774.51
677.741	15759.37
678.09	15842.76
678.438	15665.14
678.787	15694.29
679.135	15670.79
679.484	15596.21
679.832	15628.08
680.181	15568.19
680.529	15509.44
680.877	15453.39
681.225	15500.17
681.573	15532.26
681.922	15429.21
682.27	15405.71
682.618	15457.69
682.966	15364.36
683.314	15372.72
683.661	15233.06
684.009	15219.27
684.357	15217.69
684.705	15137.92
685.053	15175.89
685.4	15114.19
685.748	15072.39
686.095	15079.39
686.443	14991.71
686.79	14955.78
687.138	15003.24
687.485	14984.25
687.832	14957.36
688.18	14941.09
688.527	14829.68
688.874	14789.91
689.221	14819.74
689.568	14645.73
689.915	14689.8
690.262	14705.62
690.609	14594.21
690.956	14594.43
691.303	14539.29
691.65	14487.32
691.997	14426.3
692.344	14445.96
692.69	14359.41
693.037	14325.51
693.383	14263.14
693.73	14279.64
694.077	14196.25
694.423	14145.63
694.769	14140.89
695.116	14025.18
695.462	13976.82
695.808	13990.83
696.155	13941.34
696.501	13836.71
696.847	13813.66
697.193	13638.53
697.539	13780.67
697.885	13659.09
698.231	13598.3
698.577	13673.78
698.923	13579.32
699.269	13492.77
699.614	13399.44
699.96	13412.77
700.306	13388.59
700.651	13257.97
700.997	13268.59
701.342	13291.19
701.688	13291.87
702.033	13118.31
702.379	13134.58
702.724	13060.69
703.069	13067.47
703.415	12895.49
703.76	12948.6
704.105	12871.09
704.45	12832.22
704.795	12800.58
705.14	12740.47
705.485	12781.15
705.83	12625.67
706.175	12685.1
706.52	12583.86
706.865	12521.94
707.209	12540.7
707.554	12446.01
707.899	12413.47
708.243	12466.13
708.588	12403.76
708.932	12274.27
709.277	12274.95
709.621	12254.38
709.966	12176.64
710.31	12209.64
710.654	12078.57
710.998	12110.88
711.342	12142.07
711.687	12038.79
712.031	12001.05
712.375	11950.66
712.719	11922.41
713.063	11898.46
713.407	11943.2
713.75	11878.8
714.094	11877.89
714.438	11767.16
714.782	11905.46
715.125	11761.51
715.469	11770.55
715.812	11709.54
716.156	11754.51
716.499	11690.1
716.843	11661.18
717.186	11715.64
717.53	11695.98
717.873	11697.56
718.216	11636.32
718.559	11614.85
718.902	11400.17
719.246	11516.55
719.589	11499.82
719.932	11529.43
720.275	11535.76
720.617	11479.03
720.96	11480.16
721.303	11465.25
721.646	11508.19
721.989	11375.31
722.331	11401.75
722.674	11401.07
723.016	11366.27
723.359	11338.25
723.701	11367.17
724.044	11292.37
724.386	11222.32
724.729	11253.05
725.071	11209.66
725.413	11285.37
725.755	11249.21
726.097	11227.06
726.439	11173.51
726.782	11134.64
727.124	11255.09
727.465	11195.65
727.807	11242.43
728.149	11139.16
728.491	11152.26
728.833	11210.57
729.175	11180.06
729.516	11103.9
729.858	11123.11
730.199	11122.89
730.541	11108.42
730.882	11120.85
731.224	11095.77
731.565	11124.47
731.906	11202.66
732.248	11099.61
732.589	11013.96
732.93	11084.69
733.271	11033.62
733.612	11108.2
733.953	11096.45
734.294	11031.36
734.635	11058.71
734.976	11072.72
735.317	11011.93
735.658	11119.04
735.999	11044.7
736.339	11062.55
736.68	11102.32
737.021	11088.08
737.361	11069.78
737.702	11111.81
738.042	11084.92
738.383	11032.94
738.723	11101.19
739.063	11053.06
739.404	11119.72
739.744	11158.82
740.084	11138.03
740.424	11196.1
740.764	11126.05
741.104	11139.83
741.444	11148.65
741.784	11163.11
742.124	11173.73
742.464	11251.47
742.804	11224.13
743.143	11241.53
743.483	11268.42
743.823	11292.37
744.162	11289.21
744.502	11337.12
744.841	11308.64
745.181	11422.99
745.52	11400.84
745.86	11486.94
746.199	11531.24
746.538	11541.18
746.877	11594.74
747.216	11677.22
747.556	11686.49
747.895	11696.43
748.234	11835.41
748.573	11785.47
748.911	11905.69
749.25	11972.58
749.589	11970.77
749.928	12145.01
750.267	12265.45
750.605	12204.89
750.944	12343.87
751.283	12367.15
751.621	12512
751.96	12481.49
752.298	12688.49
752.636	12759
752.975	12905.44
753.313	12954.02
753.651	13126.67
753.989	13185.88
754.327	13293.45
754.666	13382.71
755.004	13504.52
755.342	13685.98
755.679	13771.86
