Data from hue_28_FLMS001491_00047.txt Node
Date: Tue Feb 07 17:17:20 GMT 2017
User: dcchb
Spectrometer: FLMS00149
Trigger mode: 0
Integration Time (sec): 2.000000E-2
Scans to average: 10
Electric dark correction enabled: true
Nonlinearity correction enabled: false
Boxcar width: 0
XAxis mode: Wavelengths
Number of Pixels in Spectrum: 2048
>>>>>Begin Spectral Data<<<<<
341.393	-11.67
341.776	-11.67
342.16	-11.67
342.543	-81.04
342.927	-65.68
343.31	-60.93
343.693	-59.8
344.077	-69.74
344.46	-70.42
344.843	-62.74
345.226	-54.38
345.61	-21.38
345.993	-22.51
346.376	5.06
346.759	3.93
347.142	22.68
347.525	67.65
347.908	62.91
348.291	85.05
348.674	69.01
349.057	105.62
349.44	143.81
349.823	132.74
350.206	160.08
350.588	181.1
350.971	221.1
351.354	239.4
351.737	231.72
352.119	254.32
352.502	241.21
352.884	260.19
353.267	274.43
353.65	291.83
354.032	300.64
354.414	318.04
354.797	316.46
355.179	320.75
355.562	325.27
355.944	336.35
356.326	316.46
356.709	320.75
357.091	343.35
357.473	329.57
357.855	349.68
358.238	324.82
358.62	329.57
359.002	354.43
359.384	367.08
359.766	349.91
360.148	335.67
360.53	349.91
360.912	333.86
361.294	331.15
361.676	337.25
362.057	304.94
362.439	323.24
362.821	330.02
363.203	334.09
363.584	337.7
363.966	332.51
364.348	326.63
364.729	323.24
365.111	324.82
365.493	314.65
365.874	332.51
366.256	344.26
366.637	312.17
367.019	297.25
367.4	312.39
367.781	313.75
368.163	323.92
368.544	319.17
368.925	299.96
369.306	320.53
369.688	317.59
370.069	323.01
370.45	314.43
370.831	314.2
371.212	311.26
371.593	325.95
371.974	334.77
372.355	316.91
372.736	320.98
373.117	331.6
373.498	329.79
373.879	309.23
374.26	318.72
374.641	318.04
375.021	339.96
375.402	309.46
375.783	322.79
376.163	331.38
376.544	337.48
376.925	341.09
377.305	316.46
377.686	346.29
378.066	345.39
378.447	346.52
378.827	323.69
379.208	339.51
379.588	333.41
379.968	339.06
380.349	346.74
380.729	329.12
381.109	332.51
381.489	324.37
381.87	349.91
382.25	332.05
382.63	329.12
383.01	337.48
383.39	359.62
383.77	341.32
384.15	339.06
384.53	352.84
384.91	344.26
385.29	367.53
385.67	349.23
386.049	356.23
386.429	344.03
386.809	359.85
387.189	357.36
387.568	388.55
387.948	350.58
388.328	372.73
388.707	368.66
389.087	357.59
389.466	358.04
389.846	363.47
390.225	376.35
390.605	351.49
390.984	371.6
391.363	368.89
391.743	375.44
392.122	364.14
392.501	359.4
392.881	382.67
393.26	369.34
393.639	386.29
394.018	404.82
394.397	368.44
394.776	361.88
395.155	368.44
395.534	372.96
395.913	383.8
396.292	400.53
396.671	410.7
397.05	365.05
397.429	395.55
397.808	409.57
398.186	408.21
398.565	407.31
398.944	400.53
399.323	407.08
399.701	403.24
400.08	387.19
400.458	398.27
400.837	401.2
401.215	382.67
401.594	377.02
401.972	411.83
402.351	417.93
402.729	390.81
403.107	407.08
403.486	419.51
403.864	401.2
404.242	415.44
404.62	421.54
404.999	426.74
405.377	415.44
405.755	428.32
406.133	431.26
406.511	450.69
406.889	436.01
407.267	449.56
407.645	441.66
408.023	454.99
408.401	427.64
408.779	463.35
409.156	418.15
409.534	454.08
409.912	450.02
410.29	461.99
410.667	445.95
411.045	461.09
411.422	459.73
411.8	473.29
412.178	438.72
412.555	448.89
412.933	469.68
413.31	465.61
413.687	461.77
414.065	468.55
414.442	443.24
414.819	490.24
415.197	472.16
415.574	484.59
415.951	507.87
416.328	494.31
416.705	510.81
417.082	518.72
417.46	503.57
417.837	504.03
418.214	507.64
418.591	490.24
418.967	488.89
419.344	522.56
419.721	520.07
420.098	508.09
420.475	522.56
420.852	532.73
421.228	531.37
421.605	560.07
421.982	543.8
422.358	534.76
422.735	546.51
423.111	548.09
423.488	551.71
423.864	546.06
424.241	560.3
424.617	549.9
424.994	568.88
425.37	565.72
425.746	553.74
426.123	558.04
426.499	560.07
426.875	573.63
427.251	579.5
427.627	598.71
428.003	571.14
428.379	575.89
428.756	572.95
429.132	586.51
429.507	613.85
429.883	614.98
430.259	607.53
430.635	598.04
431.011	617.24
431.387	626.96
431.763	630.58
432.138	652.05
432.514	632.16
432.89	659.28
433.265	667.64
433.641	674.19
434.016	673.06
434.392	678.71
434.767	649.56
435.143	672.38
435.518	693.85
435.894	680.29
436.269	703.34
436.644	708.54
437.02	697.24
437.395	717.13
437.77	723.46
438.145	733.4
438.52	706.51
438.895	721.2
439.271	747.41
439.646	747.41
440.021	741.99
440.395	724.81
440.77	763
441.145	758.93
441.52	758.48
441.895	751.93
442.27	761.65
442.645	756.22
443.019	792.38
443.394	752.61
443.769	796.45
444.143	778.14
444.518	786.5
444.892	798.71
445.267	817.69
445.641	809.55
446.016	807.07
446.39	821.53
446.764	807.3
447.139	800.29
447.513	809.78
447.887	831.25
448.262	815.66
448.636	823.79
449.01	821.31
449.384	842.55
449.758	842.1
450.132	835.32
450.506	850.91
450.88	870.8
451.254	848.88
451.628	860.4
452.002	898.37
452.376	888.65
452.75	863.56
453.123	887.97
453.497	912.6
453.871	881.64
454.244	907.63
454.618	930.68
454.992	930.46
455.365	941.3
455.739	950.79
456.112	959.83
456.486	968.42
456.859	991.92
457.232	977.46
457.606	994.41
457.979	1021.98
458.352	1020.85
458.725	1021.07
459.099	1044.58
459.472	1051.13
459.845	1046.61
460.218	1055.2
460.591	1092.71
460.964	1095.88
461.337	1075.99
461.71	1115.31
462.083	1124.8
462.456	1132.71
462.829	1137
463.201	1134.29
463.574	1160.28
463.947	1177.45
464.32	1191.24
464.692	1187.17
465.065	1210.67
465.438	1243.22
465.81	1228.08
466.183	1247.96
466.555	1284.8
466.928	1248.19
467.3	1277.57
467.672	1285.7
468.045	1312.14
468.417	1351.46
468.789	1370.67
469.161	1353.95
469.534	1399.14
469.906	1403.21
470.278	1408.64
470.65	1431.01
471.022	1496.32
471.394	1507.16
471.766	1499.03
472.138	1511.91
472.51	1537.45
472.882	1583.77
473.253	1605.01
473.625	1624.22
473.997	1648.4
474.369	1673.71
474.74	1698.8
475.112	1714.39
475.484	1735.18
475.855	1775.63
476.227	1781.28
476.598	1859.92
476.97	1851.11
477.341	1916.87
477.713	1911.9
478.084	1971.33
478.455	1988.96
478.827	2050.65
479.198	2077.09
479.569	2095.17
479.94	2145.11
480.311	2213.81
480.682	2232.12
481.053	2317.76
481.424	2346.92
481.795	2375.84
482.166	2414.26
482.537	2486.57
482.908	2487.48
483.279	2560.24
483.65	2597.3
484.021	2656.96
484.391	2684.99
484.762	2738.77
485.133	2778.99
485.503	2834.59
485.874	2935.37
486.244	2930.4
486.615	2983.96
486.985	3084.98
487.356	3089.04
487.726	3185.76
488.097	3216.5
488.467	3259.66
488.837	3338.08
489.207	3367.91
489.578	3438.19
489.948	3484.06
490.318	3512.76
490.688	3607.9
491.058	3644.06
491.428	3706.43
491.798	3766.54
492.168	3846.09
492.538	3845.63
492.908	3908.91
493.278	3966.76
493.648	3983.03
494.017	4092.86
494.387	4107.77
494.757	4140.09
495.126	4187.77
495.496	4276.81
495.866	4286.98
496.235	4360.87
496.605	4366.07
496.974	4441.78
497.344	4481.55
497.713	4542.56
498.082	4538.5
498.452	4600.19
498.821	4621.88
499.19	4682.22
499.559	4729
499.928	4754.08
500.298	4774.42
500.667	4903.68
501.036	4851.26
501.405	4886.06
501.774	4911.37
502.143	4959.73
502.512	5017.13
502.88	5038.14
503.249	5027.52
503.618	5065.49
503.987	5139.61
504.356	5154.98
504.724	5198.14
505.093	5173.28
505.462	5243.56
505.83	5324.69
506.199	5325.37
506.567	5411.02
506.936	5403.33
507.304	5474.07
507.672	5488.98
508.041	5472.03
508.409	5512.03
508.777	5544.8
509.145	5604.23
509.514	5594.74
509.882	5606.49
510.25	5675.19
510.618	5713.15
510.986	5772.59
511.354	5706.83
511.722	5779.14
512.09	5867.95
512.458	5829.76
512.826	5892.81
513.193	5939.82
513.561	5926.48
513.929	5931.45
514.297	6059.59
514.664	6033.82
515.032	6106.82
515.4	6106.82
515.767	6114.27
516.135	6202.63
516.502	6109.08
516.869	6211.9
517.237	6232.24
517.604	6203.09
517.972	6268.85
518.339	6289.41
518.706	6330.54
519.073	6338.9
519.44	6409.18
519.808	6417.77
520.175	6363.53
520.542	6488.73
520.909	6533.25
521.276	6505
521.643	6575.96
522.009	6592.91
522.376	6649.18
522.743	6675.62
523.11	6769.4
523.477	6710.42
523.843	6810.53
524.21	6820.92
524.577	6858.44
524.943	6884.65
525.31	6940.02
525.676	7033.8
526.043	7099.79
526.409	7089.16
526.776	7172.1
527.142	7163.06
527.508	7254.81
527.874	7258.88
528.241	7292.55
528.607	7308.59
528.973	7366.22
529.339	7397.18
529.705	7416.16
530.071	7502.03
530.437	7488.48
530.803	7460.23
531.169	7589.49
531.535	7530.28
531.901	7664.06
532.267	7669.71
532.632	7664.06
532.998	7710.84
533.364	7843.04
533.73	7795.81
534.095	7866.77
534.461	7902.93
534.826	7968.91
535.192	7931.85
535.557	8008.46
535.923	8016.82
536.288	8076.71
536.653	8063.83
537.019	8081.23
537.384	8194.22
537.749	8157.38
538.114	8276.93
538.479	8268.12
538.845	8199.64
539.21	8231.28
539.575	8274.22
539.94	8346.76
540.305	8421.11
540.67	8403.25
541.034	8498.84
541.399	8506.98
541.764	8511.05
542.129	8563.7
542.494	8571.61
542.858	8616.13
543.223	8640.54
543.587	8695.45
543.952	8643.25
544.316	8733.41
544.681	8794.43
545.045	8789.01
545.41	8861.55
545.774	8914.43
546.138	8852.06
546.503	8894.77
546.867	8962.56
547.231	8983.13
547.595	9000.98
547.959	9083.69
548.324	9079.39
548.688	9091.37
549.052	9150.13
549.416	9180.63
549.779	9172.27
550.143	9225.6
550.507	9347.86
550.871	9336.79
551.235	9356
551.599	9428.76
551.962	9391.7
552.326	9448.42
552.689	9485.26
553.053	9478.71
553.417	9555.99
553.78	9600.28
554.143	9645.03
554.507	9656.78
554.87	9663.11
555.234	9746.5
555.597	9707.63
555.96	9762.31
556.323	9827.4
556.686	9785.82
557.05	9887.06
557.413	9867.62
557.776	9901.07
558.139	9981.07
558.502	10014.06
558.865	10113.94
559.228	10106.49
559.59	10124.34
559.953	10127.28
560.316	10258.8
560.679	10176.77
561.041	10284.56
561.404	10248.63
561.767	10336.99
562.129	10295.18
562.492	10410.88
562.854	10487.72
563.217	10393.94
563.579	10510.54
563.941	10577.89
564.304	10649.07
564.666	10584.89
565.028	10720.03
565.39	10694.27
565.753	10725.45
566.115	10738.11
566.477	10796.86
566.839	10799.12
567.201	10914.6
567.563	10929.29
567.925	11015.84
568.287	10974.03
568.648	11006.58
569.01	11094.71
569.372	11166.8
569.734	11087.25
570.095	11206.12
570.457	11248.38
570.819	11350.75
571.18	11279.34
571.542	11414.02
571.903	11484.98
572.265	11508.03
572.626	11514.81
572.987	11606.11
573.349	11722.04
573.71	11801.58
574.071	11772.66
574.432	11835.48
574.794	11985.98
575.155	11967.23
575.516	12072.76
575.877	12190.5
576.238	12197.73
576.599	12296.48
576.96	12413.32
577.32	12443.6
577.681	12489.7
578.042	12642.01
578.403	12688.11
578.763	12829.35
579.124	13008.78
579.485	13028.89
579.845	13149.34
580.206	13323.8
580.566	13387.08
580.927	13480.18
581.287	13669.78
581.648	13724.02
582.008	13996.55
582.368	13976.44
582.728	14213.27
583.089	14333.27
583.449	14544.11
583.809	14613.03
584.169	14897.09
584.529	15014.61
584.889	15262.28
585.249	15404.2
585.609	15614.59
585.969	15913.11
586.329	16001.25
586.688	16240.11
587.048	16383.83
587.408	16672.41
587.768	16897.49
588.127	17113.08
588.487	17340.65
588.846	17671.71
589.206	17822.89
589.565	18174.07
589.925	18522.54
590.284	18645.47
590.643	19003.43
591.003	19316.86
591.362	19677.99
591.721	19659.68
592.08	20021.25
592.44	20332.43
592.799	20653.1
593.158	20887.9
593.517	21234.78
593.876	21503.47
594.235	21757.03
594.593	22045.38
594.952	22502.09
595.311	22554.29
595.67	22934.62
596.029	23353.59
596.387	23612.12
596.746	23991.54
597.104	24070.86
597.463	24476.96
597.822	24934.12
598.18	24987.68
598.538	25341.11
598.897	25785.62
599.255	25842.12
599.613	26478.26
599.972	26570.69
600.33	27040.05
600.688	27183.78
601.046	27476.88
601.404	27884.1
601.762	28092
602.12	28449.73
602.478	28691.31
602.836	28873.45
603.194	28976.27
603.552	29489.03
603.91	29551.62
604.268	30083.36
604.625	30142.57
604.983	30461.88
605.341	30697.58
605.698	30984.58
606.056	31345.7
606.413	31496.43
606.771	31954.72
607.128	32104.1
607.485	32095.74
607.843	32454.6
608.2	32869.73
608.557	33171.87
608.914	33091.42
609.272	33426.55
609.629	33761.46
609.986	34003.71
610.343	34072.64
610.7	34462.68
611.057	34379.07
611.414	34759.17
611.771	35056.34
612.127	35138.6
612.484	35344.47
612.841	35547.4
613.198	35622.88
613.554	35772.48
613.911	36139.7
614.267	36435.28
614.624	36528.84
614.98	36661.49
615.337	36981.03
615.693	37085.44
616.05	37247.69
616.406	37434.81
616.762	37478.65
617.118	37708.25
617.475	37939.43
617.831	37930.39
618.187	38159.53
618.543	38339.87
618.899	38630.93
619.255	38717.48
619.611	38722.23
619.967	38937.82
620.323	39053.3
620.678	39058.04
621.034	39155.21
621.39	39273.4
621.746	39182.33
622.101	39732.37
622.457	39561.98
622.812	39735.09
623.168	39735.09
623.523	39876.55
623.879	40043.1
624.234	39928.75
624.589	40229.31
624.945	40203.1
625.3	40356.09
625.655	40447.83
626.01	40408.51
626.365	40590.88
626.72	40662.29
627.075	40681.95
627.43	40723.31
627.785	40566.93
628.14	40730.09
628.495	40772.57
628.85	40976.86
629.205	40821.38
629.559	41175.27
629.914	41056.41
630.269	41183.18
630.623	41243.07
630.978	41110.64
631.332	41195.61
631.687	41390.63
632.041	41276.29
632.396	41409.62
632.75	41238.1
633.104	41266.8
633.459	41142.05
633.813	41276.29
634.167	41213.92
634.521	41131.21
634.875	41311.77
635.229	41295.04
635.583	41110.19
635.937	41226.57
636.291	41234.93
636.645	41297.3
636.999	41160.81
637.352	41356.06
637.706	41212.79
638.06	41172.79
638.413	41282.84
638.767	41298.21
639.121	41285.33
639.474	41110.42
639.828	41236.97
640.181	41274.48
640.534	41089.63
640.888	41148.61
641.241	40930.31
641.594	41041.27
641.947	41150.42
642.301	41080.36
642.654	41235.61
643.007	41111.32
643.36	41072.45
643.713	41160.13
644.066	41265.21
644.419	40972.79
644.771	40837.88
645.124	40384.33
645.477	40349.98
645.83	39996.32
646.182	39981.18
646.535	39895.31
646.888	40103.66
647.24	39754.07
647.593	39996.77
647.945	39888.53
648.298	39828.87
648.65	39807.4
649.002	39662.32
649.355	39843.78
649.707	39774.18
650.059	39867.29
650.411	40458.91
650.763	40540.49
651.115	40935.96
651.467	40697.09
651.819	40804.89
652.171	40562.63
652.523	40532.13
652.875	40528.51
653.227	40380.72
653.578	40653.71
653.93	40514.5
654.282	40460.26
654.633	40485.8
654.985	40494.84
655.337	40449.19
655.688	40457.1
656.039	40592.92
656.391	40299.36
656.742	40413.94
657.094	40330.55
657.445	40535.06
657.796	40423.43
658.147	40371.23
658.498	40408.51
658.849	40436.08
659.2	40279.03
659.551	40255.07
659.902	40425.01
660.253	40433.6
660.604	40482.64
660.955	40245.35
661.306	40371.68
661.656	40328.74
662.007	40384.79
662.358	40336.2
662.708	40338.91
663.059	40335.3
663.409	40121.52
663.76	40367.16
664.11	40337.56
664.461	40358.35
664.811	40403.99
665.161	40227.28
665.511	40189.08
665.862	40324.67
666.212	40266.82
666.562	40361.28
666.912	40206.26
667.262	40170.33
667.612	40381.4
667.962	40345.01
668.312	40138.24
668.662	40431.56
669.011	40214.85
669.361	40208.75
669.711	40140.05
670.06	40124.23
670.41	40149.54
670.76	39951.12
671.109	40140.27
671.459	40002.2
671.808	39936.89
672.157	40003.33
672.507	39805.14
672.856	39785.93
673.205	39798.36
673.554	40002.65
673.904	39953.84
674.253	40062.99
674.602	39817.12
674.951	39286.28
675.3	39213.52
675.649	39840.62
675.998	39766.04
676.346	39806.27
676.695	39894.85
677.044	39569.89
677.393	39805.37
677.741	39813.28
678.09	39681.98
678.438	39493.51
678.787	39687.63
679.135	39639.04
679.484	39387.52
679.832	39682.43
680.181	39337.13
680.529	39569.89
680.877	39353.63
681.225	39349.33
681.573	39588.65
681.922	39273.63
682.27	39199.05
682.618	39164.93
682.966	39089.68
683.314	39238.15
683.661	39133.97
684.009	38939.63
684.357	38852.62
684.705	38764.94
685.053	38825.5
685.4	38830.25
685.748	38614.89
686.095	38658.73
686.443	38306.65
686.79	38393.88
687.138	38470.94
687.485	38456.93
687.832	38266.88
688.18	38383.26
688.527	37953.44
688.874	38307.55
689.221	38082.7
689.568	38011.51
689.915	37826.43
690.262	37984.62
690.609	37790.5
690.956	37667.79
691.303	37738.3
691.65	37403.17
691.997	37319.56
692.344	37269.16
692.69	37088.83
693.037	37179.22
693.383	36883.86
693.73	37017.19
694.077	36734.94
694.423	36830.08
694.769	36687.93
695.116	36787.82
695.462	36588.28
695.808	36507.83
696.155	36581.95
696.501	36352.35
696.847	36400.26
697.193	36081.4
697.539	36216.08
697.885	35934.28
698.231	35850.67
698.577	35938.35
698.923	35722.31
699.269	35668.07
699.614	35470.34
699.96	35339.49
700.306	35377.23
700.651	35117.35
700.997	35155.77
701.342	34934.76
701.688	35119.84
702.033	34921.88
702.379	34853.41
702.724	34831.94
703.069	34770.47
703.415	34480.53
703.76	34589.01
704.105	34564.37
704.45	34548.1
704.795	34174.1
705.14	34068.79
705.485	34158.06
705.83	33848.23
706.175	34036.25
706.52	33869.7
706.865	33785.19
707.209	33864.05
707.554	33598.98
707.899	33778.18
708.243	33506.32
708.588	33356.5
708.932	33194.01
709.277	33262.94
709.621	33265.2
709.966	33027.69
710.31	33185.43
710.654	32733.46
710.998	32989.73
711.342	32795.15
711.687	32803.97
712.031	32723.74
712.375	32533.69
712.719	32748.15
713.063	32506.57
713.407	32563.97
713.75	32536.4
714.094	32512
714.438	32284.89
714.782	32313.59
715.125	32272
715.469	32197.66
715.812	32085.57
716.156	32043.99
716.499	31999.24
716.843	32023.2
717.186	31742.3
717.53	31953.37
717.873	31943.2
718.216	31836.54
718.559	31594.06
718.902	31472.25
719.246	31421.41
719.589	31330.33
719.932	31244.01
720.275	31274.74
720.617	31251.24
720.96	31111.36
721.303	31175.31
721.646	31177.8
721.989	30948.88
722.331	30982.55
722.674	30854.19
723.016	30997.01
723.359	31071.81
723.701	30974.19
724.044	30677.47
724.386	30641.76
724.729	30873.85
725.071	30713.4
725.413	30628.21
725.755	30542.11
726.097	30509.79
726.439	30314.99
726.782	30300.76
727.124	30499.17
727.465	30361.55
727.807	30349.57
728.149	30209.69
728.491	30089.24
728.833	30151.83
729.175	30091.5
729.516	30020.99
729.858	30063.48
730.199	29957.49
730.541	29852.86
730.882	29736.7
731.224	29916.59
731.565	29685.41
731.906	29652.64
732.248	29792.52
732.589	29594.33
732.93	29531.74
733.271	29505.98
733.612	29577.16
733.953	29600.89
734.294	29410.16
734.635	29389.14
734.976	29491.06
735.317	29194.57
735.658	29298.3
735.999	29230.95
736.339	29152.76
736.68	29329.03
737.021	29179.2
737.361	28960.23
737.702	29039.32
738.042	29009.72
738.383	28898.08
738.723	28999.1
739.063	28964.29
739.404	28956.39
739.744	28943.5
740.084	28738.76
740.424	28690.4
740.764	28621.93
741.104	28804.53
741.444	28546.9
741.784	28505.32
742.124	28514.36
742.464	28686.56
742.804	28580.35
743.143	28410.86
743.483	28493.8
743.823	28226.24
744.162	28315.5
744.502	28360.92
744.841	28155.5
745.181	28269.85
745.52	28165.9
745.86	28193.69
746.199	27992.34
746.538	28113.7
746.877	28244.99
747.216	28059.69
747.556	28038.9
747.895	27894.94
748.234	27824.89
748.573	27850.65
748.911	27720.49
749.25	27703.54
749.589	27666.48
749.928	27718
750.267	27731.56
750.605	27708.96
750.944	27541.96
751.283	27484.56
751.621	27542.19
751.96	27417.44
752.298	27296.09
752.636	27346.94
752.975	27211.12
753.313	27148.3
753.651	27286.37
753.989	27179.48
754.327	26994.63
754.666	26878.7
755.004	27037.11
755.342	26967.96
755.679	26884.35
756.017	26748.31
756.355	26850.23
756.693	26716.22
757.031	26647.97
757.368	26615.43
757.706	26493.63
758.044	26454.3
758.381	26515.09
758.719	26374.98
759.056	26288.89
759.394	26247.53
759.731	26129.34
