Data from hue_28_FLMS001491_00052.txt Node
Date: Tue Feb 07 17:17:27 GMT 2017
User: dcchb
Spectrometer: FLMS00149
Trigger mode: 0
Integration Time (sec): 2.000000E-2
Scans to average: 10
Electric dark correction enabled: true
Nonlinearity correction enabled: false
Boxcar width: 0
XAxis mode: Wavelengths
Number of Pixels in Spectrum: 2048
>>>>>Begin Spectral Data<<<<<
341.393	-18.7
341.776	-18.7
342.16	-18.7
342.543	-70.22
342.927	-66.38
343.31	-65.7
343.693	-77.68
344.077	-77.23
344.46	-57.34
344.843	-39.04
345.226	-39.26
345.61	-37.23
345.993	8.87
346.376	-14.18
346.759	-5.59
347.142	36.44
347.525	42.99
347.908	71.24
348.291	69.21
348.674	87.51
349.057	97
349.44	127.06
349.823	129.54
350.206	166.61
350.588	206.38
350.971	219.94
351.354	259.26
351.737	238.69
352.119	256.32
352.502	259.26
352.884	285.25
353.267	286.15
353.65	309.43
354.032	292.93
354.414	305.36
354.797	316.43
355.179	323.89
355.562	334.74
355.944	351.69
356.326	362.31
356.709	347.62
357.091	358.92
357.473	341.52
357.855	342.87
358.238	352.82
358.62	346.04
359.002	350.78
359.384	336.54
359.766	331.57
360.148	344
360.53	344.91
360.912	336.09
361.294	350.1
361.676	352.82
362.057	346.94
362.439	340.16
362.821	349.88
363.203	343.1
363.584	343.1
363.966	335.64
364.348	340.16
364.729	326.15
365.111	325.92
365.493	308.97
365.874	309.88
366.256	304.68
366.637	304.68
367.019	313.04
367.4	301.07
367.781	322.08
368.163	332.93
368.544	312.59
368.925	332.7
369.306	328.86
369.688	312.36
370.069	310.1
370.45	319.37
370.831	312.59
371.212	307.39
371.593	291.57
371.974	314.62
372.355	315.08
372.736	337.67
373.117	315.53
373.498	333.61
373.879	309.88
374.26	316.66
374.641	330.22
375.021	288.41
375.402	333.38
375.783	327.05
376.163	326.83
376.544	314.4
376.925	320.5
377.305	320.05
377.686	334.74
378.066	353.49
378.447	343.78
378.827	343.32
379.208	350.78
379.588	339.26
379.968	335.87
380.349	326.38
380.729	343.32
381.109	348.3
381.489	345.58
381.87	359.14
382.25	344.91
382.63	329.99
383.01	328.64
383.39	342.65
383.77	351.01
384.15	332.03
384.53	352.36
384.91	348.75
385.29	357.56
385.67	351.46
386.049	343.32
386.429	349.65
386.809	364.79
387.189	356.43
387.568	362.76
387.948	352.82
388.328	367.5
388.707	381.29
389.087	355.08
389.466	370.22
389.846	376.09
390.225	341.97
390.605	362.98
390.984	370.67
391.363	379.26
391.743	355.53
392.122	363.89
392.501	375.64
392.881	371.12
393.26	360.95
393.639	375.19
394.018	371.8
394.397	370.44
394.776	370.67
395.155	372.02
395.534	392.59
395.913	395.3
396.292	405.92
396.671	410.44
397.05	384.91
397.429	379.93
397.808	387.62
398.186	390.1
398.565	402.53
398.944	408.41
399.323	410.67
399.701	391.91
400.08	376.09
400.458	393.49
400.837	393.94
401.215	402.31
401.594	407.73
401.972	391.68
402.351	413.15
402.729	395.75
403.107	401.63
403.486	419.93
403.864	412.02
404.242	430.33
404.62	421.97
404.999	411.35
405.377	402.08
405.755	414.06
406.133	429.42
406.511	430.33
406.889	426.03
407.267	423.77
407.645	426.71
408.023	441.63
408.401	438.46
408.779	431.46
409.156	446.6
409.534	434.62
409.912	445.69
410.29	444.11
410.667	428.29
411.045	457.45
411.422	449.08
411.8	451.34
412.178	463.55
412.555	462.87
412.933	460.16
413.31	475.07
413.687	477.78
414.065	479.14
414.442	478.91
414.819	496.31
415.197	494.96
415.574	472.81
415.951	477.56
416.328	491.34
416.705	487.28
417.082	488.18
417.46	482.08
417.837	476.43
418.214	494.96
418.591	494.51
418.967	494.73
419.344	477.56
419.721	490.21
420.098	507.39
420.475	504
420.852	528.4
421.228	529.76
421.605	507.16
421.982	522.3
422.358	500.61
422.735	502.19
423.111	532.7
423.488	542.64
423.864	532.02
424.241	563.66
424.617	559.82
424.994	555.3
425.37	548.29
425.746	550.1
426.123	563.88
426.499	558.91
426.875	555.52
427.251	555.52
427.627	559.14
428.003	576.76
428.379	589.19
428.756	590.78
429.132	574.05
429.507	584.9
429.883	610.89
430.259	601.17
430.635	589.42
431.011	611.79
431.387	615.41
431.763	629.87
432.138	610.44
432.514	616.54
432.89	604.56
433.265	640.94
433.641	668.74
434.016	641.85
434.392	632.58
434.767	659.47
435.143	635.29
435.518	669.42
435.894	665.35
436.269	661.96
436.644	667.16
437.02	685.01
437.395	695.86
437.77	693.37
438.145	704.22
438.52	708.06
438.895	689.08
439.271	710.32
439.646	715.52
440.021	715.07
440.395	719.36
440.77	713.71
441.145	716.65
441.52	723.65
441.895	723.65
442.27	737.66
442.645	750.77
443.019	728.17
443.394	721.39
443.769	748.06
444.143	743.31
444.518	769.98
444.892	774.05
445.267	790.54
445.641	763.2
446.016	786.25
446.39	789.19
446.764	771.79
447.139	792.8
447.513	791.9
447.887	817.21
448.262	800.94
448.636	799.36
449.01	812.01
449.384	832.58
449.758	837.1
450.132	825.57
450.506	832.13
450.88	828.74
451.254	843.2
451.628	843.65
452.002	857.66
452.376	835.29
452.75	850.66
453.123	884.1
453.497	887.26
453.871	912.8
454.244	910.09
454.618	899.69
454.992	910.99
455.365	889.98
455.739	926.81
456.112	965
456.486	940.82
456.859	960.94
457.232	951.44
457.606	972.46
457.979	972.23
458.352	1006.36
458.725	972.91
459.099	1006.58
459.472	1026.7
459.845	1028.28
460.218	1022.63
460.591	1037.32
460.964	1025.57
461.337	1086.58
461.71	1085.45
462.083	1086.13
462.456	1077.54
462.829	1064.44
463.201	1117.99
463.574	1116.86
463.947	1114.83
464.32	1175.62
464.692	1143.53
465.065	1191.89
465.438	1195.28
465.81	1193.47
466.183	1208.39
466.555	1237.99
466.928	1236.86
467.3	1247.71
467.672	1259.91
468.045	1288.16
468.417	1296.75
468.789	1311.66
469.161	1352.56
469.534	1323.86
469.906	1362.28
470.278	1399.57
470.65	1373.35
471.022	1421.04
471.394	1443.18
471.766	1470.07
472.138	1473.01
472.51	1528.6
472.882	1555.5
473.253	1570.64
473.625	1579.68
473.997	1615.83
474.369	1618.55
474.74	1650.18
475.112	1686.57
475.484	1722.27
475.855	1755.04
476.227	1780.35
476.598	1783.06
476.97	1840.46
477.341	1874.36
477.713	1913
478.084	1931.53
478.455	1997.97
478.827	2013.56
479.198	2057.18
479.569	2081.81
479.94	2147.57
480.311	2171.98
480.682	2204.97
481.053	2310.28
481.424	2349.15
481.795	2400.22
482.166	2410.84
482.537	2479.77
482.908	2515.47
483.279	2535.13
483.65	2618.29
484.021	2678.63
484.391	2716.82
484.762	2768.35
485.133	2779.87
485.503	2849.47
485.874	2925.63
486.244	2962.24
486.615	3060.77
486.985	3084.72
487.356	3164.04
487.726	3187.32
488.097	3240.65
488.467	3291.5
488.837	3394.32
489.207	3426.18
489.578	3479.06
489.948	3499.85
490.318	3599.96
490.688	3620.98
491.058	3717.25
491.428	3768.77
491.798	3856.68
492.168	3885.38
492.538	3930.57
492.908	3951.82
493.278	4047.18
493.648	4048.31
494.017	4149.33
494.387	4225.93
494.757	4217.35
495.126	4309.32
495.496	4339.38
495.866	4358.13
496.235	4406.49
496.605	4465.7
496.974	4547.96
497.344	4581.18
497.713	4614.85
498.082	4645.36
498.452	4705.92
498.821	4697.56
499.19	4767.61
499.559	4799.48
499.928	4808.52
500.298	4919.48
500.667	4967.38
501.036	4921.06
501.405	5001.73
501.774	5031.34
502.143	5067.72
502.512	5074.27
502.88	5111.56
503.249	5146.81
503.618	5173.48
503.987	5214.83
504.356	5246.25
504.724	5290.31
505.093	5341.61
505.462	5315.17
505.83	5434.72
506.199	5442.63
506.567	5480.36
506.936	5513.36
507.304	5552
507.672	5564.88
508.041	5622.06
508.409	5644.43
508.777	5684.88
509.145	5669.74
509.514	5686.46
509.882	5789.28
510.25	5726.91
510.618	5791.54
510.986	5773.46
511.354	5827.02
511.722	5916.74
512.09	5966.91
512.458	5907.02
512.826	5963.29
513.193	6015.72
513.561	6017.53
513.929	6068.6
514.297	6109.73
514.664	6138.2
515.032	6114.02
515.4	6155.6
515.767	6182.72
516.135	6217.29
516.502	6239.44
516.869	6274.69
517.237	6305.88
517.604	6300.23
517.972	6361.7
518.339	6350.62
518.706	6393.56
519.073	6460.68
519.44	6437.4
519.808	6423.16
520.175	6484.63
520.542	6579.09
520.909	6558.3
521.276	6601.69
521.643	6568.02
522.009	6639.2
522.376	6608.47
522.743	6751.74
523.11	6747
523.477	6794
523.843	6832.87
524.21	6864.06
524.577	6894.34
524.943	6935.02
525.31	6945.64
525.676	7072.41
526.043	7023.15
526.409	7088.46
526.776	7124.84
527.142	7135.46
527.508	7143.6
527.874	7181.79
528.241	7256.59
528.607	7284.38
528.973	7325.29
529.339	7362.35
529.705	7397.83
530.071	7453.65
530.437	7520.54
530.803	7530.71
531.169	7611.61
531.535	7606.64
531.901	7632.4
532.267	7596.92
532.632	7656.13
532.998	7680.98
533.364	7791.49
533.73	7750.59
534.095	7829.23
534.461	7907.87
534.826	7908.78
535.192	7967.3
535.557	8044.82
535.923	8007.3
536.288	8006.4
536.653	8040.52
537.019	8080.75
537.384	8077.81
537.749	8186.73
538.114	8163.68
538.479	8210.69
538.845	8226.96
539.21	8178.82
539.575	8305.83
539.94	8296.11
540.305	8351.48
540.67	8360.51
541.034	8405.71
541.399	8449.55
541.764	8443.45
542.129	8569.55
542.494	8563.9
542.858	8593.5
543.223	8547.18
543.587	8698.36
543.952	8687.96
544.316	8709.88
544.681	8746.95
545.045	8782.2
545.41	8844.8
545.774	8910.1
546.138	8873.5
546.503	8877.79
546.867	8941.06
547.231	9079.14
547.595	9028.97
547.959	9092.92
548.324	9049.08
548.688	9140.83
549.052	9139.7
549.416	9149.87
549.779	9187.61
550.143	9242.3
550.507	9282.75
550.871	9280.49
551.235	9293.82
551.599	9408.62
551.962	9359.13
552.326	9399.36
552.689	9480.94
553.053	9466.93
553.417	9484.55
553.78	9647.49
554.143	9494.27
554.507	9588.73
554.87	9583.99
555.234	9742.4
555.597	9663.53
555.96	9688.16
556.323	9749.4
556.686	9803.64
557.05	9821.27
557.413	9776.75
557.776	9880.93
558.139	9907.82
558.502	9934.48
558.865	9977.65
559.228	10046.57
559.59	10048.61
559.953	10052
560.316	10252.44
560.679	10134.71
561.041	10198.21
561.404	10197.75
561.767	10262.84
562.129	10283.63
562.492	10342.38
562.854	10466.67
563.217	10362.5
563.579	10405.21
563.941	10455.37
564.304	10384.42
564.666	10527.92
565.028	10617.18
565.39	10624.41
565.753	10669.38
566.115	10639.78
566.477	10694.69
566.839	10818.98
567.201	10810.39
567.563	10818.76
567.925	10902.82
568.287	10917.74
568.648	10973.33
569.01	11009.03
569.372	11104.62
569.734	11045.64
570.095	11122.7
570.457	11090.61
570.819	11219.42
571.18	11288.8
571.542	11329.25
571.903	11376.25
572.265	11473.65
572.626	11459.19
572.987	11546.65
573.349	11595.01
573.71	11675.91
574.071	11642.01
574.432	11752.97
574.794	11825.06
575.155	11869.12
575.516	11987.54
575.877	12067.54
576.238	12193.18
576.599	12331.71
576.96	12378.26
577.32	12410.13
577.681	12552.72
578.042	12666.84
578.403	12706.84
578.763	12786.16
579.124	13038.81
579.485	13109.54
579.845	13275.41
580.206	13368.07
580.566	13450.1
580.927	13653.71
581.287	13825.23
581.648	13968.05
582.008	14107.48
582.368	14237.87
582.728	14534.59
583.089	14654.13
583.449	14873.56
583.809	15047.8
584.169	15276.72
584.529	15408.92
584.889	15729.36
585.249	15981.78
585.609	16044.15
585.969	16419.96
586.329	16657.7
586.688	16952.38
587.048	17049.33
587.408	17346.72
587.768	17565.24
588.127	17855.41
588.487	18114.83
588.846	18633.01
589.206	18743.52
589.565	19029.84
589.925	19292.88
590.284	19536.04
590.643	20025.74
591.003	20245.85
591.362	20677.48
591.721	20903.46
592.08	21241.53
592.44	21553.39
592.799	21832.02
593.158	22233.37
593.517	22537.77
593.876	22938.89
594.235	23222.04
594.593	23441.25
594.952	23860.22
595.311	24178.86
595.67	24544.72
596.029	25059.28
596.387	25373.85
596.746	25655.43
597.104	25948.53
597.463	26115.08
597.822	26727.26
598.18	26809.3
598.538	27254.93
598.897	27850.62
599.255	27775.6
599.613	28621
599.972	28580.77
600.33	28931.05
600.688	29225.5
601.046	29634.08
601.404	30079.94
601.762	30216.44
602.12	30597.67
602.478	31025.46
602.836	31295.05
603.194	31429.51
603.552	31832.89
603.91	31908.14
604.268	32483.95
604.625	32640.55
604.983	33053.2
605.341	33165.96
605.698	33459.97
606.056	33689.57
606.413	34005.72
606.771	34367.06
607.128	34675.98
607.485	34870.1
607.843	35128.62
608.2	35365
608.557	35728.83
608.914	35751.43
609.272	36266.9
609.629	36492.66
609.986	36860.33
610.343	36856.26
610.7	37398.4
611.057	37466.19
611.414	37688.11
611.771	37851.72
612.127	38216.68
612.484	38426.39
612.841	38658.48
613.198	38744.12
613.554	39020.27
613.911	39302.3
614.267	39306.37
614.624	39528.28
614.98	39907.71
615.337	40068.16
615.693	40164.65
616.05	40290.97
616.406	40523.06
616.762	40708.36
617.118	40815.25
617.475	41015.25
617.831	41151.52
618.187	41361.91
618.543	41422.02
618.899	41936.58
619.255	41834.44
619.611	41806.64
619.967	42097.93
620.323	42342.45
620.678	42352.62
621.034	42390.13
621.39	42494.98
621.746	42476.68
622.101	43055.87
622.457	42794.19
622.812	43099.94
623.168	43020.85
623.523	43366.83
623.879	43443.21
624.234	43212.93
624.589	43429.2
624.945	43554.39
625.3	43804.33
625.655	43813.59
626.01	43857.89
626.365	43934.04
626.72	43946.25
627.075	43969.52
627.43	43946.7
627.785	43904.21
628.14	44146.47
628.495	44212.91
628.85	44242.06
629.205	44216.75
629.559	44473.46
629.914	44411.32
630.269	44483.63
630.623	44393.24
630.978	44297.2
631.332	44630.07
631.687	44689.05
632.041	44593.91
632.396	44708.71
632.75	44623.29
633.104	44723.4
633.459	44598.21
633.813	44671.88
634.167	44673.91
634.521	44570.18
634.875	44842.04
635.229	44735.38
635.583	44525.67
635.937	44614.48
636.291	44679.33
636.645	44709.84
636.999	44706.23
637.352	44796.17
637.706	44421.94
638.06	44838.2
638.413	44678.66
638.767	44523.63
639.121	44743.96
639.474	44528.6
639.828	44472.56
640.181	44621.93
640.534	44534.03
640.888	44508.72
641.241	44304.43
641.594	44542.61
641.947	44672.33
642.301	44578.55
642.654	44595.49
643.007	44582.16
643.36	44439.11
643.713	44418.78
644.066	44600.69
644.419	44441.37
644.771	44188.05
645.124	43706.03
645.477	43726.14
645.83	43363.66
646.182	43384.45
646.535	43187.4
646.888	43317.34
647.24	43127.74
647.593	43559.82
647.945	43234.85
648.298	43177.9
648.65	43114.18
649.002	42972.49
649.355	43153.5
649.707	43184.23
650.059	43335.87
650.411	43846.36
650.763	43773.37
651.115	44283.19
651.467	44001.84
651.819	44049.75
652.171	44065.11
652.523	43957.32
652.875	43965
653.227	43821.73
653.578	44272.56
653.93	43951.9
654.282	43761.84
654.633	43782.86
654.985	43781.73
655.337	43915.51
655.688	43700.6
656.039	43991.44
656.391	43534.51
656.742	43738.12
657.094	43858.56
657.445	43896.53
657.796	43864.44
658.147	43764.56
658.498	43809.53
658.849	43755.52
659.2	43803.42
659.551	43664.45
659.902	43879.58
660.253	43673.94
660.604	43736.76
660.955	43580.83
661.306	43759.36
661.656	43713.03
662.007	43642.3
662.358	43693.37
662.708	43654.5
663.059	43591.9
663.409	43461.74
663.76	43697.21
664.11	43741.51
664.461	43702.18
664.811	43631.23
665.161	43703.54
665.511	43543.32
665.862	43606.82
666.212	43772.92
666.562	43718
666.912	43642.07
667.262	43559.82
667.612	43630.1
667.962	43593.03
668.312	43521.4
668.662	43774.5
669.011	43596.88
669.361	43436.2
669.711	43536.31
670.06	43510.55
670.41	43416.32
670.76	43327.73
671.109	43436.2
671.459	43418.12
671.808	43318.47
672.157	43486.14
672.507	43198.24
672.856	43043.22
673.205	43212.93
673.554	43478.91
673.904	43169.99
674.253	43504.9
674.602	43306.26
674.951	42727.97
675.3	42559.84
675.649	43207.96
675.998	43180.16
676.346	43248.64
676.695	43224.23
677.044	42866.73
677.393	43038.7
677.741	43106.49
678.09	43045.03
678.438	42852.26
678.787	42941.75
679.135	42984.46
679.484	42693.17
679.832	42955.31
680.181	42616.79
680.529	42731.81
680.877	42780.85
681.225	42605.72
681.573	42845.03
681.922	42613.4
682.27	42482.33
682.618	42510.8
682.966	42387.42
683.314	42482.56
683.661	42327.98
684.009	42199.4
684.357	41963.92
684.705	41965.05
685.053	42143.58
685.4	42028.33
685.748	41866.53
686.095	41784.27
686.443	41765.74
686.79	41678.73
687.138	41799.41
687.485	41722.12
687.832	41584.95
688.18	41490.04
688.527	41307.22
688.874	41269.03
689.221	41297.05
689.568	41321
689.915	41154.91
690.262	41127.11
690.609	41074.91
690.956	40893.9
691.303	40815.71
691.65	40638.31
691.997	40586.56
692.344	40351.76
692.69	40407.58
693.037	40403.51
693.383	40146.12
693.73	40190.86
694.077	40071.09
694.423	39872
694.769	39937.09
695.116	39913.13
695.462	39856.64
695.808	39573.71
696.155	39729.41
696.501	39493.03
696.847	39385.46
697.193	39068.41
697.539	39338.68
697.885	39085.81
698.231	38903.44
698.577	38912.03
698.923	38871.12
699.269	38620.74
699.614	38391.14
699.96	38513.39
700.306	38484.47
700.651	38307.52
700.997	38193.18
701.342	38157.25
701.688	38095.33
702.033	37995.89
702.379	37910.92
702.724	37902.79
703.069	37928.32
703.415	37535.11
703.76	37653.76
704.105	37657.82
704.45	37519.52
704.795	37303.03
705.14	37158.85
705.485	37119.31
705.83	37061
706.175	37167.67
706.52	36906.43
706.865	36880.89
707.209	36764.74
707.554	36622.37
707.899	36572.65
708.243	36397.07
708.588	36481.36
708.932	36255.15
709.277	36134.25
709.621	36236.84
709.966	35891.32
710.31	36122.72
710.654	35801.6
710.998	35895.61
711.342	35900.36
711.687	35677.31
712.031	35619.91
712.375	35541.04
712.719	35539.69
713.063	35529.97
713.407	35543.53
713.75	35360.48
714.094	35381.5
714.438	35112.35
714.782	35142.18
715.125	35021.06
715.469	35088.17
715.812	34894.51
716.156	34686.38
716.499	34777.9
716.843	34712.36
717.186	34565.7
717.53	34778.13
717.873	34777.45
718.216	34454.52
718.559	34411.81
718.902	34193.73
719.246	34332.94
719.589	34055.43
719.932	34116.45
720.275	34074.64
720.617	34071.25
720.96	33972.5
721.303	33912.84
721.646	33966.62
721.989	33776.12
722.331	33919.39
722.674	33727.08
723.016	33761.43
723.359	33687.53
723.701	33784.48
724.044	33535.9
724.386	33275.34
724.729	33575.44
725.071	33406.64
725.413	33372.51
725.755	33356.24
726.097	33058.17
726.439	33010.26
726.782	33006.87
727.124	33217.71
727.465	33010.04
727.807	32937.5
728.149	32726.65
728.491	32846.2
728.833	32906.08
729.175	32760.78
729.516	32683.94
729.858	32553.78
730.199	32641.23
730.541	32574.12
730.882	32422.03
731.224	32587
731.565	32440.56
731.906	32372.76
732.248	32361.69
732.589	32238.98
732.93	32168.93
733.271	32265.2
733.612	32233.56
733.953	32264.07
734.294	32053.68
734.635	31988.59
734.976	32062.04
735.317	31880.8
735.658	31891.65
735.999	31861.37
736.339	31770.97
736.68	31898.43
737.021	31669.96
737.361	31560.36
737.702	31740.24
738.042	31581.82
738.383	31512.45
738.723	31603.07
739.063	31488.04
739.404	31531.66
739.744	31514.26
740.084	31377.54
740.424	31374.82
740.764	31324.88
741.104	31354.03
741.444	31103.42
741.784	31086.92
742.124	31110.42
742.464	31052.57
742.804	30952.46
743.143	30897.78
743.483	30923.31
743.823	30739.81
744.162	30822.97
744.502	30862.07
744.841	30717.21
745.181	30819.36
745.52	30618.23
745.86	30604.22
746.199	30557.9
746.538	30568.74
746.877	30550.21
747.216	30551.12
747.556	30594.05
747.895	30471.8
748.234	30425.25
748.573	30286.94
748.911	30117.23
749.25	30270
749.589	30053.28
749.928	30152.48
750.267	30186.38
750.605	30014.63
750.944	29943.45
751.283	29852.83
751.621	30100.96
751.96	29800.85
752.298	29773.06
752.636	29787.07
752.975	29555.44
753.313	29594.08
753.651	29657.13
753.989	29453.75
754.327	29479.06
754.666	29289
755.004	29360.41
755.342	29375.1
755.679	29333.52
756.017	29191.61
756.355	29200.19
756.693	28967.88
757.031	29050.37
757.368	28882.23
757.706	28880.43
758.044	28726.98
758.381	28817.83
758.719	28652.64
759.056	28688.34
759.394	28607.21
759.731	28440.89
760.068	28346.88
