Data from hue_310_FLMS001491_71.txt Node
Date: Mon Feb 06 15:50:08 GMT 2017
User: dcchb
Spectrometer: FLMS00149
Trigger mode: 0
Integration Time (sec): 2.000000E-2
Scans to average: 10
Electric dark correction enabled: true
Nonlinearity correction enabled: false
Boxcar width: 0
XAxis mode: Wavelengths
Number of Pixels in Spectrum: 2048
>>>>>Begin Spectral Data<<<<<
341.393	-18.8
341.776	-18.8
342.16	-18.8
342.543	-54.73
342.927	-64.22
343.31	-58.57
343.693	-82.07
344.077	-70.77
344.46	-38.23
344.843	-67.84
345.226	-43.43
345.61	-29.65
345.993	-20.83
346.376	-8.63
346.759	14.65
347.142	29.79
347.525	43.35
347.908	56.45
348.291	52.16
348.674	94.64
349.057	128.99
349.44	123.57
349.823	144.59
350.206	167.86
350.588	199.5
350.971	202.89
351.354	231.59
351.737	225.94
352.119	258.48
352.502	246.28
352.884	257.35
353.267	281.98
353.65	286.5
354.032	306.16
354.414	284.02
354.797	320.18
355.179	312.94
355.562	318.82
355.944	335.54
356.326	334.86
356.709	318.14
357.091	345.26
357.473	333.51
357.855	318.82
358.238	324.92
358.62	359.5
359.002	347.75
359.384	349.1
359.766	328.76
360.148	343
360.53	329.67
360.912	313.62
361.294	343.45
361.676	343.23
362.057	313.85
362.439	330.57
362.821	317.24
363.203	308.65
363.584	336.9
363.966	311.59
364.348	315.66
364.729	300.97
365.111	329.89
365.493	325.37
365.874	323.79
366.256	300.51
366.637	326.95
367.019	330.8
367.4	301.64
367.781	324.02
368.163	321.98
368.544	325.82
368.925	319.27
369.306	311.36
369.688	300.29
370.069	311.14
370.45	314.53
370.831	288.76
371.212	307.29
371.593	321.76
371.974	303.45
372.355	318.59
372.736	319.5
373.117	329.89
373.498	313.62
373.879	297.8
374.26	320.85
374.641	293.51
375.021	310.46
375.402	295.09
375.783	332.6
376.163	336.22
376.544	335.77
376.925	306.39
377.305	322.66
377.686	320.85
378.066	316.79
378.447	331.02
378.827	309.33
379.208	359.27
379.588	355.2
379.968	324.24
380.349	340.74
380.729	332.38
381.109	325.15
381.489	363.79
381.87	338.25
382.25	340.06
382.63	341.87
383.01	353.39
383.39	339.61
383.77	359.04
384.15	342.55
384.53	337.8
384.91	333.73
385.29	336.9
385.67	365.82
386.049	354.98
386.429	364.47
386.809	346.16
387.189	349.78
387.568	359.04
387.948	369.67
388.328	362.21
388.707	358.59
389.087	363.34
389.466	360.4
389.846	365.37
390.225	368.54
390.605	358.59
390.984	367.86
391.363	390.46
391.743	365.37
392.122	377.57
392.501	392.04
392.881	378.93
393.26	392.04
393.639	377.8
394.018	401.53
394.397	374.41
394.776	402.43
395.155	407.63
395.534	388.65
395.913	397.46
396.292	389.33
396.671	416.22
397.05	400.63
397.429	379.83
397.808	378.03
398.186	389.78
398.565	397.69
398.944	406.95
399.323	367.86
399.701	415.31
400.08	399.27
400.458	410.79
400.837	404.92
401.215	429.55
401.594	439.04
401.972	411.7
402.351	437.23
402.729	430
403.107	422.09
403.486	418.03
403.864	451.92
404.242	439.95
404.62	451.02
404.999	436.33
405.377	470.68
405.755	460.28
406.133	455.54
406.511	461.19
406.889	470.91
407.267	475.65
407.645	471.36
408.023	475.65
408.401	489.21
408.779	491.92
409.156	486.05
409.534	498.7
409.912	513.84
410.29	514.52
410.667	507.29
411.045	520.4
411.422	527.18
411.8	514.75
412.178	529.66
412.555	533.28
412.933	568.76
413.31	543.22
413.687	583.22
414.065	567.63
414.442	589.77
414.819	576.44
415.197	610.11
415.574	592.48
415.951	605.14
416.328	595.2
416.705	634.29
417.082	609.66
417.46	646.04
417.837	640.62
418.214	653.05
418.591	664.12
418.967	663.22
419.344	669.77
419.721	668.19
420.098	687.85
420.475	706.38
420.852	687.85
421.228	718.13
421.605	704.8
421.982	714.97
422.358	735.76
422.735	732.82
423.111	756.32
423.488	742.31
423.864	759.03
424.241	767.4
424.617	757.23
424.994	780.05
425.37	811.01
425.746	828.86
426.123	810.56
426.499	827.73
426.875	832.25
427.251	841.74
427.627	879.26
428.003	860.73
428.379	875.41
428.756	890.56
429.132	895.3
429.507	891.46
429.883	932.81
430.259	932.59
430.635	961.06
431.011	941.18
431.387	936.88
431.763	982.08
432.138	985.02
432.514	988.41
432.89	978.24
433.265	1024.56
433.641	1020.5
434.016	1033.6
434.392	1062.98
434.767	1066.37
435.143	1069.31
435.518	1076.31
435.894	1098.46
436.269	1116.54
436.644	1147.05
437.02	1116.54
437.395	1123.09
437.77	1147.05
438.145	1157.89
438.52	1190.43
438.895	1192.92
439.271	1209.42
439.646	1198.12
440.021	1222.07
440.395	1214.16
440.77	1206.93
441.145	1232.47
441.52	1267.72
441.895	1271.11
442.27	1262.3
442.645	1246.7
443.019	1248.74
443.394	1279.25
443.769	1309.3
444.143	1262.52
444.518	1274.95
444.892	1251
445.267	1301.84
445.641	1291.68
446.016	1324.89
446.39	1308.4
446.764	1330.77
447.139	1325.12
447.513	1307.72
447.887	1316.76
448.262	1331.45
448.636	1345.91
449.01	1356.31
449.384	1376.87
449.758	1372.12
450.132	1349.3
450.506	1364.22
450.88	1355.4
451.254	1388.4
451.628	1409.64
452.002	1416.87
452.376	1409.19
452.75	1429.07
453.123	1439.69
453.497	1447.83
453.871	1450.99
454.244	1470.2
454.618	1482.86
454.992	1469.3
455.365	1494.61
455.739	1494.61
456.112	1506.58
456.486	1531.89
456.859	1535.74
457.232	1535.74
457.606	1547.94
457.979	1553.59
458.352	1564.66
458.725	1580.71
459.099	1590.65
459.472	1633.81
459.845	1636.98
460.218	1633.59
460.591	1654.38
460.964	1639.91
461.337	1707.48
461.71	1704.32
462.083	1741.38
462.456	1728.27
462.829	1714.71
463.201	1740.48
463.574	1769.63
463.947	1743.41
464.32	1770.31
464.692	1800.14
465.065	1819.8
465.438	1844.88
465.81	1863.86
466.183	1848.95
466.555	1871.77
466.928	1923.07
467.3	1886.24
467.672	1893.47
468.045	1949.74
468.417	1953.58
468.789	1977.31
469.161	1982.73
469.534	1984.99
469.906	2003.52
470.278	2041.49
470.65	2042.16
471.022	2072.9
471.394	2071.09
471.766	2120.13
472.138	2139.56
472.51	2136.17
472.882	2190.63
473.253	2212.1
473.625	2224.31
473.997	2236.96
474.369	2262.95
474.74	2286.45
475.112	2274.47
475.484	2349.73
475.855	2370.29
476.227	2353.12
476.598	2406.45
476.97	2464.98
477.341	2469.27
477.713	2498.87
478.084	2513.11
478.455	2556.95
478.827	2591.08
479.198	2640.79
479.569	2617.29
479.94	2692.77
480.311	2674.69
480.682	2750.85
481.053	2748.59
481.424	2830.62
481.795	2841.24
482.166	2849.15
482.537	2895.25
482.908	2928.24
483.279	2919.88
483.65	3001.69
484.021	3072.42
484.391	3067.22
484.762	3047.56
485.133	3106.77
485.503	3104.28
485.874	3142.93
486.244	3169.59
486.615	3238.52
486.985	3232.19
487.356	3300.66
487.726	3309.25
488.097	3382.69
488.467	3370.49
488.837	3436.7
489.207	3446.19
489.578	3538.17
489.948	3525.51
490.318	3583.14
490.688	3553.54
491.058	3628.79
491.428	3626.08
491.798	3681.67
492.168	3728
492.538	3713.53
492.908	3749.46
493.278	3801.67
493.648	3815.22
494.017	3842.34
494.387	3885.73
494.757	3885.73
495.126	3891.83
495.496	3932.74
495.866	3934.77
496.235	3994.2
496.605	4000.3
496.974	4029
497.344	4057.25
497.713	4070.59
498.082	4095.67
498.452	4068.78
498.821	4117.14
499.19	4136.8
499.559	4156.91
499.928	4174.76
500.298	4177.93
500.667	4240.3
501.036	4230.13
501.405	4281.2
501.774	4264.93
502.143	4307.19
502.512	4301.54
502.88	4356.23
503.249	4326.17
503.618	4367.98
503.987	4365.49
504.356	4387.19
504.724	4362.78
505.093	4380.41
505.462	4378.6
505.83	4452.72
506.199	4546.28
506.567	4494.3
506.936	4546.5
507.304	4555.54
507.672	4534.3
508.041	4587.86
508.409	4582.21
508.777	4612.27
509.145	4653.85
509.514	4657.01
509.882	4690
510.25	4684.13
510.618	4697.46
510.986	4736.33
511.354	4720.06
511.722	4759.38
512.09	4770
512.458	4762.09
512.826	4783.11
513.193	4839.38
513.561	4767.97
513.929	4830.79
514.297	4901.3
514.664	4867.85
515.032	4885.7
515.4	4914.18
515.767	4942.65
516.135	4930
516.502	4911.69
516.869	4961.18
517.237	4991.69
517.604	4978.36
517.972	5021.52
518.339	5058.58
518.706	5101.29
519.073	5053.38
519.44	5052.03
519.808	5074.4
520.175	5081.86
520.542	5133.61
520.909	5198.47
521.276	5155.08
521.643	5212.25
522.009	5188.97
522.376	5218.58
522.743	5239.82
523.11	5254.96
523.477	5250.44
523.843	5379.25
524.21	5396.65
524.577	5362.53
524.943	5390.78
525.31	5450.21
525.676	5469.19
526.043	5485.92
526.409	5581.96
526.776	5582.41
527.142	5544.67
527.508	5636.87
527.874	5636.42
528.241	5680.94
528.607	5695.18
528.973	5738.56
529.339	5696.76
529.705	5771.78
530.071	5798.9
530.437	5802.29
530.803	5850.88
531.169	5883.42
531.535	5917.09
531.901	5938.33
532.267	5905.79
532.632	5981.04
532.998	5993.02
533.364	5989.4
533.73	5987.82
534.095	6023.3
534.461	6083.41
534.826	6162.06
535.192	6120.7
535.557	6203.18
535.923	6214.03
536.288	6151.66
536.653	6218.78
537.019	6265.78
537.384	6289.74
537.749	6298.55
538.114	6343.29
538.479	6340.58
538.845	6378.77
539.21	6390.98
539.575	6402.28
539.94	6421.03
540.305	6469.39
540.67	6462.61
541.034	6522.95
541.399	6521.59
541.764	6566.79
542.129	6557.3
542.494	6627.81
542.858	6623.06
543.223	6652.44
543.587	6723.62
543.952	6691.53
544.316	6783.06
544.681	6790.74
545.045	6783.06
545.41	6856.73
545.774	6822.38
546.138	6916.39
546.503	6908.25
546.867	7000
547.231	6990.96
547.595	6979.21
547.959	6943.96
548.324	6972.43
548.688	7019.43
549.052	7047.46
549.416	7077.74
549.779	7124.74
550.143	7102.37
550.507	7207.68
550.871	7202.48
551.235	7220.56
551.599	7260.56
551.962	7251.29
552.326	7264.17
552.689	7304.17
553.053	7305.98
553.417	7335.58
553.78	7444.51
554.143	7466.2
554.507	7427.33
554.87	7469.37
555.234	7498.29
555.597	7526.77
555.96	7535.8
556.323	7529.03
556.686	7513.21
557.05	7609.48
557.413	7623.94
557.776	7671.85
558.139	7690.6
558.502	7686.08
558.865	7671.39
559.228	7727.66
559.59	7769.92
559.953	7823.71
560.316	7833.42
560.679	7861.45
561.041	7927.21
561.404	7887.89
561.767	7900.31
562.129	7942.8
562.492	7950.26
562.854	8058.73
563.217	8042.01
563.579	8046.07
563.941	8131.5
564.304	8118.39
564.666	8150.48
565.028	8139.63
565.39	8208.33
565.753	8202.45
566.115	8279.51
566.477	8304.82
566.839	8314.54
567.201	8341.66
567.563	8354.99
567.925	8412.62
568.287	8410.81
568.648	8431.37
569.01	8413.97
569.372	8449
569.734	8484.03
570.095	8609.45
570.457	8629.56
570.819	8722.89
571.18	8661.88
571.542	8732.16
571.903	8766.05
572.265	8846.05
572.626	8871.81
572.987	8865.49
573.349	8920.18
573.71	8997.46
574.071	9049.21
574.432	9145.93
574.794	9147.06
575.155	9252.6
575.516	9213.05
575.877	9365.81
576.238	9488.3
576.599	9523.55
576.96	9532.59
577.32	9578.46
577.681	9668.86
578.042	9804.45
578.403	9853.71
578.763	9951.33
579.124	10029.75
579.485	10190.2
579.845	10213.93
580.206	10428.16
580.566	10502.51
580.927	10634.93
581.287	10713.12
581.648	10763.29
582.008	10994.47
582.368	11099.33
582.728	11346.78
583.089	11418.19
583.449	11558.07
583.809	11727.78
584.169	11901.11
584.529	12099.3
584.889	12344.27
585.249	12499.97
585.609	12697.93
585.969	12928.88
586.329	13064.25
586.688	13278.48
587.048	13451.36
587.408	13702.2
587.768	13936.09
588.127	14124.33
588.487	14429.18
588.846	14753.02
589.206	14947.36
589.565	15199.33
589.925	15505.09
590.284	15767.23
590.643	15994.79
591.003	16244.95
591.362	16663.7
591.721	16841.32
592.08	17204.93
592.44	17473.4
592.799	17883.56
593.158	18029.54
593.517	18385.46
593.876	18690.54
594.235	18915.62
594.593	19269.06
594.952	19681.47
595.311	19835.82
595.67	20172.31
596.029	20577.27
596.387	20722.12
596.746	21121.66
597.104	21398.04
597.463	21625.38
597.822	22000.06
598.18	22175.42
598.538	22435.75
598.897	22998.9
599.255	23103.08
599.613	23687.7
599.972	23883.85
600.33	24143.96
600.688	24247.68
601.046	24784.84
601.404	25258.28
601.762	25378.73
602.12	25749.34
602.478	26024.81
602.836	26249.66
603.194	26403.11
603.552	26726.49
603.91	26783.66
604.268	27314.27
604.625	27458.22
604.983	27717.87
605.341	27915.61
605.698	28236.05
606.056	28614.12
606.413	28643.05
606.771	29124.39
607.128	29464.95
607.485	29477.83
607.843	29728.22
608.2	30159.39
608.557	30327.07
608.914	30393.73
609.272	30849.32
609.629	31124.56
609.986	31383.31
610.343	31414.5
610.7	31751.67
611.057	31900.59
611.414	32231.88
611.771	32254.02
612.127	32601.36
612.484	32636.16
612.841	32990.05
613.198	33102.36
613.554	33374.67
613.911	33651.73
614.267	33661.45
614.624	33999.52
614.98	34084.49
615.337	34313.86
615.693	34496
616.05	34618.71
616.406	34902.32
616.762	34834.3
617.118	34913.39
617.475	35174.63
617.831	35439.48
618.187	35554.28
618.543	35753.59
618.899	35978.67
619.255	35974.15
619.611	36042.85
619.967	36441.49
620.323	36483.07
620.678	36483.52
621.034	36532.78
621.39	36620.69
621.746	36738.65
622.101	37267
622.457	36984.3
622.812	37154.69
623.168	37251.41
623.523	37312.87
623.879	37625.86
624.234	37467.22
624.589	37752.19
624.945	37741.11
625.3	37922.12
625.655	37996.92
626.01	37935.46
626.365	38055.68
626.72	38058.39
627.075	38110.37
627.43	38313.75
627.785	38222
628.14	38495.89
628.495	38429.46
628.85	38447.53
629.205	38422
629.559	38713.52
629.914	38487.08
630.269	38704.02
630.623	38552.16
630.978	38681.88
631.332	38806.85
631.687	38910.57
632.041	38660.18
632.396	38857.92
632.75	38764.36
633.104	39042.55
633.459	38784.02
633.813	38770.69
634.167	38817.02
634.521	38937.01
634.875	38995.77
635.229	38806.85
635.583	38850.24
635.937	38916.67
636.291	38893.17
636.645	38907.18
636.999	38873.06
637.352	38963.45
637.706	38838.26
638.06	38990.34
638.413	38974.53
638.767	38936.11
639.121	38972.04
639.474	38677.13
639.828	38803.23
640.181	38888.2
640.534	38922.78
640.888	38787.41
641.241	38778.6
641.594	38724.14
641.947	38929.78
642.301	38766.85
642.654	38826.73
643.007	38789.9
643.36	38844.81
643.713	38855.66
644.066	38893.62
644.419	38643.24
644.771	38449.12
645.124	38043.7
645.477	37950.15
645.83	37770.26
646.182	37730.49
646.535	37622.02
646.888	37667.22
647.24	37467.67
647.593	37714.9
647.945	37592.19
648.298	37424.51
648.65	37481.23
649.002	37328.24
649.355	37557.39
649.707	37541.34
650.059	37629.02
650.411	38103.14
650.763	38177.48
651.115	38460.87
651.467	38368.44
651.819	38434.65
652.171	38433.07
652.523	38274.21
652.875	38214.55
653.227	38112.85
653.578	38382.45
653.93	38218.39
654.282	38143.36
654.633	38002.35
654.985	38179.74
655.337	38200.54
655.688	38210.25
656.039	38232.17
656.391	37900.66
656.742	38092.29
657.094	38009.13
657.445	38234.21
657.796	38152.63
658.147	38005.29
658.498	38056.36
658.849	38123.25
659.2	37884.84
659.551	37878.51
659.902	38081.67
660.253	37979.07
660.604	37947.66
660.955	37801
661.306	38017.49
661.656	37912.18
662.007	37978.17
662.358	37992.4
662.708	37848.91
663.059	38009.35
663.409	37697.27
663.76	37939.07
664.11	37949.24
664.461	37986.53
664.811	37965.97
665.161	37811.17
665.511	38000.31
665.862	37926.64
666.212	37923.48
666.562	38020.43
666.912	37789.7
667.262	37732.75
667.612	37917.38
667.962	37739.53
668.312	37798.96
668.662	38038.51
669.011	37802.13
669.361	37824.5
669.711	37754.67
670.06	37624.28
670.41	37685.52
670.76	37651.62
671.109	37775.01
671.459	37761.68
671.808	37710.83
672.157	37704.95
672.507	37398.75
672.856	37536.15
673.205	37515.81
673.554	37754.67
673.904	37481.01
674.253	37714.67
674.602	37602.36
674.951	37116.5
675.3	36991.75
675.649	37527.33
675.998	37446.2
676.346	37458.18
676.695	37603.04
677.044	37247.34
677.393	37605.07
677.741	37537.5
678.09	37289.82
678.438	37262.48
678.787	37358.07
679.135	37266.77
679.484	37087.57
679.832	37303.16
680.181	37058.19
680.529	37249.15
680.877	37049.38
681.225	36996.95
681.573	37234.46
681.922	36866.11
682.27	36914.92
682.618	36946.33
682.966	36696.39
683.314	36969.16
683.661	36666.11
684.009	36635.15
684.357	36544.08
684.705	36468.38
685.053	36489.62
685.4	36368.04
685.748	36231.1
686.095	36323.3
686.443	36272.22
686.79	36195.84
687.138	36241.04
687.485	36129.18
687.832	36018.45
688.18	36109.29
688.527	35843.99
688.874	35748.17
689.221	35843.99
689.568	35782.52
689.915	35610.77
690.262	35651.45
690.609	35545.24
690.956	35464.11
691.303	35322.19
691.65	35212.14
691.997	35161.97
692.344	35067.06
692.69	35035.19
693.037	35094.63
693.383	34712.94
693.73	34925.37
694.077	34710.68
694.423	34639.72
694.769	34595.43
695.116	34552.72
695.462	34392.73
695.808	34352.95
696.155	34423.23
696.501	34162.9
696.847	34053.53
697.193	33947.77
697.539	34021.89
697.885	33907.54
698.231	33663.93
698.577	33682.24
698.923	33598.62
699.269	33527.44
699.614	33203.15
699.96	33269.14
700.306	33223.49
700.651	33068.24
700.997	33051.29
701.342	33075.47
701.688	32970.84
702.033	32712.54
702.379	32832.31
702.724	32769.27
703.069	32742.15
703.415	32410.86
703.76	32551.87
704.105	32454.25
704.45	32435.26
704.795	32195.5
705.14	32103.75
705.485	32152.11
705.83	32113.69
706.175	31927.71
706.52	31938.1
706.865	31798.22
707.209	31901.72
707.554	31652.68
707.899	31715.28
708.243	31593.7
708.588	31493.59
708.932	31343.77
709.277	31265.12
709.621	31351.9
709.966	31087.73
710.31	31213.83
710.654	30961.86
710.998	30938.35
711.342	30878.92
711.687	30878.92
712.031	30692.71
712.375	30630.11
712.719	30639.6
713.063	30619.72
713.407	30777.68
713.75	30493.62
714.094	30466.5
714.438	30356.45
714.782	30452.04
715.125	30234.19
715.469	30310.57
715.812	30062.44
716.156	30003.91
716.499	29992.16
716.843	30045.95
717.186	29954.88
717.53	29927.31
717.873	30000.07
718.216	29892.28
718.559	29798.95
718.902	29556.92
719.246	29570.25
719.589	29434.21
719.932	29370.03
720.275	29432.86
720.617	29346.08
720.96	29284.61
721.303	29256.36
721.646	29303.37
721.989	29237.38
722.331	29306.98
722.674	29028.57
723.016	29201.45
723.359	29060.21
723.701	29117.38
724.044	28749.48
724.386	28755.81
724.729	28887.33
725.071	28807.34
725.413	28762.14
725.755	28833.1
726.097	28639.43
726.439	28574.57
726.782	28506.33
727.124	28585.19
727.465	28358.53
727.807	28427.46
728.149	28370.96
728.491	28342.94
728.833	28383.84
729.175	28255.94
729.516	28186.34
729.858	28150.86
730.199	28262.04
730.541	28157.41
730.882	28020.69
731.224	28125.77
731.565	27861.15
731.906	27935.04
732.248	27887.36
732.589	27759.91
732.93	27695.73
733.271	27775.27
733.612	27837.87
733.953	27704.31
734.294	27701.15
734.635	27571.89
734.976	27598.55
735.317	27496.64
735.658	27406.92
735.999	27503.87
736.339	27413.93
736.68	27527.37
737.021	27310.88
737.361	27192.01
737.702	27378.22
738.042	27168.73
738.383	27209.86
738.723	27228.17
739.063	27089.41
739.404	27048.74
739.744	26990.43
740.084	27007.38
740.424	27008.06
740.764	26975.75
741.104	26960.15
741.444	26804.9
741.784	26521.97
742.124	26811.46
742.464	26783.66
742.804	26692.14
743.143	26642.19
743.483	26645.58
743.823	26478.13
744.162	26535.31
744.502	26498.02
744.841	26439.71
745.181	26527.4
745.52	26464.35
745.86	26386.16
746.199	26341.64
746.538	26382.54
746.877	26368.08
747.216	26292.37
747.556	26157.46
747.895	26187.97
748.234	26037.24
748.573	26045.37
748.911	26105.94
749.25	25976.45
749.589	25862.1
749.928	25853.97
750.267	25847.41
750.605	25711.37
750.944	25687.87
751.283	25740.3
751.621	25680.64
751.96	25537.37
752.298	25538.5
752.636	25557.7
752.975	25321.78
753.313	25284.72
753.651	25343.7
753.989	25259.63
754.327	25189.13
754.666	25069.35
755.004	25071.61
755.342	25103.03
755.679	24947.55
756.017	24793.66
756.355	24909.59
756.693	24794.33
757.031	24868.91
757.368	24697.16
757.706	24738.74
758.044	24498.3
758.381	24572.42
758.719	24577.62
759.056	24604.28
759.394	24463.72
759.731	24160.68
