Data from hue_320_FLMS001491_53.txt Node
Date: Mon Feb 06 15:47:23 GMT 2017
User: dcchb
Spectrometer: FLMS00149
Trigger mode: 0
Integration Time (sec): 2.000000E-2
Scans to average: 10
Electric dark correction enabled: true
Nonlinearity correction enabled: false
Boxcar width: 0
XAxis mode: Wavelengths
Number of Pixels in Spectrum: 2048
>>>>>Begin Spectral Data<<<<<
341.393	-15.66
341.776	-15.66
342.16	-15.66
342.543	-78.71
342.927	-65.83
343.31	-59.73
343.693	-67.87
344.077	-52.27
344.46	-69
344.843	-55.21
345.226	-20.86
345.61	-36
345.993	-11.37
346.376	-16.79
346.759	-0.07
347.142	37.44
347.525	29.31
347.908	53.04
348.291	95.52
348.674	82.41
349.057	91.45
349.44	134.84
349.823	152.24
350.206	170.55
350.588	200.38
350.971	216.87
351.354	230.21
351.737	229.98
352.119	242.86
352.502	258.68
352.884	257.1
353.267	281.28
353.65	300.94
354.032	297.55
354.414	318.79
354.797	314.27
355.179	315.85
355.562	345.46
355.944	321.05
356.326	345.23
356.709	332.58
357.091	316.31
357.473	329.19
357.855	329.19
358.238	341.62
358.62	352.69
359.002	357.21
359.384	322.41
359.766	353.14
360.148	333.93
360.53	347.49
360.912	313.82
361.294	336.87
361.676	313.82
362.057	328.51
362.439	336.64
362.821	344.1
363.203	316.76
363.584	339.36
363.966	312.46
364.348	308.85
364.729	320.6
365.111	318.57
365.493	323.99
365.874	327.15
366.256	318.11
366.637	327.83
367.019	293.03
367.4	315.18
367.781	306.81
368.163	303.42
368.544	330.77
368.925	321.28
369.306	305.68
369.688	312.24
370.069	310.43
370.45	320.37
370.831	315.85
371.212	294.84
371.593	305.68
371.974	306.14
372.355	313.37
372.736	317.21
373.117	311.33
373.498	306.36
373.879	294.61
374.26	320.82
374.641	290.77
375.021	331.22
375.402	329.41
375.783	323.08
376.163	316.76
376.544	312.92
376.925	328.06
377.305	315.63
377.686	316.98
378.066	315.63
378.447	326.47
378.827	337.1
379.208	329.64
379.588	329.86
379.968	343.88
380.349	336.64
380.729	330.09
381.109	358.79
381.489	342.07
381.87	326.25
382.25	301.16
382.63	327.83
383.01	333.48
383.39	330.09
383.77	338.23
384.15	353.37
384.53	351.78
384.91	351.11
385.29	351.78
385.67	346.13
386.049	340.94
386.429	347.49
386.809	355.85
387.189	362.86
387.568	351.33
387.948	365.12
388.328	367.15
388.707	358.34
389.087	358.34
389.466	354.5
389.846	363.08
390.225	342.07
390.605	369.19
390.984	365.12
391.363	386.13
391.743	354.04
392.122	370.32
392.501	382.97
392.881	385.68
393.26	390.43
393.639	364.67
394.018	386.81
394.397	390.88
394.776	377.32
395.155	382.74
395.534	394.95
395.913	367.38
396.292	399.01
396.671	370.54
397.05	370.99
397.429	384.78
397.808	379.35
398.186	394.95
398.565	380.71
398.944	403.99
399.323	389.98
399.701	390.43
400.08	389.07
400.458	397.66
400.837	386.13
401.215	410.09
401.594	384.1
401.972	402.18
402.351	397.21
402.729	420.48
403.107	394.72
403.486	434.95
403.864	406.47
404.242	406.47
404.62	425
404.999	402.4
405.377	435.4
405.755	427.49
406.133	442.4
406.511	429.07
406.889	437.66
407.267	432.91
407.645	450.31
408.023	452.8
408.401	450.31
408.779	467.94
409.156	461.84
409.534	470.43
409.912	464.32
410.29	467.71
410.667	474.95
411.045	489.41
411.422	505.23
411.8	498
412.178	508.62
412.555	509.52
412.933	502.29
413.31	542.06
413.687	527.15
414.065	526.92
414.442	557.65
414.819	547.03
415.197	542.29
415.574	548.39
415.951	591.78
416.328	564.43
416.705	581.61
417.082	591.33
417.46	605.34
417.837	612.79
418.214	600.82
418.591	587.71
418.967	627.03
419.344	631.33
419.721	650.53
420.098	624.77
420.475	629.52
420.852	641.72
421.228	643.53
421.605	631.55
421.982	697.54
422.358	640.36
422.735	678.78
423.111	694.83
423.488	694.37
423.864	688.27
424.241	691.21
424.617	693.02
424.994	690.53
425.37	719.23
425.746	732.57
426.123	735.96
426.499	734.6
426.875	717.42
427.251	752.45
427.627	756.97
428.003	778.89
428.379	765.33
428.756	786.12
429.132	800.81
429.507	807.59
429.883	803.07
430.259	823.41
430.635	827.7
431.011	845.56
431.387	845.78
431.763	830.19
432.138	856.63
432.514	843.52
432.89	890.98
433.265	895.05
433.641	894.14
434.016	905.67
434.392	913.8
434.767	917.19
435.143	922.39
435.518	945.89
435.894	962.16
436.269	968.72
436.644	955.38
437.02	964.42
437.395	990.19
437.77	975.27
438.145	1007.81
438.52	989.96
438.895	1019.56
439.271	1035.61
439.646	1043.07
440.021	1024.99
440.395	1050.3
440.77	1044.65
441.145	1055.72
441.52	1059.56
441.895	1064.99
442.27	1071.54
442.645	1058.88
443.019	1073.12
443.394	1105.66
443.769	1080.8
444.143	1054.82
444.518	1116.28
444.892	1098.43
445.267	1104.31
445.641	1123.52
446.016	1130.52
446.39	1133.23
446.764	1132.55
447.139	1143.18
447.513	1153.35
447.887	1141.59
448.262	1142.72
448.636	1147.92
449.01	1170.07
449.384	1167.58
449.758	1183.63
450.132	1182.05
450.506	1179.33
450.88	1164.19
451.254	1185.21
451.628	1200.8
452.002	1221.14
452.376	1211.2
452.75	1243.74
453.123	1233.57
453.497	1256.85
453.871	1241.7
454.244	1262.95
454.618	1264.75
454.992	1277.86
455.365	1265.66
455.739	1286.68
456.112	1303.62
456.486	1318.09
456.859	1318.09
457.232	1342.94
457.606	1325.32
457.979	1327.13
458.352	1346.33
458.725	1348.82
459.099	1379.1
459.472	1413.45
459.845	1412.77
460.218	1405.77
460.591	1407.8
460.964	1435.6
461.337	1471.98
461.71	1469.5
462.083	1471.53
462.456	1483.96
462.829	1490.51
463.201	1501.58
463.574	1494.81
463.947	1504.97
464.32	1533.67
464.692	1547.69
465.065	1559.21
465.438	1565.76
465.81	1570.28
466.183	1601.02
466.555	1639.66
466.928	1625.42
467.3	1627.23
467.672	1648.25
468.045	1657.74
468.417	1685.08
468.789	1682.6
469.161	1696.16
469.534	1751.75
469.906	1755.82
470.278	1806.89
470.65	1801.92
471.022	1801.01
471.394	1834.01
471.766	1816.15
472.138	1844.17
472.51	1908.81
472.882	1851.41
473.253	1901.12
473.625	1935.02
473.997	1985.19
474.369	1928.01
474.74	1995.36
475.112	2019.99
475.484	2022.25
475.855	2039.42
476.227	2076.26
476.598	2127.56
476.97	2131.62
477.341	2139.31
477.713	2157.16
478.084	2167.33
478.455	2232.41
478.827	2238.29
479.198	2298.85
479.569	2286.65
479.94	2341.11
480.311	2379.53
480.682	2394.89
481.053	2433.99
481.424	2501.78
481.795	2466.08
482.166	2516.7
482.537	2522.35
482.908	2583.36
483.279	2593.99
483.65	2623.59
484.021	2662.46
484.391	2684.6
484.762	2724.15
485.133	2735
485.503	2753.3
485.874	2785.39
486.244	2777.03
486.615	2864.71
486.985	2857.71
487.356	2929.34
487.726	2923.92
488.097	3022.22
488.467	3005.05
488.837	3022.22
489.207	3066.97
489.578	3084.14
489.948	3120.3
490.318	3200.07
490.688	3157.36
491.058	3247.3
491.428	3219.05
491.798	3269.22
492.168	3276.45
492.538	3305.61
492.908	3337.24
493.278	3381.99
493.648	3383.12
494.017	3427.18
494.387	3469.44
494.757	3436.22
495.126	3504.24
495.496	3478.93
495.866	3542.66
496.235	3542.66
496.605	3599.83
496.974	3565.49
497.344	3645.71
497.713	3620.85
498.082	3628.08
498.452	3673.96
498.821	3695.88
499.19	3704.01
499.559	3701.75
499.928	3713.73
500.298	3757.12
500.667	3779.27
501.036	3798.25
501.405	3823.56
501.774	3829.43
502.143	3839.6
502.512	3855.2
502.88	3866.04
503.249	3862.43
503.618	3904.23
503.987	3916.21
504.356	3956.66
504.724	3927.51
505.093	3934.74
505.462	3976.55
505.83	4002.54
506.199	4006.15
506.567	4069.43
506.936	4019.48
507.304	4070.1
507.672	4082.99
508.041	4086.6
508.409	4120.95
508.777	4109.2
509.145	4122.08
509.514	4178.58
509.882	4173.15
510.25	4176.99
510.618	4202.53
510.986	4166.37
511.354	4202.3
511.722	4242.98
512.09	4289.31
512.458	4248.86
512.826	4275.98
513.193	4305.13
513.561	4291.12
513.929	4353.04
514.297	4364.33
514.664	4350.55
515.032	4360.94
515.4	4438.23
515.767	4432.13
516.135	4390.77
516.502	4405.24
516.869	4488.17
517.237	4433.26
517.604	4435.07
517.972	4485.69
518.339	4512.81
518.706	4449.76
519.073	4512.58
519.44	4517.1
519.808	4571.11
520.175	4489.53
520.542	4607.94
520.909	4606.14
521.276	4583.99
521.643	4604.55
522.009	4633.48
522.376	4684.78
522.743	4715.74
523.11	4736.53
523.477	4682.29
523.843	4731.56
524.21	4794.61
524.577	4805
524.943	4823.98
525.31	4857.88
525.676	4839.8
526.043	4893.36
526.409	4858.33
526.776	4954.83
527.142	4959.35
527.508	5014.94
527.874	5001.83
528.241	5019.23
528.607	5045.9
528.973	5106.69
529.339	5054.03
529.705	5134.26
530.071	5132.45
530.437	5188.72
530.803	5174.71
531.169	5273.24
531.535	5235.5
531.901	5244.31
532.267	5272.56
532.632	5329.05
532.998	5260.81
533.364	5347.81
533.73	5355.49
534.095	5372.9
534.461	5383.06
534.826	5446.57
535.192	5483.4
535.557	5475.04
535.923	5471.65
536.288	5518.43
536.653	5553.23
537.019	5495.6
537.384	5554.81
537.749	5605.21
538.114	5608.14
538.479	5642.04
538.845	5693.34
539.21	5672.55
539.575	5696.95
539.94	5723.39
540.305	5787.8
540.67	5790.74
541.034	5792.77
541.399	5809.04
541.764	5874.58
542.129	5807.01
542.494	5881.13
542.858	5901.24
543.223	5879.1
543.587	5966.33
543.952	5945.54
544.316	5950.51
544.681	6006.33
545.045	6018.98
545.41	6049.04
545.774	6101.24
546.138	6145.98
546.503	6120.67
546.867	6178.52
547.231	6203.61
547.595	6218.07
547.959	6230.27
548.324	6249.03
548.688	6233.89
549.052	6298.07
549.416	6319.09
549.779	6357.73
550.143	6385.75
550.507	6388.01
550.871	6357.05
551.235	6398.41
551.599	6465.75
551.962	6437.5
552.326	6439.31
552.689	6539.87
553.053	6502.36
553.417	6547.78
553.78	6569.93
554.143	6570.38
554.507	6597.27
554.87	6599.76
555.234	6660.09
555.597	6669.13
555.96	6639.3
556.323	6654.22
556.686	6714.56
557.05	6706.87
557.413	6768.79
557.776	6716.36
558.139	6818.96
558.502	6830.48
558.865	6802.01
559.228	6848.79
559.59	6912.06
559.953	6861.44
560.316	6986.41
560.679	6913.42
561.041	7008.11
561.404	6995.68
561.767	7063.7
562.129	7062.79
562.492	7083.13
562.854	7105.96
563.217	7118.39
563.579	7100.08
563.941	7143.24
564.304	7182.79
564.666	7202.9
565.028	7252.62
565.39	7199.29
565.753	7298.04
566.115	7320.64
566.477	7343.47
566.839	7397.7
567.201	7407.42
567.563	7406.29
567.925	7444.25
568.287	7390.02
568.648	7440.86
569.01	7534.65
569.372	7523.8
569.734	7537.36
570.095	7635.66
570.457	7680.63
570.819	7616.45
571.18	7697.13
571.542	7793.62
571.903	7757.92
572.265	7760.63
572.626	7852.38
572.987	7948.87
573.349	7913.39
573.71	7981.19
574.071	8030.9
574.432	8037.46
574.794	8161.07
575.155	8168.98
575.516	8173.5
575.877	8219.15
576.238	8350.9
576.599	8417.34
576.96	8441.06
577.32	8474.51
577.681	8608.52
578.042	8656.88
578.403	8765.12
578.763	8818
579.124	8921.05
579.485	9089.63
579.845	9172.34
580.206	9281.95
580.566	9313.36
580.927	9370.98
581.287	9594.03
581.648	9673.12
582.008	9862.27
582.368	10022.72
582.728	10093
583.089	10267.23
583.449	10412.54
583.809	10532.99
584.169	10796.48
584.529	10904.95
584.889	11140.65
585.249	11259.75
585.609	11406.41
585.969	11706.29
586.329	11894.08
586.688	12091.81
587.048	12284.8
587.408	12477.57
587.768	12706.71
588.127	12941.96
588.487	13073.26
588.846	13492.46
589.206	13648.84
589.565	13807.7
589.925	14125.89
590.284	14431.64
590.643	14684.97
591.003	14883.38
591.362	15274.56
591.721	15544.38
592.08	15830.25
592.44	16112.95
592.799	16346.62
593.158	16666.38
593.517	16897.56
593.876	17270.44
594.235	17477.89
594.593	17705.23
594.952	18038.1
595.311	18299.79
595.67	18667.01
596.029	19054.12
596.387	19311.29
596.746	19683.03
597.104	19824.72
597.463	20056.58
597.822	20467.64
598.18	20668.54
598.538	21013.39
598.897	21423.77
599.255	21489.31
599.613	22178.33
599.972	22235.95
600.33	22635.04
600.688	22831.19
601.046	23121.36
601.404	23510.05
601.762	23708.91
602.12	23970.82
602.478	24358.84
602.836	24588.66
603.194	24746.4
603.552	25131.7
603.91	25385.25
604.268	25626.15
604.625	25863.43
604.983	26320.82
605.341	26287.83
605.698	26707.7
606.056	26996.51
606.413	27209.84
606.771	27598.75
607.128	27795.13
607.485	27850.95
607.843	28256.14
608.2	28531.38
608.557	28763.92
608.914	28750.59
609.272	29123.01
609.629	29402.77
609.986	29715.76
610.343	29640.96
610.7	30142.87
611.057	30379.02
611.414	30478
611.771	30599.35
612.127	30955.5
612.484	31095.83
612.841	31391.87
613.198	31504.86
613.554	31621.02
613.911	32034.12
614.267	31999.31
614.624	32311.85
614.98	32477.95
615.337	32826.18
615.693	32778.28
616.05	32897.37
616.406	33243.58
616.762	33335.78
617.118	33394.98
617.475	33552.04
617.831	33719.72
618.187	33932.37
618.543	34225.02
618.899	34414.84
619.255	34544.33
619.611	34520.83
619.967	34843.76
620.323	34929.86
620.678	34916.07
621.034	34964.43
621.39	35143.19
621.746	35071.32
622.101	35599.22
622.457	35460.24
622.812	35567.58
623.168	35813.23
623.523	35943.17
623.879	36038.53
624.234	35894.58
624.589	36052.31
624.945	36355.36
625.3	36257.96
625.655	36355.58
626.01	36356.71
626.365	36563.26
626.72	36680.32
627.075	36584.5
627.43	36643.49
627.785	36791.5
628.14	36749.47
628.495	36930.03
628.85	37004.38
629.205	36872.86
629.559	37165.51
629.914	37024.49
630.269	37158.27
630.623	37153.98
630.978	37043.02
631.332	37350.81
631.687	37445.5
632.041	37388.55
632.396	37374.77
632.75	37260.64
633.104	37406.63
633.459	37260.64
633.813	37337.48
634.167	37257.25
634.521	37393.3
634.875	37438.27
635.229	37395.56
635.583	37249.8
635.937	37394.43
636.291	37327.54
636.645	37325.28
636.999	37395.33
637.352	37531.82
637.706	37333.19
638.06	37540.64
638.413	37424.48
638.767	37370.92
639.121	37478.04
639.474	37268.33
639.828	37353.52
640.181	37462.67
640.534	37568.89
640.888	37313.52
641.241	37224.71
641.594	37392.62
641.947	37605.27
642.301	37365.27
642.654	37431.49
643.007	37388.55
643.36	37451.6
643.713	37217.71
644.066	37522.56
644.419	37370.92
644.771	37104.72
645.124	36710.15
645.477	36677.38
645.83	36394.45
646.182	36419.31
646.535	36304.06
646.888	36302.25
647.24	36127.34
647.593	36389.03
647.945	36280.78
648.298	36238.75
648.65	36166.21
649.002	35979.55
649.355	36105.42
649.707	36101.13
650.059	36366.2
650.411	36713.77
650.763	36825.18
651.115	37168.44
651.467	36992.18
651.819	37063.36
652.171	36961.22
652.523	36796.93
652.875	36957.15
653.227	36756.03
653.578	37038.5
653.93	36917.83
654.282	36751.73
654.633	36701.11
654.985	36743.6
655.337	36740.88
655.688	36737.49
656.039	36933.2
656.391	36560.55
656.742	36587.44
657.094	36725.97
657.445	36843.48
657.796	36633.09
658.147	36655.46
658.498	36629.7
658.849	36866.98
659.2	36709.7
659.551	36583.15
659.902	36664.28
660.253	36671.28
660.604	36719.64
660.955	36503.15
661.306	36706.76
661.656	36562.36
662.007	36608.68
662.358	36618.18
662.708	36693.65
663.059	36552.41
663.409	36347.9
663.76	36652.52
664.11	36545.64
664.461	36677.61
664.811	36670.6
665.161	36488.69
665.511	36490.5
665.862	36562.36
666.212	36673.54
666.562	36607.33
666.912	36596.26
667.262	36582.24
667.612	36514.68
667.962	36692.52
668.312	36545.64
668.662	36688.68
669.011	36534.56
669.361	36513.09
669.711	36450.5
670.06	36497.73
670.41	36367.79
670.76	36365.98
671.109	36464.73
671.459	36433.1
671.808	36269.94
672.157	36577.5
672.507	36226.1
672.856	36280.33
673.205	36308.35
673.554	36323.49
673.904	36219.32
674.253	36377.73
674.602	36294.79
674.951	35865.43
675.3	35672.44
675.649	36274.46
675.998	36183.16
676.346	36251.86
676.695	36392.64
677.044	36089.15
677.393	36080.56
677.741	36330.73
678.09	36111.97
678.438	35938.19
678.787	36072.88
679.135	36063.61
679.484	35886.44
679.832	35920.34
680.181	35668.82
680.529	35900.68
680.877	35816.39
681.225	35783.4
681.573	36038.98
681.922	35568.71
682.27	35488.26
682.618	35599.67
682.966	35485.55
683.314	35676.96
683.661	35416.63
684.009	35242.62
684.357	35258.21
684.705	35166.69
685.053	35362.39
685.4	35121.94
685.748	35070.19
686.095	35027.48
686.443	34803.99
686.79	34829.07
687.138	34994.72
687.485	34923.76
687.832	34836.08
688.18	34853.25
688.527	34541.17
688.874	34660.71
689.221	34515.41
689.568	34515.41
689.915	34377.1
690.262	34349.99
690.609	34293.04
690.956	34186.15
691.303	34218.01
691.65	33985.48
691.997	34047.85
692.344	33824.35
692.69	33771.47
693.037	33680.4
693.383	33427.75
693.73	33702.32
694.077	33477.92
694.423	33530.35
694.769	33416.45
695.116	33279.28
695.462	33242.45
695.808	33195.21
696.155	33162
696.501	33009.46
696.847	32951.38
697.193	32769.01
697.539	33002.45
697.885	32607.66
698.231	32539.86
698.577	32462.35
698.923	32524.95
699.269	32116.6
699.614	32081.57
699.96	32132.19
700.306	32204.28
700.651	31974.46
700.997	31792.09
701.342	31969.03
701.688	31860.11
702.033	31729.94
702.379	31647.91
702.724	31621.7
703.069	31632.32
703.415	31270.97
703.76	31276.4
704.105	31372.21
704.45	31298.99
704.795	31124.53
705.14	30947.36
705.485	31124.08
705.83	30981.94
706.175	30916.86
706.52	30738.33
706.865	30676.18
707.209	30775.17
707.554	30534.04
707.899	30668.28
708.243	30458.11
708.588	30403.2
708.932	30273.03
709.277	30206.37
709.621	30223.77
709.966	30045.24
710.31	30000.04
710.654	29863.32
710.998	29904.45
711.342	29819.94
711.687	29730.67
712.031	29620.17
712.375	29549.21
712.719	29697
713.063	29597.12
713.407	29551.24
713.75	29418.82
714.094	29442.32
714.438	29259.27
714.782	29256.11
715.125	29126.62
715.469	29150.8
715.812	29067.19
716.156	28941.54
716.499	28913.07
716.843	28911.49
717.186	28834.2
717.53	28911.94
717.873	28815.44
718.216	28832.17
718.559	28525.28
718.902	28537.03
719.246	28594.88
719.589	28437.37
719.932	28386.75
720.275	28462.46
720.617	28381.33
720.96	28367.09
721.303	28386.53
721.646	28362.12
721.989	28039.19
722.331	28182.47
722.674	28043.94
723.016	28042.36
723.359	28049.14
723.701	28043.49
724.044	27839.42
724.386	27758.3
724.729	27917.84
725.071	27767.79
725.413	27881.68
725.755	27718.52
726.097	27652.99
726.439	27478.3
726.782	27543.84
727.124	27600.11
727.465	27470.39
727.807	27451.18
728.149	27404.18
728.491	27338.87
728.833	27470.17
729.175	27308.59
729.516	27193.79
729.858	27113.34
730.199	27222.49
730.541	27079.67
730.882	27073.34
731.224	27181.36
731.565	27047.58
731.906	26972.78
732.248	27000.12
732.589	26865.66
732.93	26804.42
733.271	26735.72
733.612	26722.16
733.953	26744.08
734.294	26685.33
734.635	26574.82
734.976	26657.76
735.317	26517.88
735.658	26510.42
735.999	26415.73
736.339	26346.58
736.68	26476.52
737.021	26493.02
737.361	26290.31
737.702	26435.84
738.042	26272.68
738.383	26170.54
738.723	26265.68
739.063	26113.82
739.404	26180.03
739.744	26065.91
740.084	25987.04
740.424	26083.76
740.764	25933.48
741.104	26025.46
741.444	25800.83
741.784	25875.86
742.124	25919.93
742.464	25867.95
742.804	25799.93
743.143	25660.72
743.483	25771
743.823	25612.59
744.162	25564.23
744.502	25627.5
744.841	25482.65
745.181	25652.81
745.52	25470.45
745.86	25592.7
746.199	25404.91
746.538	25324.46
746.877	25359.94
747.216	25369.43
747.556	25277.46
747.895	25260.96
748.234	25234.29
748.573	25110.46
748.911	25137.12
749.25	25135.54
749.589	24902.78
749.928	25052.83
750.267	25040.85
750.605	24938.03
750.944	24933.51
751.283	24867.52
751.621	24837.24
751.96	24697.59
752.298	24695.78
752.636	24643.58
752.975	24514.09
753.313	24502.79
753.651	24634.31
753.989	24370.59
754.327	24334.43
754.666	24190.03
755.004	24305.05
755.342	24178.05
755.679	24294.21
756.017	24114.55
756.355	24104.83
756.693	24007.89
757.031	23997.49
757.368	23847.44
757.706	23838.4
758.044	23775.35
758.381	23793.43
758.719	23688.35
759.056	23741
759.394	23575.13
759.731	23536.71
