Data from hue_260_FLMS001491_00071.txt Node
Date: Tue Feb 07 15:59:33 GMT 2017
User: dcchb
Spectrometer: FLMS00149
Trigger mode: 0
Integration Time (sec): 2.000000E-2
Scans to average: 10
Electric dark correction enabled: true
Nonlinearity correction enabled: false
Boxcar width: 0
XAxis mode: Wavelengths
Number of Pixels in Spectrum: 2048
>>>>>Begin Spectral Data<<<<<
341.393	-14.94
341.776	-14.94
342.16	-14.94
342.543	-75.28
342.927	-75.73
343.31	-72.34
343.693	-70.31
344.077	-53.59
344.46	-66.02
344.843	-52.23
345.226	-59.91
345.61	-40.03
345.993	-23.3
346.376	-12.01
346.759	9.69
347.142	23.47
347.525	51.72
347.908	70.25
348.291	92.17
348.674	85.62
349.057	116.8
349.44	116.13
349.823	149.35
350.206	171.04
350.588	171.27
350.971	205.84
351.354	222.79
351.737	211.27
352.119	214.66
352.502	242.23
352.884	257.14
353.267	269.8
353.65	294.65
354.032	295.33
354.414	317.7
354.797	307.76
355.179	308.66
355.562	295.78
355.944	319.51
356.326	305.05
356.709	342.56
357.091	345.27
357.473	335.33
357.855	327.65
358.238	330.81
358.62	330.81
359.002	323.13
359.384	332.62
359.766	326.97
360.148	326.97
360.53	320.64
360.912	330.36
361.294	320.19
361.676	320.87
362.057	309.12
362.439	338.72
362.821	323.58
363.203	311.38
363.584	323.81
363.966	320.19
364.348	309.12
364.729	328.1
365.111	308.89
365.493	302.79
365.874	325.39
366.256	325.39
366.637	281.09
367.019	316.35
367.4	298.27
367.781	302.34
368.163	304.82
368.544	316.12
368.925	328.78
369.306	336.01
369.688	310.47
370.069	319.29
370.45	297.37
370.831	311.38
371.212	320.87
371.593	292.85
371.974	288.78
372.355	294.43
372.736	310.02
373.117	310.7
373.498	316.35
373.879	310.47
374.26	324.93
374.641	312.51
375.021	321.32
375.402	314.09
375.783	326.74
376.163	336.23
376.544	328.78
376.925	334.2
377.305	344.14
377.686	316.8
378.066	309.79
378.447	327.19
378.827	325.16
379.208	325.84
379.588	328.78
379.968	335.78
380.349	321.32
380.729	330.13
381.109	324.48
381.489	342.79
381.87	351.83
382.25	333.07
382.63	328.78
383.01	312.96
383.39	317.25
383.77	338.49
384.15	345.05
384.53	345.73
384.91	342.34
385.29	316.57
385.67	329.68
386.049	350.47
386.429	355.67
386.809	320.64
387.189	358.15
387.568	358.15
387.948	345.95
388.328	353.18
388.707	350.25
389.087	338.04
389.466	363.35
389.846	358.15
390.225	362
390.605	366.52
390.984	366.97
391.363	385.95
391.743	384.59
392.122	381.2
392.501	368.32
392.881	397.7
393.26	357.7
393.639	369.23
394.018	378.04
394.397	380.53
394.776	389.79
395.155	367.42
395.534	379.62
395.913	376.69
396.292	405.84
396.671	385.5
397.05	416.46
397.429	398.38
397.808	394.76
398.186	383.46
398.565	409
398.944	380.98
399.323	396.12
399.701	409.9
400.08	406.29
400.458	390.7
400.837	410.36
401.215	390.02
401.594	422.56
401.972	430.24
402.351	419.62
402.729	442.22
403.107	397.02
403.486	424.59
403.864	448.32
404.242	439.28
404.62	432.5
404.999	450.13
405.377	439.73
405.755	431.37
406.133	447.64
406.511	459.62
406.889	455.33
407.267	449.45
407.645	469.56
408.023	473.18
408.401	465.95
408.779	497.59
409.156	496.23
409.534	501.65
409.912	484.7
410.29	498.94
410.667	524.93
411.045	536.68
411.422	526.29
411.8	514.76
412.178	550.69
412.555	552.05
412.933	566.51
413.31	562.22
413.687	589.33
414.065	561.99
414.442	578.71
414.819	581.2
415.197	581.65
415.574	632.72
415.951	616
416.328	614.42
416.705	652.38
417.082	625.49
417.46	646.73
417.837	630.92
418.214	646.96
418.591	670.24
418.967	665.94
419.344	674.3
419.721	668.65
420.098	682.67
420.475	698.26
420.852	714.08
421.228	697.58
421.605	719.27
421.982	729.67
422.358	726.28
422.735	726.51
423.111	769.22
423.488	775.77
423.864	795.66
424.241	785.94
424.617	803.34
424.994	804.24
425.37	808.09
425.746	825.49
426.123	874.75
426.499	852.15
426.875	863.23
427.251	885.15
427.627	885.6
428.003	896.9
428.379	916.56
428.756	900.74
429.132	899.16
429.507	921.98
429.883	960.17
430.259	968.76
430.635	941.64
431.011	982.54
431.387	993.17
431.763	1017.12
432.138	1005.14
432.514	1040.4
432.89	1036.78
433.265	1037.23
433.641	1053.05
434.016	1112.71
434.392	1105.48
434.767	1116.55
435.143	1132.82
435.518	1145.25
435.894	1165.14
436.269	1166.72
436.644	1184.35
437.02	1207.4
437.395	1258.7
437.77	1239.71
438.145	1266.61
438.52	1259.6
438.895	1302.76
439.271	1319.94
439.646	1341.41
440.021	1372.59
440.395	1366.26
440.77	1354.29
441.145	1394.96
441.52	1402.42
441.895	1408.3
442.27	1424.12
442.645	1425.47
443.019	1446.94
443.394	1441.06
443.769	1500.95
444.143	1488.52
444.518	1495.07
444.892	1516.99
445.267	1535.98
445.641	1554.51
446.016	1536.88
446.39	1556.99
446.764	1556.54
447.139	1549.99
447.513	1566.48
447.887	1591.79
448.262	1584.34
448.636	1598.8
449.01	1638.12
449.384	1642.19
449.758	1661.85
450.132	1674.28
450.506	1671.11
450.88	1703.43
451.254	1699.59
451.628	1732.13
452.002	1740.94
452.376	1749.98
452.75	1770.09
453.123	1771.45
453.497	1819.58
453.871	1803.09
454.244	1849.41
454.618	1846.93
454.992	1857.32
455.365	1898.23
455.739	1925.8
456.112	1919.47
456.486	1929.41
456.859	1978
457.232	2008.28
457.606	2010.77
457.979	1994.27
458.352	2038.79
458.725	2058.22
459.099	2067.26
459.472	2139.58
459.845	2105.68
460.218	2128.73
460.591	2153.36
460.964	2168.5
461.337	2210.31
461.71	2234.94
462.083	2272
462.456	2280.82
462.829	2278.56
463.201	2305.45
463.574	2318.1
463.947	2357.2
464.32	2403.75
464.692	2434.26
465.065	2432.22
465.438	2447.14
465.81	2493.92
466.183	2532.33
466.555	2533.92
466.928	2589.73
467.3	2575.05
467.672	2646.68
468.045	2667.47
468.417	2676.96
468.789	2671.31
469.161	2758.32
469.534	2781.14
469.906	2799.22
470.278	2837.86
470.65	2866.79
471.022	2905.88
471.394	2946.33
471.766	2970.06
472.138	2998.31
472.51	3080.34
472.882	3058.42
473.253	3132.09
473.625	3134.35
473.997	3231.53
474.369	3237.63
474.74	3262.71
475.112	3300.22
475.484	3336.16
475.855	3418.41
476.227	3435.81
476.598	3529.6
476.97	3519.65
477.341	3603.49
477.713	3648.01
478.084	3658.63
478.455	3725.52
478.827	3780.89
479.198	3877.84
479.569	3866.99
479.94	3950.38
480.311	3984.27
480.682	4033.09
481.053	4147.89
481.424	4171.16
481.795	4187.21
482.166	4234.89
482.537	4272.18
482.908	4410.7
483.279	4424.26
483.65	4450.93
484.021	4611.15
484.391	4625.84
484.762	4631.26
485.133	4656.12
485.503	4691.83
485.874	4780.41
486.244	4868.77
486.615	4915.1
486.985	4946.28
487.356	5033.96
487.726	5096.79
488.097	5189.44
488.467	5170.68
488.837	5219.5
489.207	5300.17
489.578	5316.22
489.948	5345.82
490.318	5480.28
490.688	5511.92
491.058	5579.71
491.428	5608.86
491.798	5671.46
492.168	5747.39
492.538	5751.68
492.908	5827.16
493.278	5813.38
493.648	5895.86
494.017	5936.09
494.387	5926.82
494.757	6042.3
495.126	6051.34
495.496	6073.71
495.866	6173.82
496.235	6200.94
496.605	6187.61
496.974	6200.71
497.344	6282.74
497.713	6286.36
498.082	6326.81
498.452	6447.03
498.821	6340.14
499.19	6433.02
499.559	6470.08
499.928	6433.25
500.298	6506.92
500.667	6584.21
501.036	6573.13
501.405	6624.43
501.774	6601.83
502.143	6666.92
502.512	6659.23
502.88	6692.23
503.249	6737.42
503.618	6725.22
503.987	6749.17
504.356	6743.3
504.724	6838.66
505.093	6832.56
505.462	6833.24
505.83	6903.52
506.199	6921.82
506.567	6942.84
506.936	6943.07
507.304	7036.62
507.672	7003.63
508.041	7034.82
508.409	7087.02
508.777	7039.11
509.145	7140.8
509.514	7161.82
509.882	7173.57
510.25	7160.69
510.618	7195.26
510.986	7240.46
511.354	7205.21
511.722	7324.52
512.09	7310.06
512.458	7332.66
512.826	7353
513.193	7308.93
513.561	7324.52
513.929	7402.94
514.297	7341.93
514.664	7439.55
515.032	7487.91
515.4	7496.72
515.767	7503.28
516.135	7526.1
516.502	7421.92
516.869	7519.55
517.237	7496.95
517.604	7545.31
517.972	7522.71
518.339	7607.91
518.706	7564.97
519.073	7598.87
519.44	7643.39
519.808	7647.68
520.175	7624.18
520.542	7716.83
520.909	7705.08
521.276	7683.16
521.643	7759.77
522.009	7800.22
522.376	7799.54
522.743	7769.48
523.11	7811.74
523.477	7868.92
523.843	7838.41
524.21	7939.42
524.577	7936.71
524.943	7950.05
525.31	7955.24
525.676	8010.16
526.043	7993.89
526.409	8049.25
526.776	8087.67
527.142	8100.32
527.508	7966.54
527.874	8076.6
528.241	8068.46
528.607	8076.82
528.973	8143.49
529.339	8115.24
529.705	8182.81
530.071	8236.37
530.437	8126.09
530.803	8188.91
531.169	8249.47
531.535	8176.71
531.901	8228.23
532.267	8246.31
532.632	8230.26
532.998	8228.46
533.364	8205.41
533.73	8225.52
534.095	8252.41
534.461	8279.98
534.826	8274.78
535.192	8335.35
535.557	8342.35
535.923	8226.42
536.288	8250.83
536.653	8321.11
537.019	8269.58
537.384	8216.48
537.749	8230.04
538.114	8259.87
538.479	8232.52
538.845	8229.13
539.21	8173.77
539.575	8233.43
539.94	8188.23
540.305	8212.19
540.67	8281.56
541.034	8175.35
541.399	8233.2
541.764	8211.96
542.129	8225.74
542.494	8210.83
542.858	8147.55
543.223	8183.03
543.587	8242.01
543.952	8189.59
544.316	8166.99
544.681	8093.32
545.045	8191.17
545.41	8152.07
545.774	8200.21
546.138	8150.94
546.503	8193.88
546.867	8193.2
547.231	8172.19
547.595	8193.65
547.959	8146.88
548.324	8176.93
548.688	8195.24
549.052	8111.17
549.416	8104.84
549.779	8120.44
550.143	8103.04
550.507	8141
550.871	8092.64
551.235	8092.64
551.599	8180.55
551.962	8152.53
552.326	8080.44
552.689	8106.43
553.053	8090.38
553.417	8087.89
553.78	8180.77
554.143	8074.79
554.507	8154.11
554.87	8067.78
555.234	8159.76
555.597	8132.87
555.96	8189.81
556.323	8178.51
556.686	8137.38
557.05	8163.82
557.413	8175.8
557.776	8142.36
558.139	8218.06
558.502	8192.3
558.865	8152.75
559.228	8212.64
559.59	8236.37
559.953	8262.58
560.316	8309.36
560.679	8263.26
561.041	8226.87
561.404	8309.13
561.767	8343.48
562.129	8294.22
562.492	8290.15
562.854	8278.17
563.217	8315.23
563.579	8328.79
563.941	8373.54
564.304	8388.68
564.666	8444.04
565.028	8470.94
565.39	8453.08
565.753	8479.75
566.115	8417.38
566.477	8563.14
566.839	8543.93
567.201	8598.62
567.563	8583.02
567.925	8655.56
568.287	8598.62
568.648	8618.73
569.01	8636.13
569.372	8701.44
569.734	8660.76
570.095	8762.23
570.457	8788.89
570.819	8738.5
571.18	8745.28
571.542	8756.58
571.903	8831.83
572.265	8860.98
572.626	8884.71
572.987	8920.19
573.349	8921.09
573.71	8940.75
574.071	8917.03
574.432	9030.02
574.794	9046.06
575.155	8995.44
575.516	9019.4
575.877	9059.62
576.238	9061.43
576.599	9070.47
576.96	9147.75
577.32	9130.81
577.681	9147.75
578.042	9192.05
578.403	9175.1
578.763	9141.88
579.124	9213.51
579.485	9261.42
579.845	9326.05
580.206	9323.12
580.566	9265.94
580.927	9339.16
581.287	9386.39
581.648	9343.91
582.008	9356.11
582.368	9400.4
582.728	9479.04
583.089	9418.26
583.449	9446.73
583.809	9488.08
584.169	9502.55
584.529	9535.09
584.889	9585.26
585.249	9526.27
585.609	9421.19
585.969	9559.49
586.329	9524.24
586.688	9576.67
587.048	9562.88
587.408	9552.26
587.768	9593.62
588.127	9626.61
588.487	9627.29
588.846	9697.8
589.206	9628.19
589.565	9670.45
589.925	9668.64
590.284	9714.97
590.643	9691.47
591.003	9735.99
591.362	9807.4
591.721	9679.72
592.08	9759.49
592.44	9768.53
592.799	9789.09
593.158	9792.93
593.517	9846.49
593.876	9809.88
594.235	9855.31
594.593	9863.67
594.952	9949.31
595.311	9872.71
595.67	9868.86
596.029	9935.53
596.387	9938.24
596.746	9931.69
597.104	9893.72
597.463	9943.44
597.822	10010.78
598.18	9933.27
598.538	9936.66
598.897	9968.98
599.255	9904.57
599.613	10037.67
599.972	9993.83
600.33	10074.74
600.688	10011.01
601.046	10007.84
601.404	10037
601.762	10034.51
602.12	10113.15
602.478	10073.38
602.836	10047.84
603.194	10006.71
603.552	10102.98
603.91	10030.67
604.268	10045.81
604.625	9992.48
604.983	10050.1
605.341	10022.99
605.698	10134.85
606.056	10161.29
606.413	10139.82
606.771	10157.22
607.128	10136.88
607.485	10139.14
607.843	10118.12
608.2	10207.39
608.557	10198.57
608.914	10152.02
609.272	10152.7
609.629	10212.13
609.986	10275.41
610.343	10195.18
610.7	10253.49
611.057	10297.33
611.414	10303.2
611.771	10281.74
612.127	10319.02
612.484	10336.2
612.841	10325.58
613.198	10305.46
613.554	10209.87
613.911	10362.19
614.267	10316.76
614.624	10394.05
614.98	10304.33
615.337	10382.75
615.693	10440.6
616.05	10373.48
616.406	10430.66
616.762	10411
617.118	10373.94
617.475	10404.67
617.831	10390.66
618.187	10444.89
618.543	10463.2
618.899	10496.64
619.255	10485.12
619.611	10418.91
619.967	10481.96
620.323	10486.02
620.678	10462.97
621.034	10450.32
621.39	10483.99
621.746	10480.15
622.101	10541.62
622.457	10496.19
622.812	10490.09
623.168	10534.84
623.523	10482.41
623.879	10632.46
624.234	10500.49
624.589	10450.09
624.945	10518.57
625.3	10508.85
625.655	10518.57
626.01	10470.66
626.365	10462.75
626.72	10417.55
627.075	10508.17
627.43	10514.5
627.785	10508.4
628.14	10478.79
628.495	10491.67
628.85	10453.03
629.205	10425.69
629.559	10531.22
629.914	10466.59
630.269	10486.02
630.623	10399.25
630.978	10412.81
631.332	10456.87
631.687	10456.65
632.041	10398.34
632.396	10413.03
632.75	10359.93
633.104	10339.81
633.459	10324.9
633.813	10408.29
634.167	10360.83
634.521	10298.23
634.875	10274.05
635.229	10330.32
635.583	10245.13
635.937	10326.93
636.291	10193.38
636.645	10248.06
636.999	10239.48
637.352	10239.93
637.706	10194.96
638.06	10206.48
638.413	10166.03
638.767	10152.47
639.121	10183.88
639.474	10100.05
639.828	10147.05
640.181	10135.3
640.534	10100.05
640.888	10072.7
641.241	10040.84
641.594	10052.14
641.947	10061.85
642.301	10029.99
642.654	10067.05
643.007	10122.42
643.36	10058.69
643.713	10002.42
644.066	10041.29
644.419	9973.27
644.771	9960.61
645.124	9812.14
645.477	9837.23
645.83	9726.27
646.182	9742.31
646.535	9782.31
646.888	9785.48
647.24	9728.98
647.593	9760.17
647.945	9629.78
648.298	9705.48
648.65	9624.35
649.002	9641.75
649.355	9702.77
649.707	9671.13
650.059	9776.89
650.411	9805.36
650.763	9855.53
651.115	9920.39
651.467	9890.79
651.819	9920.39
652.171	9893.04
652.523	9849.43
652.875	9897.56
653.227	9815.31
653.578	9867.06
653.93	9879.26
654.282	9858.47
654.633	9794.97
654.985	9804.69
655.337	9862.76
655.688	9903.21
656.039	9946.83
656.391	9852.14
656.742	9867.96
657.094	9940.95
657.445	9898.69
657.796	9884.01
658.147	9846.04
658.498	9865.02
658.849	9926.26
659.2	9806.27
659.551	9806.04
659.902	9838.58
660.253	9888.75
660.604	9915.42
660.955	9803.1
661.306	9868.64
661.656	9807.4
662.007	9893.72
662.358	9905.47
662.708	9923.78
663.059	9866.6
663.409	9867.96
663.76	9792.03
664.11	9909.99
664.461	9879.94
664.811	9888.53
665.161	9844.23
665.511	9881.97
665.862	9856.89
666.212	9917.23
666.562	9835.42
666.912	9893.5
667.262	9800.62
667.612	9808.98
667.962	9854.4
668.312	9822.09
668.662	9889.66
669.011	9836.78
669.361	9860.96
669.711	9807.4
670.06	9811.92
670.41	9821.41
670.76	9818.92
671.109	9820.73
671.459	9823.22
671.808	9776.44
672.157	9831.8
672.507	9783.44
672.856	9734.63
673.205	9782.99
673.554	9788.64
673.904	9735.53
674.253	9790.45
674.602	9742.54
674.951	9535.09
675.3	9604.46
675.649	9754.52
675.998	9696.67
676.346	9698.02
676.695	9747.06
677.044	9658.93
677.393	9702.32
677.741	9640.4
678.09	9668.64
678.438	9628.87
678.787	9604.46
679.135	9606.5
679.484	9590.68
679.832	9613.05
680.181	9555.88
680.529	9628.42
680.877	9554.97
681.225	9543.9
681.573	9643.11
681.922	9450.8
682.27	9549.55
682.618	9520.4
682.966	9497.8
683.314	9429.55
683.661	9477.91
684.009	9390.91
684.357	9395.2
684.705	9349.56
685.053	9321.99
685.4	9376
685.748	9237.47
686.095	9284.02
686.443	9241.99
686.79	9165.61
687.138	9230.24
687.485	9216
687.832	9212.38
688.18	9191.37
688.527	9125.83
688.874	9114.08
689.221	9041.77
689.568	9102.78
689.915	8999.28
690.262	9013.75
690.609	9020.75
690.956	9037.25
691.303	8981.88
691.65	8964.03
691.997	8916.8
692.344	8799.74
692.69	8848.78
693.037	8875.44
693.383	8778.5
693.73	8820.53
694.077	8749.8
694.423	8745.05
694.769	8741.44
695.116	8687.43
695.462	8676.13
695.808	8632.06
696.155	8598.84
696.501	8569.92
696.847	8548.9
697.193	8468.45
697.539	8483.82
697.885	8428.68
698.231	8380.54
698.577	8439.52
698.923	8313.2
699.269	8369.24
699.614	8371.5
699.96	8239.76
700.306	8275.01
700.651	8278.4
700.997	8203.6
701.342	8155.46
701.688	8156.14
702.033	8081.57
702.379	8084.28
702.724	8046.31
703.069	8056.94
703.415	7978.97
703.76	7953.66
704.105	7984.39
704.45	7915.7
704.795	7893.32
705.14	7868.92
705.485	7822.14
705.83	7830.5
706.175	7803.61
706.52	7758.64
706.865	7811.29
707.209	7755.47
707.554	7730.62
707.899	7735.59
708.243	7720.9
708.588	7651.75
708.932	7591.86
709.277	7608.59
709.621	7626.44
709.966	7535.82
710.31	7565.87
710.654	7546.21
710.998	7541.02
711.342	7515.25
711.687	7556.61
712.031	7423.96
712.375	7463.5
712.719	7436.39
713.063	7422.15
713.407	7429.38
713.75	7390.29
714.094	7421.47
714.438	7339.67
714.782	7339.67
715.125	7351.19
715.469	7369.95
715.812	7317.07
716.156	7311.64
716.499	7240.91
716.843	7271.87
717.186	7239.56
717.53	7344.41
717.873	7227.58
718.216	7278.2
718.559	7173.79
718.902	7139.67
719.246	7195.71
719.589	7090.86
719.932	7161.14
720.275	7167.69
720.617	7162.27
720.96	7135.83
721.303	7127.47
721.646	7181.93
721.989	7083.85
722.331	7083.63
722.674	7068.94
723.016	7107.13
723.359	7093.12
723.701	7083.85
724.044	7082.95
724.386	7027.13
724.729	7077.98
725.071	7033.46
725.413	7049.28
725.755	6985.32
726.097	6995.72
726.439	6921.15
726.782	6960.92
727.124	7002.05
727.465	6913.91
727.807	6969.73
728.149	6952.11
728.491	6933.12
728.833	6909.17
729.175	6964.08
729.516	6921.37
729.858	6888.38
730.199	6878.43
730.541	6931.09
730.882	6877.53
731.224	6910.07
731.565	6879.11
731.906	6896.97
732.248	6903.29
732.589	6854.71
732.93	6892.9
733.271	6846.35
733.612	6953.24
733.953	6877.31
734.294	6886.57
734.635	6893.35
734.976	6874.37
735.317	6886.8
735.658	6850.19
735.999	6851.99
736.339	6889.28
736.68	6869.62
737.021	6855.38
737.361	6874.37
737.702	6877.76
738.042	6877.76
738.383	6842.73
738.723	6906.46
739.063	6864.88
739.404	6964.31
739.744	6872.56
740.084	6913.24
740.424	6903.29
740.764	6933.57
741.104	6933.12
741.444	6952.78
741.784	6899.23
742.124	6951.43
742.464	7006.12
742.804	6991.2
743.143	6997.98
743.483	7013.8
743.823	7010.18
744.162	7016.74
744.502	7043.18
744.841	7051.09
745.181	7083.18
745.52	7066.68
745.86	7118.43
746.199	7140.8
746.538	7126.79
746.877	7207.47
747.216	7246.79
747.556	7241.36
747.895	7292.44
748.234	7300.57
748.573	7315.94
748.911	7365.88
749.25	7461.92
749.589	7463.5
749.928	7521.13
750.267	7610.85
750.605	7670.73
750.944	7594.35
751.283	7705.98
751.621	7782.59
751.96	7903.94
752.298	7901.91
752.636	8020.1
752.975	8070.27
753.313	8127.67
753.651	8239.08
753.989	8288.57
754.327	8419.64
754.666	8376.93
755.004	8534.66
755.342	8670.03
755.679	8722
756.017	8764.49
756.355	8979.4
756.693	8987.76
757.031	9117.25
757.368	9204.02
757.706	9343.68
758.044	9406.96
758.381	9539.16
758.719	9700.28
759.056	9791.13
759.394	9912.03
759.731	10022.99
760.068	10137.78
760.405	10255.97
760.743	10296.88
761.08	10456.42
761.417	10594.04
761.754	10733.25
762.091	10867.93
762.428	10978.89
762.765	11127.81
763.102	11248.72
763.438	11346.79
763.775	11480.12
764.112	11581.59
764.449	11744.97
764.785	11917.85
765.122	11976.38
765.458	12032.65
765.795	12239.42
766.131	12349.03
766.467	12464.73
