Data from hue_210_FLMS001491_00004.txt Node
Date: Tue Feb 07 16:40:40 GMT 2017
User: dcchb
Spectrometer: FLMS00149
Trigger mode: 0
Integration Time (sec): 2.000000E-2
Scans to average: 10
Electric dark correction enabled: true
Nonlinearity correction enabled: false
Boxcar width: 0
XAxis mode: Wavelengths
Number of Pixels in Spectrum: 2048
>>>>>Begin Spectral Data<<<<<
341.393	2.94
341.776	2.94
342.16	2.94
342.543	-57.63
342.927	-63.28
343.31	-52.43
343.693	-63.05
344.077	-55.14
344.46	-43.39
344.843	-68.92
345.226	-38.42
345.61	-40
345.993	-17.85
346.376	-14.01
346.759	9.04
347.142	35.25
347.525	25.54
347.908	69.15
348.291	65.08
348.674	95.82
349.057	93.33
349.44	125.42
349.823	145.08
350.206	145.76
350.588	184.18
350.971	208.36
351.354	217.4
351.737	220.56
352.119	250.84
352.502	237.73
352.884	258.07
353.267	261.24
353.65	289.71
354.032	298.52
354.414	306.43
354.797	319.54
355.179	312.99
355.562	330.16
355.944	308.01
356.326	337.62
356.709	319.54
357.091	338.75
357.473	331.52
357.855	350.5
358.238	328.58
358.62	342.14
359.002	340.78
359.384	330.84
359.766	334.68
360.148	327.9
360.53	326.77
360.912	332.65
361.294	341.23
361.676	334.45
362.057	328.13
362.439	310.27
362.821	324.96
363.203	325.42
363.584	341.69
363.966	325.19
364.348	314.34
364.729	321.12
365.111	324.29
365.493	312.76
365.874	341.91
366.256	321.57
366.637	294.46
367.019	305.75
367.4	302.59
367.781	317.73
368.163	305.3
368.544	306.66
368.925	313.66
369.306	330.16
369.688	313.89
370.069	304.62
370.45	327.68
370.831	297.62
371.212	317.28
371.593	305.53
371.974	314.34
372.355	325.19
372.736	312.08
373.117	294.46
373.498	317.73
373.879	301.69
374.26	287.45
374.641	302.36
375.021	292.65
375.402	305.08
375.783	311.86
376.163	328.35
376.544	319.54
376.925	327.68
377.305	330.39
377.686	324.96
378.066	340.33
378.447	332.19
378.827	330.16
379.208	305.53
379.588	323.61
379.968	326.32
380.349	331.74
380.729	302.59
381.109	322.03
381.489	344.4
381.87	311.18
382.25	349.82
382.63	335.58
383.01	345.3
383.39	336.71
383.77	319.54
384.15	359.76
384.53	350.73
384.91	361.57
385.29	347.56
385.67	327.9
386.049	370.61
386.429	357.5
386.809	372.87
387.189	358.18
387.568	356.15
387.948	352.08
388.328	350.05
388.707	367.45
389.087	359.09
389.466	381.68
389.846	351.18
390.225	351.18
390.605	352.31
390.984	363.61
391.363	366.77
391.743	384.17
392.122	374.45
392.501	364.28
392.881	367.45
393.26	371.52
393.639	363.83
394.018	384.85
394.397	399.99
394.776	376.04
395.155	391.63
395.534	406.54
395.913	394.57
396.292	419.42
396.671	392.31
397.05	398.18
397.429	395.7
397.808	390.95
398.186	395.47
398.565	408.8
398.944	412.19
399.323	385.3
399.701	418.29
400.08	417.84
400.458	423.94
400.837	435.02
401.215	442.02
401.594	407.45
401.972	423.04
402.351	448.12
402.729	431.63
403.107	440.21
403.486	423.04
403.864	435.47
404.242	438.86
404.62	435.47
404.999	440.89
405.377	451.51
405.755	454
406.133	459.2
406.511	456.94
406.889	496.26
407.267	491.74
407.645	479.31
408.023	473.66
408.401	486.54
408.779	493.32
409.156	511.62
409.534	524.05
409.912	499.65
410.29	538.06
410.667	546.65
411.045	543.49
411.422	564.5
411.8	555.69
412.178	578.74
412.555	580.32
412.933	559.76
413.31	585.3
413.687	608.35
414.065	606.09
414.442	628.01
414.819	647.67
415.197	620.77
415.574	637.72
415.951	678.63
416.328	659.42
416.705	654.67
417.082	682.47
417.46	672.07
417.837	707.78
418.214	697.38
418.591	717.95
418.967	732.18
419.344	757.04
419.721	749.13
420.098	780.09
420.475	766.99
420.852	765.63
421.228	782.8
421.605	799.3
421.982	807.21
422.358	825.06
422.735	824.61
423.111	855.57
423.488	893.76
423.864	911.84
424.241	891.95
424.617	894.67
424.994	933.99
425.37	928.56
425.746	945.06
426.123	980.09
426.499	984.83
426.875	1013.53
427.251	1013.76
427.627	1028.67
428.003	1037.26
428.379	1043.59
428.756	1073.42
429.132	1078.16
429.507	1095.11
429.883	1104.38
430.259	1123.13
430.635	1123.81
431.011	1145.73
431.387	1150.25
431.763	1197.71
432.138	1162
432.514	1211.95
432.89	1231.61
433.265	1273.64
433.641	1265.05
434.016	1288.78
434.392	1326.97
434.767	1341.66
435.143	1337.14
435.518	1412.62
435.894	1413.3
436.269	1447.87
436.644	1468.89
437.02	1500.53
437.395	1488.1
437.77	1522.22
438.145	1558.15
438.52	1617.81
438.895	1631.82
439.271	1620.07
439.646	1643.8
440.021	1683.35
440.395	1719.28
440.77	1705.04
441.145	1709.33
441.52	1764.02
441.895	1786.39
442.27	1817.13
442.645	1806.96
443.019	1865.94
443.394	1855.32
443.769	1866.84
444.143	1855.09
444.518	1942.1
444.892	1921.98
445.267	1933.96
445.641	1961.08
446.016	1966.5
446.39	1983.9
446.764	2036.56
447.139	2004.69
447.513	2037.01
447.887	2028.2
448.262	2059.15
448.636	2072.49
449.01	2095.99
449.384	2141.19
449.758	2150.45
450.132	2164.91
450.506	2152.03
450.88	2189.77
451.254	2200.62
451.628	2218.92
452.002	2244.69
452.376	2244.01
452.75	2305.02
453.123	2310.9
453.497	2344.57
453.871	2393.16
454.244	2376.21
454.618	2411.91
454.992	2441.97
455.365	2450.33
455.739	2522.65
456.112	2524.91
456.486	2557.9
456.859	2570.55
457.232	2592.02
457.606	2635.64
457.979	2635.64
458.352	2702.98
458.725	2780.94
459.099	2747.95
459.472	2798.12
459.845	2836.08
460.218	2841.73
460.591	2867.72
460.964	2877.44
461.337	2935.29
461.71	2977.32
462.083	2968.51
462.456	3019.36
462.829	3030.43
463.201	3090.99
463.574	3104.55
463.947	3168.73
464.32	3236.75
464.692	3276.75
465.065	3225.68
465.438	3311.33
465.81	3344.09
466.183	3378.89
466.555	3403.07
466.928	3462.73
467.3	3461.38
467.672	3522.39
468.045	3613.92
468.417	3608.72
468.789	3652.33
469.161	3671.54
469.534	3697.08
469.906	3788.6
470.278	3830.63
470.65	3835.38
471.022	3964.42
471.394	4027.92
471.766	4009.16
472.138	4040.57
472.51	4128.93
472.882	4166.67
473.253	4223.62
473.625	4281.92
473.997	4356.04
474.369	4401.69
474.74	4424.29
475.112	4514.01
475.484	4584.06
475.855	4629.03
476.227	4670.84
476.598	4789.03
476.97	4824.51
477.341	4907.22
477.713	4980.89
478.084	4993.54
478.455	5136.59
478.827	5165.51
479.198	5291.61
479.569	5285.06
479.94	5431.04
480.311	5449.57
480.682	5553.98
481.053	5683.24
481.424	5768.89
481.795	5774.99
482.166	5841.65
482.537	5890.01
482.908	5968.2
483.279	6075.55
483.65	6161.87
484.021	6248.88
484.391	6364.13
484.762	6402.32
485.133	6484.58
485.503	6516.89
485.874	6650.9
486.244	6724.79
486.615	6762.08
486.985	6874.17
487.356	6931.57
487.726	7003.88
488.097	7138.12
488.467	7104.67
488.837	7277.55
489.207	7301.05
489.578	7468.96
489.948	7442.52
490.318	7567.94
490.688	7591.66
491.058	7698.55
491.428	7784.88
491.798	7858.1
492.168	8057.19
492.538	8010.41
492.908	8043.63
493.278	8157.75
493.648	8112.33
494.017	8219.44
494.387	8258.99
494.757	8331.31
495.126	8421.02
495.496	8422.6
495.866	8491.98
496.235	8573.79
496.605	8616.72
496.974	8639.55
497.344	8739.88
497.713	8746.44
498.082	8751.86
498.452	8879.54
498.821	8821.24
499.19	8880.9
499.559	8979.65
499.928	9013.32
500.298	9054.9
500.667	9061.46
501.036	9043.15
501.405	9155.69
501.774	9148.46
502.143	9165.41
502.512	9178.06
502.88	9237.05
503.249	9283.82
503.618	9315.91
503.987	9275.46
504.356	9312.75
504.724	9381.22
505.093	9454.89
505.462	9472.52
505.83	9446.08
506.199	9520.88
506.567	9585.28
506.936	9532.63
507.304	9657.37
507.672	9640.65
508.041	9670.71
508.409	9692.4
508.777	9767.43
509.145	9853.3
509.514	9713.19
509.882	9802.45
510.25	9814.66
510.618	9845.84
510.986	9761.55
511.354	9893.53
511.722	9947.31
512.09	9990.7
512.458	9895.78
512.826	9978.27
513.193	9999.29
513.561	10057.36
513.929	10030.24
514.297	10166.96
514.664	10098.94
515.032	10068.66
515.4	10098.72
515.767	10122.9
516.135	10134.65
516.502	10132.39
516.869	10203.35
517.237	10214.42
517.604	10089.68
517.972	10157.7
518.339	10183.91
518.706	10203.8
519.073	10183.46
519.44	10222.33
519.808	10311.82
520.175	10298.94
520.542	10240.18
520.909	10238.6
521.276	10272.27
521.643	10343.91
522.009	10349.11
522.376	10365.38
522.743	10290.35
523.11	10412.83
523.477	10402.89
523.843	10450.8
524.21	10470.69
524.577	10537.35
524.943	10458.03
525.31	10508.42
525.676	10520.63
526.043	10590.91
526.409	10578.48
526.776	10550.01
527.142	10637.01
527.508	10567.86
527.874	10572.83
528.241	10620.51
528.607	10541.42
528.973	10654.18
529.339	10536.22
529.705	10528.76
530.071	10600.17
530.437	10547.97
530.803	10613.73
531.169	10607.18
531.535	10501.42
531.901	10546.16
532.267	10559.27
532.632	10556.33
532.998	10523.57
533.364	10492.61
533.73	10506.84
534.095	10510.46
534.461	10505.49
534.826	10472.04
535.192	10453.51
535.557	10490.8
535.923	10426.62
536.288	10414.42
536.653	10470.91
537.019	10294.42
537.384	10338.94
537.749	10317.47
538.114	10301.42
538.479	10269.56
538.845	10212.61
539.21	10141.43
539.575	10127.19
539.94	10160.41
540.305	10146.63
540.67	10130.58
541.034	10093.75
541.399	10110.24
541.764	10069.57
542.129	10060.3
542.494	10025.27
542.858	9953.18
543.223	9957.7
543.587	9963.81
543.952	9857.14
544.316	9877.93
544.681	9827.54
545.045	9817.82
545.41	9789.57
545.774	9785.28
546.138	9737.37
546.503	9687.2
546.867	9655.79
547.231	9610.14
547.595	9603.36
547.959	9689.46
548.324	9623.48
548.688	9541.22
549.052	9554.33
549.416	9478.39
549.779	9489.47
550.143	9436.59
550.507	9555.45
550.871	9447.66
551.235	9357.49
551.599	9395.01
551.962	9384.84
552.326	9341.9
552.689	9303.48
553.053	9192.98
553.417	9270.04
553.78	9337.83
554.143	9207.89
554.507	9271.39
554.87	9204.96
555.234	9256.48
555.597	9145.75
555.96	9116.82
556.323	9145.75
556.686	9094.22
557.05	9167.22
557.413	9133.77
557.776	9122.7
558.139	9125.41
558.502	9111.85
558.865	9049.93
559.228	9072.3
559.59	9064.17
559.953	9079.54
560.316	9159.76
560.679	9076.6
561.041	9077.5
561.404	9109.82
561.767	9108.91
562.129	9043.83
562.492	9112.08
562.854	9052.42
563.217	9066.2
563.579	9082.7
563.941	9079.08
564.304	9082.25
564.666	9054.23
565.028	9094.68
565.39	9096.03
565.753	9144.62
566.115	9163.83
566.477	9160.66
566.839	9084.51
567.201	9149.82
567.563	9143.49
567.925	9228.91
568.287	9163.83
568.648	9162.47
569.01	9199.98
569.372	9267.78
569.734	9181.45
570.095	9248.34
570.457	9238.18
570.819	9227.78
571.18	9143.04
571.542	9301.9
571.903	9306.87
572.265	9297.16
572.626	9303.71
572.987	9286.31
573.349	9337.38
573.71	9365.63
574.071	9316.82
574.432	9406.31
574.794	9386.87
575.155	9354.33
575.516	9267.1
575.877	9421.9
576.238	9440.66
576.599	9405.85
576.96	9435.68
577.32	9348
577.681	9422.58
578.042	9493.54
578.403	9455.34
578.763	9430.03
579.124	9490.82
579.485	9555.45
579.845	9501.67
580.206	9501.22
580.566	9494.44
580.927	9510.03
581.287	9526.08
581.648	9508
582.008	9580.09
582.368	9567.43
582.728	9600.65
583.089	9579.86
583.449	9620.09
583.809	9589.13
584.169	9702.8
584.529	9646.3
584.889	9730.14
585.249	9577.6
585.609	9615.57
585.969	9592.06
586.329	9622.57
586.688	9647.88
587.048	9668.45
587.408	9695.34
587.768	9641.1
588.127	9616.92
588.487	9678.84
588.846	9684.04
589.206	9649.01
589.565	9604.72
589.925	9688.78
590.284	9637.49
590.643	9734.43
591.003	9764.04
591.362	9753.19
591.721	9710.25
592.08	9756.58
592.44	9784.15
592.799	9782.79
593.158	9706.86
593.517	9742.57
593.876	9765.84
594.235	9720.2
594.593	9738.28
594.952	9722.23
595.311	9743.92
595.67	9779.18
596.029	9839.74
596.387	9811.95
596.746	9807.2
597.104	9790.03
597.463	9722.23
597.822	9798.39
598.18	9763.59
598.538	9835.67
598.897	9833.19
599.255	9755.68
599.613	9914.09
599.972	9837.71
600.33	9835.9
600.688	9807.88
601.046	9846.07
601.404	9851.94
601.762	9844.03
602.12	9877.93
602.478	9858.05
602.836	9896.91
603.194	9880.64
603.552	9895.11
603.91	9871.38
604.268	9897.37
604.625	9833.41
604.983	9872.73
605.341	9821.89
605.698	9867.99
606.056	9938.5
606.413	9806.3
606.771	9937.82
607.128	9912.28
607.485	9923.58
607.843	9917.48
608.2	9924.48
608.557	9982.11
608.914	9938.04
609.272	10067.76
609.629	9923.81
609.986	10021.66
610.343	9943.02
610.7	9992.96
611.057	10086.97
611.414	10022.34
611.771	9958.38
612.127	10063.92
612.484	10014.43
612.841	10035.44
613.198	9976.69
613.554	9951.15
613.911	10140.52
614.267	10046.52
614.624	10105.72
614.98	10086.06
615.337	10080.86
615.693	10130.36
616.05	10072.05
616.406	10093.07
616.762	10126.97
617.118	10117.7
617.475	10067.08
617.831	10111.82
618.187	10072.05
618.543	10170.58
618.899	10171.71
619.255	10085.84
619.611	10185.72
619.967	10178.72
620.323	10206.06
620.678	10167.19
621.034	10123.58
621.39	10144.37
621.746	10134.2
622.101	10282.44
622.457	10138.94
622.812	10181.65
623.168	10211.71
623.523	10194.76
623.879	10180.07
624.234	10115.89
624.589	10234.99
624.945	10240.63
625.3	10204.7
625.655	10097.14
626.01	10217.58
626.365	10160.18
626.72	10125.61
627.075	10170.81
627.43	10103.01
627.785	10155.89
628.14	10134.87
628.495	10164.7
628.85	10095.55
629.205	10086.74
629.559	10154.31
629.914	10105.27
630.269	10148.43
630.623	10123.12
630.978	10043.35
631.332	10108.43
631.687	10088.55
632.041	10040.87
632.396	10126.29
632.75	9961.32
633.104	10004.93
633.459	10035.44
633.813	9910.25
634.167	9974.2
634.521	10025.05
634.875	9987.76
635.229	10045.16
635.583	9886.75
635.937	9919.51
636.291	9922.68
636.645	9868.44
636.999	9859.4
637.352	9889.91
637.706	9804.71
638.06	9854.88
638.413	9825.73
638.767	9820.31
639.121	9764.04
639.474	9780.31
639.828	9788.9
640.181	9796.13
640.534	9798.84
640.888	9749.57
641.241	9709.12
641.594	9704.15
641.947	9782.79
642.301	9728.56
642.654	9706.64
643.007	9731.72
643.36	9691.95
643.713	9627.32
644.066	9691.04
644.419	9660.08
644.771	9634.55
645.124	9523.59
645.477	9505.29
645.83	9490.37
646.182	9465.97
646.535	9386.19
646.888	9389.58
647.24	9304.84
647.593	9387.1
647.945	9298.29
648.298	9306.87
648.65	9319.53
649.002	9262.81
649.355	9331.96
649.707	9349.58
650.059	9373.31
650.411	9501.45
650.763	9481.78
651.115	9628.22
651.467	9632.06
651.819	9574.89
652.171	9525.85
652.523	9580.77
652.875	9571.5
653.227	9477.94
653.578	9595.68
653.93	9497.38
654.282	9517.26
654.633	9439.3
654.985	9564.27
655.337	9591.61
655.688	9606.08
656.039	9559.75
656.391	9514.55
656.742	9533.08
657.094	9552.97
657.445	9615.34
657.796	9575.12
658.147	9595.68
658.498	9498.28
658.849	9543.25
659.2	9596.58
659.551	9524.27
659.902	9587.32
660.253	9537.15
660.604	9525.85
660.955	9547.77
661.306	9551.84
661.656	9612.85
662.007	9618.28
662.358	9652.18
662.708	9601.1
663.059	9568.34
663.409	9601.1
663.76	9669.35
664.11	9574.21
664.461	9581.89
664.811	9583.02
665.161	9593.87
665.511	9620.54
665.862	9586.87
666.212	9693.76
666.562	9685.4
666.912	9540.99
667.262	9611.27
667.612	9580.09
667.962	9592.29
668.312	9536.7
668.662	9642.46
669.011	9641.1
669.361	9592.29
669.711	9565.85
670.06	9598.39
670.41	9558.17
670.76	9500.54
671.109	9559.97
671.459	9479.52
671.808	9594.78
672.157	9517.26
672.507	9523.37
672.856	9530.82
673.205	9497.83
673.554	9495.12
673.904	9539.64
674.253	9489.69
674.602	9562.46
674.951	9363.6
675.3	9375.57
675.649	9479.3
675.998	9506.64
676.346	9503.93
676.695	9579.41
677.044	9435.23
677.393	9452.18
677.741	9359.98
678.09	9364.5
678.438	9364.5
678.787	9360.66
679.135	9385.52
679.484	9307.1
679.832	9334.67
680.181	9353.43
680.529	9299.87
680.877	9313.65
681.225	9307.1
681.573	9290.83
681.922	9238.63
682.27	9160.89
682.618	9181.45
682.966	9215.35
683.314	9208.35
683.661	9167.44
684.009	9116.6
684.357	9134.45
684.705	9134.22
685.053	9079.76
685.4	9098.29
685.748	8997.5
686.095	9049.71
686.443	8964.96
686.79	8977.17
687.138	9014
687.485	8980.78
687.832	8917.73
688.18	8903.72
688.527	8855.59
688.874	8853.33
689.221	8824.17
689.568	8754.57
689.915	8734.46
690.262	8819.2
690.609	8756.61
690.956	8708.02
691.303	8680.45
691.65	8609.72
691.997	8694.23
692.344	8522.04
692.69	8543.28
693.037	8580.57
693.383	8485.88
693.73	8432.09
694.077	8394.81
694.423	8451.3
694.769	8356.84
695.116	8423.73
695.462	8318.2
695.808	8331.98
696.155	8290.86
696.501	8227.81
696.847	8212.21
697.193	8161.82
697.539	8213.12
697.885	8177.86
698.231	8151.88
698.577	8131.99
698.923	8096.06
699.269	8101.03
699.614	8013.57
699.96	8003.63
700.306	8000.24
700.651	7958.43
700.997	7875.5
701.342	7866.91
701.688	7880.47
702.033	7851.77
702.379	7820.13
702.724	7737.2
703.069	7797.54
703.415	7649.06
703.76	7651.78
704.105	7729.06
704.45	7663.98
704.795	7637.99
705.14	7562.96
705.485	7545.11
705.83	7574.04
706.175	7551.21
706.52	7533.81
706.865	7492.46
707.209	7476.87
707.554	7446.36
707.899	7460.14
708.243	7395.51
708.588	7398
708.932	7327.72
709.277	7334.72
709.621	7334.27
709.966	7313.48
710.31	7286.59
710.654	7234.61
710.998	7207.72
711.342	7225.57
711.687	7164.78
712.031	7128.85
712.375	7143.54
712.719	7156.2
713.063	7080.49
713.407	7175.63
713.75	7141.96
714.094	7102.19
714.438	7067.16
714.782	7066.71
715.125	7006.14
715.469	7056.31
715.812	7022.64
716.156	6979.7
716.499	7000.49
716.843	7032.36
717.186	6974.28
717.53	6963.21
717.873	7004.34
718.216	6994.84
718.559	6916.88
718.902	6950.33
719.246	6877.79
719.589	6853.83
719.932	6885.02
720.275	6835.98
720.617	6854.96
720.96	6822.87
721.303	6831.68
721.646	6817.45
721.989	6724.34
722.331	6761.18
722.674	6739.94
723.016	6824.23
723.359	6761.63
723.701	6761.63
724.044	6777.9
724.386	6723.67
724.729	6772.7
725.071	6750.78
725.413	6748.3
725.755	6773.38
726.097	6665.81
726.439	6678.02
726.782	6637.57
727.124	6772.93
727.465	6687.96
727.807	6698.81
728.149	6673.95
728.491	6588.08
728.833	6678.02
729.175	6660.16
729.516	6653.84
729.858	6638.47
730.199	6644.12
730.541	6647.06
730.882	6634.4
731.224	6686.38
731.565	6663.1
731.906	6652.48
732.248	6612.03
732.589	6543.56
732.93	6610.67
733.271	6614.29
733.612	6641.18
733.953	6682.54
734.294	6611.58
734.635	6573.84
734.976	6608.19
735.317	6584.46
735.658	6624.46
735.999	6669.2
736.339	6655.19
736.68	6703.78
737.021	6635.98
737.361	6635.53
737.702	6701.07
738.042	6636.66
738.383	6652.03
738.723	6711.01
739.063	6645.93
739.404	6730.22
739.744	6726.38
740.084	6724.57
740.424	6722.76
740.764	6654.29
741.104	6785.36
741.444	6779.48
741.784	6786.26
742.124	6842.76
742.464	6810.44
742.804	6823.32
743.143	6817
743.483	6812.02
743.823	6840.72
744.162	6854.74
744.502	6921.17
744.841	6883.66
745.181	6931.8
745.52	6949.65
745.86	7003.43
746.199	7051.57
746.538	7088.85
746.877	7146.48
747.216	7179.92
747.556	7204.78
747.895	7277.77
748.234	7295.4
748.573	7341.05
748.911	7406.58
749.25	7415.85
749.589	7539.24
749.928	7584.66
750.267	7655.39
750.605	7620.59
750.944	7724.77
751.283	7800.7
751.621	7883.41
751.96	7936.74
752.298	8095.61
752.636	8218.77
752.975	8169.28
753.313	8282.72
753.651	8441.81
753.989	8503.73
754.327	8659.43
754.666	8738.75
755.004	8839.77
755.342	9006.54
755.679	9067.11
756.017	9189.14
756.355	9444.27
756.693	9558.39
757.031	9692.17
757.368	9768.78
757.706	9931.49
758.044	10068.89
758.381	10237.92
758.719	10406.28
759.056	10536.45
759.394	10735.99
759.731	10847.4
760.068	11054.62
760.405	11255.52
760.743	11373.71
761.08	11567.38
761.417	11658
761.754	11933.92
762.091	12066.58
762.428	12210.07
762.765	12351.31
763.102	12594.25
763.438	12684.41
763.775	12973.44
764.112	13107.9
764.449	13264.28
764.785	13308.12
765.122	13518.06
765.458	13680.32
765.795	13917.83
