Data from hue_250_FLMS001491_00071.txt Node
Date: Tue Feb 07 16:01:26 GMT 2017
User: dcchb
Spectrometer: FLMS00149
Trigger mode: 0
Integration Time (sec): 2.000000E-2
Scans to average: 10
Electric dark correction enabled: true
Nonlinearity correction enabled: false
Boxcar width: 0
XAxis mode: Wavelengths
Number of Pixels in Spectrum: 2048
>>>>>Begin Spectral Data<<<<<
341.393	-4.19
341.776	-4.19
342.16	-4.19
342.543	-86.23
342.927	-71.99
343.31	-57.75
343.693	-71.99
344.077	-49.39
344.46	-77.19
344.843	-47.36
345.226	-43.29
345.61	-35.15
345.993	-14.36
346.376	-4.19
346.759	9.36
347.142	12.53
347.525	48.01
347.908	47.1
348.291	72.41
348.674	88.68
349.057	122.58
349.44	117.16
349.823	111.06
350.206	142.24
350.588	182.92
350.971	180.21
351.354	213.65
351.737	210.49
352.119	258.85
352.502	252.3
352.884	239.64
353.267	232.18
353.65	272.41
354.032	275.35
354.414	290.26
354.797	324.38
355.179	316.7
355.562	304.95
355.944	323.93
356.326	299.07
356.709	308.11
357.091	326.42
357.473	324.61
357.855	317.83
358.238	329.36
358.62	320.32
359.002	337.04
359.384	334.55
359.766	322.8
360.148	328.68
360.53	330.94
360.912	325.74
361.294	310.37
361.676	334.1
362.057	304.95
362.439	326.42
362.821	317.6
363.203	327.77
363.584	325.74
363.966	313.54
364.348	307.89
364.729	308.79
365.111	312.86
365.493	304.95
365.874	289.58
366.256	329.81
366.637	307.66
367.019	310.83
367.4	314.89
367.781	298.62
368.163	308.57
368.544	293.65
368.925	276.25
369.306	312.63
369.688	318.51
370.069	314.21
370.45	307.89
370.831	289.58
371.212	299.53
371.593	304.95
371.974	295.46
372.355	299.3
372.736	320.54
373.117	310.83
373.498	291.39
373.879	306.76
374.26	304.95
374.641	301.33
375.021	285.29
375.402	307.44
375.783	314.67
376.163	299.75
376.544	311.5
376.925	303.37
377.305	328
377.686	314.21
378.066	337.72
378.447	312.86
378.827	331.16
379.208	332.29
379.588	336.59
379.968	346.98
380.349	312.41
380.729	340.65
381.109	325.74
381.489	331.39
381.87	306.76
382.25	334.78
382.63	321.45
383.01	309.7
383.39	315.8
383.77	326.19
384.15	325.74
384.53	328.68
384.91	354.44
385.29	335.91
385.67	322.12
386.049	337.72
386.429	348.56
386.809	365.06
387.189	333.42
387.568	337.72
387.948	357.38
388.328	357.15
388.707	355.8
389.087	369.81
389.466	342.24
389.846	346.76
390.225	354.44
390.605	331.84
390.984	365.74
391.363	349.24
391.743	353.54
392.122	364.61
392.501	359.64
392.881	384.04
393.26	351.05
393.639	367.32
394.018	375.91
394.397	392.4
394.776	354.44
395.155	398.73
395.534	397.15
395.913	408.22
396.292	403.7
396.671	385.85
397.05	378.85
397.429	385.85
397.808	394.21
398.186	402.8
398.565	409.58
398.944	375.23
399.323	402.8
399.701	407.55
400.08	411.39
400.458	415.23
400.837	396.02
401.215	414.78
401.594	415.91
401.972	412.74
402.351	398.73
402.729	430.14
403.107	431.5
403.486	418.39
403.864	432.86
404.242	430.82
404.62	442.12
404.999	442.12
405.377	442.57
405.755	468.11
406.133	461.33
406.511	440.77
406.889	456.81
407.267	441.22
407.645	443.48
408.023	448.22
408.401	461.1
408.779	456.36
409.156	488.9
409.534	498.84
409.912	496.13
410.29	497.26
410.667	526.41
411.045	510.14
411.422	516.92
411.8	510.14
412.178	503.59
412.555	552.17
412.933	562.12
413.31	547.2
413.687	536.58
414.065	552.63
414.442	548.11
414.819	559.18
415.197	582.23
415.574	577.48
415.951	601.66
416.328	615.22
416.705	614.77
417.082	608.22
417.46	619.29
417.837	643.47
418.214	609.35
418.591	636.24
418.967	664.49
419.344	643.7
419.721	670.59
420.098	645.05
420.475	685.96
420.852	678.5
421.228	696.58
421.605	680.08
421.982	716.69
422.358	729.57
422.735	729.12
423.111	729.57
423.488	741.1
423.864	759.85
424.241	749.46
424.617	771.6
424.994	778.16
425.37	801.66
425.746	795.11
426.123	812.96
426.499	812.05
426.875	831.49
427.251	832.39
427.627	849.79
428.003	871.04
428.379	885.5
428.756	893.41
429.132	885.73
429.507	895.89
429.883	935.22
430.259	917.36
430.635	946.06
431.011	970.69
431.387	960.3
431.763	953.52
432.138	961.43
432.514	986.29
432.89	993.75
433.265	1037.13
433.641	1038.49
434.016	1063.12
434.392	1068.55
434.767	1067.19
435.143	1100.41
435.518	1112.39
435.894	1123.91
436.269	1149.22
436.644	1145.61
437.02	1168.2
437.395	1189.45
437.77	1196.45
438.145	1207.52
438.52	1235.32
438.895	1250.69
439.271	1260.86
439.646	1288.65
440.021	1294.75
440.395	1310.57
440.77	1298.37
441.145	1346.05
441.52	1395.54
441.895	1346.28
442.27	1371.59
442.645	1390.57
443.019	1403.23
443.394	1377.46
443.769	1384.92
444.143	1423.11
444.518	1457.69
444.892	1444.35
445.267	1470.79
445.641	1500.17
446.016	1457.91
446.39	1509.66
446.764	1477.35
447.139	1494.75
447.513	1502.88
447.887	1531.36
448.262	1558.7
448.636	1552.15
449.01	1578.59
449.384	1604.8
449.758	1581.53
450.132	1608.64
450.506	1603.9
450.88	1668.3
451.254	1627.17
451.628	1644.8
452.002	1631.47
452.376	1676.89
452.75	1697
453.123	1697.46
453.497	1738.13
453.871	1774.52
454.244	1798.47
454.618	1777.68
454.992	1795.53
455.365	1805.93
455.739	1864.46
456.112	1858.81
456.486	1855.64
456.859	1881.18
457.232	1930.22
457.606	1924.12
457.979	1948.97
458.352	1960.5
458.725	1997.33
459.099	1972.02
459.472	2057.45
459.845	2073.04
460.218	2090.67
460.591	2096.31
460.964	2104.22
461.337	2145.58
461.71	2201.85
462.083	2210.44
462.456	2251.11
462.829	2188.74
463.201	2244.79
463.574	2242.07
463.947	2295.63
464.32	2286.14
464.692	2393.26
465.065	2377.44
465.438	2376.53
465.81	2406.59
466.183	2465.57
466.555	2474.61
466.928	2491.33
467.3	2494.04
467.672	2564.33
468.045	2597.77
468.417	2637.54
468.789	2614.72
469.161	2658.56
469.534	2703.53
469.906	2763.64
470.278	2757.54
470.65	2807.03
471.022	2848.39
471.394	2905.33
471.766	2920.7
472.138	2887.93
472.51	2987.82
472.882	3038.44
473.253	3026.46
473.625	3086.12
473.997	3139.23
474.369	3135.38
474.74	3195.5
475.112	3279.79
475.484	3287.7
475.855	3359.33
476.227	3339.9
476.598	3437.07
476.97	3458.31
477.341	3561.36
477.713	3567.46
478.084	3581.7
478.455	3714.35
478.827	3747.8
479.198	3813.11
479.569	3829.6
479.94	3888.13
480.311	3931.07
480.682	3996.15
481.053	4061.69
481.424	4106.88
481.795	4225.3
482.166	4233.66
482.537	4286.99
482.908	4369.25
483.279	4389.14
483.65	4439.3
484.021	4536.25
484.391	4543.71
484.762	4585.06
485.133	4620.99
485.503	4701.44
485.874	4790.26
486.244	4803.59
486.615	4896.47
486.985	4958.16
487.356	5004.26
487.726	5076.58
488.097	5143.24
488.467	5137.14
488.837	5241.77
489.207	5268.66
489.578	5352.73
489.948	5406.51
490.318	5430.24
490.688	5467.75
491.058	5567.18
491.428	5586.84
491.798	5622.1
492.168	5751.59
492.538	5785.71
492.908	5821.19
493.278	5918.36
493.648	5866.61
494.017	5981.41
494.387	5970.56
494.757	5983.9
495.126	6079.71
495.496	6025.25
495.866	6125.81
496.235	6225.25
496.605	6236.77
496.974	6248.75
497.344	6297.56
497.713	6361.06
498.082	6356.32
498.452	6456.2
498.821	6401.96
499.19	6481.51
499.559	6557.89
499.928	6528.97
500.298	6555.86
500.667	6582.52
501.036	6616.65
501.405	6623.65
501.774	6718.11
502.143	6705.69
502.512	6745.01
502.88	6792.46
503.249	6795.63
503.618	6803.08
503.987	6806.25
504.356	6941.39
504.724	6925.57
505.093	6933.25
505.462	6989.29
505.83	6984.32
506.199	6982.51
506.567	7106.8
506.936	7015.28
507.304	7124.88
507.672	7055.28
508.041	7159.23
508.409	7184.32
508.777	7207.82
509.145	7222.06
509.514	7291.21
509.882	7291.66
510.25	7278.55
510.618	7277.87
510.986	7340.7
511.354	7429.51
511.722	7451.88
512.09	7482.61
512.458	7441.94
512.826	7479.22
513.193	7508.6
513.561	7527.13
513.929	7560.58
514.297	7600.8
514.664	7623.4
515.032	7619.56
515.4	7734.13
515.767	7696.17
516.135	7681.48
516.502	7647.13
516.869	7694.13
517.237	7726.45
517.604	7737.97
517.972	7755.15
518.339	7804.64
518.706	7786.33
519.073	7876.28
519.44	7839.44
519.808	7831.76
520.175	7910.4
520.542	7944.07
520.909	7953.11
521.276	7934.58
521.643	7967.12
522.009	7992.21
522.376	7984.07
522.743	8112.43
523.11	8103.61
523.477	8128.7
523.843	8178.41
524.21	8190.62
524.577	8168.7
524.943	8171.86
525.31	8219.77
525.676	8335.25
526.043	8347
526.409	8261.12
526.776	8304.06
527.142	8361.46
527.508	8346.09
527.874	8467.45
528.241	8392.42
528.607	8444.85
528.973	8492.76
529.339	8501.8
529.705	8523.26
530.071	8485.53
530.437	8551.51
530.803	8533.43
531.169	8506.77
531.535	8538.63
531.901	8563.94
532.267	8529.82
532.632	8526.2
532.998	8591.74
533.364	8617.5
533.73	8561.46
534.095	8617.95
534.461	8615.24
534.826	8601
535.192	8630.83
535.557	8648.91
535.923	8664.96
536.288	8657.27
536.653	8675.8
537.019	8549.93
537.384	8683.71
537.749	8632.41
538.114	8617.73
538.479	8679.19
538.845	8676.71
539.21	8574.79
539.575	8676.25
539.94	8631.51
540.305	8681.45
540.67	8657.27
541.034	8619.31
541.399	8591.51
541.764	8646.2
542.129	8679.19
542.494	8631.28
542.858	8638.74
543.223	8572.3
543.587	8668.12
543.952	8650.94
544.316	8608.46
544.681	8626.54
545.045	8624.73
545.41	8676.25
545.774	8664.73
546.138	8571.62
546.503	8663.83
546.867	8591.51
547.231	8633.54
547.595	8622.47
547.959	8615.92
548.324	8534.11
548.688	8609.59
549.052	8577.05
549.416	8567.11
549.779	8608.01
550.143	8534.79
550.507	8660.66
550.871	8593.55
551.235	8588.12
551.599	8623.37
551.962	8635.35
552.326	8629.02
552.689	8624.05
553.053	8577.5
553.417	8654.79
553.78	8639.19
554.143	8664.96
554.507	8682.58
554.87	8633.09
555.234	8701.34
555.597	8592.19
555.96	8685.97
556.323	8662.92
556.686	8664.96
557.05	8712.64
557.413	8721.23
557.776	8675.8
558.139	8691.17
558.502	8773.65
558.865	8693.66
559.228	8804.39
559.59	8773.43
559.953	8736.82
560.316	8860.66
560.679	8838.51
561.041	8875.35
561.404	8958.51
561.767	8924.38
562.129	8905.85
562.492	9004.38
562.854	8930.26
563.217	8927.1
563.579	8939.98
563.941	8980.2
564.304	9011.84
564.666	9098.62
565.028	9100.88
565.39	9120.76
565.753	9146.53
566.115	9157.6
566.477	9186.3
566.839	9163.02
567.201	9235.34
567.563	9267.88
567.925	9292.74
568.287	9221.78
568.648	9258.16
569.01	9323.02
569.372	9375.9
569.734	9359.4
570.095	9420.64
570.457	9433.3
570.819	9453.86
571.18	9462
571.542	9478.49
571.903	9530.92
572.265	9516.46
572.626	9575.89
572.987	9564.59
573.349	9565.05
573.71	9647.75
574.071	9671.48
574.432	9682.56
574.794	9696.34
575.155	9726.4
575.516	9701.31
575.877	9735.44
576.238	9712.84
576.599	9791.25
576.96	9794.64
577.32	9824.47
577.681	9824.47
578.042	9862.44
578.403	9855.21
578.763	9861.08
579.124	9906.96
579.485	9971.81
579.845	9984.24
580.206	9953.06
580.566	9996.45
580.927	10043.9
581.287	10057.01
581.648	9969.55
582.008	10052.94
582.368	10065.82
582.728	10109.89
583.089	10126.16
583.449	10101.75
583.809	10117.12
584.169	10189.66
584.529	10157.12
584.889	10290.45
585.249	10180.62
585.609	10145.59
585.969	10161.19
586.329	10219.04
586.688	10206.38
587.048	10264.01
587.408	10199.15
587.768	10246.84
588.127	10336.1
588.487	10264.91
588.846	10385.81
589.206	10257.46
589.565	10299.72
589.925	10330.22
590.284	10387.4
590.643	10290.22
591.003	10408.86
591.362	10421.29
591.721	10367.74
592.08	10304.23
592.44	10410.45
592.799	10393.27
593.158	10437.79
593.517	10417.68
593.876	10487.51
594.235	10357.79
594.593	10416.32
594.952	10418.58
595.311	10449.99
595.67	10396.44
596.029	10546.49
596.387	10534.29
596.746	10477.79
597.104	10513.27
597.463	10498.81
597.822	10574.28
598.18	10444.34
598.538	10505.59
598.897	10574.74
599.255	10498.35
599.613	10652.25
599.972	10598.92
600.33	10529.54
600.688	10540.61
601.046	10640.5
601.404	10640.27
601.762	10607.05
602.12	10630.78
602.478	10704.45
602.836	10640.05
603.194	10621.74
603.552	10567.5
603.91	10587.84
604.268	10591.23
604.625	10586.04
604.983	10667.61
605.341	10668.52
605.698	10739.48
606.056	10729.08
606.413	10644.79
606.771	10623.55
607.128	10692.02
607.485	10635.07
607.843	10659.93
608.2	10751.45
608.557	10818.8
608.914	10750.1
609.272	10771.79
609.629	10798.01
609.986	10815.86
610.343	10766.37
610.7	10906.03
611.057	10845.01
611.414	10783.54
611.771	10839.81
612.127	10890.43
612.484	10894.73
612.841	10914.84
613.198	10841.85
613.554	10951
613.911	10996.42
614.267	10949.19
614.624	10854.28
614.98	10896.99
615.337	11001.62
615.693	10878.68
616.05	10925.24
616.406	11009.75
616.762	10923.88
617.118	10991
617.475	10945.8
617.831	10989.87
618.187	11014.5
618.543	11029.41
618.899	11065.8
619.255	11045.68
619.611	11023.76
619.967	11092.91
620.323	11158.22
620.678	11055.18
621.034	10970.43
621.39	11034.61
621.746	10979.02
622.101	11135.4
622.457	11003.2
622.812	11045.23
623.168	11058.34
623.523	11150.09
623.879	11062.63
624.234	11035.29
624.589	11108.06
624.945	11035.97
625.3	11068.06
625.655	11051.11
626.01	11136.53
626.365	11145.57
626.72	11032.13
627.075	11064.67
627.43	11113.7
627.785	11018.57
628.14	11037.55
628.495	11073.03
628.85	11008.17
629.205	10921.17
629.559	11115.06
629.914	10972.47
630.269	11068.51
630.623	10983.99
630.978	10955.07
631.332	11013.14
631.687	10962.3
632.041	10929.08
632.396	10965.23
632.75	10953.48
633.104	10888.17
633.459	10851.34
633.813	10884.56
634.167	10833.49
634.521	10853.15
634.875	10853.6
635.229	10835.29
635.583	10783.09
635.937	10765.47
636.291	10817.44
636.645	10781.28
636.999	10769.76
637.352	10756.88
637.706	10708.97
638.06	10732.02
638.413	10705.35
638.767	10693.38
639.121	10726.37
639.474	10620.38
639.828	10683.43
640.181	10691.34
640.534	10702.87
640.888	10633.72
641.241	10540.84
641.594	10603.44
641.947	10713.04
642.301	10580.61
642.654	10587.62
643.007	10715.3
643.36	10627.62
643.713	10500.16
644.066	10570.44
644.419	10529.54
644.771	10495.87
645.124	10319.38
645.477	10345.14
645.83	10304.69
646.182	10203.22
646.535	10168.65
646.888	10211.58
647.24	10163
647.593	10224.46
647.945	10123.9
648.298	10132.04
648.65	10101.53
649.002	10087.52
649.355	10105.14
649.707	10184.01
650.059	10152.6
650.411	10312.6
650.763	10222.65
651.115	10430.56
651.467	10399.15
651.819	10342.65
652.171	10329.77
652.523	10241.86
652.875	10353.5
653.227	10242.09
653.578	10362.31
653.93	10366.83
654.282	10275.76
654.633	10228.08
654.985	10346.04
655.337	10278.47
655.688	10300.39
656.039	10316.89
656.391	10252.94
656.742	10310.56
657.094	10318.7
657.445	10273.95
657.796	10264.24
658.147	10191.02
658.498	10245.93
658.849	10338.81
659.2	10257.68
659.551	10320.96
659.902	10277.79
660.253	10280.51
660.604	10307.17
660.955	10299.94
661.306	10285.25
661.656	10266.72
662.007	10239.6
662.358	10251.13
662.708	10280.51
663.059	10283.67
663.409	10165.71
663.76	10259.04
664.11	10224.24
664.461	10282.09
664.811	10302.65
665.161	10230.11
665.511	10226.95
665.862	10331.8
666.212	10380.84
666.562	10266.95
666.912	10277.57
667.262	10259.72
667.612	10262.88
667.962	10311.47
668.312	10223.78
668.662	10320.73
669.011	10276.66
669.361	10187.63
669.711	10222.43
670.06	10253.61
670.41	10221.98
670.76	10217.01
671.109	10221.3
671.459	10237.34
671.808	10179.94
672.157	10209.77
672.507	10148.76
672.856	10175.2
673.205	10191.02
673.554	10199.83
673.904	10122.54
674.253	10192.15
674.602	10075.77
674.951	9985.37
675.3	9933.85
675.649	10102.43
675.998	10030.34
676.346	10149.89
676.695	10143.11
677.044	10108.76
677.393	10131.58
677.741	10089.78
678.09	10056.78
678.438	10021.53
678.787	10049.33
679.135	9986.28
679.484	9971.36
679.832	9987.41
680.181	9962.77
680.529	9962.55
680.877	9954.41
681.225	9923.45
681.573	9948.54
681.922	9935.43
682.27	9895.66
682.618	9840.97
682.966	9822.44
683.314	9820.41
683.661	9841.42
684.009	9777.47
684.357	9743.12
684.705	9746.51
685.053	9786.28
685.4	9760.29
685.748	9637.36
686.095	9634.42
686.443	9652.05
686.79	9561.43
687.138	9621.54
687.485	9665.83
687.832	9600.3
688.18	9612.28
688.527	9544.71
688.874	9558.72
689.221	9556.46
689.568	9483.69
689.915	9441.88
690.262	9401.89
690.609	9336.8
690.956	9353.75
691.303	9317.82
691.65	9239.86
691.997	9257.26
692.344	9270.82
692.69	9256.13
693.037	9270.82
693.383	9196.92
693.73	9236.47
694.077	9073.08
694.423	9133.42
694.769	9062.69
695.116	9046.41
695.462	9075.57
695.808	9011.16
696.155	8985.63
696.501	8947.66
696.847	8950.15
697.193	8915.12
697.539	8909.47
697.885	8825.18
698.231	8779.98
698.577	8727.55
698.923	8770.49
699.269	8719.19
699.614	8688.01
699.96	8694.11
700.306	8641.23
700.651	8638.97
700.997	8557.39
701.342	8565.98
701.688	8556.48
702.033	8515.36
702.379	8532.08
702.724	8517.84
703.069	8491.18
703.415	8327.11
703.76	8339.99
704.105	8380.9
704.45	8320.33
704.795	8278.3
705.14	8284.4
705.485	8253.67
705.83	8240.33
706.175	8211.63
706.52	8155.36
706.865	8173.67
707.209	8222.93
707.554	8117.4
707.899	8121.24
708.243	8089.6
708.588	8052.09
708.932	8034.92
709.277	8035.82
709.621	8028.81
709.966	7909.5
710.31	7961.25
710.654	7891.19
710.998	7884.86
711.342	7868.59
711.687	7844.86
712.031	7813.23
712.375	7864.98
712.719	7806.22
713.063	7819.78
713.407	7819.55
713.75	7768.93
714.094	7791.76
714.438	7751.08
714.782	7750.4
715.125	7758.54
715.469	7728.26
715.812	7699.78
716.156	7654.36
716.499	7633.8
716.843	7640.12
717.186	7585.21
717.53	7701.82
717.873	7614.36
718.216	7689.61
718.559	7525.1
718.902	7558.77
719.246	7587.47
719.589	7488.94
719.932	7504.99
720.275	7537.75
720.617	7481.71
720.96	7471.77
721.303	7518.32
721.646	7497.3
721.989	7431.09
722.331	7458.43
722.674	7441.94
723.016	7399
723.359	7446.23
723.701	7389.06
724.044	7347.25
724.386	7351.32
724.729	7358.55
725.071	7323.97
725.413	7329.62
725.755	7333.24
726.097	7326.91
726.439	7290.75
726.782	7340.02
727.124	7373.92
727.465	7234.71
727.807	7317.87
728.149	7266.8
728.491	7251.66
728.833	7272.22
729.175	7266.12
729.516	7246.01
729.858	7281.49
730.199	7209.17
730.541	7232.9
730.882	7198.55
731.224	7254.6
731.565	7210.53
731.906	7203.98
732.248	7275.61
732.589	7211.89
732.93	7139.8
733.271	7206.24
733.612	7188.84
733.953	7105.9
734.294	7209.4
734.635	7144.77
734.976	7211.21
735.317	7093.7
735.658	7123.98
735.999	7256.18
736.339	7144.32
736.68	7196.52
737.021	7121.95
737.361	7159.01
737.702	7138.44
738.042	7166.46
738.383	7165.33
738.723	7223.64
739.063	7154.49
739.404	7159.68
739.744	7161.27
740.084	7199.46
740.424	7205.79
740.764	7228.16
741.104	7217.08
741.444	7088.73
741.784	7173.24
742.124	7167.59
742.464	7180.93
742.804	7303.86
743.143	7200.36
743.483	7253.02
743.823	7212.11
744.162	7277.87
744.502	7272.22
744.841	7262.51
745.181	7249.4
745.52	7313.58
745.86	7316.52
746.199	7342.96
746.538	7379.11
746.877	7353.8
747.216	7413.24
747.556	7459.11
747.895	7446.68
748.234	7500.47
748.573	7542.05
748.911	7548.83
749.25	7576.17
749.589	7624.98
749.928	7683.06
750.267	7693
750.605	7699.11
750.944	7737.52
751.283	7818.65
751.621	7917.86
751.96	7931.87
752.298	7978.42
752.636	8102.03
752.975	8028.59
753.313	8155.59
753.651	8214.12
753.989	8250.28
754.327	8363.95
754.666	8411.4
755.004	8439.65
755.342	8565.52
755.679	8641.68
756.017	8669.02
756.355	8799.87
756.693	8855.69
757.031	8974.55
757.368	9029.92
757.706	9116.47
758.044	9146.07
758.381	9331.15
758.719	9378.38
759.056	9488.66
759.394	9621.99
759.731	9627.19
760.068	9746.96
760.405	9857.01
760.743	9931.59
761.08	10093.84
761.417	10138.36
761.754	10242.99
762.091	10325.93
762.428	10331.58
762.765	10496.09
763.102	10635.53
763.438	10603.89
763.775	10795.07
764.112	10880.04
