Data from hue_38_FLMS001491_00049.txt Node
Date: Tue Feb 07 17:31:34 GMT 2017
User: dcchb
Spectrometer: FLMS00149
Trigger mode: 0
Integration Time (sec): 2.000000E-2
Scans to average: 10
Electric dark correction enabled: true
Nonlinearity correction enabled: false
Boxcar width: 0
XAxis mode: Wavelengths
Number of Pixels in Spectrum: 2048
>>>>>Begin Spectral Data<<<<<
341.393	-27.03
341.776	-27.03
342.16	-27.03
342.543	-71.1
342.927	-70.65
343.31	-86.92
343.693	-63.42
344.077	-63.87
344.46	-65.9
344.843	-50.54
345.226	-50.99
345.61	-24.55
345.993	0.31
346.376	-8.05
346.759	0.31
347.142	25.17
347.525	40.54
347.908	71.27
348.291	61.1
348.674	97.48
349.057	118.05
349.44	141.32
349.823	145.39
350.206	157.37
350.588	189.91
350.971	220.42
351.354	232.17
351.737	247.31
352.119	226.97
352.502	263.58
352.884	268.33
353.267	270.13
353.65	290.47
354.032	327.99
354.414	309.91
354.797	316.46
355.179	335.44
355.562	327.31
355.944	328.89
356.326	334.99
356.709	327.08
357.091	329.12
357.473	343.8
357.855	338.83
358.238	332.73
358.62	344.03
359.002	308.55
359.384	345.84
359.766	366.4
360.148	359.4
360.53	324.37
360.912	325.27
361.294	328.44
361.676	344.26
362.057	344.71
362.439	344.93
362.821	341.32
363.203	326.18
363.584	339.74
363.966	331.6
364.348	339.28
364.729	318.72
365.111	325.27
365.493	323.92
365.874	293.64
366.256	319.62
366.637	322.79
367.019	321.21
367.4	328.66
367.781	301.55
368.163	312.17
368.544	309.46
368.925	319.4
369.306	306.07
369.688	304.48
370.069	321.88
370.45	351.26
370.831	295.44
371.212	306.29
371.593	326.86
371.974	313.52
372.355	298.61
372.736	321.88
373.117	313.97
373.498	325.5
373.879	327.76
374.26	338.38
374.641	323.47
375.021	334.31
375.402	330.92
375.783	325.95
376.163	308.78
376.544	308.78
376.925	342.45
377.305	329.79
377.686	324.37
378.066	320.98
378.447	338.83
378.827	337.25
379.208	318.27
379.588	342
379.968	334.99
380.349	340.41
380.729	327.31
381.109	332.28
381.489	340.87
381.87	330.7
382.25	336.35
382.63	347.19
383.01	309
383.39	321.66
383.77	324.82
384.15	320.75
384.53	342.45
384.91	348.1
385.29	316.69
385.67	339.28
386.049	345.16
386.429	372.28
386.809	358.95
387.189	343.8
387.568	351.71
387.948	348.1
388.328	346.29
388.707	357.14
389.087	354.2
389.466	367.08
389.846	356.69
390.225	342
390.605	372.5
390.984	378.83
391.363	370.24
391.743	385.39
392.122	373.63
392.501	391.03
392.881	400.98
393.26	379.96
393.639	376.12
394.018	372.5
394.397	376.35
394.776	389.23
395.155	393.52
395.534	368.89
395.913	373.63
396.292	396.91
396.671	399.85
397.05	399.62
397.429	379.06
397.808	377.48
398.186	394.65
398.565	388.78
398.944	387.42
399.323	402.79
399.701	400.75
400.08	401.2
400.458	385.39
400.837	401.43
401.215	413.86
401.594	396.46
401.972	390.58
402.351	395.1
402.729	395.55
403.107	410.92
403.486	405.72
403.864	400.3
404.242	395.78
404.62	416.12
404.999	415.67
405.377	413.41
405.755	429.23
406.133	421.09
406.511	423.58
406.889	420.64
407.267	427.19
407.645	438.04
408.023	440.53
408.401	425.16
408.779	410.24
409.156	458.6
409.534	444.82
409.912	452.73
410.29	445.72
410.667	469.9
411.045	452.05
411.422	456.57
411.8	469.45
412.178	472.16
412.555	462.22
412.933	477.36
413.31	462.45
413.687	485.95
414.065	476.91
414.442	476
414.819	495.21
415.197	457.93
415.574	488.43
415.951	516.68
416.328	498.15
416.705	503.35
417.082	493.86
417.46	511.71
417.837	524.14
418.214	505.38
418.591	488.43
418.967	515.55
419.344	526.4
419.721	535.21
420.098	516.23
420.475	536.34
420.852	507.87
421.228	510.13
421.605	538.6
421.982	549.45
422.358	557.36
422.735	540.64
423.111	534.08
423.488	561.43
423.864	542.22
424.241	559.84
424.617	560.52
424.994	556.91
425.37	567.98
425.746	551.93
426.123	578.15
426.499	545.83
426.875	579.28
427.251	589.9
427.627	565.72
428.003	610.46
428.379	585.61
428.756	599.84
429.132	617.24
429.507	615.44
429.883	624.25
430.259	626.51
430.635	635.32
431.011	631.71
431.387	612.5
431.763	648.66
432.138	614.98
432.514	645.49
432.89	665.83
433.265	648.43
433.641	674.42
434.016	661.31
434.392	679.84
434.767	695.21
435.143	678.26
435.518	697.47
435.894	687.07
436.269	697.47
436.644	704.47
437.02	716.68
437.395	705.15
437.77	716.9
438.145	702.44
438.52	733.4
438.895	711.93
439.271	736.56
439.646	720.07
440.021	730.24
440.395	738.14
440.77	760.29
441.145	783.79
441.52	768.43
441.895	762.1
442.27	748.99
442.645	763.68
443.019	762.55
443.394	799.84
443.769	762.55
444.143	774.3
444.518	788.99
444.892	806.17
445.267	817.01
445.641	809.1
446.016	786.73
446.39	795.77
446.764	802.1
447.139	820.4
447.513	835.54
447.887	824.24
448.262	827.41
448.636	822.89
449.01	857.92
449.384	834.64
449.758	845.26
450.132	873.28
450.506	843.45
450.88	885.71
451.254	857.92
451.628	896.56
452.002	874.86
452.376	901.76
452.75	883.68
453.123	905.15
453.497	917.8
453.871	948.53
454.244	950.12
454.618	930.23
454.992	963.45
455.365	979.27
455.739	980.4
456.112	973.62
456.486	987.4
456.859	985.82
457.232	1006.84
457.606	1007.52
457.979	1047.51
458.352	1018.36
458.725	1055.65
459.099	1050.68
459.472	1056.33
459.845	1083.67
460.218	1097.01
460.591	1113.28
460.964	1078.25
461.337	1115.08
461.71	1150.56
462.083	1169.09
462.456	1171.35
462.829	1175.42
463.201	1208.64
463.574	1221.07
463.947	1198.7
464.32	1221.07
464.692	1248.41
465.065	1236.21
465.438	1252.26
465.81	1264.46
466.183	1317.79
466.555	1322.31
466.928	1336.32
467.3	1352.37
467.672	1355.98
468.045	1402.99
468.417	1400.5
468.789	1421.97
469.161	1437.34
469.534	1488.41
469.906	1513.49
470.278	1516.43
470.65	1560.5
471.022	1564.34
471.394	1593.94
471.766	1619.03
472.138	1664.45
472.51	1684.79
472.882	1702.41
473.253	1741.96
473.625	1799.36
473.997	1790.55
474.369	1854.73
474.74	1866.25
475.112	1929.53
475.484	1957.77
475.855	2022.4
476.227	2025.12
476.598	2082.97
476.97	2101.27
477.341	2181.72
477.713	2238.9
478.084	2256.97
478.455	2343.53
478.827	2394.82
479.198	2456.74
479.569	2501.04
479.94	2601.82
480.311	2661.48
480.682	2733.12
481.053	2783.97
481.424	2874.36
481.795	2923.17
482.166	2965.43
482.537	3045.65
482.908	3155.26
483.279	3254.01
483.65	3308.92
484.021	3397.28
484.391	3447.45
484.762	3575.13
485.133	3650.84
485.503	3688.35
485.874	3802.02
486.244	3884.05
486.615	4010.83
486.985	4102.58
487.356	4198.84
487.726	4248.33
488.097	4420.31
488.467	4471.83
488.837	4585.05
489.207	4665.27
489.578	4807.19
489.948	4924.48
490.318	5071.36
490.688	5094.19
491.058	5248.99
491.428	5269.78
491.798	5413.05
492.168	5580.28
492.538	5619.37
492.908	5791.12
493.278	5893.72
493.648	5953.83
494.017	6039.25
494.387	6137.78
494.757	6278.56
495.126	6361.5
495.496	6455.28
495.866	6575.05
496.235	6640.81
496.605	6813.46
496.974	6834.71
497.344	6958.09
497.713	7037.19
498.082	7131.2
498.452	7286.9
498.821	7399.21
499.19	7405.54
499.559	7524.41
499.928	7631.3
500.298	7662.26
500.667	7843.27
501.036	7856.38
501.405	8057.5
501.774	8064.51
502.143	8130.04
502.512	8200.1
502.88	8333.2
503.249	8373.2
503.618	8457.94
503.987	8577.94
504.356	8641.21
504.724	8752.62
505.093	8810.02
505.462	8815.67
505.83	8977.02
506.199	9045.27
506.567	9197.81
506.936	9220.63
507.304	9288.43
507.672	9413.85
508.041	9485.26
508.409	9498.59
508.777	9609.55
509.145	9748.98
509.514	9773.61
509.882	9867.62
510.25	9891.58
510.618	9967.96
510.986	9988.75
511.354	10141.29
511.722	10187.61
512.09	10356.65
512.458	10354.61
512.826	10485.23
513.193	10509.86
513.561	10540.37
513.929	10714.15
514.297	10764.32
514.664	10846.13
515.032	10819.69
515.4	11034.82
515.767	11017.65
516.135	11188.72
516.502	11108.95
516.869	11219.68
517.237	11296.28
517.604	11247.47
517.972	11417.64
518.339	11500.12
518.706	11491.31
519.073	11569.05
519.44	11685.43
519.808	11812.66
520.175	11798.19
520.542	11954.12
520.909	11991.86
521.276	11992.54
521.643	12130.84
522.009	12175.81
522.376	12280.89
522.743	12309.59
523.11	12419.87
523.477	12587.55
523.843	12557.72
524.21	12654.89
524.577	12814.66
524.943	12881.55
525.31	12973.75
525.676	13020.99
526.043	13090.81
526.409	13210.13
526.776	13321.09
527.142	13331.26
527.508	13380.98
527.874	13512.5
528.241	13522.89
528.607	13660.52
528.973	13787.52
529.339	13843.34
529.705	13981.19
530.071	14029.09
530.437	14128.53
530.803	14233.61
531.169	14251.01
531.535	14288.3
531.901	14309.76
532.267	14449.42
532.632	14480.83
532.998	14525.58
533.364	14625.01
533.73	14702.75
534.095	14827.72
534.461	14787.04
534.826	14844.89
535.192	14950.2
535.557	15072.23
535.923	15058.9
536.288	15139.12
536.653	15182.74
537.019	15189.97
537.384	15310.87
537.749	15344.54
538.114	15354.48
538.479	15494.82
538.845	15561.94
539.21	15471.77
539.575	15609.39
539.94	15704.3
540.305	15760.57
540.67	15789.05
541.034	15794.25
541.399	15921.7
541.764	15974.81
542.129	16060.91
542.494	16127.8
542.858	16100.68
543.223	16180
543.587	16273.1
543.952	16231.3
544.316	16401.01
544.681	16366.43
545.045	16502.25
545.41	16615.69
545.774	16632.42
546.138	16672.19
546.503	16691.17
546.867	16808.68
547.231	16909.24
547.595	16934.1
547.959	17035.12
548.324	17058.17
548.688	17077.83
549.052	17172.97
549.416	17134.32
549.779	17300.42
550.143	17258.84
550.507	17445.95
550.871	17497.7
551.235	17463.81
551.599	17580.41
551.962	17579.28
552.326	17678.26
552.689	17746.74
553.053	17748.09
553.417	17769.56
553.78	17988.09
554.143	17973.4
554.507	18079.61
554.87	18046.62
555.234	18270.56
555.597	18224.46
555.96	18324.12
556.323	18391.69
556.686	18346.72
557.05	18454.74
557.413	18534.96
557.776	18622.19
558.139	18701.97
558.502	18771.34
558.865	18739.71
559.228	18901.96
559.59	18848.63
559.953	18930.89
560.316	19183.99
560.679	19143.54
561.041	19301.5
561.404	19361.84
561.767	19549.85
562.129	19452.45
562.492	19659.68
562.854	19641.38
563.217	19608.83
563.579	19776.06
563.941	19821.03
564.304	19854.48
564.666	20046.34
565.028	20074.13
565.39	20084.53
565.753	20206.79
566.115	20269.38
566.477	20353.45
566.839	20388.7
567.201	20515.03
567.563	20519.77
567.925	20818.97
568.287	20809.48
568.648	20667.79
569.01	20952.75
569.372	21007.67
569.734	21025.52
570.095	21179.64
570.457	21275.46
570.819	21257.15
571.18	21310.26
571.542	21421.67
571.903	21554.55
572.265	21689.23
572.626	21650.59
572.987	21751.83
573.349	21839.06
573.71	21975.55
574.071	21973.74
574.432	22097.58
574.794	22427.74
575.155	22329.22
575.516	22446.05
575.877	22578.93
576.238	22823.21
576.599	22881.97
576.96	22948.18
577.32	22980.95
577.681	23144.11
578.042	23237.89
578.403	23383.2
578.763	23502.07
579.124	23761.72
579.485	23905.22
579.845	24080.81
580.206	24174.59
580.566	24314.7
580.927	24432.66
581.287	24698.87
581.648	24775.03
582.008	25048.47
582.368	25032.65
582.728	25228.57
583.089	25391.73
583.449	25608.45
583.809	25724.83
584.169	25981.32
584.529	25959.85
584.889	26358.26
585.249	26415.21
585.609	26588.76
585.969	26863.56
586.329	26967.06
586.688	27306.94
587.048	27367.95
587.408	27567.27
587.768	27754.16
588.127	28009.52
588.487	28106.46
588.846	28545.1
589.206	28573.34
589.565	28765.66
589.925	29072.99
590.284	29138.98
590.643	29488.8
591.003	29706.2
591.362	29957.26
591.721	30063.48
592.08	30272.96
592.44	30447.87
592.799	30842.89
593.158	31002.66
593.517	31165.14
593.876	31226.38
594.235	31375.53
594.593	31713.15
594.952	31922.86
595.311	32084.21
595.67	32412.11
596.029	32599.23
596.387	32809.62
596.746	33069.5
597.104	33013.68
597.463	33245.54
597.822	33616.83
598.18	33638.75
598.538	33799.42
598.897	34135.68
599.255	34036.03
599.613	34679.62
599.972	34583.13
600.33	34949
600.688	34918.26
601.046	35166.84
601.404	35620.39
601.762	35639.6
602.12	35903.77
602.478	35930.21
602.836	36241.84
603.194	36024.9
603.552	36288.62
603.91	36263.31
604.268	36715.5
604.625	36629.86
604.983	36804.99
605.341	36813.35
605.698	37184.19
606.056	37269.61
606.413	37390.97
606.771	37693.1
607.128	37763.16
607.485	37801.8
607.843	37979.2
608.2	38210.15
608.557	38310.04
608.914	38313.88
609.272	38605.4
609.629	38747.99
609.986	38897.37
610.343	38867.54
610.7	39316.79
611.057	39231.14
611.414	39369.45
611.771	39608.76
612.127	39689.44
612.484	39805.59
612.841	40057.56
613.198	39952.25
613.554	39967.62
613.911	40292.81
614.267	40477.21
614.624	40405.8
614.98	40620.49
615.337	40790.42
615.693	40897.09
616.05	40721.73
616.406	41328.04
616.762	40972.79
617.118	41130.08
617.475	41108.61
617.831	41379.79
618.187	41424.08
618.543	41713.11
618.899	41787.23
619.255	41797.63
619.611	41790.62
619.967	41896.38
620.323	41964.63
620.678	42014.8
621.034	41925.08
621.39	42017.74
621.746	42044.85
622.101	42537.05
622.457	42246.43
622.812	42346.99
623.168	42548.57
623.523	42539.98
623.879	42704.95
624.234	42457.5
624.589	42575.01
624.945	42762.58
625.3	42895.45
625.655	42957.37
626.01	42888.67
626.365	42839.41
626.72	42913.08
627.075	42849.35
627.43	42833.53
627.785	42894.55
628.14	42919.41
628.495	43061.1
628.85	42997.15
629.205	42911.72
629.559	43135.9
629.914	42984.72
630.269	43065.17
630.623	43031.5
630.978	42934.32
631.332	43145.39
631.687	43326.86
632.041	43095.67
632.396	43090.7
632.75	43067.2
633.104	43072.4
633.459	43048.44
633.813	43075.56
634.167	43096.35
634.521	43156.46
634.875	43157.82
635.229	43193.53
635.583	42941.33
635.937	43028.11
636.291	42899.07
636.645	42878.96
636.999	42929.13
637.352	43086.18
637.706	42730.03
638.06	42939.75
638.413	42791.28
638.767	42814.1
639.121	42990.37
639.474	42690.26
639.828	42579.76
640.181	42664.73
640.534	42657.72
640.888	42621.56
641.241	42394.68
641.594	42648.68
641.947	42733.42
642.301	42642.58
642.654	42697.27
643.007	42601.9
643.36	42540.44
643.713	42568.91
644.066	42777.49
644.419	42412.53
644.771	42277.39
645.124	41876.5
645.477	41714.02
645.83	41577.07
646.182	41510.63
646.535	41296.17
646.888	41488.71
647.24	41401.71
647.593	41434.7
647.945	41352.44
648.298	41218.44
648.65	41126.01
649.002	41065.9
649.355	41288.94
649.707	41292.78
650.059	41429.73
650.411	41708.14
650.763	41858.87
651.115	42263.83
651.467	42120.11
651.819	42287.11
652.171	42079.88
652.523	41865.65
652.875	41890.28
653.227	41766.44
653.578	42076.04
653.93	41887.57
654.282	41844.18
654.633	41724.41
654.985	41904.07
655.337	41864.52
655.688	41829.72
656.039	42052.54
656.391	41702.49
656.742	41842.15
657.094	41847.12
657.445	41963.73
657.796	41740.46
658.147	41768.25
658.498	41714.47
658.849	41742.04
659.2	41757.86
659.551	41561.7
659.902	41762.6
660.253	41752.21
660.604	41754.92
660.955	41455.94
661.306	41616.84
661.656	41576.84
662.007	41650.06
662.358	41685.32
662.708	41539.11
663.059	41572.78
663.409	41348.15
663.76	41578.88
664.11	41558.09
664.461	41656.16
664.811	41635.83
665.161	41685.77
665.511	41462.95
665.862	41645.32
666.212	41430.18
666.562	41579.33
666.912	41514.47
667.262	41455.27
667.612	41448.26
667.962	41573.91
668.312	41482.16
668.662	41641.7
669.011	41546.79
669.361	41350.41
669.711	41422.05
670.06	41502.04
670.41	41323.97
670.76	41141.6
671.109	41494.13
671.459	41299.79
671.808	41284.65
672.157	41360.58
672.507	41282.62
672.856	41253.46
673.205	41351.09
673.554	41252.33
673.904	41224.09
674.253	41563.51
674.602	41277.87
674.951	40758.11
675.3	40398.12
675.649	41171.66
675.998	41173.92
676.346	41044.43
676.695	41244.2
677.044	40836.3
677.393	41020.48
677.741	41054.37
678.09	40993.13
678.438	40931.21
678.787	40938.44
679.135	41006.24
679.484	40708.39
679.832	40809.18
680.181	40604.67
680.529	40836.98
680.877	40563.99
681.225	40545.46
681.573	40812.12
681.922	40505.23
682.27	40354.5
682.618	40345.24
682.966	40308.86
683.314	40402.19
683.661	40236.31
684.009	40084.91
684.357	39993.84
684.705	39989.09
685.053	40111.12
685.4	40015.3
685.748	39804.24
686.095	39686.05
686.443	39787.74
686.79	39746.84
687.138	39805.59
687.485	39770.79
687.832	39402.66
688.18	39615.99
688.527	39428.43
688.874	39247.41
689.221	39251.48
689.568	39135.33
689.915	39207.87
690.262	38988.89
690.609	39079.51
690.956	38938.95
691.303	38819.4
691.65	38655.11
691.997	38639.29
692.344	38555
692.69	38561.78
693.037	38362.24
693.383	38186.65
693.73	38319.76
694.077	38130.38
694.423	38142.36
694.769	37936.94
695.116	37955.02
695.462	37839.32
695.808	37629.15
696.155	37825.3
696.501	37527.46
696.847	37589.38
697.193	37363.4
697.539	37319.1
697.885	37176.06
698.231	37004.08
698.577	37067.13
698.923	36932.9
699.269	36765.22
699.614	36617.43
699.96	36454.27
700.306	36680.93
700.651	36501.27
700.997	36296.08
701.342	36329.3
701.688	36283.42
702.033	36023.09
702.379	36062.87
702.724	36063.77
703.069	35969.53
703.415	35747.85
703.76	35744.23
704.105	35735.64
704.45	35545.82
704.795	35330.23
705.14	35228.54
705.485	35250.01
705.83	35098.37
706.175	35278.48
706.52	35103.79
706.865	34967.53
707.209	34869.22
707.554	34789.23
707.899	34892.5
708.243	34623.81
708.588	34664.03
708.932	34467.88
709.277	34448.44
709.621	34507.65
709.966	34081.22
710.31	34299.3
710.654	33968.23
710.998	34154.21
711.342	34072.86
711.687	33960.55
712.031	33849.14
712.375	33718.07
712.719	33646.21
713.063	33659.09
713.407	33675.58
713.75	33569.6
714.094	33567.79
714.438	33316.04
714.782	33470.17
715.125	33197.4
715.469	33345.65
715.812	33174.81
716.156	33045.54
716.499	33074.7
716.843	33134.58
717.186	32743.18
717.53	32960.35
717.873	32843.06
718.216	32785.89
718.559	32678.32
718.902	32400.59
719.246	32579.12
719.589	32428.61
719.932	32276.75
720.275	32351.55
720.617	32331.66
720.96	32197.66
721.303	32301.83
721.646	32312.46
721.989	32081.73
722.331	32182.74
722.674	31996.76
723.016	32046.47
723.359	31875.63
723.701	32034.95
724.044	31707.95
724.386	31621.4
724.729	31879.02
725.071	31695.52
725.413	31589.76
725.755	31551.57
726.097	31384.12
726.439	31273.39
726.782	31406.04
727.124	31533.94
727.465	31375.53
727.807	31198.13
728.149	31186.84
728.491	31215.08
728.833	31276.55
729.175	31010.12
729.516	30929.67
729.858	31082.88
730.199	31012.38
730.541	30884.7
730.882	30840.63
731.224	30941.87
731.565	30733.29
731.906	30687.41
732.248	30780.74
732.589	30692.84
732.93	30462.56
733.271	30628.66
733.612	30539.39
733.953	30566.06
734.294	30373.52
734.635	30363.35
734.976	30420.53
735.317	30130.37
735.658	30232.06
735.999	30121.78
736.339	30072.74
736.68	30201.32
737.021	29971.05
737.361	29886.08
737.702	30142.57
738.042	29924.95
738.383	29880.88
738.723	30000.65
739.063	29836.59
739.404	29907.55
739.744	29841.79
740.084	29636.14
740.424	29757.27
740.764	29593.66
741.104	29708.46
741.444	29480.89
741.784	29425.53
742.124	29630.72
742.464	29411.29
742.804	29534.68
743.143	29319.77
743.483	29415.36
743.823	29186.89
744.162	29194.35
744.502	29193.67
744.841	29088.13
745.181	29290.16
745.52	29012.66
745.86	29113.22
746.199	28925.43
746.538	28935.14
746.877	29083.61
747.216	28863.28
747.556	28898.08
747.895	28800.46
748.234	28703.06
748.573	28690.4
748.911	28628.26
749.25	28681.36
749.589	28549.84
749.928	28479.79
750.267	28487.7
750.605	28350.53
750.944	28410.64
751.283	28232.79
751.621	28311.43
751.96	28152.34
752.298	28170.42
752.636	28202.28
752.975	28026.69
753.313	27957.54
753.651	28063.08
753.989	27876.19
754.327	27778.56
754.666	27765.91
755.004	27773.37
755.342	27796.19
755.679	27636.65
756.017	27599.13
756.355	27499.02
756.693	27506.25
757.031	27425.35
