Data from hue_270_FLMS001491_00054.txt Node
Date: Tue Feb 07 15:57:23 GMT 2017
User: dcchb
Spectrometer: FLMS00149
Trigger mode: 0
Integration Time (sec): 2.000000E-2
Scans to average: 10
Electric dark correction enabled: true
Nonlinearity correction enabled: false
Boxcar width: 0
XAxis mode: Wavelengths
Number of Pixels in Spectrum: 2048
>>>>>Begin Spectral Data<<<<<
341.393	-19.38
341.776	-19.38
342.16	-19.38
342.543	-44.46
342.927	-43.78
343.31	-49.89
343.693	-82.43
344.077	-70.68
344.46	-57.8
344.843	-66.83
345.226	-47.17
345.61	-38.81
345.993	-21.64
346.376	-12.15
346.759	16.33
347.142	42.32
347.525	57.46
347.908	47.29
348.291	80.05
348.674	99.04
349.057	104.91
349.44	117.12
349.823	139.26
350.206	173.39
350.588	183.78
350.971	178.58
351.354	208.86
351.737	244.57
352.119	248.41
352.502	247.73
352.884	282.08
353.267	254.97
353.65	289.99
354.032	280.5
354.414	292.25
354.797	287.05
355.179	290.44
355.562	298.81
355.944	313.04
356.326	308.3
356.709	335.87
357.091	327.51
357.473	315.98
357.855	316.21
358.238	343.32
358.62	337.67
359.002	334.96
359.384	333.38
359.766	328.18
360.148	334.96
360.53	331.8
360.912	326.15
361.294	326.6
361.676	306.94
362.057	298.81
362.439	305.59
362.821	321.86
363.203	315.53
363.584	342.42
363.966	320.05
364.348	310.56
364.729	328.18
365.111	306.26
365.493	329.77
365.874	334.28
366.256	302.42
366.637	304.91
367.019	316.21
367.4	308.75
367.781	296.77
368.163	305.81
368.544	320.73
368.925	312.36
369.306	317.34
369.688	306.94
370.069	304.46
370.45	312.82
370.831	310.1
371.212	317.11
371.593	310.78
371.974	329.99
372.355	316.21
372.736	325.7
373.117	324.12
373.498	304.68
373.879	308.3
374.26	303.78
374.641	295.64
375.021	299.48
375.402	325.25
375.783	314.85
376.163	332.48
376.544	325.25
376.925	310.1
377.305	328.18
377.686	332.25
378.066	308.3
378.447	328.64
378.827	332.03
379.208	342.42
379.588	329.31
379.968	310.56
380.349	322.53
380.729	332.03
381.109	328.86
381.489	339.71
381.87	353.49
382.25	337.67
382.63	335.19
383.01	322.08
383.39	358.92
383.77	338.13
384.15	334.96
384.53	346.49
384.91	348.3
385.29	374.74
385.67	345.81
386.049	354.4
386.429	337.9
386.809	359.14
387.189	353.04
387.568	351.69
387.948	337.67
388.328	363.44
388.707	376.32
389.087	375.87
389.466	372.48
389.846	359.14
390.225	374.74
390.605	380.16
390.984	351.91
391.363	391.46
391.743	384.91
392.122	362.53
392.501	395.98
392.881	389.2
393.26	371.12
393.639	362.31
394.018	393.72
394.397	385.13
394.776	378.8
395.155	391.01
395.534	403.44
395.913	399.59
396.292	398.69
396.671	391.23
397.05	396.88
397.429	391.91
397.808	400.72
398.186	392.14
398.565	425.81
398.944	409.76
399.323	401.63
399.701	434.17
400.08	411.35
400.458	429.42
400.837	446.37
401.215	419.48
401.594	430.1
401.972	422.19
402.351	414.28
402.729	445.47
403.107	427.16
403.486	425.13
403.864	437.11
404.242	437.33
404.62	455.86
404.999	446.37
405.377	443.66
405.755	454.06
406.133	468.97
406.511	447.95
406.889	475.3
407.267	472.59
407.645	455.86
408.023	471.91
408.401	482.76
408.779	485.92
409.156	510.55
409.534	501.06
409.912	517.11
410.29	517.56
410.667	532.02
411.045	517.78
411.422	518.23
411.8	540.38
412.178	542.87
412.555	550.1
412.933	547.61
413.31	580.83
413.687	586.03
414.065	593.71
414.442	589.19
414.819	578.57
415.197	595.52
415.574	602.3
415.951	596.65
416.328	624.22
416.705	619.25
417.082	640.49
417.46	619.25
417.837	672.13
418.214	671.45
418.591	650.43
418.967	662.19
419.344	671.23
419.721	678.91
420.098	712.35
420.475	704.22
420.852	710.55
421.228	707.16
421.605	739.25
421.982	736.76
422.358	770.43
422.735	749.87
423.111	803.65
423.488	778.57
423.864	809.3
424.241	795.74
424.617	802.75
424.994	826.25
425.37	801.17
425.746	833.71
426.123	845.46
426.499	833.93
426.875	870.77
427.251	879.36
427.627	866.47
428.003	884.78
428.379	915.96
428.756	933.59
429.132	918.22
429.507	916.64
429.883	955.51
430.259	948.96
430.635	954.38
431.011	970.88
431.387	1008.17
431.763	1001.84
432.138	995.28
432.514	1060.37
432.89	1045
433.265	1073.02
433.641	1083.19
434.016	1078.9
434.392	1137.2
434.767	1121.38
435.143	1153.25
435.518	1168.16
435.894	1179.91
436.269	1185.79
436.644	1209.74
437.02	1206.35
437.395	1255.84
437.77	1249.29
438.145	1281.83
438.52	1292.45
438.895	1283.19
439.271	1313.24
439.646	1372.45
440.021	1357.53
440.395	1385.1
440.77	1354.15
441.145	1365.9
441.52	1419.45
441.895	1415.61
442.27	1411.32
442.645	1420.81
443.019	1459
443.394	1479.34
443.769	1498.32
444.143	1462.16
444.518	1498.55
444.892	1491.32
445.267	1541.26
445.641	1524.76
446.016	1549.85
446.39	1531.54
446.764	1579.45
447.139	1557.76
447.513	1608.15
447.887	1569.96
448.262	1615.83
448.636	1597.08
449.01	1628.04
449.384	1637.08
449.758	1607.47
450.132	1669.39
450.506	1669.62
450.88	1685.21
451.254	1692.89
451.628	1697.64
452.002	1702.61
452.376	1715.04
452.75	1727.47
453.123	1736.96
453.497	1773.34
453.871	1776.96
454.244	1867.13
454.618	1821.48
454.992	1865.54
455.365	1839.56
455.739	1896.5
456.112	1880.01
456.486	1895.6
456.859	1952.1
457.232	1970.63
457.606	1968.59
457.979	1971.76
458.352	2032.55
458.725	2061.25
459.099	2063.96
459.472	2081.58
459.845	2110.96
460.218	2079.1
460.591	2141.24
460.964	2145.76
461.337	2161.58
461.71	2177.85
462.083	2241.81
462.456	2215.37
462.829	2218.76
463.201	2224.4
463.574	2242.03
463.947	2311.18
464.32	2369.94
464.692	2330.16
465.065	2355.02
465.438	2381.46
465.81	2398.19
466.183	2451.52
466.555	2478.41
466.928	2512.31
467.3	2477.51
467.672	2527.9
468.045	2585.98
468.417	2558.63
468.789	2579.65
469.161	2634.34
469.534	2668.91
469.906	2762.24
470.278	2779.19
470.65	2743.71
471.022	2800.89
471.394	2852.86
471.766	2870.72
472.138	2845.18
472.51	2941.67
472.882	3010.82
473.253	2981.45
473.625	3041.78
473.997	3091.95
474.369	3126.3
474.74	3131.73
475.112	3168.33
475.484	3189.13
475.855	3294.43
476.227	3284.72
476.598	3374.43
476.97	3360.87
477.341	3433.41
477.713	3494.43
478.084	3500.76
478.455	3556.12
478.827	3586.4
479.198	3693.52
479.569	3714.54
479.94	3814.42
480.311	3785.49
480.682	3862.1
481.053	3912.95
481.424	3985.49
481.795	3990.46
482.166	4059.61
482.537	4098.03
482.908	4184.58
483.279	4185.03
483.65	4246.05
484.021	4305.25
484.391	4352.03
484.762	4395.2
485.133	4400.17
485.503	4465.7
485.874	4557.22
486.244	4555.87
486.615	4651.23
486.985	4672.93
487.356	4763.32
487.726	4773.72
488.097	4792.7
488.467	4862.75
488.837	4974.39
489.207	4981.39
489.578	5009.64
489.948	5060.49
490.318	5173.25
490.688	5186.13
491.058	5227.04
491.428	5327.37
491.798	5325.57
492.168	5395.85
492.538	5413.7
492.908	5406.24
493.278	5512
493.648	5546.58
494.017	5642.39
494.387	5627.03
494.757	5622.96
495.126	5665.67
495.496	5688.72
495.866	5774.59
496.235	5798.1
496.605	5828.38
496.974	5820.69
497.344	5878.32
497.713	5954.02
498.082	5950.18
498.452	6000.35
498.821	5959.67
499.19	6008.03
499.559	6085.55
499.928	6116.96
500.298	6142.27
500.667	6147.92
501.036	6169.39
501.405	6202.61
501.774	6168.71
502.143	6236.73
502.512	6282.38
502.88	6294.81
503.249	6307.24
503.618	6283.28
503.987	6341.58
504.356	6340
504.724	6381.13
505.093	6423.62
505.462	6418.42
505.83	6457.51
506.199	6478.53
506.567	6589.04
506.936	6497.96
507.304	6598.08
507.672	6610.05
508.041	6595.36
508.409	6669.94
508.777	6605.76
509.145	6711.52
509.514	6681.46
509.882	6690.28
510.25	6775.25
510.618	6760.1
510.986	6790.61
511.354	6863.83
511.722	6918.97
512.09	6888.46
512.458	6935.02
512.826	6965.3
513.193	6931.85
513.561	6963.04
513.929	6970.04
514.297	7068.8
514.664	7069.25
515.032	7099.08
515.4	7100.89
515.767	7083.26
516.135	7114.9
516.502	7021.57
516.869	7142.02
517.237	7152.18
517.604	7140.66
517.972	7198.29
518.339	7253.43
518.706	7199.64
519.073	7153.99
519.44	7263.82
519.808	7306.08
520.175	7299.75
520.542	7327.32
520.909	7349.92
521.276	7404.83
521.643	7414.78
522.009	7433.53
522.376	7511.05
522.743	7439.63
523.11	7538.39
523.477	7560.31
523.843	7582
524.21	7638.95
524.577	7659.06
524.943	7657.48
525.31	7691.61
525.676	7726.41
526.043	7702
526.409	7731.6
526.776	7807.31
527.142	7750.14
527.508	7843.69
527.874	7816.35
528.241	7893.63
528.607	7924.37
528.973	7971.15
529.339	7940.64
529.705	7974.54
530.071	8064.25
530.437	8057.02
530.803	8099.05
531.169	8033.97
531.535	8037.59
531.901	8118.49
532.267	8074.87
532.632	8156.23
532.998	8151.48
533.364	8160.75
533.73	8166.4
534.095	8181.54
534.461	8277.8
534.826	8231.03
535.192	8240.74
535.557	8305.6
535.923	8258.14
536.288	8293.62
536.653	8278.71
537.019	8331.14
537.384	8298.37
537.749	8370.68
538.114	8268.09
538.479	8359.16
538.845	8356.45
539.21	8283.45
539.575	8407.75
539.94	8411.36
540.305	8333.4
540.67	8374.53
541.034	8406.84
541.399	8370.68
541.764	8529.1
542.129	8480.74
542.494	8466.5
542.858	8480.96
543.223	8487.29
543.587	8553.5
543.952	8534.75
544.316	8494.52
544.681	8518.25
545.045	8589.21
545.41	8580.17
545.774	8583.79
546.138	8594.63
546.503	8633.05
546.867	8520.96
547.231	8625.14
547.595	8547.18
547.959	8643.9
548.324	8654.74
548.688	8634.41
549.052	8618.36
549.416	8647.51
549.779	8640.06
550.143	8661.98
550.507	8695.2
550.871	8705.36
551.235	8710.34
551.599	8724.35
551.962	8814.97
552.326	8810.45
552.689	8759.37
553.053	8735.19
553.417	8786.72
553.78	8850.67
554.143	8798.24
554.507	8889.99
554.87	8857
555.234	8845.47
555.597	8814.06
555.96	8795.98
556.323	8904.68
556.686	8908.52
557.05	8969.31
557.413	8919.37
557.776	8938.13
558.139	8985.58
558.502	9027.16
558.865	9001.4
559.228	9061.74
559.59	9138.35
559.953	9153.26
560.316	9171.79
560.679	9118.91
561.041	9197.1
561.404	9260.83
561.767	9354.61
562.129	9206.14
562.492	9323.2
562.854	9321.62
563.217	9303.31
563.579	9318.46
563.941	9402.52
564.304	9415.63
564.666	9436.87
565.028	9449.3
565.39	9485.46
565.753	9567.26
566.115	9574.72
566.477	9608.84
566.839	9555.74
567.201	9608.84
567.563	9703.53
567.925	9711.67
568.287	9670.76
568.648	9738.78
569.01	9803.41
569.372	9815.62
569.734	9845.22
570.095	9890.19
570.457	9913.69
570.819	9987.82
571.18	9953.47
571.542	9936.97
571.903	10044.76
572.265	10160.24
572.626	10119.79
572.987	10137.19
573.349	10207.7
573.71	10200.47
574.071	10213.12
574.432	10257.19
574.794	10309.39
575.155	10261.03
575.516	10291.31
575.877	10431.19
576.238	10440.23
576.599	10436.62
576.96	10447.01
577.32	10447.24
577.681	10519.55
578.042	10607.91
578.403	10623.73
578.763	10616.27
579.124	10629.16
579.485	10678.19
579.845	10699.66
580.206	10727.01
580.566	10720.23
580.927	10754.58
581.287	10843.39
581.648	10842.26
582.008	10899.88
582.368	10907.79
582.728	10911.18
583.089	10964.06
583.449	10981.46
583.809	11031.63
584.169	10992.76
584.529	11028.47
584.889	11132.65
585.249	11078.64
585.609	11126.54
585.969	11152.53
586.329	11143.27
586.688	11237.05
587.048	11209.03
587.408	11164.96
587.768	11202.93
588.127	11330.38
588.487	11211.74
588.846	11430.72
589.206	11268.01
589.565	11370.83
589.925	11549.13
590.284	11444.73
590.643	11487.66
591.003	11500.55
591.362	11547.1
591.721	11578.51
592.08	11604.72
592.44	11562.01
592.799	11710.48
593.158	11628
593.517	11699.86
593.876	11670.48
594.235	11714.78
594.593	11741.67
594.952	11744.15
595.311	11723.82
595.67	11842.91
596.029	11824.38
596.387	11954.54
596.746	11950.25
597.104	11948.44
597.463	11943.02
597.822	11954.77
598.18	11908.22
598.538	11983.47
598.897	12029.57
599.255	11983.02
599.613	12092.62
599.972	12010.59
600.33	11996.35
600.688	12084.94
601.046	12150.25
601.404	12166.74
601.762	12046.75
602.12	12213.75
602.478	12180.08
602.836	12146.4
603.194	12140.08
603.552	12269.79
603.91	12121.77
604.268	12195.89
604.625	12197.7
604.983	12251.94
605.341	12160.19
605.698	12245.84
606.056	12311.82
606.413	12249.68
606.771	12293.52
607.128	12386.17
607.485	12294.42
607.843	12347.98
608.2	12371.71
608.557	12449.67
608.914	12420.29
609.272	12417.13
609.629	12468.88
609.986	12585.04
610.343	12477.47
610.7	12453.51
611.057	12517.02
611.414	12519.95
611.771	12521.76
612.127	12520.86
612.484	12596.79
612.841	12593.85
613.198	12587.97
613.554	12587.3
613.911	12696.22
614.267	12671.14
614.624	12594.08
614.98	12751.81
615.337	12687.41
615.693	12641.98
616.05	12697.35
616.406	12772.15
616.762	12680.18
617.118	12745.94
617.475	12703
617.831	12705.71
618.187	12799.72
618.543	12804.92
618.899	12840.85
619.255	12815.76
619.611	12774.18
619.967	12792.49
620.323	12834.3
620.678	12791.58
621.034	12810.12
621.39	12788.65
621.746	12750
622.101	12963.11
622.457	12797.23
622.812	12753.39
623.168	12901.19
623.523	12915.65
623.879	12835.43
624.234	12828.65
624.589	12912.71
624.945	12844.92
625.3	12906.16
625.655	12873.39
626.01	12931.02
626.365	12840.85
626.72	12893.95
627.075	12830
627.43	12832.04
627.785	12832.04
628.14	12803.11
628.495	12857.57
628.85	12866.84
629.205	12765.6
629.559	12855.54
629.914	12777.12
630.269	12799.49
630.623	12782.09
630.978	12813.96
631.332	12769.21
631.687	12801.53
632.041	12694.41
632.396	12703.9
632.75	12718.59
633.104	12741.42
633.459	12656.67
633.813	12686.28
634.167	12616.67
634.521	12670.01
634.875	12745.48
635.229	12726.95
635.583	12544.59
635.937	12552.49
636.291	12613.96
636.645	12556.79
636.999	12583.91
637.352	12512.27
637.706	12518.15
638.06	12602.44
638.413	12569.67
638.767	12498.71
639.121	12544.13
639.474	12440.63
639.828	12400.63
640.181	12468.43
640.534	12402.89
640.888	12333.52
641.241	12364.48
641.594	12408.32
641.947	12354.76
642.301	12400.63
642.654	12415.32
643.007	12384.14
643.36	12324.7
643.713	12272.95
644.066	12332.16
644.419	12306.4
644.771	12230.24
645.124	12080.87
645.477	12132.17
645.83	12004.94
646.182	11946.18
646.535	11923.13
646.888	11990.48
647.24	11841.1
647.593	11961.1
647.945	11840.2
648.298	11847.88
648.65	11937.82
649.002	11832.74
649.355	11841.78
649.707	11881.55
650.059	11955.67
650.411	12030.93
650.763	12037.48
651.115	12126.97
651.467	12169.45
651.819	12150.02
652.171	12190.47
652.523	12045.84
652.875	12052.39
653.227	11987.54
653.578	12115.44
653.93	12105.73
654.282	12082.9
654.633	12016.24
654.985	12033.19
655.337	12076.35
655.688	12078.38
656.039	12027.99
656.391	12043.58
656.742	11984.83
657.094	12119.96
657.445	12156.57
657.796	12120.64
658.147	12070.25
658.498	12098.95
658.849	12164.48
659.2	12116.8
659.551	12069.12
659.902	12074.77
660.253	12081.55
660.604	12160.41
660.955	12070.47
661.306	12126.07
661.656	12056.91
662.007	12086.29
662.358	12090.59
662.708	12059.4
663.059	12095.11
663.409	12041.77
663.76	12115.9
664.11	12106.4
664.461	12139.62
664.811	12136.69
665.161	12095.78
665.511	12114.09
665.862	12102.56
666.212	12068.44
666.562	12114.31
666.912	12143.24
667.262	12056.01
667.612	12108.21
667.962	12169.91
668.312	12082.22
668.662	12114.99
669.011	12126.29
669.361	12071.83
669.711	12088.55
670.06	12077.48
670.41	12014.2
670.76	12063.92
671.109	12063.69
671.459	12069.12
671.808	11939.4
672.157	12096.46
672.507	12043.36
672.856	11963.13
673.205	11997.03
673.554	12007.88
673.904	11905.28
674.253	12022.34
674.602	11994.54
674.951	11828.9
675.3	11777.37
675.649	11851.72
675.998	11949.35
676.346	11910.03
676.695	11912.06
677.044	11829.58
677.393	11909.35
677.741	11908.22
678.09	11795.45
678.438	11866.41
678.787	11827.09
679.135	11764.72
679.484	11693.31
679.832	11868.67
680.181	11737.83
680.529	11785.06
680.877	11689.47
681.225	11683.37
681.573	11791.61
681.922	11642.91
682.27	11613.31
682.618	11637.94
682.966	11568.34
683.314	11566.98
683.661	11532.86
684.009	11395.92
684.357	11531.96
684.705	11500.55
685.053	11485.4
685.4	11449.25
685.748	11331.28
686.095	11334.67
686.443	11386.88
686.79	11323.37
687.138	11322.47
687.485	11280.89
687.832	11300.1
688.18	11231.17
688.527	11196.15
688.874	11239.99
689.221	11158.18
689.568	11113.21
689.915	11156.15
690.262	11111.4
690.609	11096.94
690.956	11024.4
691.303	10945.31
691.65	10928.13
691.997	10919.09
692.344	10890.17
692.69	10835.7
693.037	10868.7
693.383	10756.84
693.73	10772.2
694.077	10683.39
694.423	10663.73
694.769	10580.34
695.116	10604.98
695.462	10620.79
695.808	10598.42
696.155	10593.68
696.501	10510.29
696.847	10464.87
697.193	10391.65
697.539	10430.06
697.885	10325.21
698.231	10282.95
698.577	10229.84
698.923	10256.06
699.269	10209.96
699.614	10158.66
699.96	10155.95
700.306	10148.49
700.651	10069.85
700.997	10049.28
701.342	9935.61
701.688	9964.77
702.033	9894.26
702.379	9940.13
702.724	9877.76
703.069	9953.02
703.415	9816.52
703.76	9794.38
704.105	9792.79
704.45	9749.86
704.795	9715.28
705.14	9656.75
705.485	9678.22
705.83	9512.57
706.175	9609.52
706.52	9609.07
706.865	9547.83
707.209	9526.13
707.554	9501.73
707.899	9532.24
708.243	9460.6
708.588	9402.52
708.932	9328.85
709.277	9370.21
709.621	9314.84
709.966	9312.13
710.31	9280.26
710.654	9223.54
710.998	9241.4
711.342	9289.76
711.687	9208.4
712.031	9207.95
712.375	9172.92
712.719	9153.94
713.063	9162.75
713.407	9188.52
713.75	9063.77
714.094	9090.21
714.438	9025.13
714.782	9042.98
715.125	9033.49
715.469	9040.27
715.812	8927.51
716.156	8920.5
716.499	8967.28
716.843	8881.4
717.186	8918.47
717.53	8961.4
717.873	8897.22
718.216	8886.38
718.559	8869.88
718.902	8850.67
719.246	8807.96
719.589	8795.98
719.932	8757.79
720.275	8732.93
720.617	8790.11
720.96	8731.58
721.303	8682.77
721.646	8787.17
721.989	8699.94
722.331	8717.34
722.674	8701.75
723.016	8731.13
723.359	8769.54
723.701	8654.52
724.044	8660.17
724.386	8562.77
724.729	8696.78
725.071	8605.25
725.413	8662.2
725.755	8607.51
726.097	8550.79
726.439	8585.37
726.782	8533.17
727.124	8635.31
727.465	8576.1
727.807	8533.84
728.149	8518.93
728.491	8489.55
728.833	8510.34
729.175	8450
729.516	8549.21
729.858	8469.89
730.199	8503.11
730.541	8501.3
730.882	8505.6
731.224	8500.17
731.565	8454.3
731.906	8453.17
732.248	8495.65
732.589	8411.13
732.93	8372.49
733.271	8462.21
733.612	8469.89
733.953	8447.07
734.294	8407.97
734.635	8366.16
734.976	8444.13
735.317	8391.7
735.658	8458.14
735.999	8471.25
736.339	8390.12
736.68	8435.99
737.021	8413.62
737.361	8361.87
737.702	8450.46
738.042	8548.31
738.383	8408.65
738.723	8478.03
739.063	8457.01
739.404	8510.79
739.744	8445.71
740.084	8462.21
740.424	8433.73
740.764	8454.75
741.104	8523.9
741.444	8472.83
741.784	8497.23
742.124	8548.08
742.464	8528.65
742.804	8468.31
743.143	8601.41
743.483	8598.47
743.823	8499.27
744.162	8571.81
744.502	8581.07
744.841	8577.01
745.181	8650.45
745.52	8628.76
745.86	8772.71
746.199	8717.34
746.538	8700.62
746.877	8814.51
747.216	8756.44
747.556	8815.64
747.895	8880.73
748.234	8877.79
748.573	8928.64
748.911	8993.27
749.25	9044.11
749.589	9058.8
749.928	9168.63
750.267	9230.32
750.605	9271.45
750.944	9278
751.283	9353.48
751.621	9529.75
751.96	9555.06
752.298	9631.67
752.636	9661.95
752.975	9729.52
753.313	9755.05
753.651	9933.13
753.989	9938.1
754.327	10037.31
754.666	10073.92
755.004	10313.91
755.342	10362.72
755.679	10458.09
756.017	10514.81
756.355	10746.67
756.693	10728.14
757.031	10940.56
757.368	10952.31
757.706	11169.25
758.044	11252.64
758.381	11404.73
758.719	11526.53
759.056	11660.77
759.394	11828.67
759.731	11876.35
760.068	12054.43
760.405	12114.77
760.743	12348.88
761.08	12475.43
761.417	12581.87
761.754	12792.04
