Data from hue_70_FLMS001491_30.txt Node
Date: Mon Feb 06 15:20:21 GMT 2017
User: dcchb
Spectrometer: FLMS00149
Trigger mode: 0
Integration Time (sec): 2.000000E-2
Scans to average: 10
Electric dark correction enabled: true
Nonlinearity correction enabled: false
Boxcar width: 0
XAxis mode: Wavelengths
Number of Pixels in Spectrum: 2048
>>>>>Begin Spectral Data<<<<<
341.393	-15.58
341.776	-15.58
342.16	-15.58
342.543	-54.45
342.927	-81.11
343.31	-62.13
343.693	-73.2
344.077	-57.16
344.46	-69.36
344.843	-42.7
345.226	-41.79
345.61	-37.05
345.993	-48.12
346.376	-14.45
346.759	0.47
347.142	33.23
347.525	44.53
347.908	57.64
348.291	94.02
348.674	98.77
349.057	117.3
349.44	123.85
349.823	143.97
350.206	168.82
350.588	209.95
350.971	219.22
351.354	233
351.737	242.95
352.119	256.05
352.502	288.37
352.884	287.46
353.267	275.04
353.65	270.74
354.032	299.44
354.414	292.89
354.797	312.1
355.179	317.29
355.562	338.08
355.944	315.71
356.326	331.53
356.709	333.79
357.091	344.86
357.473	327.24
357.855	346.67
358.238	334.92
358.62	329.5
359.002	324.75
359.384	327.46
359.766	335.82
360.148	339.89
360.53	340.57
360.912	334.24
361.294	339.21
361.676	336.28
362.057	323.62
362.439	322.94
362.821	334.69
363.203	321.59
363.584	324.75
363.966	340.8
364.348	322.72
364.729	311.64
365.111	301.25
365.493	321.14
365.874	296.73
366.256	310.74
366.637	315.49
367.019	319.1
367.4	308.48
367.781	312.55
368.163	312.77
368.544	317.97
368.925	328.59
369.306	323.4
369.688	324.75
370.069	312.1
370.45	311.64
370.831	319.1
371.212	307.12
371.593	300.35
371.974	308.25
372.355	284.07
372.736	311.64
373.117	330.4
373.498	320.23
373.879	302.61
374.26	314.58
374.641	304.64
375.021	300.35
375.402	301.7
375.783	321.81
376.163	327.46
376.544	311.42
376.925	324.53
377.305	335.6
377.686	321.14
378.066	320.01
378.447	326.56
378.827	338.99
379.208	327.46
379.588	301.02
379.968	322.27
380.349	339.44
380.729	341.25
381.109	335.37
381.489	331.3
381.87	342.6
382.25	311.87
382.63	332.66
383.01	309.84
383.39	341.25
383.77	333.34
384.15	324.53
384.53	337.63
384.91	349.16
385.29	353
385.67	357.97
386.049	345.99
386.429	343.06
386.809	357.07
387.189	338.76
387.568	351.87
387.948	345.09
388.328	340.34
388.707	360.46
389.087	341.7
389.466	348.03
389.846	360.23
390.225	346.22
390.605	367.46
390.984	350.74
391.363	360.91
391.743	372.43
392.122	386.67
392.501	358.65
392.881	349.38
393.26	351.19
393.639	353.9
394.018	350.74
394.397	360.23
394.776	372.89
395.155	364.75
395.534	358.87
395.913	370.85
396.292	383.96
396.671	365.43
397.05	371.53
397.429	374.47
397.808	377.86
398.186	380.34
398.565	362.49
398.944	377.86
399.323	374.69
399.701	379.89
400.08	352.55
400.458	375.82
400.837	386.44
401.215	390.96
401.594	375.37
401.972	375.82
402.351	384.18
402.729	378.76
403.107	418.53
403.486	402.72
403.864	394.58
404.242	383.96
404.62	397.52
404.999	406.56
405.377	394.81
405.755	404.98
406.133	378.99
406.511	384.86
406.889	431.42
407.267	401.36
407.645	424.64
408.023	421.92
408.401	413.56
408.779	417.4
409.156	434.58
409.534	425.77
409.912	435.26
410.29	418.76
410.667	418.99
411.045	421.47
411.422	421.02
411.8	455.6
412.178	452.43
412.555	411.53
412.933	439.55
413.31	450.85
413.687	441.13
414.065	441.81
414.442	440.23
414.819	453.34
415.197	460.34
415.574	456.73
415.951	459.21
416.328	460.12
416.705	478.65
417.082	478.19
417.46	470.96
417.837	473.67
418.214	479.32
418.591	485.43
418.967	492.2
419.344	488.81
419.721	501.24
420.098	498.08
420.475	485.65
420.852	479.1
421.228	508.7
421.605	490.62
421.982	499.66
422.358	506.22
422.735	517.74
423.111	518.87
423.488	534.69
423.864	519.1
424.241	519.32
424.617	553.45
424.994	514.58
425.37	541.47
425.746	528.36
426.123	538.76
426.499	523.62
426.875	543.73
427.251	544.63
427.627	536.95
428.003	560.45
428.379	562.26
428.756	552.32
429.132	568.59
429.507	585.54
429.883	586.21
430.259	592.77
430.635	564.75
431.011	598.87
431.387	603.61
431.763	591.64
432.138	599.32
432.514	612.88
432.89	607.68
433.265	612.43
433.641	605.65
434.016	632.09
434.392	613.56
434.767	637.51
435.143	635.03
435.518	662.14
435.894	637.06
436.269	661.69
436.644	651.75
437.02	671.63
437.395	652.65
437.77	656.95
438.145	656.27
438.52	674.57
438.895	677.51
439.271	692.43
439.646	704.18
440.021	702.14
440.395	698.75
440.77	697.62
441.145	700.33
441.52	725.87
441.895	692.88
442.27	686.1
442.645	701.24
443.019	727.9
443.394	713.89
443.769	731.07
444.143	712.31
444.518	712.76
444.892	742.14
445.267	769.03
445.641	779.65
446.016	750.95
446.39	758.86
446.764	774.91
447.139	751.86
447.513	766.55
447.887	789.82
448.262	784.85
448.636	773.78
449.01	799.77
449.384	810.84
449.758	802.25
450.132	810.16
450.506	792.99
450.88	823.72
451.254	815.13
451.628	847.22
452.002	840.67
452.376	819.65
452.75	831.86
453.123	846.77
453.497	859.88
453.871	888.58
454.244	901.46
454.618	901.91
454.992	895.13
455.365	869.6
455.739	917.5
456.112	927
456.486	940.1
456.859	938.75
457.232	963.6
457.606	964.73
457.979	957.28
458.352	985.75
458.725	994.56
459.099	1007.22
459.472	1017.84
459.845	1002.02
460.218	1028.46
460.591	1027.33
460.964	1058.52
461.337	1058.74
461.71	1073.88
462.083	1098.06
462.456	1096.03
462.829	1077.95
463.201	1114.34
463.574	1135.58
463.947	1136.03
464.32	1182.58
464.692	1186.42
465.065	1178.29
465.438	1213.54
465.81	1235.91
466.183	1251.96
466.555	1251.96
466.928	1259.64
467.3	1297.83
467.672	1308.45
468.045	1329.47
468.417	1358.62
468.789	1301.22
469.161	1386.64
469.534	1397.49
469.906	1432.74
470.278	1450.6
470.65	1508.45
471.022	1506.87
471.394	1531.27
471.766	1554.55
472.138	1586.19
472.51	1609.01
472.882	1664.38
473.253	1695.11
473.625	1715.9
473.997	1751.15
474.369	1785.28
474.74	1804.26
475.112	1821.66
475.484	1903.47
475.855	1952.51
476.227	1979.85
476.598	2061.2
476.97	2091.71
477.341	2172.39
477.713	2216.45
478.084	2236.79
478.455	2346.85
478.827	2354.08
479.198	2460.51
479.569	2493.73
479.94	2576.67
480.311	2635.65
480.682	2687.4
481.053	2805.36
481.424	2858.7
481.795	2949.77
482.166	3042.65
482.537	3139.14
482.908	3178.46
483.279	3297.55
483.65	3370.1
484.021	3504.1
484.391	3612.57
484.762	3660.48
485.133	3784.77
485.503	3815.06
485.874	3985.22
486.244	4083.07
486.615	4222.73
486.985	4296.62
487.356	4459.56
487.726	4516.96
488.097	4701.13
488.467	4807.8
488.837	4917.17
489.207	5039.43
489.578	5194.23
489.948	5293.21
490.318	5454.33
490.688	5531.39
491.058	5692.52
491.428	5892.74
491.798	5972.74
492.168	6172.28
492.538	6257.48
492.908	6396.46
493.278	6588.77
493.648	6689.56
494.017	6840.29
494.387	6901.53
494.757	7055.65
495.126	7251.35
495.496	7303.78
495.866	7461.06
496.235	7632.81
496.605	7721.17
496.974	7913.7
497.344	8075.06
497.713	8134.94
498.082	8291.77
498.452	8460.81
498.821	8530.86
499.19	8651.31
499.559	8783.51
499.928	8935.6
500.298	9030.06
500.667	9198.87
501.036	9302.14
501.405	9424.17
501.774	9548.69
502.143	9748.91
502.512	9812.64
502.88	9962.24
503.249	10030.26
503.618	10123.59
503.987	10172.4
504.356	10361.32
504.724	10419.4
505.093	10637.7
505.462	10716.79
505.83	10904.36
506.199	10920.63
506.567	11130.34
506.936	11221.41
507.304	11349.09
507.672	11419.37
508.041	11498.24
508.409	11628.18
508.777	11799.48
509.145	11813.94
509.514	11909.76
509.882	12132.58
510.25	12165.34
510.618	12253.48
510.986	12418.67
511.354	12440.14
511.722	12634.26
512.09	12808.26
512.458	12686.01
512.826	12922.39
513.193	12934.14
513.561	13081.93
513.929	13175.71
514.297	13224.98
514.664	13356.5
515.032	13500.9
515.4	13613.67
515.767	13660.9
516.135	13693.44
516.502	13693.89
516.869	14074.67
517.237	14022.02
517.604	14118.96
517.972	14169.13
518.339	14250.26
518.706	14397.6
519.073	14446.19
519.44	14482.35
519.808	14645.73
520.175	14692.51
520.542	14849.34
520.909	14867.65
521.276	14951.26
521.643	15107.41
522.009	15144.25
522.376	15280.29
522.743	15372.04
523.11	15539.72
523.477	15653.84
523.843	15711.01
524.21	15784.46
524.577	15923.89
524.943	16001.63
525.31	16036.2
525.676	16201.85
526.043	16265.8
526.409	16359.36
526.776	16536.3
527.142	16555.51
527.508	16612.23
527.874	16721.38
528.241	16795.96
528.607	16799.12
528.973	16924.31
529.339	16944.43
529.705	17165.21
530.071	17235.27
530.437	17199.56
530.803	17332.67
531.169	17314.36
531.535	17405.43
531.901	17344.19
532.267	17470.52
532.632	17511.64
532.998	17590.96
533.364	17671.87
533.73	17651.98
534.095	17797.29
534.461	17833.67
534.826	17852.2
535.192	17914.12
535.557	17988.92
535.923	17913.89
536.288	18056.49
536.653	18145.3
537.019	18051.97
537.384	18097.39
537.749	18180.33
538.114	18169.48
538.479	18126.77
538.845	18207.67
539.21	18267.1
539.575	18270.04
539.94	18261
540.305	18414.22
540.67	18329.48
541.034	18440.66
541.399	18410.15
541.764	18438.17
542.129	18416.48
542.494	18450.6
542.858	18423.94
543.223	18461.68
543.587	18526.31
543.952	18492.86
544.316	18565.4
544.681	18635.46
545.045	18587.32
545.41	18714.32
545.774	18711.16
546.138	18674.33
546.503	18697.38
546.867	18546.19
547.231	18839.74
547.595	18833.42
547.959	18821.67
548.324	18743.25
548.688	18841.78
549.052	18832.29
549.416	18872.74
549.779	18907.31
550.143	18889.23
550.507	19048.78
550.871	18898.27
551.235	18868.67
551.599	19051.49
551.962	19055.56
552.326	19084.03
552.689	19048.33
553.053	18963.13
553.417	18976.01
553.78	19289.22
554.143	19220.07
554.507	19216.91
554.87	19125.84
555.234	19336.45
555.597	19154.31
555.96	19351.6
556.323	19378.26
556.686	19383.23
557.05	19463.68
557.413	19511.14
557.776	19553.4
558.139	19553.4
558.502	19576.22
558.865	19617.58
559.228	19798.59
559.59	19792.49
559.953	19734.18
560.316	19907.97
560.679	20007.17
561.041	20008.3
561.404	20083.1
561.767	20149.54
562.129	20063.44
562.492	20289.65
562.854	20183.66
563.217	20267.73
563.579	20294.85
563.941	20453.94
564.304	20426.37
564.666	20494.16
565.028	20570.77
565.39	20519.7
565.753	20672.24
566.115	20753.14
566.477	20753.37
566.839	20818.45
567.201	20949.75
567.563	20933.02
567.925	21072.45
568.287	21071.55
568.648	21166.46
569.01	21172.56
569.372	21289.17
569.734	21145.67
570.095	21281.71
570.457	21426.34
570.819	21335.27
571.18	21378.44
571.542	21570.29
571.903	21485.55
572.265	21661.37
572.626	21681.7
572.987	21641.7
573.349	21712.66
573.71	21811.42
574.071	21773.68
574.432	21875.6
574.794	22006.44
575.155	21907.23
575.516	21927.8
575.877	22016.16
576.238	21947.23
576.599	22040.79
576.96	22038.98
577.32	22198.53
577.681	22172.99
578.042	22311.07
578.403	22165.53
578.763	22177.28
579.124	22290.05
579.485	22403.72
579.845	22463.83
580.206	22262.48
580.566	22369.37
580.927	22257.28
581.287	22424.96
581.648	22324.85
582.008	22397.62
582.368	22387.45
582.728	22424.96
583.089	22472.87
583.449	22394.23
583.809	22420.44
584.169	22383.38
584.529	22430.16
584.889	22452.53
585.249	22402.14
585.609	22407.33
585.969	22469.93
586.329	22396.26
586.688	22398.75
587.048	22375.25
587.408	22328.92
587.768	22384.51
588.127	22363.72
588.487	22314.91
588.846	22564.39
589.206	22313.78
589.565	22378.86
589.925	22506.32
590.284	22398.52
590.643	22477.84
591.003	22498.18
591.362	22474.9
591.721	22412.08
592.08	22450.05
592.44	22401.46
592.799	22525.98
593.158	22466.09
593.517	22477.84
593.876	22475.13
594.235	22407.11
594.593	22406.2
594.952	22476.03
595.311	22307.22
595.67	22440.78
596.029	22627.44
596.387	22525.07
596.746	22534.11
597.104	22481
597.463	22416.83
597.822	22589.02
598.18	22427.67
598.538	22459.08
598.897	22540.44
599.255	22418.41
599.613	22769.81
599.972	22506.77
600.33	22554.68
600.688	22516.48
601.046	22700.21
601.404	22760.55
601.762	22694.78
602.12	22806.42
602.478	22679.87
602.836	22831.5
603.194	22632.19
603.552	22734.56
603.91	22577.5
604.268	22632.64
604.625	22662.24
604.983	22705.41
605.341	22683.03
605.698	22895.91
606.056	22796.7
606.413	22761.68
606.771	22920.77
607.128	22829.02
607.485	22798.74
607.843	22809.58
608.2	22957.38
608.557	23083.47
608.914	22915.12
609.272	23132.29
609.629	23043.7
609.986	23095
610.343	23058.62
610.7	23218.16
611.057	23330.7
611.414	23148.33
611.771	23271.27
612.127	23252.28
612.484	23209.8
612.841	23322.34
613.198	23354.2
613.554	23444.82
613.911	23476.01
614.267	23459.74
614.624	23385.16
614.98	23470.36
615.337	23570.92
615.693	23544.71
616.05	23521.2
616.406	23746.28
616.762	23582.44
617.118	23602.56
617.475	23667.64
617.831	23670.35
618.187	23712.84
618.543	23757.13
618.899	23829.67
619.255	23840.07
619.611	23760.52
619.967	23864.47
620.323	23937.46
620.678	23743.12
621.034	23763.23
621.39	23772.5
621.746	23718.71
622.101	24035.31
622.457	23781.08
622.812	23911.93
623.168	23964.13
623.523	23954.64
623.879	24085.48
624.234	23969.55
624.589	23973.4
624.945	24103.34
625.3	23994.86
625.655	24067.86
626.01	24089.78
626.365	24115.09
626.72	24016.33
627.075	23936.33
627.43	24036.22
627.785	23839.39
628.14	24075.09
628.495	24091.36
628.85	24050
629.205	23888.65
629.559	24062.66
629.914	24003
630.269	24005.26
630.623	23979.27
630.978	23886.62
631.332	23975.88
631.687	24007.97
632.041	23988.99
632.396	24057.46
632.75	23896.56
633.104	23871.02
633.459	23805.04
633.813	23718.71
634.167	23765.26
634.521	23731.37
634.875	23811.59
635.229	23773.17
635.583	23669.67
635.937	23606.63
636.291	23690.24
636.645	23727.75
636.999	23729.33
637.352	23688.2
637.706	23641.43
638.06	23693.85
638.413	23527.31
638.767	23555.33
639.121	23630.13
639.474	23386.74
639.828	23504.71
640.181	23599.17
640.534	23488.89
640.888	23462.9
641.241	23364.6
641.594	23274.66
641.947	23440.75
642.301	23388.78
642.654	23372.73
643.007	23422.45
643.36	23383.13
643.713	23297.71
644.066	23416.12
644.419	23155.79
644.771	23151.72
645.124	22925.74
645.477	22896.59
645.83	22690.26
646.182	22604.17
646.535	22583.6
646.888	22657.05
647.24	22486.65
647.593	22690.04
647.945	22506.32
648.298	22509.7
648.65	22508.57
649.002	22406.66
649.355	22485.3
649.707	22429.25
650.059	22478.75
650.411	22869.02
650.763	22895.46
651.115	23040.09
651.467	22974.33
651.819	22980.2
652.171	22969.81
652.523	22899.3
652.875	22908.79
653.227	22783.37
653.578	23022.69
653.93	22959.18
654.282	22820.88
654.633	22866.53
654.985	22912.41
655.337	22820.43
655.688	22899.98
656.039	22881.67
656.391	22703.82
656.742	22716.03
657.094	22972.07
657.445	22920.32
657.796	22768
658.147	22882.58
658.498	22832.18
658.849	22851.39
659.2	22767.33
659.551	22908.11
659.902	22880.99
660.253	22775.91
660.604	22934.55
660.955	22788.79
661.306	22849.58
661.656	22803.26
662.007	22782.69
662.358	22813.2
662.708	22857.94
663.059	22856.81
663.409	22681.45
663.76	22916.93
664.11	22847.77
664.461	22897.04
664.811	23022.23
665.161	22890.71
665.511	22771.84
665.862	22899.75
666.212	22863.14
666.562	22933.87
666.912	22850.03
667.262	22789.47
667.612	22853.88
667.962	22793.99
668.312	22791.96
668.662	22899.3
669.011	22885.74
669.361	22735.91
669.711	22723.71
670.06	22730.04
670.41	22720.32
670.76	22669.25
671.109	22828.11
671.459	22631.06
671.808	22662.92
672.157	22808.45
672.507	22605.52
672.856	22577.5
673.205	22656.14
673.554	22688.23
673.904	22605.97
674.253	22673.99
674.602	22648.01
674.951	22272.87
675.3	22188.81
675.649	22588.35
675.998	22502.25
676.346	22562.36
676.695	22487.56
677.044	22434.23
677.393	22514
677.741	22441.68
678.09	22516.26
678.438	22356.26
678.787	22474.9
679.135	22476.49
679.484	22220.45
679.832	22332.31
680.181	22252.76
680.529	22256.15
680.877	22185.65
681.225	22094.8
681.573	22218.19
681.922	22150.17
682.27	21965.99
682.618	21995.82
682.966	21855.48
683.314	22022.03
683.661	21928.25
684.009	21840.57
684.357	21741.36
684.705	21771.87
685.053	21816.84
685.4	21673.79
685.748	21673.34
686.095	21563.74
686.443	21568.94
686.79	21483.29
687.138	21568.49
687.485	21568.94
687.832	21501.82
688.18	21471.99
688.527	21324.88
688.874	21348.38
689.221	21320.58
689.568	21237.65
689.915	21172.79
690.262	21109.06
690.609	21098.67
690.956	20899.8
691.303	20918.56
691.65	20899.8
691.997	20755.17
692.344	20681.5
692.69	20682.63
693.037	20690.32
693.383	20589.76
693.73	20604.67
694.077	20487.16
694.423	20492.36
694.769	20358.57
695.116	20281.51
695.462	20316.32
695.808	20155.64
696.155	20162.65
696.501	19935.99
696.847	20066.38
697.193	19888.76
697.539	19975.31
697.885	19762.66
698.231	19734.41
698.577	19778.03
698.923	19678.37
699.269	19528.54
699.614	19442.67
699.96	19397.7
700.306	19396.34
700.651	19318.15
700.997	19305.72
701.342	19248.55
701.688	19107.53
702.033	19137.36
702.379	19018.95
702.724	19018.72
703.069	19069.12
703.415	18833.42
703.76	18867.77
704.105	18853.98
704.45	18708.45
704.795	18614.67
705.14	18587.1
705.485	18611.95
705.83	18500.09
706.175	18576.02
706.52	18488.34
706.865	18397.04
707.209	18340.77
707.554	18301
707.899	18384.84
708.243	18191.85
708.588	18244.28
708.932	18035.7
709.277	17961.58
709.621	18101.46
709.966	17858.08
710.31	18014.68
710.654	17730.62
710.998	17914.35
711.342	17761.36
711.687	17694.92
712.031	17657.18
712.375	17580.57
712.719	17620.12
713.063	17536.5
713.407	17607.91
713.75	17518.42
714.094	17481.81
714.438	17455.37
714.782	17386.9
715.125	17308.71
715.469	17298.09
715.812	17278.88
716.156	17138.77
716.499	17187.13
716.843	17204.76
717.186	17137.19
717.53	17254.7
717.873	17187.58
718.216	17101.71
718.559	16992.79
718.902	16927.25
719.246	17056.29
719.589	16992.56
719.932	16863.75
720.275	16869.4
720.617	16885.45
720.96	16807.48
721.303	16814.94
721.646	16881.83
721.989	16749.63
722.331	16795.5
722.674	16772
723.016	16776.52
723.359	16707.82
723.701	16656.3
724.044	16590.54
724.386	16570.43
724.729	16675.96
725.071	16565.68
725.413	16520.71
725.755	16574.72
726.097	16501.95
726.439	16388.28
726.782	16424.22
727.124	16504.21
727.465	16316.2
727.807	16348.74
728.149	16274.39
728.491	16257.44
728.833	16385.8
729.175	16347.61
729.516	16190.77
729.858	16232.81
730.199	16236.88
730.541	16195.52
730.882	16265.35
731.224	16285.24
731.565	16168.85
731.906	16189.42
732.248	16257.89
732.589	16115.75
732.93	16072.36
733.271	16212.02
733.612	16064.68
733.953	16142.87
734.294	16084.11
734.635	16019.03
734.976	16104.22
735.317	15956.66
735.658	16061.74
735.999	16115.75
736.339	16045.69
736.68	16058.35
737.021	15950.56
737.361	16020.16
737.702	16010.44
738.042	16059.03
738.383	16029.42
738.723	15950.78
739.063	15981.97
739.404	15969.31
739.744	16002.08
740.084	15899.03
740.424	16020.38
740.764	15972.25
741.104	15925.47
741.444	15904.23
741.784	15953.49
742.124	15944
742.464	15959.14
742.804	15920.95
743.143	15906.26
743.483	15980.38
743.823	15990.1
744.162	15954.17
744.502	16025.13
744.841	15964.11
745.181	16140.15
745.52	15965.7
745.86	16089.31
746.199	16051.57
746.538	16059.03
746.877	16068.74
747.216	16098.8
747.556	16158.01
747.895	16219.7
748.234	16232.81
748.573	16274.16
748.911	16386.48
749.25	16242.98
749.589	16263.99
749.928	16380.37
750.267	16486.36
750.605	16553.48
750.944	16466.47
751.283	16556.87
751.621	16654.49
751.96	16568.17
752.298	16685.9
752.636	16746.92
752.975	16729.74
753.313	16735.85
753.651	16954.14
753.989	16916.86
754.327	16966.57
754.666	17002.73
755.004	17173.8
755.342	17237.08
755.679	17235.04
756.017	17345.09
756.355	17374.47
756.693	17395.49
757.031	17498.09
