Data from hue_34_FLMS001491_00074.txt Node
Date: Tue Feb 07 17:26:07 GMT 2017
User: dcchb
Spectrometer: FLMS00149
Trigger mode: 0
Integration Time (sec): 2.000000E-2
Scans to average: 10
Electric dark correction enabled: true
Nonlinearity correction enabled: false
Boxcar width: 0
XAxis mode: Wavelengths
Number of Pixels in Spectrum: 2048
>>>>>Begin Spectral Data<<<<<
341.393	-12.2
341.776	-12.2
342.16	-12.2
342.543	-48.81
342.927	-72.99
343.31	-66.89
343.693	-77.06
344.077	-61.69
344.46	-61.02
344.843	-63.95
345.226	-28.7
345.61	-16.95
345.993	-18.98
346.376	-4.07
346.759	16.72
347.142	17.17
347.525	45.65
347.908	51.98
348.291	71.86
348.674	88.81
349.057	107.12
349.44	133.33
349.823	145.53
350.206	157.28
350.588	208.13
350.971	212.88
351.354	243.84
351.737	243.84
352.119	247.45
352.502	265.3
352.884	285.64
353.267	310.05
353.65	305.98
354.032	307.56
354.414	308.47
354.797	305.75
355.179	316.15
355.562	326.32
355.944	334
356.326	331.74
356.709	321.35
357.091	339.2
357.473	337.62
357.855	341.23
358.238	352.31
358.62	345.75
359.002	345.53
359.384	329.93
359.766	351.4
360.148	325.42
360.53	325.19
360.912	347.34
361.294	334.68
361.676	338.3
362.057	350.27
362.439	333.78
362.821	342.82
363.203	341.01
363.584	320.44
363.966	316.6
364.348	322.48
364.729	322.48
365.111	315.47
365.493	316.15
365.874	321.8
366.256	329.03
366.637	317.28
367.019	325.87
367.4	314.34
367.781	297.62
368.163	318.41
368.544	310.27
368.925	308.92
369.306	325.87
369.688	312.99
370.069	301.01
370.45	313.89
370.831	337.62
371.212	316.38
371.593	312.08
371.974	316.6
372.355	301.91
372.736	324.06
373.117	305.75
373.498	315.25
373.879	338.07
374.26	317.96
374.641	326.77
375.021	309.82
375.402	315.02
375.783	329.71
376.163	337.39
376.544	336.49
376.925	313.66
377.305	341.23
377.686	353.21
378.066	330.84
378.447	353.21
378.827	335.58
379.208	332.87
379.588	322.7
379.968	339.88
380.349	350.5
380.729	338.52
381.109	356.37
381.489	345.3
381.87	343.27
382.25	336.26
382.63	318.18
383.01	337.84
383.39	338.3
383.77	350.5
384.15	343.27
384.53	335.36
384.91	348.24
385.29	345.53
385.67	336.04
386.049	349.37
386.429	351.18
386.809	355.47
387.189	346.21
387.568	370.84
387.948	369.03
388.328	361.35
388.707	362.48
389.087	360.22
389.466	360.44
389.846	371.29
390.225	371.74
390.605	368.58
390.984	367.45
391.363	364.74
391.743	368.13
392.122	365.87
392.501	376.04
392.881	364.06
393.26	368.35
393.639	388.24
394.018	389.37
394.397	371.74
394.776	371.74
395.155	375.58
395.534	380.1
395.913	380.33
396.292	393.21
396.671	400.67
397.05	396.15
397.429	402.93
397.808	385.07
398.186	393.44
398.565	383.94
398.944	414.45
399.323	405.64
399.701	388.46
400.08	412.19
400.458	402.93
400.837	395.02
401.215	406.32
401.594	400.67
401.972	381.46
402.351	420.33
402.729	421.01
403.107	402.93
403.486	421.91
403.864	416.03
404.242	415.36
404.62	409.93
404.999	436.82
405.377	429.82
405.755	435.02
406.133	423.72
406.511	425.3
406.889	412.19
407.267	448.8
407.645	449.71
408.023	440.21
408.401	457.84
408.779	439.76
409.156	430.05
409.534	446.99
409.912	456.94
410.29	457.39
410.667	462.36
411.045	475.02
411.422	458.07
411.8	467.56
412.178	470.5
412.555	458.07
412.933	469.82
413.31	466.43
413.687	491.29
414.065	486.54
414.442	485.86
414.819	490.83
415.197	496.94
415.574	490.16
415.951	494.9
416.328	491.74
416.705	496.71
417.082	502.59
417.46	520.44
417.837	512.53
418.214	531.51
418.591	518.18
418.967	522.92
419.344	534.22
419.721	511.4
420.098	540.32
420.475	538.74
420.852	541
421.228	547.33
421.605	556.37
421.982	561.12
422.358	551.4
422.735	550.95
423.111	554.56
423.488	555.92
423.864	560.21
424.241	592.07
424.617	582.36
424.994	578.29
425.37	572.19
425.746	541.23
426.123	579.42
426.499	617.38
426.875	608.35
427.251	592.98
427.627	595.69
428.003	596.14
428.379	605.41
428.756	599.31
429.132	646.08
429.507	596.82
429.883	647.21
430.259	620.77
430.635	639.53
431.011	626.88
431.387	672.3
431.763	659.42
432.138	663.71
432.514	668.91
432.89	671.85
433.265	663.49
433.641	703.26
434.016	688.34
434.392	701.68
434.767	681.56
435.143	693.09
435.518	697.83
435.894	712.75
436.269	715.01
436.644	749.58
437.02	757.95
437.395	745.52
437.77	735.8
438.145	728.12
438.52	745.74
438.895	762.24
439.271	756.14
439.646	747.1
440.021	772.86
440.395	751.39
440.77	778.06
441.145	788
441.52	769.02
441.895	778.74
442.27	783.93
442.645	783.93
443.019	802.24
443.394	811.96
443.769	798.4
444.143	823.48
444.518	816.02
444.892	830.49
445.267	834.33
445.641	849.02
446.016	840.43
446.39	826.19
446.764	841.79
447.139	845.85
447.513	859.64
447.887	867.77
448.262	857.6
448.636	858.06
449.01	895.57
449.384	867.1
449.758	890.82
450.132	885.17
450.506	891.73
450.88	914.33
451.254	901.22
451.628	920.65
452.002	901.22
452.376	928.79
452.75	943.25
453.123	949.58
453.497	949.13
453.871	942.35
454.244	986.19
454.618	996.58
454.992	1016.47
455.365	965.85
455.739	984.38
456.112	1020.76
456.486	1023.25
456.859	1053.76
457.232	1050.14
457.606	1043.14
457.979	1043.36
458.352	1072.51
458.725	1107.54
459.099	1100.08
459.472	1125.62
459.845	1123.59
460.218	1138.05
460.591	1163.81
460.964	1147.09
461.337	1162.46
461.71	1187.31
462.083	1192.74
462.456	1203.58
462.829	1207.65
463.201	1211.27
463.574	1242
463.947	1246.97
464.32	1296.46
464.692	1307.08
465.065	1299.63
465.438	1334.65
465.81	1318.38
466.183	1330.13
466.555	1390.02
466.928	1396.35
467.3	1396.35
467.672	1412.62
468.045	1444.26
468.417	1463.01
468.789	1447.42
469.161	1484.25
469.534	1529.45
469.906	1546.17
470.278	1584.59
470.65	1601.77
471.022	1618.49
471.394	1672.27
471.766	1670.92
472.138	1712.5
472.51	1734.42
472.882	1746.85
473.253	1781.87
473.625	1819.84
473.997	1840.86
474.369	1894.41
474.74	1939.61
475.112	1953.17
475.484	1994.75
475.855	2045.14
476.227	2062.32
476.598	2141.19
476.97	2145.48
477.341	2201.3
477.713	2265.25
478.084	2280.39
478.455	2380.5
478.827	2418.02
479.198	2476.77
479.569	2526.04
479.94	2582.08
480.311	2641.29
480.682	2727.39
481.053	2813.03
481.424	2860.26
481.795	2921.05
482.166	2998.34
482.537	3087.83
482.908	3145.68
483.279	3196.07
483.65	3326.01
484.021	3388.61
484.391	3474.48
484.762	3496.86
485.133	3565.1
485.503	3683.74
485.874	3798.54
486.244	3856.4
486.615	3949.5
486.985	4008.93
487.356	4172.77
487.726	4198.31
488.097	4333.45
488.467	4380.45
488.837	4501.8
489.207	4629.48
489.578	4691.18
489.948	4785.18
490.318	4861.79
490.688	4888.69
491.058	5096.36
491.428	5127.77
491.798	5257.71
492.168	5351.5
492.538	5440.31
492.908	5537.03
493.278	5668.78
493.648	5672.62
494.017	5814.76
494.387	5914.65
494.757	5960.97
495.126	6083.68
495.496	6152.61
495.866	6202.55
496.235	6309.44
496.605	6380.17
496.974	6444.35
497.344	6570.67
497.713	6615.19
498.082	6750.56
498.452	6822.42
498.821	6907.39
499.19	6924.34
499.559	7047.72
499.928	7107.84
500.298	7210.43
500.667	7206.36
501.036	7258.11
501.405	7353.48
501.774	7453.82
502.143	7531.33
502.512	7584.89
502.88	7689.74
503.249	7715.96
503.618	7858.1
503.987	7822.39
504.356	7915.95
504.724	7907.36
505.093	8011.99
505.462	8107.81
505.83	8191.42
506.199	8155.94
506.567	8355.94
506.936	8422.15
507.304	8469.61
507.672	8513
508.041	8569.49
508.409	8684.07
508.777	8760
509.145	8800.9
509.514	8806.77
509.882	8863.27
510.25	8898.98
510.618	8955.7
510.986	8990.05
511.354	9134.9
511.722	9201.79
512.09	9231.17
512.458	9223.49
512.826	9329.02
513.193	9394.33
513.561	9387.55
513.929	9453.99
514.297	9569.24
514.664	9548.68
515.032	9656.02
515.4	9730.82
515.767	9768.56
516.135	9832.96
516.502	9732.85
516.869	9987.31
517.237	9953.64
517.604	9979.17
517.972	10040.19
518.339	10099.62
518.706	10211.48
519.073	10180.3
519.44	10272.27
519.808	10351.14
520.175	10346.17
520.542	10507.75
520.909	10640.85
521.276	10534.41
521.643	10652.38
522.009	10733.96
522.376	10742.32
522.743	10785.03
523.11	10936.66
523.477	10986.15
523.843	11034.51
524.21	11158.35
524.577	11239.7
524.943	11278.35
525.31	11302.75
525.676	11436.54
526.043	11463.2
526.409	11552.24
526.776	11619.58
527.142	11674.27
527.508	11820.71
527.874	11802.63
528.241	11975.28
528.607	11893.02
528.973	12044.88
529.339	12111.09
529.705	12176.4
530.071	12220.24
530.437	12280.81
530.803	12366
531.169	12500.24
531.535	12396.74
531.901	12496.39
532.267	12493.91
532.632	12624.3
532.998	12596.96
533.364	12849.15
533.73	12778.65
534.095	12840.34
534.461	12846.67
534.826	13037.85
535.192	13096.6
535.557	13095.7
535.923	13162.59
536.288	13181.57
536.653	13228.58
537.019	13195.59
537.384	13368.46
537.749	13326.66
538.114	13352.42
538.479	13405.52
538.845	13490.49
539.21	13527.1
539.575	13589.47
539.94	13634.67
540.305	13762.8
540.67	13694.33
541.034	13805.51
541.399	13882.12
541.764	13796.02
542.129	13963.25
542.494	13915.79
542.858	14041.89
543.223	14118.05
543.587	14190.36
543.952	14199.4
544.316	14320.98
544.681	14257.7
545.045	14389.23
545.41	14414.76
545.774	14504.93
546.138	14543.8
546.503	14604.36
546.867	14581.54
547.231	14726.17
547.595	14804.13
547.959	14824.92
548.324	14846.84
548.688	14846.16
549.052	14926.16
549.416	14975.88
549.779	15022.88
550.143	15007.51
550.507	15098.13
550.871	15201.41
551.235	15238.7
551.599	15306.49
551.962	15384.68
552.326	15386.26
552.689	15373.16
553.053	15443.66
553.417	15513.04
553.78	15753.71
554.143	15624
554.507	15688.4
554.87	15734.05
555.234	15944.21
555.597	15817.44
555.96	15885.91
556.323	15969.3
556.686	15993.25
557.05	16094.49
557.413	16160.71
557.776	16210.2
558.139	16320.02
558.502	16334.71
558.865	16356.18
559.228	16529.06
559.59	16521.15
559.953	16569.73
560.316	16685.44
560.679	16636.17
561.041	16739.22
561.404	16893.79
561.767	16906.67
562.129	16866
562.492	17119.55
562.854	17053.34
563.217	16975.15
563.579	17158.19
563.941	17216.27
564.304	17354.8
564.666	17414.68
565.028	17501.23
565.39	17570.39
565.753	17616.71
566.115	17627.56
566.477	17633.89
566.839	17759.99
567.201	17938.74
567.563	17866.87
567.925	18123.14
568.287	17944.84
568.648	18109.58
569.01	18216.92
569.372	18293.76
569.734	18297.6
570.095	18420.08
570.457	18458.95
570.819	18505.05
571.18	18589.12
571.542	18716.12
571.903	18736.91
572.265	18883.12
572.626	18827.75
572.987	19013.51
573.349	19059.39
573.71	19126.28
574.071	19310.45
574.432	19329.44
574.794	19527.17
575.155	19597.45
575.516	19492.14
575.877	19692.82
576.238	19737.56
576.599	19912.24
576.96	19947.72
577.32	20069.98
577.681	20298.68
578.042	20412.8
578.403	20401.05
578.763	20666.12
579.124	20788.15
579.485	21055.27
579.845	21176.84
580.206	21230.4
580.566	21382.04
580.927	21492.32
581.287	21813.21
581.648	21832.87
582.008	22110.61
582.368	22243.26
582.728	22439.18
583.089	22598.73
583.449	22674.66
583.809	23012.95
584.169	23167.3
584.529	23318.93
584.889	23579.04
585.249	23764.57
585.609	23871.91
585.969	24220.38
586.329	24399.13
586.688	24736.98
587.048	24854.71
587.408	25069.4
587.768	25187.59
588.127	25496.05
588.487	25636.84
588.846	26124.06
589.206	26188.92
589.565	26422.58
589.925	26913.64
590.284	26960.87
590.643	27206.74
591.003	27564.47
591.362	27878.36
591.721	28060.51
592.08	28365.36
592.44	28693.71
592.799	28880.82
593.158	29027.71
593.517	29396.06
593.876	29667.02
594.235	29798.09
594.593	30049.38
594.952	30414.79
595.311	30415.47
595.67	30871.05
596.029	31225.85
596.387	31544.71
596.746	31725.27
597.104	31774.98
597.463	32058.59
597.822	32465.59
598.18	32509.43
598.538	32695.19
598.897	33068.96
599.255	33154.38
599.613	33568.38
599.972	33722.05
600.33	34009.95
600.688	34137.41
601.046	34415.14
601.404	34854.22
601.762	34966.54
602.12	35263.93
602.478	35434.77
602.836	35576.69
603.194	35670.47
603.552	35802.45
603.91	35900.3
604.268	36522.2
604.625	36386.39
604.983	36757
605.341	36779.6
605.698	37191.34
606.056	37292.13
606.413	37373.25
606.771	37702.51
607.128	37931.66
607.485	37907.7
607.843	38100.24
608.2	38450.51
608.557	38630.4
608.914	38564.64
609.272	38953.1
609.629	39158.52
609.986	39330.49
610.343	39230.38
610.7	39707.88
611.057	39626.75
611.414	39887.09
611.771	40002.56
612.127	40221.99
612.484	40488.88
612.841	40582.21
613.198	40519.39
613.554	40744.24
613.911	40913.73
614.267	41155.3
614.624	41070.11
614.98	41336.31
615.337	41495.18
615.693	41696.98
616.05	41671.22
616.406	41968.61
616.762	41852.68
617.118	41974.94
617.475	41984.66
617.831	42202.05
618.187	42207.48
618.543	42441.6
618.899	42724.53
619.255	42643.85
619.611	42702.61
619.967	42937.18
620.323	43039.55
620.678	43046.78
621.034	42994.58
621.39	43117.96
621.746	43042.71
622.101	43668
622.457	43404.96
622.812	43486.31
623.168	43628.23
623.523	43688.79
623.879	43894.89
624.234	43547.1
624.589	43840.88
624.945	43875
625.3	44112.96
625.655	43967.21
626.01	44116.13
626.365	44181.44
626.72	44246.07
627.075	44105.73
627.43	44241.32
627.785	44077.71
628.14	44441.09
628.495	44348.89
628.85	44282.23
629.205	44231.38
629.559	44473.86
629.914	44299.4
630.269	44406.97
630.623	44331.26
630.978	44232.06
631.332	44515.44
631.687	44625.27
632.041	44450.58
632.396	44592.95
632.75	44499.62
633.104	44462.56
633.459	44329.46
633.813	44449.23
634.167	44557.25
634.521	44559.73
634.875	44553.86
635.229	44419.85
635.583	44329
635.937	44382.56
636.291	44327.87
636.645	44438.83
636.999	44350.92
637.352	44363.35
637.706	44262.34
638.06	44417.59
638.413	44418.95
638.767	44157.03
639.121	44306.18
639.474	44135.56
639.828	44282.45
640.181	44215.56
640.534	44239.29
640.888	44209.69
641.241	44054.89
641.594	44083.13
641.947	44258.5
642.301	44076.36
642.654	44208.33
643.007	44048.11
643.36	44085.85
643.713	43966.3
644.066	44166.3
644.419	43896.25
644.771	43705.97
645.124	43320.22
645.477	43431.85
645.83	42983.5
646.182	42884.3
646.535	42872.09
646.888	42919.32
647.24	42689.5
647.593	42996.16
647.945	42924.75
648.298	42571.31
648.65	42544.42
649.002	42478.21
649.355	42788.71
649.707	42563.4
650.059	42929.27
650.411	43387.79
650.763	43244.74
651.115	43818.51
651.467	43560.21
651.819	43574.22
652.171	43552.98
652.523	43468.24
652.875	43393.66
653.227	43262.82
653.578	43533.09
653.93	43510.04
654.282	43270.05
654.633	43177.62
654.985	43318.18
655.337	43377.16
655.688	43306.88
656.039	43469.82
656.391	43132.2
656.742	43180.79
657.094	43294.68
657.445	43418.97
657.796	43217.39
658.147	43161.58
658.498	43191.86
658.849	43221.24
659.2	43177.85
659.551	43056.49
659.902	43214
660.253	43148.92
660.604	43162.48
660.955	42924.97
661.306	43271.4
661.656	43146.21
662.007	43022.15
662.358	43165.19
662.708	43143.05
663.059	43100.79
663.409	43019.89
663.76	43108.7
664.11	43043.84
664.461	43053.78
664.811	43150.73
665.161	43014.69
665.511	42915.03
665.862	42895.37
666.212	43165.64
666.562	43081.58
666.912	42922.71
667.262	42853.79
667.612	42922.71
667.962	43018.98
668.312	42818.08
668.662	43159.77
669.011	42842.72
669.361	42866.22
669.711	42825.99
670.06	42842.26
670.41	42823.73
670.76	42764.53
671.109	42901.7
671.459	42814.24
671.808	42778.99
672.157	42749.16
672.507	42574.7
672.856	42623.29
673.205	42687.24
673.554	42723.4
673.904	42670.06
674.253	42902.6
674.602	42831.19
674.951	42170.19
675.3	42020.82
675.649	42676.84
675.998	42488.37
676.346	42473.69
676.695	42706.67
677.044	42395.5
677.393	42398.21
677.741	42653.79
678.09	42452.22
678.438	42498.77
678.787	42411.77
679.135	42469.84
679.484	42237.53
679.832	42393.69
680.181	42210.42
680.529	42215.16
680.877	41996.18
681.225	42051.32
681.573	42341.71
681.922	41915.51
682.27	41912.8
682.618	41884.1
682.966	41843.42
683.314	41939.91
683.661	41681.16
684.009	41604.78
684.357	41514.84
684.705	41398.91
685.053	41433.94
685.4	41460.15
685.748	41300.38
686.095	41360.95
686.443	41277.78
686.79	41242.76
687.138	41178.13
687.485	41078.69
687.832	40977.45
688.18	41091.12
688.527	40952.82
688.874	40840.51
689.221	40736.56
689.568	40564.58
689.915	40512.61
690.262	40488.65
690.609	40501.31
690.956	40210.92
691.303	40247.08
691.65	40061.32
691.997	40125.72
692.344	39966.18
692.69	39840.76
693.037	39786.98
693.383	39628.34
693.73	39900.19
694.077	39450.94
694.423	39440.54
694.769	39392.18
695.116	39402.58
695.462	39419.53
695.808	39017.05
696.155	39289.14
696.501	38779.55
696.847	38927.11
697.193	38538.2
697.539	38662.71
697.885	38397.41
698.231	38347.47
698.577	38366.22
698.923	38418.2
699.269	38199.45
699.614	38108.15
699.96	38049.4
700.306	38063.63
700.651	37768.72
700.997	37784.54
701.342	37592.46
701.688	37676.98
702.033	37534.61
702.379	37404.67
702.724	37248.29
703.069	37394.95
703.415	36982.53
703.76	36975.75
704.105	37093.71
704.45	36918.8
704.795	36721.52
705.14	36457.57
705.485	36653.5
705.83	36361.08
706.175	36565.37
706.52	36393.17
706.865	36269.55
707.209	36112.95
707.554	36154.98
707.899	36223
708.243	35968.32
708.588	35976.91
708.932	35688.33
709.277	35745.5
709.621	35736.91
709.966	35521.1
710.31	35597.48
710.654	35233.42
710.998	35331.05
711.342	35322.46
711.687	35268.9
712.031	35101.45
712.375	34915.92
712.719	35129.7
713.063	34961.34
713.407	35059.64
713.75	34916.37
714.094	34793.21
714.438	34759.09
714.782	34677.96
715.125	34579.43
715.469	34679.77
715.812	34402.26
716.156	34272.09
716.499	34288.82
716.843	34331.3
717.186	34143.74
717.53	34338.98
717.873	34117.3
718.216	34027.58
718.559	33803.63
718.902	33731.77
719.246	33905.32
719.589	33713.01
719.932	33630.98
720.275	33670.98
720.617	33440.02
720.96	33537.2
721.303	33500.59
721.646	33456.3
721.989	33392.12
722.331	33412.68
722.674	33242.97
723.016	33164.55
723.359	33239.35
723.701	33139.02
724.044	33126.81
724.386	32790.55
724.729	32974.05
725.071	32946.48
725.413	32929.08
725.755	32945.12
726.097	32756.88
726.439	32618.35
726.782	32666.94
727.124	32704.9
727.465	32575.87
727.807	32562.08
728.149	32456.55
728.491	32360.05
728.833	32514.85
729.175	32238.7
729.516	32283.9
729.858	32282.77
730.199	32201.19
730.541	32096.11
730.882	32022.89
731.224	32054.75
731.565	31918.48
731.906	32066.5
732.248	32023.11
732.589	31717.13
732.93	31574.09
733.271	31742.44
733.612	31744.93
733.953	31772.05
734.294	31578.15
734.635	31447.76
734.976	31612.73
735.317	31445.95
735.658	31346.29
735.999	31500.87
736.339	31313.3
736.68	31348.78
737.021	31352.62
737.361	31071.95
737.702	31297.26
738.042	31085.51
738.383	31178.39
738.723	31280.08
739.063	30981.78
739.404	31081.44
739.744	30960.09
740.084	30755.58
740.424	30872.18
740.764	30846.65
741.104	30825.18
741.444	30690.72
741.784	30631.28
742.124	30689.14
742.464	30632.64
742.804	30531.4
743.143	30505.19
743.483	30463.15
743.823	30318.07
744.162	30347.9
744.502	30367.11
744.841	30255.48
745.181	30408.69
745.52	30089.15
745.86	30233.56
746.199	30228.36
746.538	30212.31
746.877	30192.43
747.216	30191.3
747.556	29975.03
747.895	30127.12
748.234	29787.24
748.573	29791.31
748.911	29965.99
749.25	29869.72
749.589	29692.78
749.928	29742.27
750.267	29730.74
750.605	29625.44
750.944	29536.85
751.283	29361.04
751.621	29449.17
751.96	29257.31
752.298	29305.67
752.636	29240.14
752.975	29150.42
753.313	28914.27
753.651	29156.75
753.989	28878.11
754.327	28954.27
754.666	28696.19
755.004	28919.47
755.342	28873.59
755.679	28768.06
756.017	28634.95
756.355	28676.08
756.693	28507.5
757.031	28605.35
757.368	28448.07
757.706	28402.64
