Data from hue_26_FLMS001491_00012.txt Node
Date: Tue Feb 07 17:13:37 GMT 2017
User: dcchb
Spectrometer: FLMS00149
Trigger mode: 0
Integration Time (sec): 2.000000E-2
Scans to average: 10
Electric dark correction enabled: true
Nonlinearity correction enabled: false
Boxcar width: 0
XAxis mode: Wavelengths
Number of Pixels in Spectrum: 2048
>>>>>Begin Spectral Data<<<<<
341.393	-5.21
341.776	-5.21
342.16	-5.21
342.543	-57.41
342.927	-58.77
343.31	-76.85
343.693	-73.23
344.077	-82.05
344.46	-63.06
344.843	-64.65
345.226	-48.6
345.61	-38.66
345.993	-9.05
346.376	9.25
346.759	-3.86
347.142	23.71
347.525	47.67
347.908	60.55
348.291	82.24
348.674	101.9
349.057	134.67
349.44	125.63
349.823	138.29
350.206	169.02
350.588	195.01
350.971	226.19
351.354	206.76
351.737	244.05
352.119	241.34
352.502	274.55
352.884	285.4
353.267	301.45
353.65	315.91
354.032	292.86
354.414	298.28
354.797	328.56
355.179	335.8
355.562	325.18
355.944	326.76
356.326	324.72
356.709	345.06
357.091	342.58
357.473	330.37
357.855	357.04
358.238	363.59
358.62	340.77
359.002	341.45
359.384	340.99
359.766	363.14
360.148	350.03
360.53	340.54
360.912	330.37
361.294	331.05
361.676	341.67
362.057	339.19
362.439	324.72
362.821	336.25
363.203	325.85
363.584	305.51
363.966	327.89
364.348	317.72
364.729	330.15
365.111	325.4
365.493	326.76
365.874	315.23
366.256	316.59
366.637	335.12
367.019	324.5
367.4	314.33
367.781	309.58
368.163	322.92
368.544	328.56
368.925	318.17
369.306	306.19
369.688	303.71
370.069	311.62
370.45	323.37
370.831	331.73
371.212	331.28
371.593	314.78
371.974	306.64
372.355	331.05
372.736	331.28
373.117	318.85
373.498	316.59
373.879	315.91
374.26	329.02
374.641	310.71
375.021	321.11
375.402	312.07
375.783	335.8
376.163	322.46
376.544	334.21
376.925	316.14
377.305	330.82
377.686	333.08
378.066	323.59
378.447	332.41
378.827	336.7
379.208	330.82
379.588	327.43
379.968	348.45
380.349	335.12
380.729	349.58
381.109	348.23
381.489	337.6
381.87	328.56
382.25	324.05
382.63	368.56
383.01	328.11
383.39	339.64
383.77	359.07
384.15	333.76
384.53	352.07
384.91	364.27
385.29	374.89
385.67	354.1
386.049	358.62
386.429	357.26
386.809	376.25
387.189	374.21
387.568	371.5
387.948	348
388.328	350.26
388.707	343.71
389.087	369.69
389.466	386.19
389.846	389.35
390.225	373.99
390.605	360.43
390.984	372.18
391.363	352.97
391.743	374.89
392.122	369.69
392.501	368.11
392.881	382.57
393.26	370.82
393.639	380.99
394.018	376.7
394.397	392.07
394.776	393.2
395.155	391.84
395.534	361.78
395.913	377.6
396.292	374.89
396.671	396.81
397.05	379.86
397.429	410.37
397.808	393.87
398.186	393.2
398.565	380.31
398.944	406.3
399.323	403.14
399.701	396.59
400.08	408.11
400.458	398.85
400.837	433.65
401.215	419.86
401.594	408.79
401.972	409.69
402.351	408.56
402.729	427.09
403.107	404.5
403.486	430.93
403.864	439.3
404.242	413.31
404.62	443.14
404.999	418.28
405.377	442.91
405.755	439.07
406.133	450.82
406.511	435.45
406.889	430.03
407.267	458.5
407.645	447.43
408.023	427.55
408.401	431.61
408.779	443.14
409.156	476.81
409.534	461.89
409.912	446.08
410.29	461.89
410.667	470.03
411.045	457.6
411.422	466.64
411.8	470.26
412.178	492.18
412.555	472.06
412.933	499.86
413.31	471.61
413.687	479.3
414.065	486.3
414.442	483.59
414.819	500.99
415.197	503.48
415.574	482.69
415.951	511.84
416.328	523.59
416.705	514.55
417.082	533.53
417.46	534.21
417.837	521.55
418.214	533.98
418.591	517.94
418.967	500.31
419.344	527.66
419.721	523.14
420.098	533.98
420.475	547.09
420.852	535.11
421.228	499.18
421.605	526.3
421.982	572.17
422.358	545.96
422.735	557.49
423.111	560.88
423.488	556.81
423.864	571.27
424.241	588.44
424.617	572.4
424.994	575.11
425.37	595.22
425.746	588.67
426.123	564.72
426.499	593.87
426.875	583.02
427.251	600.65
427.627	597.48
428.003	592.74
428.379	612.63
428.756	593.87
429.132	625.28
429.507	619.63
429.883	630.48
430.259	654.43
430.635	654.66
431.011	654.43
431.387	639.97
431.763	658.5
432.138	673.19
432.514	671.61
432.89	686.75
433.265	677.71
433.641	685.62
434.016	683.81
434.392	707.31
434.767	706.41
435.143	698.95
435.518	703.92
435.894	719.97
436.269	723.36
436.644	711.61
437.02	734.43
437.395	720.87
437.77	743.7
438.145	748.89
438.52	783.02
438.895	750.47
439.271	763.36
439.646	776.46
440.021	777.59
440.395	786.63
440.77	766.07
441.145	791.6
441.52	816.24
441.895	787.31
442.27	807.87
442.645	795.22
443.019	815.33
443.394	813.75
443.769	807.42
444.143	788.21
444.518	837.93
444.892	834.77
445.267	805.39
445.641	848.1
446.016	844.71
446.39	837.48
446.764	839.96
447.139	872.28
447.513	868.66
447.887	854.88
448.262	865.05
448.636	869.34
449.01	886.29
449.384	876.8
449.758	878.38
450.132	900.75
450.506	892.62
450.88	918.15
451.254	914.31
451.628	949.57
452.002	936.91
452.376	937.36
452.75	956.57
453.123	967.87
453.497	952.73
453.871	982.78
454.244	996.57
454.618	978.04
454.992	1000.19
455.365	994.31
455.739	1017.81
456.112	1029.56
456.486	1006.97
456.859	1041.09
457.232	1056.91
457.606	1038.6
457.979	1050.35
458.352	1076.12
458.725	1085.61
459.099	1088.77
459.472	1121.76
459.845	1129.45
460.218	1144.59
460.591	1152.05
460.964	1115.21
461.337	1177.58
461.71	1199.5
462.083	1185.94
462.456	1202.44
462.829	1198.6
463.201	1230.46
463.574	1213.06
463.947	1242.44
464.32	1256
464.692	1270.46
465.065	1291.48
465.438	1293.74
465.81	1343.68
466.183	1322.66
466.555	1347.07
466.928	1363.11
467.3	1375.32
467.672	1412.83
468.045	1410.12
468.417	1451.47
468.789	1446.73
469.161	1472.72
469.534	1492.38
469.906	1486.5
470.278	1497.12
470.65	1538.02
471.022	1574.63
471.394	1583.9
471.766	1597.91
472.138	1614.86
472.51	1666.16
472.882	1671.81
473.253	1701.41
473.625	1718.58
473.997	1769.43
474.369	1773.5
474.74	1815.98
475.112	1838.58
475.484	1857.79
475.855	1899.82
476.227	1914.51
476.598	1969.43
476.97	1951.57
477.341	2043.1
477.713	2067.05
478.084	2092.13
478.455	2141.85
478.827	2163.09
479.198	2224.11
479.569	2229.98
479.94	2293.48
480.311	2347.49
480.682	2393.6
481.053	2421.39
481.424	2473.37
481.795	2561.73
482.166	2563.53
482.537	2613.48
482.908	2664.1
483.279	2698.67
483.65	2737.77
484.021	2834.04
484.391	2817.09
484.762	2877.65
485.133	2890.53
485.503	2953.81
485.874	3049.4
486.244	3063.41
486.615	3162.16
486.985	3196.51
487.356	3271.31
487.726	3299.79
488.097	3335.27
488.467	3392.44
488.837	3451.65
489.207	3518.54
489.578	3584.3
489.948	3614.81
490.318	3674.69
490.688	3702.04
491.058	3779.1
491.428	3829.04
491.798	3910.84
492.168	3974.57
492.538	4017.51
492.908	4006.89
493.278	4095.25
493.648	4054.79
494.017	4158.07
494.387	4210.72
494.757	4247.11
495.126	4307.44
495.496	4325.75
495.866	4404.62
496.235	4455.01
496.605	4470.83
496.974	4539.98
497.344	4563.26
497.713	4595.8
498.082	4660.65
498.452	4693.87
498.821	4696.13
499.19	4720.09
499.559	4724.16
499.928	4783.14
500.298	4868.78
500.667	4921.89
501.036	4890.93
501.405	4927.31
501.774	4992.17
502.143	4942.45
502.512	5032.4
502.88	5040.98
503.249	5112.85
503.618	5174.77
503.987	5135.9
504.356	5158.49
504.724	5246.4
505.093	5244.82
505.462	5269.23
505.83	5269.23
506.199	5356.68
506.567	5396
506.936	5404.14
507.304	5476.23
507.672	5463.35
508.041	5525.04
508.409	5537.92
508.777	5603.68
509.145	5637.58
509.514	5600.97
509.882	5652.04
510.25	5690.23
510.618	5692.72
510.986	5761.19
511.354	5786.05
511.722	5792.83
512.09	5843.9
512.458	5857.01
512.826	5856.78
513.193	5913.05
513.561	5977.23
513.929	5942.65
514.297	6051.58
514.664	6039.38
515.032	6100.84
515.4	6101.29
515.767	6100.62
516.135	6158.69
516.502	6106.27
516.869	6254.96
517.237	6191.01
517.604	6224.68
517.972	6285.02
518.339	6296.54
518.706	6395.3
519.073	6389.65
519.44	6401.17
519.808	6376.54
520.175	6419.7
520.542	6536.76
520.909	6456.54
521.276	6552.13
521.643	6545.35
522.009	6598.68
522.376	6631.9
522.743	6653.6
523.11	6704.44
523.477	6743.31
523.843	6799.58
524.21	6864.89
524.577	6959.35
524.943	6893.14
525.31	7002.97
525.676	6971.55
526.043	7053.59
526.409	7043.19
526.776	7083.42
527.142	7185.11
527.508	7235.73
527.874	7196.86
528.241	7296.29
528.607	7315.95
528.973	7323.18
529.339	7296.07
529.705	7416.29
530.071	7482.5
530.437	7528.6
530.803	7516.85
531.169	7574.93
531.535	7532.67
531.901	7582.16
532.267	7620.12
532.632	7703.29
532.998	7695.15
533.364	7806.11
533.73	7780.57
534.095	7805.88
534.461	7881.36
534.826	8000.91
535.192	7950.96
535.557	7963.17
535.923	7984.41
536.288	8053.56
536.653	8099.89
537.019	8064.18
537.384	8107.57
537.749	8168.81
538.114	8119.32
538.479	8163.61
538.845	8228.24
539.21	8231.41
539.575	8341.46
539.94	8304.17
540.305	8365.87
540.67	8388.69
541.034	8387.56
541.399	8447.45
541.764	8499.2
542.129	8527.67
542.494	8575.35
542.858	8612.41
543.223	8621.23
543.587	8650.61
543.952	8693.77
544.316	8724.28
544.681	8762.47
545.045	8804.95
545.41	8862.8
545.774	8849.24
546.138	8845.85
546.503	8953.42
546.867	8968.11
547.231	9005.85
547.595	8978.05
547.959	8995.46
548.324	9019.18
548.688	9036.81
549.052	9120.42
549.416	9157.03
549.779	9133.08
550.143	9210.14
550.507	9271.61
550.871	9332.4
551.235	9267.54
551.599	9333.3
551.962	9387.76
552.326	9409.91
552.689	9430.47
553.053	9419.85
553.417	9513.63
553.78	9595.21
554.143	9536.23
554.507	9568.77
554.87	9615.1
555.234	9699.17
555.597	9649.68
555.96	9703.91
556.323	9732.84
556.686	9706.85
557.05	9852.61
557.413	9830.24
557.776	9889.44
558.139	9994.98
558.502	9957.92
558.865	9980.74
559.228	10048.08
559.59	10060.06
559.953	10042.89
560.316	10201.3
560.679	10110.45
561.041	10200.85
561.404	10220.96
561.767	10334.86
562.129	10317.68
562.492	10434.51
562.854	10340.96
563.217	10335.31
563.579	10523.55
563.941	10434.74
564.304	10498.92
564.666	10571.69
565.028	10596.32
565.39	10631.34
565.753	10693.94
566.115	10693.94
566.477	10715.86
566.839	10787.05
567.201	10904.78
567.563	10872.92
567.925	10978
568.287	10963.31
568.648	11001.96
569.01	11081.5
569.372	11174.16
569.734	11096.42
570.095	11166.47
570.457	11253.25
570.819	11205.34
571.18	11284.21
571.542	11355.62
571.903	11365.79
572.265	11462.28
572.626	11455.73
572.987	11481.94
573.349	11648.95
573.71	11624.31
574.071	11757.42
574.432	11790.41
574.794	11863.18
575.155	11971.42
575.516	11922.61
575.877	11969.61
576.238	12097.52
576.599	12156.73
576.96	12245.54
577.32	12403.5
577.681	12451.64
578.042	12594.46
578.403	12594.91
578.763	12719.2
579.124	12852.3
579.485	12924.17
579.845	13050.04
580.206	13139.53
580.566	13253.2
580.927	13384.49
581.287	13515.56
581.648	13604.6
582.008	13801.88
582.368	13880.75
582.728	14096.11
583.089	14166.62
583.449	14342.43
583.809	14484.8
584.169	14658.58
584.529	14746.72
584.889	15070.1
585.249	15178.8
585.609	15340.37
585.969	15728.84
586.329	15731.32
586.688	16034.82
587.048	16228.49
587.408	16393.91
587.768	16578.08
588.127	16917.73
588.487	17002.02
588.846	17464.84
589.206	17509.13
589.565	17812.62
589.925	18150.24
590.284	18352.95
590.643	18676.78
591.003	18881.75
591.362	19194.74
591.721	19465.24
592.08	19783.19
592.44	20045.79
592.799	20306.8
593.158	20586.11
593.517	20921.7
593.876	21165.76
594.235	21455.92
594.593	21801.67
594.952	22085.96
595.311	22360.98
595.67	22658.83
596.029	23086.38
596.387	23304.01
596.746	23589.42
597.104	23785.8
597.463	24151.44
597.822	24504.43
598.18	24788.94
598.538	25072.77
598.897	25503.72
599.255	25641.57
599.613	26177.15
599.972	26242.69
600.33	26719.28
600.688	26878.83
601.046	27349.1
601.404	27626.83
601.762	27946.6
602.12	28227.27
602.478	28605.79
602.836	28906.8
603.194	28856.4
603.552	29299.78
603.91	29401.47
604.268	29936.15
604.625	30028.57
604.983	30578.39
605.341	30477.83
605.698	30865.84
606.056	31240.97
606.413	31303.8
606.771	31755.54
607.128	31946.94
607.485	31984.91
607.843	32277.56
608.2	32764.1
608.557	32959.35
608.914	33122.28
609.272	33539.89
609.629	33766.1
609.986	34155.47
610.343	34247.67
610.7	34542.13
611.057	34500.77
611.414	34868.9
611.771	35080.42
612.127	35315.22
612.484	35581.2
612.841	35830.91
613.198	35777.35
613.554	35974.41
613.911	36407.62
614.267	36505.01
614.624	36620.72
614.98	36879.47
615.337	37242.85
615.693	37243.75
616.05	37335.95
616.406	37792.89
616.762	37663.63
617.118	37765.55
617.475	37936.16
617.831	38146.33
618.187	38247.12
618.543	38393.55
618.899	38755.13
619.255	38842.13
619.611	38904.27
619.967	39191.27
620.323	39469.23
620.678	39352.4
621.034	39368.22
621.39	39620.64
621.746	39591.71
622.101	39973.62
622.457	39896.79
622.812	40092.04
623.168	40244.58
623.523	40331.81
623.879	40594.17
624.234	40346.95
624.589	40666.04
624.945	40557.34
625.3	40789.87
625.655	40835.07
626.01	40984.9
626.365	40792.13
626.72	40939.02
627.075	40984.44
627.43	40922.75
627.785	41087.27
628.14	41162.97
628.495	41506.01
628.85	41309.86
629.205	41403.19
629.559	41583.3
629.914	41441.83
630.269	41476.86
630.623	41674.82
630.978	41536.29
631.332	41737.42
631.687	41789.62
632.041	41611.32
632.396	41837.3
632.75	41661.49
633.104	41754.37
633.459	41711.43
633.813	41580.36
634.167	41703.75
634.521	41534.26
634.875	41779.23
635.229	41643.64
635.583	41709.62
635.937	41720.02
636.291	41710.75
636.645	41719.34
636.999	41531.32
637.352	41868.72
637.706	41625.56
638.06	41731.32
638.413	41672.79
638.767	41675.73
639.121	41854.93
639.474	41610.19
639.828	41634.6
640.181	41665.33
640.534	41624.88
640.888	41541.27
641.241	41504.66
641.594	41536.75
641.947	41643.64
642.301	41614.26
642.654	41603.86
643.007	41548.72
643.36	41473.7
643.713	41524.32
644.066	41705.33
644.419	41347.37
644.771	41178.34
645.124	40855.63
645.477	40681.63
645.83	40598.01
646.182	40439.83
646.535	40374.07
646.888	40460.16
647.24	40278.47
647.593	40568.41
647.945	40385.14
648.298	40182.66
648.65	40264.01
649.002	40052.04
649.355	40260.62
649.707	40235.09
650.059	40353.95
650.411	40890.89
650.763	40860.38
651.115	41325
651.467	41135.18
651.819	41080.71
652.171	41078
652.523	41088.85
652.875	41087.72
653.227	40950.32
653.578	41130.66
653.93	41131.56
654.282	40814.51
654.633	40918.23
654.985	40939.47
655.337	40973.37
655.688	40961.17
656.039	41039.36
656.391	40674.85
656.742	40807.05
657.094	40904
657.445	40995.52
657.796	40884.33
658.147	40749.42
658.498	40757.11
658.849	40800.95
659.2	40772.93
659.551	40729.99
659.902	40885.92
660.253	40676.66
660.604	40795.98
660.955	40529.77
661.306	40730.89
661.656	40724.79
662.007	40693.83
662.358	40656.54
662.708	40682.31
663.059	40710.55
663.409	40438.24
663.76	40772.7
664.11	40716.88
664.461	40713.94
664.811	40729.99
665.161	40797.33
665.511	40595.98
665.862	40709.88
666.212	40793.26
666.562	40769.76
666.912	40681.85
667.262	40573.83
667.612	40595.53
667.962	40619.48
668.312	40638.47
668.662	40784
669.011	40647.5
669.361	40591.69
669.711	40487.06
670.06	40574.51
670.41	40383.56
670.76	40400.28
671.109	40523.21
671.459	40431.92
671.808	40376.78
672.157	40409.32
672.507	40303.33
672.856	40183.79
673.205	40516.43
673.554	40489.54
673.904	40308.53
674.253	40587.62
674.602	40388.53
674.951	39912.83
675.3	39636.23
675.649	40360.96
675.998	40235.31
676.346	40339.26
676.695	40496.55
677.044	40080.06
677.393	40226.27
677.741	40273.5
678.09	40095.43
678.438	39970.46
678.787	40029.44
679.135	40079.84
679.484	39772.95
679.832	39922.1
680.181	39844.59
680.529	39763.46
680.877	39751.71
681.225	39673.07
681.573	39919.84
681.922	39696.34
682.27	39594.2
682.618	39550.36
682.966	39493.64
683.314	39453.41
683.661	39403.02
684.009	39225.4
684.357	39205.73
684.705	39233.53
685.053	39224.27
685.4	39120.54
685.748	39049.81
686.095	38965.29
686.443	38801.23
686.79	38800.1
687.138	38940.88
687.485	38756.71
687.832	38712.41
688.18	38697.73
688.527	38508.8
688.874	38496.37
689.221	38436.49
689.568	38274.46
689.915	38159.66
690.262	38223.84
690.609	38061.13
690.956	38089.61
691.303	38065.43
691.65	37902.49
691.997	37924.86
692.344	37712.89
692.69	37613.23
693.037	37573.91
693.383	37349.29
693.73	37362.17
694.077	37226.35
694.423	37319.46
694.769	37093.25
695.116	36989.07
695.462	36950.88
695.808	36858.23
696.155	36928.05
696.501	36644.45
696.847	36588.4
697.193	36310.67
697.539	36559.93
697.885	36270.44
698.231	36223.21
698.577	36181.18
698.923	36226.15
699.269	35978.7
699.614	35750.68
699.96	35870.23
700.306	35739.61
700.651	35630.46
700.997	35590.24
701.342	35492.61
701.688	35259.17
702.033	35236.57
702.379	35239.74
702.724	35131.27
703.069	35301.43
703.415	34756.59
703.76	34814.44
704.105	34889.01
704.45	34693.76
704.795	34477.72
705.14	34463.26
705.485	34511.39
705.83	34259.2
706.175	34268.46
706.52	34285.64
706.865	34182.14
707.209	34135.36
707.554	33967.68
707.899	34095.36
708.243	33806.1
708.588	33824.41
708.932	33580.8
709.277	33503.96
709.621	33685.65
709.966	33350.3
710.31	33504.19
710.654	33020.81
710.998	33192.79
711.342	33220.81
711.687	33058.78
712.031	32974.49
712.375	32907.14
712.719	32965.45
713.063	32914.15
713.407	33026.69
713.75	32926.13
714.094	32773.14
714.438	32613.59
714.782	32589.19
715.125	32532.24
715.469	32574.95
715.812	32290.89
716.156	32262.64
716.499	32202.75
716.843	32255.18
717.186	32000.05
717.53	32159.59
717.873	32063.55
718.216	32022.19
718.559	31972.7
718.902	31641.64
719.246	31823.33
719.589	31647.97
719.932	31604.13
720.275	31565.94
720.617	31461.08
720.96	31465.6
721.303	31522.32
721.646	31463.11
721.989	31180.18
722.331	31317.35
722.674	31357.35
723.016	31337.24
723.359	31297.69
723.701	31320.07
724.044	31118.04
724.386	30980.87
724.729	31140.86
725.071	30940.87
725.413	30967.31
725.755	30895.9
726.097	30817.03
726.439	30684.15
726.782	30739.52
727.124	30622.68
727.465	30440.77
727.807	30528.67
728.149	30495.23
728.491	30489.81
728.833	30427.89
729.175	30365.52
729.516	30355.12
729.858	30257.04
730.199	30287.55
730.541	30241.68
730.882	30105.18
731.224	30226.76
731.565	29941.35
731.906	30051.17
732.248	29958.75
732.589	29854.12
732.93	29830.16
733.271	29807.56
733.612	29731.18
733.953	29815.93
734.294	29546.33
734.635	29602.37
734.976	29665.42
735.317	29508.59
735.658	29541.81
735.999	29662.71
736.339	29547.68
736.68	29543.16
737.021	29498.87
737.361	29460.91
737.702	29428.14
738.042	29364.64
738.383	29334.81
738.723	29358.54
739.063	29307.01
739.404	29310.63
739.744	29102.5
740.084	29107.92
740.424	29088.03
740.764	28913.8
741.104	29002.16
741.444	28978.88
741.784	28803.3
742.124	28833.58
742.464	28757.65
742.804	28780.47
743.143	28648.72
743.483	28703.41
743.823	28554.49
744.162	28647.37
744.502	28557.2
744.841	28392.91
745.181	28582.96
745.52	28501.38
745.86	28427.71
746.199	28254.61
746.538	28394.49
746.877	28437.43
747.216	28303.65
747.556	28299.13
747.895	28291.9
748.234	28077.21
748.573	28092.81
748.911	28068.63
749.25	28042.41
749.589	27978.01
749.928	28046.93
750.267	28088.06
750.605	27919.7
750.944	27870.44
751.283	27738.92
751.621	27795.87
751.96	27633.84
752.298	27641.07
752.636	27734.62
752.975	27548.41
753.313	27486.27
753.651	27499.15
753.989	27307.06
754.327	27303.45
754.666	27171.47
755.004	27332.6
755.342	27295.54
755.679	27145.03
756.017	26993.85
756.355	26991.82
756.693	26912.27
757.031	27032.95
757.368	26894.65
757.706	26798.38
758.044	26728.77
758.381	26736.68
758.719	26694.2
759.056	26630.7
759.394	26593.86
