Data from hue_310_FLMS001491_52.txt Node
Date: Mon Feb 06 15:49:52 GMT 2017
User: dcchb
Spectrometer: FLMS00149
Trigger mode: 0
Integration Time (sec): 2.000000E-2
Scans to average: 10
Electric dark correction enabled: true
Nonlinearity correction enabled: false
Boxcar width: 0
XAxis mode: Wavelengths
Number of Pixels in Spectrum: 2048
>>>>>Begin Spectral Data<<<<<
341.393	9.59
341.776	9.59
342.16	9.59
342.543	-76.74
342.927	-74.48
343.31	-66.11
343.693	-69.73
344.077	-65.21
344.46	-46.68
344.843	-54.36
345.226	-50.97
345.61	-13.69
345.993	-21.37
346.376	-0.81
346.759	-2.84
347.142	21.12
347.525	42.36
347.908	69.48
348.291	66.54
348.674	74.22
349.057	118.06
349.44	128.91
349.823	144.05
350.206	169.13
350.588	193.77
350.971	193.54
351.354	229.7
351.737	235.12
352.119	248.91
352.502	263.37
352.884	263.14
353.267	273.09
353.65	288.23
354.032	316.93
354.414	314.21
354.797	306.53
355.179	306.08
355.562	330.94
355.944	335.68
356.326	321.9
356.709	343.82
357.091	336.14
357.473	339.75
357.855	333.65
358.238	349.69
358.62	330.94
359.002	337.49
359.384	348.34
359.766	354.89
360.148	351.5
360.53	341.11
360.912	351.05
361.294	321.45
361.676	330.71
362.057	336.36
362.439	330.03
362.821	329.58
363.203	313.08
363.584	301.11
363.966	339.07
364.348	332.97
364.729	306.08
365.111	319.41
365.493	325.51
365.874	315.34
366.256	322.12
366.637	309.7
367.019	331.62
367.4	337.94
367.781	317.38
368.163	311.5
368.544	314.67
368.925	298.85
369.306	306.76
369.688	298.62
370.069	309.7
370.45	326.64
370.831	307.89
371.212	320.32
371.593	332.07
371.974	331.39
372.355	315.12
372.736	332.29
373.117	316.93
373.498	325.29
373.879	307.21
374.26	308.11
374.641	317.83
375.021	310.15
375.402	325.06
375.783	316.47
376.163	324.61
376.544	338.4
376.925	317.6
377.305	320.99
377.686	330.26
378.066	332.52
378.447	329.13
378.827	338.17
379.208	327.1
379.588	326.64
379.968	339.98
380.349	325.97
380.729	327.55
381.109	351.05
381.489	353.08
381.87	347.89
382.25	344.72
382.63	348.79
383.01	337.49
383.39	349.24
383.77	342.46
384.15	339.07
384.53	344.5
384.91	349.24
385.29	357.83
385.67	341.78
386.049	350.82
386.429	339.52
386.809	366.64
387.189	355.12
387.568	368.45
387.948	337.04
388.328	362.12
388.707	375.46
389.087	366.64
389.466	363.25
389.846	371.16
390.225	368
390.605	375.23
390.984	371.84
391.363	365.29
391.743	363.03
392.122	384.27
392.501	391.73
392.881	370.48
393.26	370.26
393.639	370.03
394.018	374.33
394.397	396.25
394.776	380.43
395.155	398.28
395.534	385.85
395.913	394.21
396.292	392.63
396.671	412.52
397.05	395.34
397.429	403.03
397.808	389.47
398.186	405.74
398.565	395.57
398.944	416.13
399.323	408.45
399.701	414.55
400.08	395.12
400.458	417.94
400.837	405.29
401.215	404.38
401.594	430.37
401.972	396.02
402.351	433.31
402.729	414.78
403.107	437.15
403.486	427.21
403.864	426.75
404.242	437.38
404.62	447.77
404.999	436.7
405.377	449.58
405.755	459.3
406.133	443.48
406.511	462.46
406.889	464.04
407.267	474.21
407.645	490.48
408.023	480.09
408.401	478.96
408.779	479.18
409.156	499.75
409.534	511.5
409.912	485.74
410.29	511.05
410.667	512.18
411.045	539.97
411.422	519.86
411.8	519.18
412.178	542.68
412.555	538.16
412.933	572.51
413.31	568.22
413.687	572.29
414.065	577.48
414.442	593.98
414.819	599.63
415.197	590.59
415.574	607.99
415.951	609.8
416.328	594.66
416.705	633.98
417.082	633.75
417.46	651.16
417.837	656.35
418.214	646.18
418.591	681.21
418.967	690.48
419.344	697.48
419.721	697.71
420.098	710.81
420.475	695.67
420.852	714.88
421.228	729.57
421.605	728.44
421.982	726.18
422.358	731.83
422.735	770.7
423.111	781.32
423.488	777.48
423.864	777.03
424.241	820.64
424.617	819.06
424.994	824.26
425.37	815.44
425.746	836.69
426.123	844.14
426.499	871.26
426.875	837.36
427.251	864.48
427.627	873.07
428.003	891.15
428.379	906.29
428.756	892.73
429.132	913.07
429.507	915.1
429.883	913.75
430.259	951.94
430.635	937.02
431.011	998.72
431.387	991.26
431.763	1004.82
432.138	1003.01
432.514	1022.9
432.89	1036
433.265	1040.3
433.641	1065.61
434.016	1060.41
434.392	1089.79
434.767	1093.18
435.143	1101.31
435.518	1080.75
435.894	1124.14
436.269	1118.71
436.644	1131.59
437.02	1170.92
437.395	1127.98
437.77	1171.37
438.145	1188.54
438.52	1214.53
438.895	1199.84
439.271	1208.65
439.646	1249.78
440.021	1243.46
440.395	1239.16
440.77	1244.36
441.145	1244.36
441.52	1253.17
441.895	1296.11
442.27	1298.14
442.645	1296.11
443.019	1295.88
443.394	1304.7
443.769	1304.47
444.143	1261.76
444.518	1313.28
444.892	1334.53
445.267	1340.4
445.641	1342.66
446.016	1318.48
446.39	1374.98
446.764	1344.47
447.139	1349.22
447.513	1359.84
447.887	1351.48
448.262	1404.58
448.636	1366.62
449.01	1383.57
449.384	1381.76
449.758	1393.51
450.132	1412.72
450.506	1432.83
450.88	1412.94
451.254	1397.35
451.628	1434.41
452.002	1442.55
452.376	1444.35
452.75	1441.42
453.123	1481.42
453.497	1470.79
453.871	1474.86
454.244	1506.27
454.618	1518.93
454.992	1508.31
455.365	1559.38
455.739	1554.63
456.112	1526.16
456.486	1546.95
456.859	1549.89
457.232	1564.35
457.606	1579.04
457.979	1606.61
458.352	1593.05
458.725	1642.09
459.099	1647.97
459.472	1714.4
459.845	1685.25
460.218	1720.51
460.591	1697.23
460.964	1696.1
461.337	1739.26
461.71	1762.99
462.083	1749.66
462.456	1771.8
462.829	1758.92
463.201	1795.76
463.574	1762.99
463.947	1817
464.32	1852.93
464.692	1879.15
465.065	1857.9
465.438	1881.41
465.81	1912.36
466.183	1904
466.555	1932.93
466.928	1922.99
467.3	1955.53
467.672	1983.1
468.045	1978.58
468.417	2016.09
468.789	2017.22
469.161	2062.42
469.534	2068.07
469.906	2101.51
470.278	2096.99
470.65	2103.55
471.022	2135.64
471.394	2146.48
471.766	2163.88
472.138	2181.51
472.51	2208.63
472.882	2205.69
473.253	2294.5
473.625	2277.1
473.997	2311.68
474.369	2330.43
474.74	2317.78
475.112	2380.38
475.484	2406.36
475.855	2432.58
476.227	2429.41
476.598	2487.72
476.97	2484.33
477.341	2526.81
477.713	2576.75
478.084	2595.96
478.455	2631.67
478.827	2612.69
479.198	2695.4
479.569	2694.04
479.94	2722.06
480.311	2742.85
480.682	2799.8
481.053	2883.86
481.424	2860.14
481.795	2915.95
482.166	2924.54
482.537	2961.15
482.908	2982.62
483.279	3004.31
483.65	3047.7
484.021	3102.39
484.391	3141.94
484.762	3184.2
485.133	3157.76
485.503	3198.88
485.874	3243.86
486.244	3252.44
486.615	3346.9
486.985	3354.36
487.356	3377.19
487.726	3369.05
488.097	3464.87
488.467	3428.26
488.837	3500.57
489.207	3529.05
489.578	3537.86
489.948	3592.32
490.318	3644.3
490.688	3647.69
491.058	3693.34
491.428	3710.51
491.798	3721.36
492.168	3788.47
492.538	3819.43
492.908	3802.03
493.278	3898.53
493.648	3877.96
494.017	3900.56
494.387	3931.97
494.757	3992.08
495.126	3997.06
495.496	4038.41
495.866	4050.16
496.235	4108.24
496.605	4102.59
496.974	4100.33
497.344	4136.94
497.713	4154.34
498.082	4165.87
498.452	4157.28
498.821	4199.76
499.19	4250.61
499.559	4256.48
499.928	4288.35
500.298	4304.39
500.667	4356.14
501.036	4321.57
501.405	4348.23
501.774	4382.58
502.143	4362.92
502.512	4391.85
502.88	4420.55
503.249	4422.81
503.618	4499.64
503.987	4463.48
504.356	4469.13
504.724	4451.51
505.093	4507.1
505.462	4518.62
505.83	4515.91
506.199	4571.28
506.567	4605.63
506.936	4600.43
507.304	4633.88
507.672	4694.89
508.041	4650.37
508.409	4668
508.777	4688.11
509.145	4709.81
509.514	4696.47
509.882	4768.11
510.25	4771.72
510.618	4799.75
510.986	4795.9
511.354	4804.72
511.722	4878.39
512.09	4893.98
512.458	4859.41
512.826	4881.1
513.193	4863.47
513.561	4895.11
513.929	4925.85
514.297	4955.45
514.664	4938.05
515.032	4993.87
515.4	4980.53
515.767	4993.19
516.135	5039.74
516.502	4970.59
516.869	5048.1
517.237	5061.89
517.604	5035.9
517.972	5137.59
518.339	5121.32
518.706	5096.69
519.073	5120.19
519.44	5152.05
519.808	5186.86
520.175	5146.63
520.542	5250.13
520.909	5302.11
521.276	5223.24
521.643	5226.18
522.009	5313.86
522.376	5183.01
522.743	5331.48
523.11	5364.25
523.477	5408.54
523.843	5354.53
524.21	5458.71
524.577	5478.82
524.943	5474.08
525.31	5495.1
525.676	5602.44
526.043	5580.97
526.409	5561.76
526.776	5645.37
527.142	5617.8
527.508	5660.97
527.874	5726.73
528.241	5699.61
528.607	5743.68
528.973	5801.98
529.339	5737.12
529.705	5811.02
530.071	5871.58
530.437	5856.67
530.803	5882.88
531.169	5962.65
531.535	5976.44
531.901	5945.71
532.267	5983.22
532.632	6026.83
532.998	6064.35
533.364	6117.68
533.73	6112.25
534.095	6168.3
534.461	6132.59
534.826	6262.08
535.192	6228.86
535.557	6238.8
535.923	6237.67
536.288	6301.85
536.653	6310.89
537.019	6238.35
537.384	6339.37
537.749	6338.01
538.114	6349.31
538.479	6379.82
538.845	6363.32
539.21	6453.94
539.575	6447.39
539.94	6486.71
540.305	6525.8
540.67	6557.44
541.034	6578.23
541.399	6631.11
541.764	6603.32
542.129	6715.85
542.494	6692.8
542.858	6676.76
543.223	6732.58
543.587	6737.1
543.952	6841.05
544.316	6802.41
544.681	6886.47
545.045	6915.4
545.41	6902.06
545.774	6904.32
546.138	6908.17
546.503	6941.16
546.867	6977.54
547.231	7089.4
547.595	7062.74
547.959	7145.67
548.324	7102.29
548.688	7090.76
549.052	7114.26
549.416	7136.18
549.779	7223.64
550.143	7206.92
550.507	7299.12
550.871	7243.98
551.235	7267.25
551.599	7337.31
551.962	7304.09
552.326	7386.8
552.689	7365.1
553.053	7408.94
553.417	7383.18
553.78	7448.72
554.143	7505.44
554.507	7493.01
554.87	7505.89
555.234	7607.13
555.597	7562.84
555.96	7577.75
556.323	7612.78
556.686	7676.73
557.05	7655.26
557.413	7645.1
557.776	7727.35
558.139	7748.14
558.502	7702.72
558.865	7753.57
559.228	7792.66
559.59	7783.17
559.953	7790.63
560.316	7886.67
560.679	7871.76
561.041	7929.83
561.404	7915.37
561.767	8004.41
562.129	7955.37
562.492	8050.96
562.854	7993.79
563.217	7997.63
563.579	8106.78
563.941	8133.22
564.304	8162.37
564.666	8179.77
565.028	8203.05
565.39	8244.63
565.753	8222.71
566.115	8227.45
566.477	8309.26
566.839	8367.79
567.201	8372.99
567.563	8444.17
567.925	8450.5
568.287	8434.23
568.648	8464.51
569.01	8607.33
569.372	8599.42
569.734	8552.42
570.095	8678.51
570.457	8635.35
570.819	8650.94
571.18	8731.39
571.542	8715.58
571.903	8842.13
572.265	8852.52
572.626	8905.85
572.987	8907.66
573.349	8977.04
573.71	9015.46
574.071	9026.75
574.432	9129.35
574.794	9217.03
575.155	9248.67
575.516	9331.15
575.877	9379.29
576.238	9454.54
576.599	9482.34
576.96	9563.69
577.32	9678.71
577.681	9753.29
578.042	9855.88
578.403	9932.27
578.763	9992.6
579.124	10136.78
579.485	10264.46
579.845	10337.45
580.206	10455.42
580.566	10594.62
580.927	10655.64
581.287	10860.6
581.648	10954.16
582.008	11207.71
582.368	11252.23
582.728	11451.55
583.089	11594.82
583.449	11827.81
583.809	12035.94
584.169	12082.27
584.529	12296.05
584.889	12585.53
585.249	12720.67
585.609	12856.03
585.969	13128.57
586.329	13357.49
586.688	13580.98
587.048	13838.61
587.408	14034.53
587.768	14305.71
588.127	14479.72
588.487	14796.77
588.846	15101.62
589.206	15253.71
589.565	15521.72
589.925	15928.95
590.284	16077.19
590.643	16408.93
591.003	16858.19
591.362	17073.77
591.721	17276.03
592.08	17586.76
592.44	17775.9
592.799	18213.86
593.158	18481.19
593.517	18689.78
593.876	19112.14
594.235	19434.16
594.593	19726.13
594.952	19985.56
595.311	20315.95
595.67	20665.54
596.029	21043.39
596.387	21404.96
596.746	21772.63
597.104	21965.4
597.463	22265.73
597.822	22602.22
598.18	22818.03
598.538	23208.08
598.897	23651.91
599.255	23734.16
599.613	24268.16
599.972	24374.15
600.33	24810.07
600.688	25025.88
601.046	25248.7
601.404	25702.93
601.762	25993.31
602.12	26309.24
602.478	26586.97
602.836	26918.94
603.194	26959.39
603.552	27349.66
603.91	27373.16
604.268	27937.67
604.625	28054.28
604.983	28342.86
605.341	28593.02
605.698	28983.97
606.056	29364.52
606.413	29422.15
606.771	29758.64
607.128	30072.53
607.485	30242.69
607.843	30422.8
608.2	30887.2
608.557	31133.52
608.914	31258.49
609.272	31631.58
609.629	31941.18
609.986	32118.8
610.343	32100.05
610.7	32503.65
611.057	32771.44
611.414	32992.9
611.771	33147.7
612.127	33558.76
612.484	33628.59
612.841	33853.9
613.198	33822.94
613.554	34109.94
613.911	34437.84
614.267	34498.4
614.624	34733.2
614.98	34785.4
615.337	35215.67
615.693	35333.18
616.05	35417.7
616.406	35713.96
616.762	35819.27
617.118	35944.01
617.475	36057.91
617.831	36266.49
618.187	36492.47
618.543	36667.38
618.899	36907.15
619.255	37009.97
619.611	37122.29
619.967	37303.52
620.323	37465.1
620.678	37376.97
621.034	37412.67
621.39	37610.86
621.746	37677.3
622.101	38209.04
622.457	37890.18
622.812	38169.49
623.168	38224.18
623.523	38348.24
623.879	38535.13
624.234	38361.35
624.589	38671.4
624.945	38690.83
625.3	38793.66
625.655	38755.01
626.01	38987.77
626.365	39139.63
626.72	39011.73
627.075	39211.27
627.43	39099.41
627.785	39233.42
628.14	39269.57
628.495	39266.19
628.85	39319.07
629.205	39303.7
629.559	39637.25
629.914	39539.85
630.269	39705.72
630.623	39517.25
630.978	39610.13
631.332	39835.66
631.687	39916.79
632.041	39751.6
632.396	39806.51
632.75	39914.76
633.104	39961.31
633.459	39906.39
633.813	39843.57
634.167	39824.36
634.521	39803.8
634.875	40042.21
635.229	39945.72
635.583	39699.62
635.937	39947.52
636.291	39916.34
636.645	39988.43
636.999	39828.88
637.352	39949.33
637.706	39855.55
638.06	39955.88
638.413	39876.79
638.767	39740.75
639.121	39970.8
639.474	39673.18
639.828	39729.22
640.181	39657.14
640.534	39898.48
640.888	39745.04
641.241	39571.49
641.594	39674.76
641.947	39809.22
642.301	39754.53
642.654	39799.96
643.007	39838.37
643.36	39749.34
643.713	39750.69
644.066	39820.07
644.419	39600.41
644.771	39358.39
645.124	39115
645.477	39094.66
645.83	38801.34
646.182	38699.87
646.535	38590.27
646.888	38659.42
647.24	38490.61
647.593	38530.84
647.945	38579.42
648.298	38456.26
648.65	38419.88
649.002	38333.78
649.355	38569.03
649.707	38447.45
650.059	38630.5
650.411	38967.66
650.763	39216.92
651.115	39479.06
651.467	39342.79
651.819	39359.74
652.171	39359.74
652.523	39174.21
652.875	39296.24
653.227	39111.84
653.578	39357.03
653.93	39324.94
654.282	39181.44
654.633	39129.01
654.985	39206.3
655.337	39111.16
655.688	39074.78
656.039	39361.32
656.391	38969.24
656.742	39263.02
657.094	38961.56
657.445	39336.92
657.796	39095.79
658.147	39143.02
658.498	39156.36
658.849	39090.82
659.2	39064.38
659.551	38848.34
659.902	39043.59
660.253	39015.12
660.604	38951.62
660.955	38826.87
661.306	39115.68
661.656	39079.98
662.007	39016.93
662.358	39012.63
662.708	38963.37
663.059	38918.17
663.409	38685.64
663.76	38863.71
664.11	38881.34
664.461	38971.96
664.811	38913.2
665.161	38980.54
665.511	38751.17
665.862	38872.52
666.212	39018.96
666.562	39021.45
666.912	38871.85
667.262	38716.14
667.612	38858.06
667.962	38895.35
668.312	38888.79
668.662	38822.81
669.011	38863.94
669.361	38786.88
669.711	38735.58
670.06	38714.11
670.41	38658.07
670.76	38487.9
671.109	38853.09
671.459	38804.28
671.808	38794.33
672.157	38792.07
672.507	38642.92
672.856	38518.18
673.205	38666.43
673.554	38766.54
673.904	38632.76
674.253	38781
674.602	38647.9
674.951	38212.88
675.3	37955.49
675.649	38391.41
675.998	38480.44
676.346	38519.31
676.695	38573.77
677.044	38348.24
677.393	38496.26
677.741	38535.36
678.09	38395.93
678.438	38382.37
678.787	38334.23
679.135	38410.61
679.484	38076.84
679.832	38232.31
680.181	38126.55
680.529	38079.55
680.877	38045.65
681.225	38152.99
681.573	38401.58
681.922	37990.74
682.27	37903.51
682.618	37849.5
682.966	37730.41
683.314	37960
683.661	37714.81
684.009	37560.92
684.357	37597.98
684.705	37472.33
685.053	37397.08
685.4	37327.03
685.748	37119.35
686.095	37334.26
686.443	37063.08
686.79	37011.33
687.138	37304.88
687.485	37193.47
687.832	37009.97
688.18	37102.4
688.527	36907.6
688.874	36786.25
689.221	36856.3
689.568	36777.66
689.915	36645.01
690.262	36743.77
690.609	36538.8
690.956	36494.51
691.303	36338.58
691.65	36243.67
691.997	36308.75
692.344	35994.41
692.69	35993.95
693.037	36056.78
693.383	35679.16
693.73	35846.84
694.077	35734.3
694.423	35713.96
694.769	35513.29
695.116	35411.37
695.462	35467.19
695.808	35308.1
696.155	35337.7
696.501	35134.54
696.847	35084.6
697.193	34881.67
697.539	34961.21
697.885	34665.4
698.231	34548.57
698.577	34517.16
698.923	34523.26
699.269	34452.53
699.614	34242.36
699.96	34253.44
700.306	34232.19
700.651	34127.34
700.997	34047.79
701.342	34012.99
701.688	33893.67
702.033	33735.26
702.379	33760.57
702.724	33591.31
703.069	33931.86
703.415	33357.41
703.76	33443.29
704.105	33558.54
704.45	33423.17
704.795	33065.44
705.14	33050.3
705.485	33104.99
705.83	33033.35
706.175	33013.69
706.52	32880.36
706.865	32677.88
707.209	32664.55
707.554	32534.84
707.899	32634.04
708.243	32455.06
708.588	32418.23
708.932	32206.26
709.277	32234.28
709.621	32278.8
709.966	32066.37
710.31	32169.2
710.654	31836.55
710.998	31933.72
711.342	31938.47
711.687	31803.56
712.031	31729.21
712.375	31565.37
712.719	31608.08
713.063	31368.77
713.407	31585.26
713.75	31387.75
714.094	31402.21
714.438	31277.69
714.782	31331.48
715.125	31128.55
715.469	31249.45
715.812	31026.4
716.156	30846.29
716.499	30961.32
716.843	31026.4
717.186	30668.45
717.53	30960.87
717.873	30913.18
718.216	30718.16
718.559	30574.44
718.902	30271.62
719.246	30454.89
719.589	30288.79
719.932	30234.11
720.275	30232.75
720.617	30316.36
720.96	30253.31
721.303	30083.15
721.646	30116.37
721.989	29925.87
722.331	30110.72
722.674	29830.95
723.016	29962.02
723.359	29965.41
723.701	29905.08
724.044	29683.61
724.386	29531.98
724.729	29766.77
725.071	29797.28
725.413	29544.86
725.755	29697.4
726.097	29487.23
726.439	29358.2
726.782	29321.14
727.124	29549.15
727.465	29263.96
727.807	29266.45
728.149	29197.98
728.491	29127.69
728.833	29197.07
729.175	29014.7
729.516	29064.42
729.858	28875.27
730.199	29064.87
730.541	29039.34
730.882	28963.63
731.224	29051.09
731.565	28779.91
731.906	28721.6
732.248	28830.08
732.589	28566.35
732.93	28433.93
733.271	28519.35
733.612	28473.47
733.953	28556.64
734.294	28385.12
734.635	28369.97
734.976	28440.71
735.317	28238.9
735.658	28218.11
735.999	28277.1
736.339	28209.3
736.68	28293.82
737.021	28194.16
737.361	27957.33
737.702	28213.59
738.042	28064.22
738.383	27949.87
738.723	28030.77
739.063	27900.83
739.404	28050.66
739.744	27898.12
740.084	27717.56
740.424	27816.54
740.764	27685.02
741.104	27810.67
741.444	27699.03
741.784	27569.54
742.124	27602.99
742.464	27567.06
742.804	27497.91
743.143	27447.06
743.483	27414.97
743.823	27260.17
744.162	27360.51
744.502	27278.25
744.841	27184.69
745.181	27311.7
745.52	27090.23
745.86	27248.42
746.199	27186.05
746.538	27021.99
746.877	27074.19
747.216	27055.88
747.556	26974.98
747.895	26959.84
748.234	26894.08
748.573	26739.73
748.911	26770.02
749.25	26601.21
749.589	26645.95
749.928	26702.22
750.267	26512.62
750.605	26486.63
750.944	26497.71
751.283	26504.71
751.621	26408.22
751.96	26266.75
752.298	26237.6
752.636	26123.71
752.975	26127.32
753.313	26065.4
753.651	26181.11
753.989	26008
754.327	25948.57
754.666	25927.1
755.004	25977.27
755.342	25811.85
755.679	25770.27
756.017	25641.68
756.355	25785.18
756.693	25492.31
757.031	25566.66
757.368	25471.97
757.706	25352.2
758.044	25318.53
758.381	25319.89
758.719	25366.44
759.056	25252.54
759.394	25141.58
