Data from hue_240_FLMS001491_00051.txt Node
Date: Tue Feb 07 16:35:39 GMT 2017
User: dcchb
Spectrometer: FLMS00149
Trigger mode: 0
Integration Time (sec): 2.000000E-2
Scans to average: 10
Electric dark correction enabled: true
Nonlinearity correction enabled: false
Boxcar width: 0
XAxis mode: Wavelengths
Number of Pixels in Spectrum: 2048
>>>>>Begin Spectral Data<<<<<
341.393	-10.54
341.776	-10.54
342.16	-10.54
342.543	-70.42
342.927	-65.9
343.31	-75.85
343.693	-63.42
344.077	-86.01
344.46	-68.61
344.843	-55.96
345.226	-32
345.61	-31.33
345.993	-22.06
346.376	-14.38
346.759	22.01
347.142	31.04
347.525	36.02
347.908	72.4
348.291	93.64
348.674	91.16
349.057	103.36
349.44	118.5
349.823	128.22
350.206	161.21
350.588	184.26
350.971	182.68
351.354	202.34
351.737	231.94
352.119	237.37
352.502	270.36
352.884	262
353.267	282.56
353.65	274.43
354.032	292.05
354.414	288.21
354.797	299.96
355.179	318.04
355.562	302.45
355.944	316.01
356.326	317.36
356.709	332.73
357.091	327.99
357.473	328.21
357.855	317.59
358.238	323.92
358.62	317.14
359.002	327.31
359.384	331.83
359.766	335.67
360.148	310.59
360.53	352.39
360.912	344.03
361.294	318.72
361.676	333.41
362.057	320.3
362.439	317.36
362.821	329.12
363.203	313.3
363.584	320.53
363.966	304.71
364.348	341.32
364.729	318.27
365.111	312.62
365.493	306.97
365.874	299.51
366.256	309.23
366.637	316.69
367.019	287.08
367.4	303.35
367.781	308.78
368.163	310.36
368.544	294.54
368.925	306.52
369.306	318.72
369.688	289.57
370.069	298.16
370.45	313.3
370.831	300.42
371.212	292.96
371.593	306.07
371.974	280.53
372.355	318.49
372.736	314.88
373.117	324.37
373.498	313.3
373.879	315.33
374.26	293.86
374.641	294.31
375.021	301.09
375.402	316.46
375.783	323.92
376.163	306.07
376.544	304.71
376.925	320.08
377.305	325.27
377.686	319.62
378.066	328.89
378.447	330.02
378.827	335.67
379.208	315.78
379.588	347.19
379.968	311.26
380.349	337.03
380.729	325.5
381.109	334.54
381.489	337.03
381.87	329.57
382.25	328.89
382.63	328.21
383.01	334.77
383.39	338.15
383.77	329.34
384.15	354.43
384.53	336.57
384.91	342.9
385.29	322.79
385.67	330.47
386.049	353.75
386.429	344.48
386.809	319.62
387.189	363.01
387.568	381.32
387.948	357.36
388.328	349.23
388.707	335.22
389.087	362.79
389.466	343.13
389.846	354.65
390.225	372.73
390.605	334.09
390.984	348.55
391.363	358.49
391.743	342.22
392.122	377.02
392.501	368.89
392.881	381.54
393.26	377.25
393.639	371.83
394.018	352.62
394.397	362.79
394.776	376.8
395.155	369.11
395.534	363.01
395.913	385.16
396.292	390.58
396.671	364.37
397.05	360.08
397.429	390.36
397.808	384.26
398.186	368.66
398.565	384.48
398.944	384.48
399.323	408.66
399.701	399.62
400.08	407.08
400.458	378.61
400.837	404.37
401.215	409.34
401.594	419.96
401.972	415.89
402.351	400.3
402.729	414.31
403.107	391.71
403.486	429.45
403.864	444.82
404.242	417.7
404.62	408.66
404.999	439.17
405.377	422.22
405.755	425.84
406.133	437.36
406.511	443.69
406.889	457.7
407.267	458.83
407.645	445.72
408.023	468.77
408.401	451.82
408.779	476
409.156	470.13
409.534	459.51
409.912	478.72
410.29	494.08
410.667	492.05
411.045	494.54
411.422	496.79
411.8	492.73
412.178	480.98
412.555	530.24
412.933	524.59
413.31	541.99
413.687	552.16
414.065	545.38
414.442	519.62
414.819	558.71
415.197	553.29
415.574	579.5
415.951	572.73
416.328	565.95
416.705	575.89
417.082	587.41
417.46	581.54
417.837	592.39
418.214	613.18
418.591	589.67
418.967	613.18
419.344	628.09
419.721	637.13
420.098	633.29
420.475	661.54
420.852	635.32
421.228	628.32
421.605	643.46
421.982	694.76
422.358	671.93
422.735	681.2
423.111	687.52
423.488	700.63
423.864	700.18
424.241	717.58
424.617	720.74
424.994	715.32
425.37	772.49
425.746	727.75
426.123	749.9
426.499	765.04
426.875	771.36
427.251	772.72
427.627	812.49
428.003	785.83
428.379	817.24
428.756	809.78
429.132	819.72
429.507	823.79
429.883	843.68
430.259	860.18
430.635	862.89
431.011	880.97
431.387	900.63
431.763	903.56
432.138	919.61
432.514	924.81
432.89	906.73
433.265	943.34
433.641	949.21
434.016	998.48
434.392	982.21
434.767	1003
435.143	994.41
435.518	1016.56
435.894	1021.3
436.269	1061.53
436.644	1066.72
437.02	1066.5
437.395	1102.65
437.77	1119.6
438.145	1130.22
438.52	1110.11
438.895	1144.91
439.271	1142.65
439.646	1191.92
440.021	1174.97
440.395	1205.48
440.77	1208.64
441.145	1194.86
441.52	1263.78
441.895	1212.48
442.27	1263.1
442.645	1245.93
443.019	1277.57
443.394	1288.86
443.769	1263.1
444.143	1264.23
444.518	1300.39
444.892	1308.3
445.267	1303.33
445.641	1344.46
446.016	1348.98
446.39	1344
446.764	1366.83
447.139	1386.49
447.513	1379.03
447.887	1383.33
448.262	1405.25
448.636	1400.05
449.01	1427.62
449.384	1412.7
449.758	1473.72
450.132	1465.81
450.506	1456.09
450.88	1480.72
451.254	1468.29
451.628	1479.14
452.002	1516.66
452.376	1515.07
452.75	1529.54
453.123	1566.82
453.497	1567.05
453.871	1595.07
454.244	1617.44
454.618	1609.76
454.992	1633.94
455.365	1635.97
455.739	1649.31
456.112	1685.01
456.486	1692.7
456.859	1733.82
457.232	1743.54
457.606	1729.76
457.979	1753.94
458.352	1791.68
458.725	1802.75
459.099	1821.05
459.472	1844.1
459.845	1852.47
460.218	1875.74
460.591	1878.91
460.964	1863.99
461.337	1930.2
461.71	1959.13
462.083	1998.9
462.456	1974.04
462.829	1989.18
463.201	2016.98
463.574	2020.14
463.947	2045.68
464.32	2063.99
464.692	2105.34
465.065	2121.38
465.438	2158.67
465.81	2205.9
466.183	2191.67
466.555	2230.53
466.928	2223.3
467.3	2253.58
467.672	2297.2
468.045	2370.42
468.417	2331.55
468.789	2374.49
469.161	2393.24
469.534	2450.64
469.906	2428.04
470.278	2469.62
470.65	2496.06
471.022	2561.37
471.394	2582.39
471.766	2596.4
472.138	2651.99
472.51	2682.27
472.882	2708.71
473.253	2741.26
473.625	2786
473.997	2804.98
474.369	2857.41
474.74	2848.15
475.112	2877.3
475.484	2957.07
475.855	2995.71
476.227	2975.83
476.598	3100.12
476.97	3086.78
477.341	3185.09
477.713	3212.66
478.084	3228.47
478.455	3273.9
478.827	3312.54
479.198	3407.68
479.569	3391.63
479.94	3478.64
480.311	3513.21
480.682	3585.3
481.053	3628.92
481.424	3685.41
481.795	3708.91
482.166	3752.08
482.537	3771.51
482.908	3847.22
483.279	3895.35
483.65	3946.2
484.021	4021.67
484.391	4031.39
484.762	4084.05
485.133	4122.46
485.503	4142.57
485.874	4226.19
486.244	4286.53
486.615	4321.33
486.985	4355
487.356	4436.13
487.726	4459.18
488.097	4555.9
488.467	4550.93
488.837	4640.41
489.207	4660.3
489.578	4752.28
489.948	4786.85
490.318	4859.62
490.688	4850.13
491.058	4899.62
491.428	4953.4
491.798	5012.38
492.168	5058.71
492.538	5116.11
492.908	5150.01
493.278	5272.94
493.648	5225.94
494.017	5267.74
494.387	5314.52
494.757	5309.78
495.126	5357.46
495.496	5400.85
495.866	5403.56
496.235	5469.32
496.605	5441.98
496.974	5591.12
497.344	5558.58
497.713	5591.35
498.082	5630.45
498.452	5718.13
498.821	5649.65
499.19	5677.68
499.559	5713.38
499.928	5753.83
500.298	5738.92
500.667	5842.42
501.036	5860.72
501.405	5849.65
501.774	5880.83
502.143	5938.46
502.512	5937.33
502.88	5977.78
503.249	5953.37
503.618	5994.28
503.987	6006.25
504.356	6055.97
504.724	6087.38
505.093	6067.5
505.462	6088.96
505.83	6138.23
506.199	6145.69
506.567	6247.38
506.936	6255.97
507.304	6307.72
507.672	6292.8
508.041	6332.57
508.409	6291.44
508.777	6374.61
509.145	6403.98
509.514	6320.6
509.882	6325.57
510.25	6402.85
510.618	6418.67
510.986	6480.37
511.354	6455.73
511.722	6490.08
512.09	6570.08
512.458	6557.88
512.826	6543.87
513.193	6641.72
513.561	6636.52
513.929	6664.77
514.297	6640.59
514.664	6706.35
515.032	6722.62
515.4	6778.66
515.767	6817.53
516.135	6766.46
516.502	6749.06
516.869	6765.78
517.237	6782.05
517.604	6751.55
517.972	6826.12
518.339	6823.41
518.706	6786.12
519.073	6825.22
519.44	6853.46
519.808	6854.82
520.175	6875.84
520.542	6926.68
520.909	6919
521.276	6934.14
521.643	6972.33
522.009	7025.44
522.376	7003.29
522.743	6999.22
523.11	7124.19
523.477	7113.57
523.843	7114.7
524.21	7185.66
524.577	7188.6
524.943	7169.61
525.31	7150.18
525.676	7250.06
526.043	7273.57
526.409	7246.9
526.776	7284.41
527.142	7363.28
527.508	7317.86
527.874	7322.15
528.241	7413.45
528.607	7436.5
528.973	7347.91
529.339	7298.65
529.705	7390.4
530.071	7474.69
530.437	7388.59
530.803	7423.17
531.169	7473.79
531.535	7463.62
531.901	7429.49
532.267	7439.21
532.632	7470.4
532.998	7454.8
533.364	7505.42
533.73	7489.38
534.095	7524.63
534.461	7548.13
534.826	7504.29
535.192	7511.3
535.557	7526.89
535.923	7434.92
536.288	7497.06
536.653	7459.32
537.019	7433.79
537.384	7472.66
537.749	7517.85
538.114	7503.16
538.479	7501.58
538.845	7526.67
539.21	7446.89
539.575	7450.06
539.94	7516.05
540.305	7491.87
540.67	7521.92
541.034	7433.34
541.399	7469.72
541.764	7468.14
542.129	7402.38
542.494	7451.64
542.858	7496.16
543.223	7477.4
543.587	7431.98
543.952	7430.85
544.316	7524.41
544.681	7440.34
545.045	7423.17
545.41	7463.62
545.774	7477.85
546.138	7446.22
546.503	7413.45
546.867	7427.69
547.231	7475.14
547.595	7427.01
547.959	7418.65
548.324	7425.43
548.688	7384.52
549.052	7407.57
549.416	7397.63
549.779	7445.54
550.143	7366.67
550.507	7365.99
550.871	7388.14
551.235	7321.7
551.599	7410.06
551.962	7395.6
552.326	7378.65
552.689	7403.73
553.053	7365.99
553.417	7373.9
553.78	7444.18
554.143	7394.47
554.507	7432.43
554.87	7454.58
555.234	7456.84
555.597	7492.54
555.96	7423.84
556.323	7404.41
556.686	7355.15
557.05	7444.41
557.413	7433.56
557.776	7426.56
558.139	7373.45
558.502	7481.7
558.865	7525.08
559.228	7567.8
559.59	7533.9
559.953	7541.58
560.316	7640.79
560.679	7569.38
561.041	7583.16
561.404	7636.04
561.767	7694.8
562.129	7575.7
562.492	7618.87
562.854	7660.67
563.217	7622.71
563.579	7709.03
563.941	7729.83
564.304	7694.57
564.666	7762.37
565.028	7708.81
565.39	7812.76
565.753	7830.16
566.115	7831.97
566.477	7883.27
566.839	7907
567.201	7878.07
567.563	7897.73
567.925	7979.99
568.287	8027.44
568.648	7970.95
569.01	7930.95
569.372	8078.52
569.734	8016.15
570.095	8044.62
570.457	8109.48
570.819	8068.12
571.18	8164.62
571.542	8141.34
571.903	8152.41
572.265	8170.94
572.626	8171.85
572.987	8235.35
573.349	8217.72
573.71	8217.04
574.071	8229.47
574.432	8236.93
574.794	8310.6
575.155	8230.6
575.516	8288.45
575.877	8305.4
576.238	8354.22
576.599	8363.03
576.96	8396.25
577.32	8372.52
577.681	8410.94
578.042	8395.8
578.403	8442.35
578.763	8424.95
579.124	8463.59
579.485	8541.33
579.845	8520.54
580.206	8457.49
580.566	8563.02
580.927	8548.56
581.287	8592.85
581.648	8542.01
582.008	8572.29
582.368	8558.5
582.728	8642.8
583.089	8609.12
583.449	8595.34
583.809	8591.95
584.169	8670.59
584.529	8630.59
584.889	8698.84
585.249	8641.21
585.609	8671.27
585.969	8737.26
586.329	8661.55
586.688	8735
587.048	8709.23
587.408	8694.32
587.768	8789.91
588.127	8731.15
588.487	8747.2
588.846	8797.37
589.206	8760.98
589.565	8817.03
589.925	8839.17
590.284	8777.93
590.643	8833.52
591.003	8829.68
591.362	8851.83
591.721	8851.38
592.08	8816.8
592.44	8859.74
592.799	8902
593.158	8877.82
593.517	8856.12
593.876	8958.72
594.235	8899.06
594.593	8884.14
594.952	8911.26
595.311	8845.05
595.67	8943.13
596.029	9010.47
596.387	8985.84
596.746	8938.61
597.104	8948.32
597.463	8973.86
597.822	8933.64
598.18	9014.09
598.538	9028.1
598.897	9004.37
599.255	8926.86
599.613	9012.28
599.972	9013.63
600.33	9057.93
600.688	8977.7
601.046	9023.8
601.404	9077.13
601.762	9082.78
602.12	9078.04
602.478	9109.22
602.836	9139.05
603.194	9061.99
603.552	9045.72
603.91	9064.71
604.268	9072.39
604.625	9101.09
604.983	9115.33
605.341	9066.96
605.698	9134.53
606.056	9159.62
606.413	9088.43
606.771	9092.28
607.128	9145.38
607.485	9148.54
607.843	9179.05
608.2	9111.03
608.557	9161.43
608.914	9175.89
609.272	9231.03
609.629	9242.33
609.986	9255.66
610.343	9156.23
610.7	9352.61
611.057	9261.31
611.414	9253.17
611.771	9277.13
612.127	9233.97
612.484	9267.19
612.841	9254.76
613.198	9299.05
613.554	9313.51
613.911	9313.06
614.267	9305.15
614.624	9263.12
614.98	9323.23
615.337	9381.31
615.693	9361.87
616.05	9331.59
616.406	9407.75
616.762	9347.86
617.118	9430.8
617.475	9382.66
617.831	9372.04
618.187	9416.33
618.543	9422.89
618.899	9471.93
619.255	9444.81
619.611	9418.37
619.967	9435.77
620.323	9463.56
620.678	9484.58
621.034	9388.54
621.39	9389.67
621.746	9438.25
622.101	9572.71
622.457	9500.4
622.812	9424.47
623.168	9449.78
623.523	9467.41
623.879	9452.94
624.234	9428.54
624.589	9444.13
624.945	9466.05
625.3	9470.12
625.655	9444.81
626.01	9432.38
626.365	9513.28
626.72	9450.91
627.075	9393.06
627.43	9430.12
627.785	9358.26
628.14	9384.24
628.495	9428.54
628.85	9405.94
629.205	9396.9
629.559	9404.58
629.914	9369.33
630.269	9363.23
630.623	9373.85
630.978	9327.07
631.332	9404.81
631.687	9448.2
632.041	9383.57
632.396	9409.1
632.75	9355.09
633.104	9312.16
633.459	9325.49
633.813	9322.78
634.167	9314.19
634.521	9316
634.875	9320.29
635.229	9274.64
635.583	9261.99
635.937	9218.37
636.291	9170.01
636.645	9216.11
636.999	9203.23
637.352	9167.98
637.706	9218.15
638.06	9185.83
638.413	9108.32
638.767	9131.14
639.121	9158.49
639.474	9132.5
639.828	9169.34
640.181	9139.28
640.534	9150.8
640.888	9087.98
641.241	9090.69
641.594	9023.12
641.947	9085.5
642.301	9075.78
642.654	9093.63
643.007	9123.46
643.36	9030.36
643.713	9015.89
644.066	9002.33
644.419	9047.53
644.771	8942.22
645.124	8888.44
645.477	8867.2
645.83	8775
646.182	8754.43
646.535	8680.53
646.888	8708.56
647.24	8666.98
647.593	8727.99
647.945	8728.89
648.298	8628.56
648.65	8700.65
649.002	8657.03
649.355	8652.96
649.707	8724.83
650.059	8768.89
650.411	8811.38
650.763	8846.63
651.115	8895.67
651.467	8802.34
651.819	8862.45
652.171	8860.64
652.523	8838.95
652.875	8827.2
653.227	8823.13
653.578	8865.61
653.93	8849.57
654.282	8830.36
654.633	8705.62
654.985	8795.33
655.337	8777.03
655.688	8813.64
656.039	8890.92
656.391	8770.02
656.742	8837.14
657.094	8815.45
657.445	8908.33
657.796	8811.6
658.147	8808.44
658.498	8858.61
658.849	8842.34
659.2	8828.55
659.551	8784.26
659.902	8812.96
660.253	8800.53
660.604	8907.2
660.955	8818.61
661.306	8833.98
661.656	8821.55
662.007	8794.2
662.358	8828.55
662.708	8827.2
663.059	8806.41
663.409	8783.81
663.76	8867.65
664.11	8831.04
664.461	8837.14
664.811	8856.12
665.161	8833.52
665.511	8809.34
665.862	8792.62
666.212	8852.51
666.562	8864.26
666.912	8786.75
667.262	8759.63
667.612	8773.41
667.962	8780.19
668.312	8765.28
668.662	8808.44
669.011	8834.88
669.361	8818.38
669.711	8759.4
670.06	8684.83
670.41	8751.95
670.76	8765.73
671.109	8766.18
671.459	8831.04
671.808	8774.09
672.157	8723.7
672.507	8672.85
672.856	8708.1
673.205	8733.41
673.554	8739.29
673.904	8655.9
674.253	8711.27
674.602	8691.16
674.951	8633.08
675.3	8547.43
675.649	8676.01
675.998	8696.81
676.346	8680.99
676.695	8744.94
677.044	8613.64
677.393	8633.53
677.741	8583.59
678.09	8603.02
678.438	8570.93
678.787	8607.99
679.135	8622
679.484	8473.08
679.832	8573.19
680.181	8531.16
680.529	8513.99
680.877	8500.65
681.225	8491.39
681.573	8626.75
681.922	8494.1
682.27	8423.82
682.618	8433.76
682.966	8450.48
683.314	8440.09
683.661	8403.71
684.009	8378.62
684.357	8356.48
684.705	8348.11
685.053	8372.52
685.4	8339.98
685.748	8303.14
686.095	8263.82
686.443	8245.07
686.79	8247.78
687.138	8246.65
687.485	8268.57
687.832	8238.29
688.18	8234.9
688.527	8125.52
688.874	8136.59
689.221	8171.17
689.568	8094.79
689.915	8083.94
690.262	8087.33
690.609	8032.42
690.956	7963.94
691.303	8040.55
691.65	7999.2
691.997	8008.24
692.344	7930.5
692.69	7896.37
693.037	7919.88
693.383	7848.92
693.73	7898.18
694.077	7736.6
694.423	7826.32
694.769	7766.43
695.116	7741.12
695.462	7747.9
695.808	7704.06
696.155	7740.9
696.501	7638.08
696.847	7657.06
697.193	7637.62
697.539	7625.19
697.885	7571.86
698.231	7542.26
698.577	7547.46
698.923	7514.92
699.269	7479.21
699.614	7464.07
699.96	7425.88
700.306	7400.57
700.651	7365.77
700.997	7340.91
701.342	7333
701.688	7332.32
702.033	7315.82
702.379	7311.53
702.724	7300.91
703.069	7241.48
703.415	7177.52
703.76	7147.92
704.105	7202.83
704.45	7149.95
704.795	7169.61
705.14	7078.77
705.485	7087.81
705.83	7076.28
706.175	7021.14
706.52	7031.54
706.865	7037.64
707.209	7012.78
707.554	7000.35
707.899	7020.24
708.243	7008.26
708.588	6953.8
708.932	6874.93
709.277	6861.15
709.621	6871.32
709.966	6817.98
710.31	6849.62
710.654	6780.92
710.998	6794.03
711.342	6789.51
711.687	6815.27
712.031	6754.03
712.375	6702.06
712.719	6738.89
713.063	6720.81
713.407	6736.63
713.75	6718.1
714.094	6691.89
714.438	6618.22
714.782	6681.04
715.125	6608.05
715.469	6632.23
715.812	6617.09
716.156	6616.63
716.499	6570.76
716.843	6637.2
717.186	6591.1
717.53	6565.56
717.873	6549.07
718.216	6553.36
718.559	6480.14
718.902	6451.67
719.246	6532.12
719.589	6454.15
719.932	6455.51
720.275	6497.32
720.617	6427.94
720.96	6415.74
721.303	6449.86
721.646	6473.81
721.989	6382.97
722.331	6438.56
722.674	6438.79
723.016	6420.03
723.359	6435.17
723.701	6401.05
724.044	6312.01
724.386	6334.83
724.729	6380.93
725.071	6327.6
725.413	6396.53
725.755	6361.05
726.097	6337.32
726.439	6308.17
726.782	6341.39
727.124	6341.16
727.465	6328.96
727.807	6310.65
728.149	6279.47
728.491	6270.43
728.833	6250.99
729.175	6288.73
729.516	6284.21
729.858	6255.51
730.199	6328.96
730.541	6313.37
730.882	6207.83
731.224	6254.84
731.565	6277.66
731.906	6263.2
732.248	6266.59
732.589	6182.97
732.93	6244.89
733.271	6256.42
733.612	6244.89
733.953	6255.29
734.294	6286.93
734.635	6167.15
734.976	6235.63
735.317	6197.66
735.658	6239.92
735.999	6185.68
736.339	6256.87
736.68	6221.39
737.021	6241.28
737.361	6236.08
737.702	6286.25
738.042	6233.14
738.383	6239.02
738.723	6188.17
739.063	6236.08
739.404	6256.19
739.744	6252.35
740.084	6225.46
740.424	6284.21
740.764	6235.4
741.104	6269.98
741.444	6232.46
741.784	6264.78
742.124	6269.52
742.464	6289.18
742.804	6307.72
743.143	6295.29
743.483	6330.31
743.823	6301.16
744.162	6293.93
744.502	6339.58
744.841	6337.32
745.181	6378.67
745.52	6379.8
745.86	6347.04
746.199	6425.45
746.538	6434.72
746.877	6450.76
747.216	6487.82
747.556	6567.6
747.895	6508.61
748.234	6574.38
748.573	6565.79
748.911	6599.23
749.25	6606.69
749.589	6719.68
749.928	6681.49
750.267	6749.06
750.605	6773.47
750.944	6812.34
751.283	6841.03
751.621	6909.06
751.96	6948.6
752.298	6943.41
752.636	7021.37
752.975	7017.53
753.313	7145.21
753.651	7199.9
753.989	7235.6
754.327	7302.49
754.666	7279.22
755.004	7420.23
755.342	7488.02
755.679	7561.02
756.017	7647.12
756.355	7657.28
756.693	7819.99
757.031	7873.78
757.368	7922.36
757.706	8007.33
758.044	8071.06
758.381	8187.89
758.719	8242.13
759.056	8330.04
759.394	8479.41
759.731	8490.26
760.068	8581.1
760.405	8619.07
760.743	8715.79
761.08	8879.17
761.417	8933.64
761.754	8968.21
762.091	9168.66
762.428	9219.28
762.765	9259.95
763.102	9441.64
763.438	9423.79
763.775	9553.73
764.112	9694.97
764.449	9777
764.785	9859.71
765.122	9828.98
765.458	9977.68
765.795	10133.15
766.131	10105.13
766.467	10222.87
766.804	10239.14
767.14	10263.54
767.476	10469.41
767.812	10475.06
768.148	10550.99
768.485	10570.2
768.821	10720.93
769.157	10719.35
769.492	10819.24
769.828	10828.05
