Data from hue_40_FLMS001491_14.txt Node
Date: Mon Feb 06 15:07:30 GMT 2017
User: dcchb
Spectrometer: FLMS00149
Trigger mode: 0
Integration Time (sec): 2.000000E-2
Scans to average: 10
Electric dark correction enabled: true
Nonlinearity correction enabled: false
Boxcar width: 0
XAxis mode: Wavelengths
Number of Pixels in Spectrum: 2048
>>>>>Begin Spectral Data<<<<<
341.393	-8.26
341.776	-8.26
342.16	-8.26
342.543	-47.13
342.927	-72.89
343.31	-61.82
343.693	-102.27
344.077	-59.11
344.46	-43.29
344.843	-51.88
345.226	-34.48
345.61	-40.35
345.993	-22.05
346.376	-1.48
346.759	-2.61
347.142	22.7
347.525	34.9
347.908	58.4
348.291	84.39
348.674	90.27
349.057	128.68
349.44	118.97
349.823	127.1
350.206	159.87
350.588	214.56
350.971	202.13
351.354	230.83
351.737	248
352.119	253.2
352.502	271.5
352.884	277.61
353.267	287.77
353.65	293.2
354.032	294.55
354.414	315.57
354.797	297.49
355.179	336.59
355.562	334.55
355.944	316.25
356.326	325.06
356.709	353.31
357.091	340.2
357.473	322.12
357.855	345.63
358.238	352.41
358.62	356.25
359.002	356.02
359.384	319.19
359.766	337.27
360.148	343.59
360.53	337.72
360.912	351.73
361.294	345.17
361.676	311.28
362.057	341.78
362.439	346.53
362.821	336.59
363.203	322.12
363.584	336.81
363.966	330.94
364.348	350.6
364.729	321.22
365.111	339.3
365.493	330.03
365.874	311.28
366.256	325.51
366.637	316.47
367.019	336.14
367.4	324.16
367.781	317.15
368.163	311.96
368.544	317.6
368.925	321.9
369.306	343.14
369.688	311.28
370.069	322.58
370.45	344.95
370.831	303.37
371.212	305.63
371.593	337.49
371.974	331.62
372.355	318.96
372.736	328.68
373.117	336.59
373.498	321.22
373.879	328.45
374.26	313.31
374.641	299.53
375.021	306.53
375.402	309.7
375.783	297.49
376.163	319.86
376.544	336.14
376.925	346.08
377.305	327.1
377.686	317.38
378.066	317.38
378.447	328.9
378.827	332.75
379.208	341.11
379.588	342.01
379.968	345.63
380.349	348.79
380.729	343.82
381.109	331.62
381.489	348.56
381.87	334.55
382.25	366.42
382.63	361.9
383.01	345.85
383.39	343.82
383.77	372.07
384.15	340.65
384.53	339.3
384.91	361.9
385.29	343.82
385.67	347.21
386.049	361.9
386.429	337.94
386.809	358.06
387.189	339.98
387.568	362.8
387.948	371.16
388.328	360.99
388.707	358.51
389.087	358.51
389.466	364.38
389.846	365.51
390.225	363.25
390.605	359.86
390.984	378.17
391.363	389.24
391.743	360.32
392.122	355.12
392.501	372.29
392.881	397.38
393.26	371.84
393.639	402.8
394.018	384.5
394.397	378.85
394.776	412.29
395.155	380.65
395.534	388.11
395.913	389.69
396.292	380.2
396.671	381.33
397.05	387.21
397.429	410.03
397.808	386.3
398.186	393.53
398.565	393.99
398.944	401.9
399.323	388.79
399.701	395.79
400.08	396.02
400.458	408.22
400.837	400.31
401.215	409.58
401.594	391.5
401.972	413.87
402.351	411.16
402.729	382.69
403.107	406.42
403.486	413.87
403.864	403.93
404.242	388.79
404.62	420.43
404.999	447.54
405.377	431.5
405.755	422.69
406.133	418.17
406.511	421.33
406.889	431.95
407.267	433.76
407.645	425.62
408.023	431.27
408.401	438.96
408.779	427.21
409.156	439.41
409.534	452.06
409.912	452.06
410.29	467.88
410.667	441.9
411.045	476.24
411.422	470.82
411.8	459.75
412.178	468.79
412.555	452.06
412.933	463.14
413.31	475.34
413.687	472.63
414.065	461.1
414.442	458.39
414.819	488.45
415.197	468.11
415.574	475.79
415.951	489.35
416.328	490.26
416.705	475.34
417.082	472.18
417.46	504.94
417.837	504.04
418.214	511.72
418.591	499.97
418.967	513.31
419.344	507.88
419.721	519.18
420.098	538.62
420.475	521.89
420.852	535.45
421.228	533.19
421.605	515.57
421.982	539.07
422.358	541.78
422.735	521.89
423.111	526.64
423.488	556.24
423.864	535.45
424.241	575
424.617	551.04
424.994	561.89
425.37	559.63
425.746	551.27
426.123	569.8
426.499	573.42
426.875	573.64
427.251	589.24
427.627	581.1
428.003	608.22
428.379	586.3
428.756	608.44
429.132	603.92
429.507	620.2
429.883	617.48
430.259	618.39
430.635	627.88
431.011	608.44
431.387	608.67
431.763	637.82
432.138	640.53
432.514	622.46
432.89	623.13
433.265	644.38
433.641	673.08
434.016	684.15
434.392	646.18
434.767	660.19
435.143	674.66
435.518	690.7
435.894	681.66
436.269	693.19
436.644	692.28
437.02	705.84
437.395	701.32
437.77	730.93
438.145	699.29
438.52	726.86
438.895	726.41
439.271	726.41
439.646	719.4
440.021	738.61
440.395	746.29
440.77	745.16
441.145	735.67
441.52	767.76
441.895	752.62
442.27	761.66
442.645	760.3
443.019	764.6
443.394	775.67
443.769	792.17
444.143	790.81
444.518	784.26
444.892	777.71
445.267	794.43
445.641	791.49
446.016	807.08
446.39	810.25
446.764	817.03
447.139	796.01
447.513	842.11
447.887	829.23
448.262	823.13
448.636	798.27
449.01	853.41
449.384	844.6
449.758	845.5
450.132	827.87
450.506	834.65
450.88	840.98
451.254	839.62
451.628	878.27
452.002	920.07
452.376	900.87
452.75	897.25
453.123	931.6
453.497	918.94
453.871	928.44
454.244	907.19
454.618	941.09
454.992	970.69
455.365	937.25
455.739	968.43
456.112	953.29
456.486	981.32
456.859	984.48
457.232	978.38
457.606	1006.85
457.979	996.91
458.352	1016.34
458.725	1038.26
459.099	1059.51
459.472	1069
459.845	1091.82
460.218	1087.08
460.591	1098.6
460.964	1095.66
461.337	1092.73
461.71	1124.14
462.083	1139.05
462.456	1131.82
462.829	1163.91
463.201	1189.9
463.574	1169.56
463.947	1169.56
464.32	1220.18
464.692	1211.59
465.065	1255.89
465.438	1254.08
465.81	1254.98
466.183	1293.85
466.555	1317.13
466.928	1320.06
467.3	1334.53
467.672	1361.19
468.045	1393.28
468.417	1388.54
468.789	1388.31
469.161	1385.6
469.534	1454.3
469.906	1477.35
470.278	1486.16
470.65	1525.26
471.022	1557.12
471.394	1556.89
471.766	1589.89
472.138	1638.7
472.51	1645.25
472.882	1680.96
473.253	1738.36
473.625	1769.09
473.997	1805.7
474.369	1844.57
474.74	1823.1
475.112	1863.1
475.484	1943.1
475.855	1968.18
476.227	2003.21
476.598	2073.49
476.97	2089.54
477.341	2163.21
477.713	2209.98
478.084	2218.8
478.455	2318
478.827	2348.96
479.198	2436.87
479.569	2487.04
479.94	2557.32
480.311	2593.25
480.682	2658.33
481.053	2752.34
481.424	2834.15
481.795	2874.6
482.166	2964.54
482.537	3046.8
482.908	3085.44
483.279	3160.24
483.65	3237.08
484.021	3328.82
484.391	3448.14
484.762	3501.25
485.133	3553.68
485.503	3654.24
485.874	3803.84
486.244	3860.34
486.615	3936.04
486.985	4030.05
487.356	4181.01
487.726	4258.07
488.097	4393.2
488.467	4438.85
488.837	4598.4
489.207	4671.84
489.578	4815.34
489.948	4864.38
490.318	4983.7
490.688	5058.72
491.058	5214.65
491.428	5302.11
491.798	5413.74
492.168	5542.78
492.538	5626.17
492.908	5776.9
493.278	5832.94
493.648	5943.9
494.017	6027.29
494.387	6157.45
494.757	6230.67
495.126	6367.62
495.496	6458.46
495.866	6527.61
496.235	6681.28
496.605	6719.7
496.974	6898.9
497.344	6979.58
497.713	7053.92
498.082	7132.79
498.452	7310.19
498.821	7365.1
499.19	7359.91
499.559	7559.45
499.928	7668.82
500.298	7677.19
500.667	7810.51
501.036	7939.1
501.405	7997.63
501.774	8025.2
502.143	8114.69
502.512	8219.09
502.88	8302.93
503.249	8385.42
503.618	8476.26
503.987	8526.88
504.356	8678.29
504.724	8720.77
505.093	8838.06
505.462	8818.85
505.83	8888.68
506.199	9026.53
506.567	9160.76
506.936	9158.05
507.304	9369.12
507.672	9372.73
508.041	9417.7
508.409	9530.24
508.777	9638.49
509.145	9725.04
509.514	9739.05
509.882	9860.63
510.25	9941.76
510.618	9978.14
510.986	9964.36
511.354	10146.72
511.722	10218.14
512.09	10377
512.458	10332.03
512.826	10444.57
513.193	10522.99
513.561	10553.95
513.929	10678.01
514.297	10768.63
514.664	10775.18
515.032	10923.2
515.4	10934.05
515.767	11060.15
516.135	11037.77
516.502	10979.92
516.869	11259.46
517.237	11314.15
517.604	11243.65
517.972	11367.71
518.339	11530.42
518.706	11486.35
519.073	11674.14
519.44	11687.7
519.808	11783.74
520.175	11796.85
520.542	11902.61
520.909	12050.86
521.276	12044.98
521.643	12146.22
522.009	12199.78
522.376	12266.22
522.743	12482.71
523.11	12499.88
523.477	12631.18
523.843	12633.66
524.21	12757.96
524.577	12814.45
524.943	12970.61
525.31	13004.28
525.676	13120.88
526.043	13212.18
526.409	13312.52
526.776	13390.03
527.142	13437.94
527.508	13412.18
527.874	13593.41
528.241	13646.07
528.607	13732.39
528.973	13857.36
529.339	13838.38
529.705	14029.56
530.071	14041.54
530.437	14175.77
530.803	14220.52
531.169	14375.31
531.535	14283.34
531.901	14283.11
532.267	14455.31
532.632	14586.16
532.998	14729.43
533.364	14685.81
533.73	14723.78
534.095	14917.45
534.461	14886.49
534.826	14952.25
535.192	15040.83
535.557	15183.65
535.923	15058.69
536.288	15279.92
536.653	15270.43
537.019	15350.66
537.384	15354.05
537.749	15360.82
538.114	15469.3
538.479	15564.66
538.845	15634.26
539.21	15567.83
539.575	15659.8
539.94	15814.6
540.305	15851.89
540.67	15858.21
541.034	15908.61
541.399	16127.13
541.764	16094.82
542.129	16129.84
542.494	16220.69
542.858	16228.15
543.223	16320.57
543.587	16385.43
543.952	16459.55
544.316	16483.28
544.681	16491.42
545.045	16683.95
545.41	16625.65
545.774	16714.24
546.138	16784.52
546.503	16945.64
546.867	16814.57
547.231	17016.6
547.595	17025.41
547.959	17106.54
548.324	17128.46
548.688	17184.28
549.052	17163.49
549.416	17194.68
549.779	17218.4
550.143	17295.69
550.507	17503.82
550.871	17576.13
551.235	17549.47
551.599	17669.92
551.962	17696.36
552.326	17771.38
552.689	17913.07
553.053	17887.31
553.417	17907.88
553.78	18113.97
554.143	18017.48
554.507	18119.4
554.87	18177.25
555.234	18319.39
555.597	18257.47
555.96	18353.06
556.323	18489.33
556.686	18437.81
557.05	18625.6
557.413	18666.95
557.776	18694.07
558.139	18856.78
558.502	18808.64
558.865	18822.88
559.228	18950.34
559.59	18989.66
559.953	19011.58
560.316	19183.78
560.679	19263.32
561.041	19344.45
561.404	19445.01
561.767	19512.13
562.129	19548.96
562.492	19654.72
562.854	19553.48
563.217	19699.47
563.579	19825.34
563.941	19946.69
564.304	20023.98
564.666	20146.01
565.028	20217.87
565.39	20253.13
565.753	20342.61
566.115	20401.14
566.477	20541.25
566.839	20556.85
567.201	20648.6
567.563	20740.12
567.925	20884.75
568.287	20809.72
568.648	20910.96
569.01	21070.51
569.372	21145.76
569.734	21099.88
570.095	21279.31
570.457	21366.77
570.819	21414.9
571.18	21437.28
571.542	21512.08
571.903	21646.99
572.265	21694.9
572.626	21742.13
572.987	21931.73
573.349	22032.51
573.71	22019.41
574.071	22117.26
574.432	22246.97
574.794	22384.14
575.155	22502.78
575.516	22559.51
575.877	22708.88
576.238	22730.57
576.599	22900.74
576.96	23006.5
577.32	23011.25
577.681	23133.95
578.042	23394.29
578.403	23420.05
578.763	23440.39
579.124	23665.24
579.485	23875.4
579.845	23932.8
580.206	23965.12
580.566	24088.05
580.927	24260.25
581.287	24475.39
581.648	24490.98
582.008	24796.06
582.368	24888.71
582.728	25031.76
583.089	25168.7
583.449	25291.86
583.809	25430.62
584.169	25668.12
584.529	25782.92
584.889	26109.02
585.249	26103.82
585.609	26176.59
585.969	26390.82
586.329	26525.73
586.688	26767.3
587.048	27016.56
587.408	27026.51
587.768	27208.65
588.127	27393.05
588.487	27473.95
588.846	27942.19
589.206	27955.97
589.565	28124.33
589.925	28351.67
590.284	28560.03
590.643	28839.79
591.003	28955.04
591.362	29199.33
591.721	29378.08
592.08	29492.66
592.44	29708.47
592.799	29922.02
593.158	30138.52
593.517	30410.6
593.876	30548.22
594.235	30724.94
594.593	30799.29
594.952	31093.74
595.311	31045.16
595.67	31275.89
596.029	31621.87
596.387	31771.01
596.746	32170.1
597.104	32064.11
597.463	32204.45
597.822	32609.86
598.18	32703.65
598.538	32690.31
598.897	32994.94
599.255	32990.64
599.613	33645.32
599.972	33409.62
600.33	33743.17
600.688	33660.91
601.046	34035.81
601.404	34179.77
601.762	34280.55
602.12	34639.41
602.478	34698.4
602.836	34838.05
603.194	34667.89
603.552	34932.29
603.91	34887.09
604.268	35319.85
604.625	35232.84
604.983	35545.15
605.341	35440.52
605.698	35746.05
606.056	35924.13
606.413	35919.61
606.771	36205.7
607.128	36370.22
607.485	36220.62
607.843	36424.68
608.2	36754.39
608.557	37013.59
608.914	36949.41
609.272	37134.94
609.629	37296.29
609.986	37598.43
610.343	37403.18
610.7	37778.31
611.057	37854.02
611.414	37898.54
611.771	37906.67
612.127	38022.38
612.484	38248.13
612.841	38428.02
613.198	38235.93
613.554	38412.42
613.911	38643.83
614.267	38590.27
614.624	38720.44
614.98	38871.39
615.337	39138.5
615.693	39153.19
616.05	39138.5
616.406	39283.81
616.762	39187.32
617.118	39421.89
617.475	39459.17
617.831	39647.87
618.187	39550.92
618.543	39823.01
618.899	40016.45
619.255	39953.4
619.611	39886.51
619.967	40156.56
620.323	40306.61
620.678	40063
621.034	40189.1
621.39	40192.26
621.746	40320.62
622.101	40691.01
622.457	40462.09
622.812	40629.31
623.168	40668.86
623.523	40675.87
623.879	40801.29
624.234	40542.54
624.589	40824.56
624.945	40877.67
625.3	40900.72
625.655	40819.82
626.01	41028.4
626.365	40937.33
626.72	41055.52
627.075	41125.57
627.43	41154.5
627.785	41016.87
628.14	41052.35
628.495	41121.96
628.85	41142.07
629.205	41087.38
629.559	41251.9
629.914	41199.24
630.269	41175.97
630.623	41123.09
630.978	41130.32
631.332	41337.77
631.687	41370.08
632.041	41094.84
632.396	41120.83
632.75	41055.74
633.104	41239.92
633.459	40964.67
633.813	41120.6
634.167	41115.4
634.521	41130.09
634.875	41114.95
635.229	41085.8
635.583	40951.11
635.937	40978.91
636.291	40874.5
636.645	40964.9
636.999	40895.52
637.352	41082.63
637.706	40822.75
638.06	40978
638.413	40962.64
638.767	40883.77
639.121	40935.97
639.474	40705.7
639.828	40743.66
640.181	40805.81
640.534	40872.92
640.888	40678.35
641.241	40620.27
641.594	40667.73
641.947	40730.55
642.301	40547.73
642.654	40664.11
643.007	40693.04
643.36	40667.5
643.713	40582.53
644.066	40675.41
644.419	40421.86
644.771	40291.24
645.124	39934.64
645.477	39854.64
645.83	39527.87
646.182	39450.14
646.535	39401.1
646.888	39352.28
647.24	39181.67
647.593	39509.12
647.945	39489.23
648.298	39091.5
648.65	38913.65
649.002	38907.78
649.355	39179.63
649.707	39048.34
650.059	39235
650.411	39816
650.763	39726.51
651.115	40246.72
651.467	40044.92
651.819	40051.48
652.171	39968.54
652.523	39901.65
652.875	39900.07
653.227	39848.54
653.578	40107.52
653.93	39900.07
654.282	39793.63
654.633	39744.82
654.985	39617.14
655.337	39667.76
655.688	39809.22
656.039	39924.25
656.391	39476.8
656.742	39680.64
657.094	39529
657.445	39854.87
657.796	39571.94
658.147	39473.41
658.498	39564.03
658.849	39615.55
659.2	39636.8
659.551	39435.9
659.902	39710.92
660.253	39458.95
660.604	39534.43
660.955	39329.01
661.306	39521.55
661.656	39360.87
662.007	39447.42
662.358	39433.41
662.708	39347.76
663.059	39369.23
663.409	39067.77
663.76	39500.3
664.11	39476.35
664.461	39488.55
664.811	39462.34
665.161	39447.88
665.511	39408.1
665.862	39463.47
666.212	39455.11
666.562	39381.89
666.912	39386.86
667.262	39415.79
667.612	39383.02
667.962	39403.13
668.312	39371.27
668.662	39482.9
669.011	39267.99
669.361	39297.6
669.711	39237.49
670.06	39119.52
670.41	39105.96
670.76	39012.41
671.109	39128.11
671.459	39238.16
671.808	39104.61
672.157	39198.62
672.507	38920.66
672.856	38791.85
673.205	38914.33
673.554	39086.75
673.904	38920.66
674.253	39075.68
674.602	39103.93
674.951	38399.09
675.3	38280.45
675.649	38911.62
675.998	38878.4
676.346	38973.54
676.695	38875.46
677.044	38710.49
677.393	38825.29
677.741	38897.83
678.09	38727.67
678.438	38631.85
678.787	38755.69
679.135	38775.35
679.484	38656.71
679.832	38701
680.181	38543.94
680.529	38396.38
680.877	38348.92
681.225	38406.09
681.573	38609.25
681.922	38262.6
682.27	38207
682.618	38196.61
682.966	38153.9
683.314	38294.46
683.661	38173.78
684.009	37935.15
684.357	38060.57
684.705	37913.45
685.053	37807.01
685.4	37856.96
685.748	37821.93
686.095	37581.03
686.443	37509.85
686.79	37395.05
687.138	37509.62
687.485	37459.9
687.832	37317.54
688.18	37261.94
688.527	37214.94
688.874	37056.75
689.221	37028.28
689.568	36944.66
689.915	36874.38
690.262	36850.2
690.609	36688.63
690.956	36595.97
691.303	36505.58
691.65	36530.66
691.997	36546.71
692.344	36260.84
692.69	36248.41
693.037	36273.27
693.383	35972.71
693.73	36065.14
694.077	35892.49
694.423	35871.92
694.769	35746.96
695.116	35829.44
695.462	35736.79
695.808	35650.23
696.155	35583.8
696.501	35451.82
696.847	35382.67
697.193	35083.92
697.539	35310.13
697.885	34905.4
698.231	34837.37
698.577	34966.86
698.923	34730.71
699.269	34656.14
699.614	34545.18
699.96	34475.35
700.306	34333.43
700.651	34317.39
700.997	34168.47
701.342	34155.36
701.688	34060.45
702.033	33952.2
702.379	33939.09
702.724	33994.01
703.069	33850.96
703.415	33565.77
703.76	33613.9
704.105	33554.24
704.45	33461.37
704.795	33199.23
705.14	33201.71
705.485	33232.22
705.83	33000.14
706.175	33075.16
706.52	32944.09
706.865	32918.56
707.209	32888.27
707.554	32757.2
707.899	32840.82
708.243	32692.12
708.588	32569.19
708.932	32491.9
709.277	32329.87
709.621	32457.32
709.966	32176.65
710.31	32317.44
710.654	31986.6
710.998	32104.57
711.342	32132.14
711.687	31853.95
712.031	31830.22
712.375	31703.9
712.719	31739.83
713.063	31781.86
713.407	31779.38
713.75	31566.73
714.094	31642.88
714.438	31428.2
714.782	31585.03
715.125	31330.57
715.469	31280.18
715.812	31203.8
716.156	31078.15
716.499	30994.09
716.843	31208.09
717.186	30847.88
717.53	31010.58
717.873	30909.34
718.216	30779.18
718.559	30771.04
718.902	30537.15
719.246	30733.08
719.589	30598.16
719.932	30424.84
720.275	30446.53
720.617	30297.16
720.96	30320.21
721.303	30185.97
721.646	30288.79
721.989	30086.54
722.331	30155.92
722.674	30135.8
723.016	30016.26
723.359	29929.93
723.701	30031.17
724.044	29776.94
724.386	29721.58
724.729	29889.26
725.071	29755.93
725.413	29778.75
725.755	29802.25
726.097	29641.35
726.439	29387.12
726.782	29560.9
727.124	29603.61
727.465	29315.71
727.807	29360.23
728.149	29249.05
728.491	29261.93
728.833	29369.5
729.175	29175.15
729.516	29218.77
729.858	29076.17
730.199	29034.59
730.541	29069.39
730.882	29014.48
731.224	29051.76
731.565	28741.72
731.906	28886.12
732.248	28876.18
732.589	28783.3
732.93	28559.57
733.271	28677.54
733.612	28639.57
733.953	28747.59
734.294	28517.32
734.635	28396.41
734.976	28586.92
735.317	28356.87
735.658	28483.19
735.999	28465.34
736.339	28334.95
736.68	28475.51
737.021	28305.57
737.361	28277.32
737.702	28237.55
738.042	28146.03
738.383	28124.33
738.723	28054.95
739.063	28010.21
739.404	28037.33
739.744	28017.22
740.084	27891.34
740.424	27850.89
740.764	27748.75
741.104	27869.2
741.444	27646.83
741.784	27487.51
742.124	27683.89
742.464	27612.71
742.804	27511.69
743.143	27457
743.483	27438.93
743.823	27320.28
744.162	27353.96
744.502	27466.27
744.841	27206.84
745.181	27327.06
745.52	27270.79
745.86	27219.5
746.199	27197.12
746.538	27049.11
746.877	27173.85
747.216	27108.31
747.556	26944.93
747.895	26949.67
748.234	26977.92
748.573	26973.4
748.911	26893.18
749.25	26758.72
749.589	26652.96
749.928	26692.5
750.267	26656.8
750.605	26650.25
750.944	26538.38
751.283	26358.5
751.621	26544.94
751.96	26297.03
752.298	26389.46
752.636	26356.69
752.975	26253.65
753.313	26152.18
753.651	26237.83
753.989	26081.45
754.327	25979.53
754.666	25846.88
755.004	25959.42
755.342	25903.6
755.679	25896.59
756.017	25747.22
756.355	25785.64
756.693	25644.17
757.031	25699.31
757.368	25481.01
757.706	25538.18
