Data from hue_200_FLMS001491_00005.txt Node
Date: Tue Feb 07 16:42:44 GMT 2017
User: dcchb
Spectrometer: FLMS00149
Trigger mode: 0
Integration Time (sec): 2.000000E-2
Scans to average: 10
Electric dark correction enabled: true
Nonlinearity correction enabled: false
Boxcar width: 0
XAxis mode: Wavelengths
Number of Pixels in Spectrum: 2048
>>>>>Begin Spectral Data<<<<<
341.393	-8.12
341.776	-8.12
342.16	-8.12
342.543	-57.16
342.927	-56.71
343.31	-60.55
343.693	-69.81
344.077	-59.65
344.46	-58.06
344.843	-49.25
345.226	-47.22
345.61	-27.1
345.993	-13.09
346.376	-8.12
346.759	15.38
347.142	17.87
347.525	40.69
347.908	38.21
348.291	71.42
348.674	105.1
349.057	104.19
349.44	136.51
349.823	142.38
350.206	179.67
350.588	198.2
350.971	210.63
351.354	234.36
351.737	232.78
352.119	231.65
352.502	256.73
352.884	268.93
353.267	307.35
353.65	296.5
354.032	310.51
354.414	296.73
354.797	317.75
355.179	317.07
355.562	344.86
355.944	308.48
356.326	342.6
356.709	324.07
357.091	368.82
357.473	348.71
357.855	329.72
358.238	352.55
358.62	333.79
359.002	326.33
359.384	330.63
359.766	331.08
360.148	343.06
360.53	345.77
360.912	337.63
361.294	331.08
361.676	335.37
362.057	331.53
362.439	341.47
362.821	342.6
363.203	312.55
363.584	343.06
363.966	326.33
364.348	334.47
364.729	340.34
365.111	338.31
365.493	324.53
365.874	329.05
366.256	321.36
366.637	303.96
367.019	311.19
367.4	325.88
367.781	315.49
368.163	331.08
368.544	334.24
368.925	297.41
369.306	297.86
369.688	311.42
370.069	307.12
370.45	324.53
370.831	295.37
371.212	318.42
371.593	303.96
371.974	343.51
372.355	320.68
372.736	328.14
373.117	318.42
373.498	309.61
373.879	322.04
374.26	321.59
374.641	324.07
375.021	320.91
375.402	330.85
375.783	319.78
376.163	330.85
376.544	331.53
376.925	354.81
377.305	326.11
377.686	336.28
378.066	317.75
378.447	326.79
378.827	331.53
379.208	332.21
379.588	322.04
379.968	351.64
380.349	348.93
380.729	336.5
381.109	335.82
381.489	344.41
381.87	347.58
382.25	364.75
382.63	317.97
383.01	362.26
383.39	351.64
383.77	357.97
384.15	340.34
384.53	342.38
384.91	372.43
385.29	355.71
385.67	333.56
386.049	364.75
386.429	341.02
386.809	362.94
387.189	380.57
387.568	353.23
387.948	358.42
388.328	365.65
388.707	362.26
389.087	374.92
389.466	372.66
389.846	384.86
390.225	387.8
390.605	378.08
390.984	391.42
391.363	384.64
391.743	390.74
392.122	388.25
392.501	381.47
392.881	398.2
393.26	379.44
393.639	402.94
394.018	391.42
394.397	394.35
394.776	407.69
395.155	411.53
395.534	407.46
395.913	398.87
396.292	401.13
396.671	414.24
397.05	419.21
397.429	409.04
397.808	421.7
398.186	418.31
398.565	432.09
398.944	416.95
399.323	430.74
399.701	430.51
400.08	421.02
400.458	430.51
400.837	440.91
401.215	460.12
401.594	433.45
401.972	441.58
402.351	420.57
402.729	455.82
403.107	455.14
403.486	461.47
403.864	471.64
404.242	466.44
404.62	477.97
404.999	480.23
405.377	473.45
405.755	498.08
406.133	491.3
406.511	488.81
406.889	489.27
407.267	516.16
407.645	504.41
408.023	514.8
408.401	527.23
408.779	530.62
409.156	538.08
409.534	554.12
409.912	558.19
410.29	558.64
410.667	583.5
411.045	569.49
411.422	579.66
411.8	614.69
412.178	614.46
412.555	637.06
412.933	628.7
413.31	630.73
413.687	650.39
414.065	673.89
414.442	669.38
414.819	687.68
415.197	688.81
415.574	680.45
415.951	709.15
416.328	729.94
416.705	726.77
417.082	731.07
417.46	760.22
417.837	768.36
418.214	791.18
418.591	796.83
418.967	782.14
419.344	804.29
419.721	818.52
420.098	803.38
420.475	825.76
420.852	849.94
421.228	851.74
421.605	858.07
421.982	906.2
422.358	926.77
422.735	935.13
423.111	955.02
423.488	970.61
423.864	975.81
424.241	982.59
424.617	1004.51
424.994	1032.76
425.37	1042.25
425.746	1074.56
426.123	1076.37
426.499	1071.4
426.875	1104.84
427.251	1152.53
427.627	1143.71
428.003	1131.96
428.379	1164.5
428.756	1175.12
429.132	1185.52
429.507	1218.74
429.883	1231.17
430.259	1234.78
430.635	1276.59
431.011	1278.17
431.387	1274.33
431.763	1313.65
432.138	1339.87
432.514	1343.48
432.89	1392.75
433.265	1376.02
433.641	1441.56
434.016	1446.98
434.392	1478.39
434.767	1527.21
435.143	1573.08
435.518	1545.28
435.894	1585.74
436.269	1643.13
436.644	1632.06
437.02	1672.29
437.395	1679.07
437.77	1750.7
438.145	1755.22
438.52	1795
438.895	1832.96
439.271	1826.63
439.646	1885.61
440.021	1913.86
440.395	1964.71
440.77	1924.71
441.145	1950.02
441.52	2028.21
441.895	2011.94
442.27	2059.85
442.645	2049.68
443.019	2091.26
443.394	2069.34
443.769	2166.96
444.143	2159.51
444.518	2167.41
444.892	2189.56
445.267	2238.6
445.641	2251.25
446.016	2254.42
446.39	2268.88
446.764	2269.78
447.139	2257.36
447.513	2336.9
447.887	2352.04
448.262	2345.49
448.636	2387.75
449.01	2420.29
449.384	2452.61
449.758	2456.45
450.132	2510.46
450.506	2487.86
450.88	2529.21
451.254	2512.94
451.628	2534.86
452.002	2608.31
452.376	2633.84
452.75	2646.5
453.123	2664.58
453.497	2712.94
453.871	2723.56
454.244	2779.6
454.618	2810.11
454.992	2848.98
455.365	2824.8
455.739	2892.14
456.112	2938.47
456.486	2956.55
456.859	3004.23
457.232	3014.4
457.606	3032.48
457.979	3072.7
458.352	3166.03
458.725	3211.91
459.099	3191.12
459.472	3260.95
459.845	3337.1
460.218	3323.99
460.591	3345.91
460.964	3333.49
461.337	3443.09
461.71	3523.76
462.083	3528.06
462.456	3555.63
462.829	3586.59
463.201	3653.25
463.574	3663.42
463.947	3756.75
464.32	3779.58
464.692	3789.74
465.065	3841.95
465.438	3918.78
465.81	3962.62
466.183	4004.88
466.555	4073.13
466.928	4085.1
467.3	4070.19
467.672	4171.43
468.045	4269.05
468.417	4279
468.789	4341.82
469.161	4334.14
469.534	4438.77
469.906	4513.79
470.278	4543.17
470.65	4554.7
471.022	4676.28
471.394	4808.25
471.766	4815.25
472.138	4875.82
472.51	4942.71
472.882	5011.41
473.253	5058.86
473.625	5144.06
473.997	5261.8
474.369	5246.88
474.74	5310.61
475.112	5413.88
475.484	5485.52
475.855	5579.98
476.227	5654.33
476.598	5813.87
476.97	5797.15
477.341	5942.68
477.713	6019.29
478.084	6025.17
478.455	6167.08
478.827	6217.25
479.198	6410.24
479.569	6431.94
479.94	6628.54
480.311	6652.04
480.682	6740.18
481.053	6851.13
481.424	6965.93
481.795	7047.51
482.166	7140.84
482.537	7216.32
482.908	7346.26
483.279	7370.67
483.65	7571.11
484.021	7721.17
484.391	7767.72
484.762	7856.98
485.133	7848.85
485.503	7997.32
485.874	8151.21
486.244	8207.26
486.615	8393.92
486.985	8489.06
487.356	8516.17
487.726	8597.53
488.097	8841.14
488.467	8804.53
488.837	8988.48
489.207	9063.28
489.578	9131.98
489.948	9263.73
490.318	9345.08
490.688	9364.97
491.058	9434.12
491.428	9616.03
491.798	9646.99
492.168	9841.56
492.538	9877.27
492.908	9947.32
493.278	10074.33
493.648	10105.74
494.017	10145.06
494.387	10311.83
494.757	10297.14
495.126	10428.21
495.496	10414.2
495.866	10483.81
496.235	10567.19
496.605	10697.36
496.974	10665.27
497.344	10739.62
497.713	10862.55
498.082	10912.04
498.452	10991.82
498.821	11016.22
499.19	10972.16
499.559	11133.73
499.928	11068.88
500.298	11145.03
500.667	11272.26
501.036	11258.93
501.405	11352.26
501.774	11328.98
502.143	11415.31
502.512	11439.26
502.88	11519.26
503.249	11456.89
503.618	11515.19
503.987	11584.12
504.356	11679.71
504.724	11667.96
505.093	11692.81
505.462	11702.31
505.83	11746.15
506.199	11835.86
506.567	11873.83
506.936	11876.99
507.304	12027.04
507.672	12035.18
508.041	12078.34
508.409	12142.97
508.777	12170.54
509.145	12276.3
509.514	12203.08
509.882	12247.38
510.25	12180.26
510.618	12201.28
510.986	12204.21
511.354	12256.64
511.722	12376.86
512.09	12528.05
512.458	12387.71
512.826	12453.25
513.193	12492.79
513.561	12497.99
513.929	12586.58
514.297	12605.78
514.664	12586.35
515.032	12665.44
515.4	12743.86
515.767	12743.86
516.135	12689.4
516.502	12581.83
516.869	12817.76
517.237	12787.7
517.604	12702.73
517.972	12823.41
518.339	12881.94
518.706	12831.54
519.073	12824.99
519.44	12760.13
519.808	12895.95
520.175	12864.31
520.542	12994.25
520.909	12965.32
521.276	12963.06
521.643	13015.94
522.009	13051.2
522.376	13057.07
522.743	13034.25
523.11	13129.16
523.477	13175.26
523.843	13165.77
524.21	13234.24
524.577	13219.1
524.943	13165.32
525.31	13218.2
525.676	13262.04
526.043	13299.55
526.409	13309.04
526.776	13376.16
527.142	13350.17
527.508	13345.65
527.874	13376.84
528.241	13367.12
528.607	13440.79
528.973	13304.98
529.339	13446.44
529.705	13442.15
530.071	13429.94
530.437	13387.91
530.803	13450.96
531.169	13464.97
531.535	13376.84
531.901	13329.61
532.267	13317.63
532.632	13335.48
532.998	13293.9
533.364	13329.38
533.73	13281.25
534.095	13374.8
534.461	13271.3
534.826	13372.77
535.192	13200.35
535.557	13203.51
535.923	13240.34
536.288	13187.92
536.653	13134.58
537.019	13062.5
537.384	13020.69
537.749	13044.87
538.114	13001.71
538.479	12893.69
538.845	12853.91
539.21	12838.55
539.575	12897.3
539.94	12840.81
540.305	12818.89
540.67	12707.93
541.034	12659.79
541.399	12741.15
541.764	12666.57
542.129	12654.37
542.494	12566.46
542.858	12559.68
543.223	12516.52
543.587	12563.53
543.952	12412.12
544.316	12431.78
544.681	12336.41
545.045	12376.19
545.41	12294.15
545.774	12232.91
546.138	12234.27
546.503	12176.64
546.867	12135.74
547.231	12098.91
547.595	12085.8
547.959	12026.59
548.324	12019.13
548.688	11900.04
549.052	11818.91
549.416	11899.14
549.779	11838.35
550.143	11780.27
550.507	11841.51
550.871	11730.33
551.235	11618.01
551.599	11721.74
551.962	11634.51
552.326	11601.97
552.689	11575.75
553.053	11510.67
553.417	11520.16
553.78	11587.73
554.143	11429.54
554.507	11413.73
554.87	11403.78
555.234	11522.87
555.597	11364.01
555.96	11316.78
556.323	11407.62
556.686	11294.41
557.05	11301.41
557.413	11323.56
557.776	11189.32
558.139	11354.29
558.502	11197.46
558.865	11221.19
559.228	11241.07
559.59	11185.03
559.953	11224.8
560.316	11220.06
560.679	11155.65
561.041	11167.86
561.404	11155.65
561.767	11215.54
562.129	11150
562.492	11194.75
562.854	11105.94
563.217	11118.37
563.579	11138.93
563.941	11171.25
564.304	11077.46
564.666	11228.42
565.028	11202.66
565.39	11151.59
565.753	11154.07
566.115	11153.85
566.477	11149.78
566.839	11189.32
567.201	11159.49
567.563	11223.22
567.925	11265.48
568.287	11183.9
568.648	11206.27
569.01	11260.96
569.372	11300.96
569.734	11186.16
570.095	11216.44
570.457	11265.25
570.819	11272.94
571.18	11184.13
571.542	11288.3
571.903	11272.49
572.265	11300.96
572.626	11319.26
572.987	11325.37
573.349	11284.92
573.71	11339.38
574.071	11392.03
574.432	11382.54
574.794	11345.48
575.155	11412.6
575.516	11284.69
575.877	11458.24
576.238	11347.29
576.599	11326.72
576.96	11366.72
577.32	11360.39
577.681	11402.65
578.042	11379.15
578.403	11386.61
578.763	11378.92
579.124	11432.48
579.485	11458.92
579.845	11458.02
580.206	11423.44
580.566	11505.7
580.927	11356.78
581.287	11477.68
581.648	11353.84
582.008	11502.54
582.368	11437.23
582.728	11470.45
583.089	11442.43
583.449	11375.99
583.809	11396.32
584.169	11433.39
584.529	11344.12
584.889	11407.17
585.249	11350.9
585.609	11365.37
585.969	11356.1
586.329	11387.06
586.688	11390
587.048	11348.64
587.408	11331.47
587.768	11302.99
588.127	11387.96
588.487	11313.61
588.846	11378.02
589.206	11308.42
589.565	11310.68
589.925	11337.12
590.284	11311.36
590.643	11310.23
591.003	11396.1
591.362	11339.83
591.721	11294.41
592.08	11308.42
592.44	11289.66
592.799	11265.03
593.158	11253.96
593.517	11271.81
593.876	11285.82
594.235	11340.05
594.593	11309.1
594.952	11295.54
595.311	11218.02
595.67	11274.29
596.029	11347.29
596.387	11274.75
596.746	11262.77
597.104	11248.31
597.463	11196.1
597.822	11268.42
598.18	11153.17
598.538	11209.89
598.897	11270.68
599.255	11194.07
599.613	11297.57
599.972	11259.61
600.33	11230.68
600.688	11227.06
601.046	11219.15
601.404	11235.88
601.762	11285.82
602.12	11276.55
602.478	11267.51
602.836	11203.34
603.194	11282.2
603.552	11289.43
603.91	11216.89
604.268	11231.81
604.625	11204.24
604.983	11231.58
605.341	11196.33
605.698	11223.67
606.056	11262.09
606.413	11270.23
606.771	11263.22
607.128	11329.43
607.485	11238.36
607.843	11237.23
608.2	11240.17
608.557	11240.17
608.914	11255.76
609.272	11311.36
609.629	11270.45
609.986	11261.41
610.343	11227.06
610.7	11328.08
611.057	11300.96
611.414	11276.1
611.771	11253.28
612.127	11314.52
612.484	11320.39
612.841	11394.06
613.198	11381.41
613.554	11266.84
613.911	11461.41
614.267	11364.24
614.624	11369.21
614.98	11351.35
615.337	11465.48
615.693	11424.8
616.05	11397.68
616.406	11422.76
616.762	11450.79
617.118	11535.08
617.475	11373.05
617.831	11479.49
618.187	11493.95
618.543	11503.89
618.899	11471.8
619.255	11425.7
619.611	11493.5
619.967	11462.54
620.323	11518.13
620.678	11528.75
621.034	11503.21
621.39	11404.01
621.746	11495.08
622.101	11654.17
622.457	11493.05
622.812	11461.41
623.168	11484.68
623.523	11443.1
623.879	11490.79
624.234	11430.22
624.589	11495.76
624.945	11506.83
625.3	11467.51
625.655	11446.04
626.01	11442.65
626.365	11449.66
626.72	11490.56
627.075	11452.14
627.43	11441.75
627.785	11448.75
628.14	11510.67
628.495	11456.21
628.85	11401.97
629.205	11406.72
629.559	11426.61
629.914	11308.87
630.269	11396.55
630.623	11377.34
630.978	11369.43
631.332	11332.15
631.687	11419.15
632.041	11342.09
632.396	11380.51
632.75	11269.77
633.104	11276.55
633.459	11263.67
633.813	11248.31
634.167	11245.82
634.521	11159.04
634.875	11267.29
635.229	11229.1
635.583	11152.26
635.937	11109.78
636.291	11153.39
636.645	11144.58
636.999	11150.68
637.352	11174.86
637.706	11081.53
638.06	11090.8
638.413	11096.45
638.767	11121.76
639.121	11059.61
639.474	11009.44
639.828	11072.27
640.181	11037.69
640.534	11048.76
640.888	11030.91
641.241	10952.04
641.594	10950.69
641.947	11042.21
642.301	10970.12
642.654	10964.47
643.007	10933.29
643.36	10836.57
643.713	10916.79
644.066	10836.34
644.419	10898.03
644.771	10846.73
645.124	10771.71
645.477	10717.02
645.83	10646.51
646.182	10564.26
646.535	10544.6
646.888	10517.03
647.24	10467.08
647.593	10584.14
647.945	10562
648.298	10457.37
648.65	10478.83
649.002	10405.16
649.355	10528.32
649.707	10557.25
650.059	10553.63
650.411	10718.83
650.763	10707.76
651.115	10842.21
651.467	10779.39
651.819	10695.78
652.171	10742.1
652.523	10705.04
652.875	10780.07
653.227	10655.55
653.578	10780.52
653.93	10804.93
654.282	10706.17
654.633	10658.26
654.985	10681.99
655.337	10758.15
655.688	10665.95
656.039	10795.21
656.391	10690.58
656.742	10706.85
657.094	10740.3
657.445	10777.13
657.796	10711.6
658.147	10682.67
658.498	10746.62
658.849	10781.2
659.2	10655.33
659.551	10686.29
659.902	10637.93
660.253	10829.11
660.604	10740.52
660.955	10713.4
661.306	10809
661.656	10733.97
662.007	10731.71
662.358	10709.34
662.708	10758.83
663.059	10775.1
663.409	10745.72
663.76	10773.97
664.11	10765.83
664.461	10783.91
664.811	10829.56
665.161	10749.56
665.511	10730.13
665.862	10758.15
666.212	10734.65
666.562	10797.7
666.912	10823.23
667.262	10698.04
667.612	10672.5
667.962	10784.82
668.312	10793.63
668.662	10841.54
669.011	10757.25
669.361	10799.73
669.711	10691.26
670.06	10704.37
670.41	10685.61
670.76	10739.84
671.109	10733.74
671.459	10704.37
671.808	10754.99
672.157	10749.11
672.507	10624.59
672.856	10657.59
673.205	10614.2
673.554	10753.86
673.904	10635.44
674.253	10688.55
674.602	10581.66
674.951	10474.09
675.3	10466.86
675.649	10669.34
675.998	10677.7
676.346	10581.2
676.695	10633.18
677.044	10580.07
677.393	10572.84
677.741	10560.41
678.09	10513.18
678.438	10489.68
678.787	10495.78
679.135	10491.94
679.484	10520.42
679.832	10482.22
680.181	10400.19
680.529	10451.72
680.877	10354.09
681.225	10434.77
681.573	10392.74
681.922	10441.77
682.27	10324.49
682.618	10365.62
682.966	10355.9
683.314	10332.62
683.661	10313.87
684.009	10258.95
684.357	10229.58
684.705	10232.74
685.053	10181.44
685.4	10178.96
685.748	10084.04
686.095	10110.26
686.443	10071.39
686.79	10020.32
687.138	10105.29
687.485	10000.43
687.832	9962.92
688.18	10069.13
688.527	9968.57
688.874	9950.49
689.221	9885.86
689.568	9857.61
689.915	9862.13
690.262	9836.82
690.609	9780.77
690.956	9809.25
691.303	9749.81
691.65	9680.66
691.997	9694.45
692.344	9662.13
692.69	9571.74
693.037	9576.94
693.383	9478.86
693.73	9533.32
694.077	9487.45
694.423	9472.53
694.769	9416.94
695.116	9421.46
695.462	9384.4
695.808	9292.65
696.155	9377.85
696.501	9246.78
696.847	9195.25
697.193	9162.71
697.539	9167.23
697.885	9115.71
698.231	9039.1
698.577	9109.61
698.923	9081.36
699.269	8934.02
699.614	8964.07
699.96	8888.59
700.306	8993.45
700.651	8889.5
700.997	8840.46
701.342	8829.39
701.688	8826.67
702.033	8693.8
702.379	8749.61
702.724	8663.52
703.069	8721.82
703.415	8598.43
703.76	8571.99
704.105	8574.7
704.45	8554.82
704.795	8518.43
705.14	8483.18
705.485	8479.57
705.83	8419.68
706.175	8471.2
706.52	8444.31
706.865	8305.78
707.209	8350.76
707.554	8321.6
707.899	8291.32
708.243	8274.37
708.588	8261.49
708.932	8190.31
709.277	8211.55
709.621	8176.52
709.966	8121.38
710.31	8091.78
710.654	7996.87
710.998	8133.59
711.342	8060.37
711.687	8051.78
712.031	8015.62
712.375	7933.82
712.719	7991.67
713.063	7956.42
713.407	8062.18
713.75	7939.69
714.094	7972.46
714.438	7941.73
714.782	7899.02
715.125	7896.76
715.469	7934.95
715.812	7849.98
716.156	7774.5
716.499	7805.01
716.843	7808.4
717.186	7736.99
717.53	7835.29
717.873	7764.56
718.216	7750.32
718.559	7709.87
718.902	7668.97
719.246	7754.39
719.589	7718.46
719.932	7643.88
720.275	7648.85
720.617	7623.09
720.96	7694.95
721.303	7644.78
721.646	7611.57
721.989	7644.11
722.331	7659.25
722.674	7612.92
723.016	7618.57
723.359	7574.96
723.701	7595.75
724.044	7499.93
724.386	7428.75
724.729	7577.44
725.071	7558.01
725.413	7578.35
725.755	7508.07
726.097	7504
726.439	7461.06
726.782	7431.91
727.124	7491.12
727.465	7447.05
727.807	7458.35
728.149	7391.68
728.491	7395.75
728.833	7440.5
729.175	7450.67
729.516	7442.53
729.858	7454.96
730.199	7501.06
730.541	7408.63
730.882	7428.52
731.224	7438.69
731.565	7456.99
731.906	7429.42
732.248	7445.69
732.589	7402.76
732.93	7402.98
733.271	7434.39
733.612	7423.55
733.953	7419.93
734.294	7461.96
734.635	7386.94
734.976	7475.3
735.317	7408.18
735.658	7500.61
735.999	7452.02
736.339	7409.54
736.68	7515.75
737.021	7472.81
737.361	7448.63
737.702	7498.57
738.042	7451.8
738.383	7462.87
738.723	7465.81
739.063	7439.14
739.404	7492.02
739.744	7499.93
740.084	7509.2
740.424	7495.86
740.764	7490.66
741.104	7552.13
741.444	7558.69
741.784	7550.32
742.124	7570.21
742.464	7603.88
742.804	7596.42
743.143	7585.35
743.483	7665.35
743.823	7582.41
744.162	7692.47
744.502	7670.55
744.841	7698.34
745.181	7770.43
745.52	7817.21
745.86	7828.96
746.199	7844.33
746.538	7930.88
746.877	7979.47
747.216	8068.5
747.556	7997.32
747.895	8111.44
748.234	8146.24
748.573	8158.67
748.911	8262.62
749.25	8280.25
749.589	8337.2
749.928	8391.43
750.267	8487.7
750.605	8521.82
750.944	8579.45
751.283	8745.32
751.621	8729.5
751.96	8847.69
752.298	8978.76
752.636	9051.98
752.975	9069.15
753.313	9170.62
753.651	9391.41
753.989	9383.27
754.327	9557.95
754.666	9599.08
755.004	9740.1
755.342	9907.78
755.679	10034.78
756.017	10100.31
756.355	10317.03
756.693	10418.27
757.031	10600.64
757.368	10714.08
757.706	10904.36
