Data from hue_230_FLMS001491_00095.txt Node
Date: Tue Feb 07 16:38:00 GMT 2017
User: dcchb
Spectrometer: FLMS00149
Trigger mode: 0
Integration Time (sec): 2.000000E-2
Scans to average: 10
Electric dark correction enabled: true
Nonlinearity correction enabled: false
Boxcar width: 0
XAxis mode: Wavelengths
Number of Pixels in Spectrum: 2048
>>>>>Begin Spectral Data<<<<<
341.393	-12.32
341.776	-12.32
342.16	-12.32
342.543	-48.7
342.927	-61.81
343.31	-82.6
343.693	-58.87
344.077	-55.7
344.46	-70.17
344.843	-51.86
345.226	-39.43
345.61	-22.26
345.993	-21.58
346.376	-6.67
346.759	1.92
347.142	19.77
347.525	25.42
347.908	50.73
348.291	75.14
348.674	113.56
349.057	122.6
349.44	126.66
349.823	153.1
350.206	165.08
350.588	191.75
350.971	177.96
351.354	225.64
351.737	216.38
352.119	233.55
352.502	244.4
352.884	273.33
353.267	290.5
353.65	299.31
354.032	282.14
354.414	302.93
354.797	311.74
355.179	321.69
355.562	317.17
355.944	309.71
356.326	313.78
356.709	328.92
357.091	323.72
357.473	333.21
357.855	356.71
358.238	335.7
358.62	344.06
359.002	354
359.384	339.54
359.766	330.05
360.148	328.47
360.53	320.1
360.912	348.35
361.294	323.72
361.676	326.43
362.057	328.47
362.439	320.33
362.821	315.36
363.203	338.41
363.584	307.22
363.966	317.62
364.348	326.66
364.729	320.33
365.111	307
365.493	293.89
365.874	302.93
366.256	326.21
366.637	312.65
367.019	323.27
367.4	307
367.781	308.13
368.163	322.36
368.544	306.32
368.925	295.7
369.306	308.13
369.688	321.23
370.069	304.29
370.45	314.23
370.831	323.95
371.212	324.4
371.593	317.84
371.974	310.61
372.355	308.81
372.736	315.58
373.117	321.46
373.498	313.55
373.879	322.14
374.26	311.29
374.641	304.51
375.021	304.51
375.402	306.09
375.783	303.61
376.163	320.56
376.544	307.45
376.925	315.36
377.305	318.97
377.686	311.74
378.066	326.43
378.447	309.71
378.827	291.86
379.208	337.28
379.588	319.88
379.968	322.36
380.349	319.88
380.729	331.18
381.109	327.34
381.489	333.66
381.87	343.38
382.25	329.37
382.63	348.35
383.01	330.05
383.39	337.28
383.77	331.63
384.15	321.91
384.53	321.69
384.91	322.82
385.29	341.35
385.67	309.94
386.049	349.71
386.429	313.55
386.809	323.04
387.189	317.84
387.568	335.92
387.948	351.06
388.328	349.71
388.707	338.41
389.087	368.01
389.466	352.19
389.846	345.19
390.225	353.1
390.605	355.13
390.984	353.32
391.363	355.13
391.743	363.27
392.122	359.43
392.501	357.62
392.881	366.43
393.26	350.61
393.639	352.65
394.018	380.22
394.397	371.4
394.776	351.52
395.155	355.36
395.534	379.54
395.913	367.33
396.292	383.38
396.671	361.01
397.05	369.59
397.429	369.14
397.808	385.41
398.186	414.11
398.565	384.74
398.944	389.03
399.323	382.02
399.701	404.4
400.08	391.06
400.458	386.77
400.837	411.18
401.215	408.24
401.594	386.32
401.972	387
402.351	401.68
402.729	403.72
403.107	407.11
403.486	416.83
403.864	400.55
404.242	458.41
404.62	413.66
404.999	403.72
405.377	446.2
405.755	425.64
406.133	437.16
406.511	410.27
406.889	439.2
407.267	438.52
407.645	434
408.023	472.19
408.401	450.95
408.779	439.65
409.156	448.01
409.534	462.02
409.912	468.8
410.29	470.84
410.667	499.31
411.045	491.17
411.422	505.18
411.8	501.57
412.178	522.13
412.555	507.9
412.933	511.29
413.31	528.91
413.687	535.69
414.065	533.66
414.442	531.62
414.819	562.58
415.197	574.11
415.574	586.76
415.951	574.79
416.328	584.5
416.705	564.39
417.082	582.92
417.46	583.83
417.837	572.98
418.214	595.58
418.591	598.29
418.967	592.87
419.344	612.75
419.721	618.85
420.098	629.25
420.475	621.34
420.852	650.04
421.228	669.7
421.605	673.09
421.982	669.25
422.358	686.87
422.735	673.09
423.111	695.46
423.488	706.76
423.864	714.22
424.241	739.98
424.617	753.99
424.994	756.93
425.37	748.57
425.746	754.67
426.123	773.88
426.499	781.11
426.875	771.62
427.251	830.83
427.627	819.98
428.003	840.99
428.379	807.55
428.756	837.15
429.132	849.36
429.507	836.02
429.883	896.13
430.259	887.55
430.635	871.05
431.011	886.42
431.387	904.5
431.763	913.08
432.138	923.48
432.514	935.46
432.89	942.24
433.265	980.2
433.641	991.27
434.016	995.12
434.392	988.34
434.767	1021.1
435.143	1036.24
435.518	1052.29
435.894	1082.12
436.269	1096.81
436.644	1107.2
437.02	1114.21
437.395	1127.99
437.77	1144.49
438.145	1149.24
438.52	1166.41
438.895	1170.48
439.271	1188.56
439.646	1245.05
440.021	1246.63
440.395	1235.33
440.77	1256.35
441.145	1270.36
441.52	1278.05
441.895	1276.24
442.27	1303.58
442.645	1321.21
443.019	1337.48
443.394	1321.66
443.769	1343.13
444.143	1359.63
444.518	1360.98
444.892	1353.07
445.267	1383.58
445.641	1405.73
446.016	1395.56
446.39	1440.3
446.764	1436.01
447.139	1451.15
447.513	1442.33
447.887	1468.55
448.262	1471.94
448.636	1467.42
449.01	1498.38
449.384	1536.12
449.758	1500.86
450.132	1518.27
450.506	1555.1
450.88	1547.87
451.254	1545.16
451.628	1564.82
452.002	1640.52
452.376	1593.74
452.75	1614.53
453.123	1587.87
453.497	1643.46
453.871	1638.94
454.244	1693.18
454.618	1692.5
454.992	1730.69
455.365	1742.89
455.739	1744.02
456.112	1737.02
456.486	1741.54
456.859	1814.08
457.232	1848.65
457.606	1824.7
457.979	1865.83
458.352	1893.85
458.725	1887.52
459.099	1924.13
459.472	1944.24
459.845	1951.47
460.218	1972.04
460.591	1980.85
460.964	1991.02
461.337	2012.04
461.71	2080.06
462.083	2104.01
462.456	2082.77
462.829	2109.66
463.201	2131.13
463.574	2113.05
463.947	2159.15
464.32	2160.96
464.692	2222.88
465.065	2254.07
465.438	2266.27
465.81	2320.05
466.183	2290.9
466.555	2323.67
466.928	2341.29
467.3	2360.73
467.672	2391.69
468.045	2461.29
468.417	2484.57
468.789	2501.74
469.161	2514.62
469.534	2548.97
469.906	2578.8
470.278	2588.52
470.65	2638.91
471.022	2630.33
471.394	2699.25
471.766	2681.17
472.138	2748.29
472.51	2821.28
472.882	2867.83
473.253	2861.96
473.625	2870.55
473.997	2942.86
474.369	2952.58
474.74	2993.03
475.112	3061.28
475.484	3096.75
475.855	3102.18
476.227	3120.71
476.598	3249.75
476.97	3202.06
477.341	3322.96
477.713	3330.42
478.084	3372.45
478.455	3414.03
478.827	3485.22
479.198	3561.15
479.569	3553.92
479.94	3659
480.311	3675.95
480.682	3714.82
481.053	3811.99
481.424	3879.11
481.795	3875.72
482.166	3945.77
482.537	3969.95
482.908	4028.93
483.279	4034.36
483.65	4116.16
484.021	4185.99
484.391	4195.48
484.762	4275.93
485.133	4288.36
485.503	4291.75
485.874	4417.4
486.244	4429.83
486.615	4458.07
486.985	4548.02
487.356	4584.17
487.726	4651.97
488.097	4710.72
488.467	4742.59
488.837	4853.32
489.207	4887.44
489.578	4963.37
489.948	4975.8
490.318	5065.74
490.688	5049.92
491.058	5115.91
491.428	5152.97
491.798	5172.63
492.168	5279.75
492.538	5315.91
492.908	5347.54
493.278	5462.34
493.648	5416.02
494.017	5473.42
494.387	5541.21
494.757	5509.57
495.126	5567.88
495.496	5619.17
495.866	5593.64
496.235	5614.43
496.605	5714.09
496.974	5702.79
497.344	5735.1
497.713	5785.05
498.082	5855.78
498.452	5863.24
498.821	5846.96
499.19	5885.61
499.559	5938.49
499.928	5991.59
500.298	6051.71
500.667	6029.11
501.036	6074.98
501.405	6088.54
501.774	6060.74
502.143	6123.12
502.512	6136.22
502.88	6185.26
503.249	6136.9
503.618	6215.77
503.987	6201.53
504.356	6261.64
504.724	6249.44
505.093	6249.67
505.462	6327.18
505.83	6299.16
506.199	6340.51
506.567	6444.01
506.936	6415.31
507.304	6445.59
507.672	6443.11
508.041	6481.75
508.409	6434.97
508.777	6513.61
509.145	6537.12
509.514	6529.88
509.882	6520.17
510.25	6555.65
510.618	6583.67
510.986	6586.83
511.354	6594.52
511.722	6646.72
512.09	6675.64
512.458	6642.2
512.826	6725.13
513.193	6717
513.561	6706.83
513.929	6714.06
514.297	6820.27
514.664	6792.02
515.032	6806.71
515.4	6791.57
515.767	6769.65
516.135	6861.4
516.502	6793.38
516.869	6894.85
517.237	6844.45
517.604	6860.05
517.972	6911.8
518.339	6908.86
518.706	6953.15
519.073	6890.1
519.44	6931
519.808	6941.17
520.175	6889.2
520.542	6986.82
520.909	7007.61
521.276	6958.35
521.643	6962.64
522.009	7013.49
522.376	7005.35
522.743	6973.71
523.11	7036.31
523.477	7137.78
523.843	7084.45
524.21	7161.96
524.577	7156.53
524.943	7110.43
525.31	7170.77
525.676	7220.04
526.043	7215.06
526.409	7206.93
526.776	7272.69
527.142	7240.6
527.508	7232.01
527.874	7212.35
528.241	7256.87
528.607	7261.62
528.973	7259.58
529.339	7244.67
529.705	7229.98
530.071	7266.36
530.437	7243.31
530.803	7274.27
531.169	7333.48
531.535	7300.71
531.901	7317.43
532.267	7263.2
532.632	7281.5
532.998	7262.07
533.364	7343.87
533.73	7249.87
534.095	7277.89
534.461	7279.02
534.826	7240.37
535.192	7234.95
535.557	7239.02
535.923	7312.69
536.288	7227.04
536.653	7277.44
537.019	7266.14
537.384	7249.19
537.749	7218.91
538.114	7183.65
538.479	7210.32
538.845	7233.37
539.21	7139.59
539.575	7172.81
539.94	7146.82
540.305	7151.79
540.67	7159.92
541.034	7128.29
541.399	7150.89
541.764	7165.12
542.129	7155.63
542.494	7116.08
542.858	7107.72
543.223	7096.42
543.587	7022.98
543.952	7012.81
544.316	7033.37
544.681	7013.26
545.045	7002.41
545.41	7010.55
545.774	7022.08
546.138	6974.62
546.503	6960.83
546.867	6973.49
547.231	7017.56
547.595	7021.85
547.959	6993.15
548.324	6937.33
548.688	6949.31
549.052	6954.05
549.416	6930.55
549.779	6873.38
550.143	6848.52
550.507	6920.61
550.871	6885.36
551.235	6778.24
551.599	6873.6
551.962	6836.09
552.326	6857.56
552.689	6795.64
553.053	6793.15
553.417	6772.14
553.78	6835.87
554.143	6806.04
554.507	6789.54
554.87	6819.59
555.234	6841.52
555.597	6761.97
555.96	6790.67
556.323	6825.02
556.686	6779.37
557.05	6761.74
557.413	6728.98
557.776	6774.62
558.139	6767.17
558.502	6791.8
558.865	6743.21
559.228	6820.95
559.59	6804.45
559.953	6829.31
560.316	6856.2
560.679	6841.29
561.041	6880.84
561.404	6884
561.767	6804.91
562.129	6841.29
562.492	6902.76
562.854	6804.91
563.217	6837.22
563.579	6884.45
563.941	6917.9
564.304	6915.86
564.666	6948.4
565.028	6909.31
565.39	6939.37
565.753	6905.02
566.115	6946.82
566.477	6967.16
566.839	6965.13
567.201	7011.91
567.563	7006.03
567.925	7019.82
568.287	7020.49
568.648	7015.3
569.01	7072.02
569.372	7076.31
569.734	7038.35
570.095	7136.42
570.457	7098.01
570.819	7097.78
571.18	7156.99
571.542	7178.46
571.903	7195.4
572.265	7138.91
572.626	7178.46
572.987	7202.64
573.349	7205.35
573.71	7240.6
574.071	7258.68
574.432	7305.46
574.794	7293.93
575.155	7289.41
575.516	7251.45
575.877	7294.38
576.238	7305.23
576.599	7348.85
576.96	7408.51
577.32	7380.48
577.681	7412.35
578.042	7397.66
578.403	7491.89
578.763	7456.41
579.124	7465
579.485	7527.6
579.845	7536.64
580.206	7516.75
580.566	7534.38
580.927	7522.18
581.287	7561.04
581.648	7548.62
582.008	7613.02
582.368	7566.69
582.728	7674.94
583.089	7602.62
583.449	7607.37
583.809	7597.65
584.169	7660.93
584.529	7667.03
584.889	7720.36
585.249	7677.43
585.609	7663.87
585.969	7649.18
586.329	7689.63
586.688	7737.08
587.048	7810.08
587.408	7696.18
587.768	7713.13
588.127	7687.82
588.487	7765.33
588.846	7800.13
589.206	7794.71
589.565	7768.72
589.925	7809.17
590.284	7806.24
590.643	7799.91
591.003	7861.6
591.362	7848.04
591.721	7829.96
592.08	7897.31
592.44	7900.02
592.799	7862.28
593.158	7911.09
593.517	7883.3
593.876	7990.19
594.235	7860.7
594.593	7894.14
594.952	7927.14
595.311	7880.36
595.67	7909.51
596.029	8050.3
596.387	8016.17
596.746	7948.6
597.104	8008.72
597.463	8023.18
597.822	7975.5
598.18	7965.78
598.538	7943.41
598.897	7970.98
599.255	7953.58
599.613	8105.89
599.972	8040.58
600.33	8022.95
600.688	8036.74
601.046	8025.44
601.404	8065.89
601.762	8027.02
602.12	8142.5
602.478	8108.37
602.836	8057.53
603.194	8059.79
603.552	8072.67
603.91	8020.02
604.268	8112.67
604.625	8053.46
604.983	8130.07
605.341	8008.72
605.698	8136.17
606.056	8049.62
606.413	8045.33
606.771	8106.11
607.128	8139.56
607.485	8086.91
607.843	8149.96
608.2	8146.57
608.557	8157.19
608.914	8188.6
609.272	8160.8
609.629	8171.42
609.986	8215.94
610.343	8149.5
610.7	8261.36
611.057	8224.53
611.414	8298.2
611.771	8228.6
612.127	8250.74
612.484	8266.34
612.841	8268.6
613.198	8267.01
613.554	8207.35
613.911	8305.43
614.267	8289.16
614.624	8288.03
614.98	8330.29
615.337	8315.83
615.693	8333
616.05	8341.36
616.406	8370.29
616.762	8358.09
617.118	8305.66
617.475	8426.33
617.831	8365.77
618.187	8348.82
618.543	8411.19
618.899	8409.84
619.255	8422.04
619.611	8401.47
619.967	8403.51
620.323	8420
620.678	8424.98
621.034	8356.05
621.39	8422.26
621.746	8434.92
622.101	8487.12
622.457	8434.47
622.812	8416.16
623.168	8455.48
623.523	8430.85
623.879	8384.75
624.234	8413.23
624.589	8450.29
624.945	8497.06
625.3	8457.29
625.655	8445.09
626.01	8425.43
626.365	8410.06
626.72	8378.88
627.075	8432.89
627.43	8383.4
627.785	8382.27
628.14	8377.52
628.495	8459.1
628.85	8336.16
629.205	8463.62
629.559	8409.38
629.914	8373.23
630.269	8404.86
630.623	8312.89
630.978	8335.71
631.332	8388.14
631.687	8413.68
632.041	8394.69
632.396	8311.31
632.75	8305.21
633.104	8321.93
633.459	8307.92
633.813	8303.4
634.167	8278.99
634.521	8262.72
634.875	8294.81
635.229	8275.15
635.583	8231.08
635.937	8213
636.291	8220.69
636.645	8212.78
636.999	8193.57
637.352	8193.34
637.706	8141.37
638.06	8193.8
638.413	8192.21
638.767	8099.79
639.121	8185.21
639.474	8096.62
639.828	8088.26
640.181	8122.84
640.534	8157.19
640.888	8121.48
641.241	8071.99
641.594	8055.49
641.947	8074.02
642.301	8067.25
642.654	8040.13
643.007	8046.68
643.36	8067.25
643.713	8054.59
644.066	8092.78
644.419	8047.13
644.771	7970.98
645.124	7938.66
645.477	7890.98
645.83	7854.6
646.182	7860.47
646.535	7806.91
646.888	7816.86
647.24	7720.36
647.593	7842.84
647.945	7838.1
648.298	7718.78
648.65	7723.53
649.002	7720.36
649.355	7791.09
649.707	7726.46
650.059	7780.02
650.411	7831.77
650.763	7889.85
651.115	7973.24
651.467	7899.57
651.819	7959.23
652.171	7925.1
652.523	7862.51
652.875	7962.84
653.227	7940.02
653.578	7959
653.93	7914.93
654.282	7950.64
654.633	7884.43
654.985	7905.89
655.337	7992.45
655.688	7910.87
656.039	7929.62
656.391	7915.39
656.742	7931.88
657.094	7881.94
657.445	7896.63
657.796	7923.97
658.147	7927.59
658.498	7941.37
658.849	7947.7
659.2	7917.19
659.551	7833.81
659.902	7929.17
660.253	7891.88
660.604	7946.12
660.955	7900.47
661.306	7931.88
661.656	7924.42
662.007	7922.39
662.358	7860.7
662.708	7927.59
663.059	7873.58
663.409	7839.68
663.76	7958.55
664.11	7906.12
664.461	7944.99
664.811	7975.27
665.161	7908.83
665.511	7900.24
665.862	7890.53
666.212	7919
666.562	7912
666.912	7957.87
667.262	7989.51
667.612	7946.12
667.962	7958.77
668.312	7937.31
668.662	7963.07
669.011	7973.01
669.361	7917.19
669.711	7926.46
670.06	7856.4
670.41	7927.59
670.76	7923.52
671.109	7912.9
671.459	7952.22
671.808	7866.57
672.157	7924.42
672.507	7927.59
672.856	7813.24
673.205	7879.23
673.554	7903.86
673.904	7823.86
674.253	7877.87
674.602	7870.19
674.951	7799.68
675.3	7652.57
675.649	7856.18
675.998	7695.05
676.346	7784.99
676.695	7874.93
677.044	7826.12
677.393	7796.97
677.741	7824.54
678.09	7819.12
678.438	7752
678.787	7767.14
679.135	7769.17
679.484	7674.04
679.832	7752.45
680.181	7691.89
680.529	7717.42
680.877	7673.13
681.225	7607.37
681.573	7660.7
681.922	7674.94
682.27	7628.16
682.618	7639.46
682.966	7666.58
683.314	7584.09
683.661	7567.6
684.009	7535.73
684.357	7537.77
684.705	7478.33
685.053	7510.65
685.4	7487.15
685.748	7516.98
686.095	7441.05
686.443	7496.41
686.79	7409.41
687.138	7423.42
687.485	7484.89
687.832	7383.87
688.18	7484.21
688.527	7358.34
688.874	7401.95
689.221	7321.73
689.568	7302.07
689.915	7262.75
690.262	7286.25
690.609	7269.3
690.956	7201.51
691.303	7203.09
691.65	7121.06
691.997	7207.83
692.344	7144.56
692.69	7140.94
693.037	7059.81
693.383	7051.45
693.73	7061.17
694.077	7038.8
694.423	7018.69
694.769	7018.69
695.116	7014.39
695.462	6978.69
695.808	6951.57
696.155	6914.73
696.501	6865.02
696.847	6798.35
697.193	6774.85
697.539	6888.52
697.885	6735.53
698.231	6761.74
698.577	6742.31
698.923	6773.72
699.269	6722.2
699.614	6662.08
699.96	6687.17
700.306	6682.42
700.651	6620.28
700.997	6553.61
701.342	6558.81
701.688	6565.14
702.033	6561.52
702.379	6573.05
702.724	6448.76
703.069	6537.12
703.415	6451.24
703.76	6427.29
704.105	6438.14
704.45	6403.11
704.795	6364.92
705.14	6377.8
705.485	6365.6
705.83	6325.37
706.175	6288.08
706.52	6284.02
706.865	6302.55
707.209	6269.55
707.554	6279.04
707.899	6173.51
708.243	6149.78
708.588	6208.54
708.932	6191.36
709.277	6205.15
709.621	6164.7
709.966	6143
710.31	6100.07
710.654	6146.84
710.998	6086.51
711.342	6092.83
711.687	6039.73
712.031	6044.02
712.375	6036.11
712.719	6029.11
713.063	6074.98
713.407	5963.57
713.75	5992.5
714.094	5962.67
714.438	5914.31
714.782	5956.57
715.125	5954.76
715.469	5925.61
715.812	5921.77
716.156	5934.42
716.499	5893.07
716.843	5898.49
717.186	5824.14
717.53	5885.61
717.873	5907.98
718.216	5857.36
718.559	5865.27
718.902	5781.2
719.246	5868.43
719.589	5784.82
719.932	5745.27
720.275	5803.12
720.617	5785.5
720.96	5807.19
721.303	5812.39
721.646	5756.57
721.989	5725.16
722.331	5740.3
722.674	5733.07
723.016	5727.42
723.359	5731.04
723.701	5717.93
724.044	5722.45
724.386	5668.89
724.729	5715.22
725.071	5713.18
725.413	5694.43
725.755	5693.3
726.097	5665.95
726.439	5670.7
726.782	5648.1
727.124	5664.6
727.465	5621.89
727.807	5706.86
728.149	5707.31
728.491	5662.34
728.833	5665.73
729.175	5622.11
729.516	5672.96
729.858	5595.67
730.199	5636.12
730.541	5659.17
730.882	5597.03
731.224	5634.09
731.565	5594.54
731.906	5627.76
732.248	5617.59
732.589	5601.1
732.93	5609.23
733.271	5610.59
733.612	5609.23
733.953	5647.2
734.294	5628.89
734.635	5580.08
734.976	5598.16
735.317	5651.94
735.658	5600.19
735.999	5662.11
736.339	5630.7
736.68	5671.6
737.021	5658.5
737.361	5612.17
737.702	5590.93
738.042	5668.89
738.383	5629.34
738.723	5667.99
739.063	5664.14
739.404	5701.66
739.744	5667.53
740.084	5688.78
740.424	5641.55
740.764	5671.6
741.104	5700.75
741.444	5703.01
741.784	5696.01
742.124	5724.03
742.464	5754.76
742.804	5765.39
743.143	5744.37
743.483	5786.4
743.823	5745.05
744.162	5766.74
744.502	5789.79
744.841	5818.27
745.181	5865.95
745.52	5872.05
745.86	5860.75
746.199	5890.35
746.538	5960.41
746.877	5986.4
747.216	6008.09
747.556	5979.84
747.895	6053.74
748.234	6128.31
748.573	6114.08
748.911	6132.38
749.25	6233.17
749.589	6219.38
749.928	6252.38
750.267	6352.26
750.605	6409.89
750.944	6406.27
751.283	6395.43
751.621	6493.73
751.96	6580.96
752.298	6620.5
752.636	6685.36
752.975	6703.67
753.313	6787.28
753.651	6907.95
753.989	7000.38
754.327	7043.54
754.666	7038.8
755.004	7167.83
755.342	7335.97
755.679	7384.33
756.017	7395.17
756.355	7498.67
756.693	7636.07
757.031	7726.01
757.368	7787.7
757.706	7962.16
758.044	7956.29
758.381	8110.41
758.719	8247.35
759.056	8379.78
759.394	8476.05
759.731	8554.01
760.068	8615.03
760.405	8731.41
760.743	8855.47
761.08	9045.52
761.417	9076.71
761.754	9195.8
762.091	9308.57
762.428	9421.11
762.765	9429.92
763.102	9667.43
763.438	9687.99
763.775	9793.3
764.112	10021.09
764.449	10107.87
764.785	10189.9
765.122	10310.58
765.458	10335.43
765.795	10443.23
766.131	10619.49
766.467	10637.57
766.804	10749.21
767.14	10900.84
767.476	10946.49
767.812	11038.92
768.148	11259.93
768.485	11129.99
768.821	11337.22
769.157	11381.06
769.492	11405.01
769.828	11616.53
