Data from hue_100_FLMS001491_00008.txt Node
Date: Tue Feb 07 17:02:34 GMT 2017
User: dcchb
Spectrometer: FLMS00149
Trigger mode: 0
Integration Time (sec): 2.000000E-2
Scans to average: 10
Electric dark correction enabled: true
Nonlinearity correction enabled: false
Boxcar width: 0
XAxis mode: Wavelengths
Number of Pixels in Spectrum: 2048
>>>>>Begin Spectral Data<<<<<
341.393	-15.49
341.776	-15.49
342.16	-15.49
342.543	-55.72
342.927	-74.25
343.31	-71.54
343.693	-78.32
344.077	-73.35
344.46	-75.15
344.843	-66.11
345.226	-31.76
345.61	-25.21
345.993	-13.46
346.376	11.62
346.759	1
347.142	31.51
347.525	37.39
347.908	49.59
348.291	78.97
348.674	102.7
349.057	122.13
349.44	126.2
349.823	142.69
350.206	168.23
350.588	186.08
350.971	195.57
351.354	233.09
351.737	229.25
352.119	260.21
352.502	260.66
352.884	289.13
353.267	284.16
353.65	309.92
354.032	317.38
354.414	292.07
354.797	307.66
355.179	320.77
355.562	321.45
355.944	316.7
356.326	330.94
356.709	339.75
357.091	350.82
357.473	336.81
357.855	347.21
358.238	324.16
358.62	335.68
359.002	328.23
359.384	329.36
359.766	347.66
360.148	320.54
360.53	369.13
360.912	342.46
361.294	337.72
361.676	305.85
362.057	326.64
362.439	329.58
362.821	333.2
363.203	331.62
363.584	325.97
363.966	311.73
364.348	329.36
364.729	323.71
365.111	329.58
365.493	323.25
365.874	329.36
366.256	335.01
366.637	298.17
367.019	320.09
367.4	306.31
367.781	306.08
368.163	320.54
368.544	312.63
368.925	306.31
369.306	323.71
369.688	321.67
370.069	304.95
370.45	307.66
370.831	309.92
371.212	302.01
371.593	346.08
371.974	325.74
372.355	309.24
372.736	322.12
373.117	320.77
373.498	319.19
373.879	311.5
374.26	311.96
374.641	306.76
375.021	326.42
375.402	319.19
375.783	326.87
376.163	319.19
376.544	339.75
376.925	321.67
377.305	312.41
377.686	331.62
378.066	332.07
378.447	347.89
378.827	338.62
379.208	354.21
379.588	330.94
379.968	328.9
380.349	342.91
380.729	353.76
381.109	343.37
381.489	345.63
381.87	367.32
382.25	348.11
382.63	343.14
383.01	370.71
383.39	351.95
383.77	340.2
384.15	343.14
384.53	351.5
384.91	368.9
385.29	347.66
385.67	363.71
386.049	358.28
386.429	364.61
386.809	383.37
387.189	372.52
387.568	368.22
387.948	379.75
388.328	363.48
388.707	388.11
389.087	385.63
389.466	376.36
389.846	359.19
390.225	366.42
390.605	382.46
390.984	391.05
391.363	381.56
391.743	394.66
392.122	392.4
392.501	401.67
392.881	387.21
393.26	373.42
393.639	393.99
394.018	372.74
394.397	382.46
394.776	392.4
395.155	397.83
395.534	400.54
395.913	425.17
396.292	407.09
396.671	373.65
397.05	414.78
397.429	402.57
397.808	407.32
398.186	450.93
398.565	410.94
398.944	398.28
399.323	426.75
399.701	417.72
400.08	412.07
400.458	402.57
400.837	398.73
401.215	430.82
401.594	441.44
401.972	436.47
402.351	439.18
402.729	441.44
403.107	429.47
403.486	424.95
403.864	439.18
404.242	432.18
404.62	455.68
404.999	471.5
405.377	446.41
405.755	456.36
406.133	469.69
406.511	470.37
406.889	458.39
407.267	471.72
407.645	467.88
408.023	462.23
408.401	487.32
408.779	461.1
409.156	505.62
409.534	480.54
409.912	479.41
410.29	506.75
410.667	488.22
411.045	482.12
411.422	502.68
411.8	504.49
412.178	495.68
412.555	538.16
412.933	516.47
413.31	529.8
413.687	502.68
414.065	519.86
414.442	522.8
414.819	530.93
415.197	551.95
415.574	542.46
415.951	542.91
416.328	534.32
416.705	546.98
417.082	551.27
417.46	556.24
417.837	555.34
418.214	547.88
418.591	573.19
418.967	574.32
419.344	570.25
419.721	568.9
420.098	591.95
420.475	594.21
420.852	592.63
421.228	584.04
421.605	601.21
421.982	601.21
422.358	624.26
422.735	603.47
423.111	650.48
423.488	632.17
423.864	605.28
424.241	631.04
424.617	617.71
424.994	630.82
425.37	620.2
425.746	652.29
426.123	634.66
426.499	660.42
426.875	659.06
427.251	650.7
427.627	665.39
428.003	699.29
428.379	688.67
428.756	683.7
429.132	698.84
429.507	663.13
429.883	705.17
430.259	715.33
430.635	737.48
431.011	719.4
431.387	734.77
431.763	751.27
432.138	745.62
432.514	757.37
432.89	759.63
433.265	755.79
433.641	767.76
434.016	782
434.392	779.74
434.767	840.53
435.143	793.98
435.518	784.26
435.894	823.81
436.269	848.21
436.644	824.26
437.02	844.37
437.395	844.6
437.77	865.61
438.145	865.61
438.52	857.48
438.895	867.42
439.271	864.71
439.646	891.15
440.021	924.82
440.395	898.83
440.77	885.27
441.145	914.43
441.52	913.97
441.895	927.76
442.27	942.9
442.645	951.26
443.019	950.36
443.394	949.23
443.769	938.61
444.143	969.34
444.518	972.95
444.892	972.73
445.267	980.86
445.641	970.24
446.016	985.84
446.39	1001.88
446.764	1008.43
447.139	998.72
447.513	1028.55
447.887	1013.41
448.262	1020.86
448.636	1036.46
449.01	1033.07
449.384	1031.26
449.758	1059.51
450.132	1059.28
450.506	1086.85
450.88	1112.39
451.254	1102.22
451.628	1120.3
452.002	1128.88
452.376	1123.91
452.75	1112.39
453.123	1130.46
453.497	1159.84
453.871	1171.82
454.244	1179.5
454.618	1227.64
454.992	1221.76
455.365	1225.83
455.739	1232.38
456.112	1268.99
456.486	1288.88
456.859	1270.57
457.232	1317.13
457.606	1280.74
457.979	1327.3
458.352	1369.33
458.725	1356.22
459.099	1365.26
459.472	1371.59
459.845	1414.98
460.218	1412.49
460.591	1426.28
460.964	1409.33
461.337	1460.85
461.71	1476.67
462.083	1517.8
462.456	1531.36
462.829	1523.45
463.201	1547.63
463.574	1527.74
463.947	1600.96
464.32	1610.45
464.692	1629.43
465.065	1681.41
465.438	1686.83
465.81	1716.89
466.183	1729.32
466.555	1787.62
466.928	1777
467.3	1779.26
467.672	1835.76
468.045	1865.13
468.417	1888.41
468.789	1916.66
469.161	1926.38
469.534	1962.31
469.906	1991.46
470.278	2024.68
470.65	2087.05
471.022	2135.64
471.394	2182.87
471.766	2208.63
472.138	2256.76
472.51	2285.91
472.882	2367.72
473.253	2398.91
473.625	2434.16
473.997	2464.21
474.369	2529.52
474.74	2527.26
475.112	2609.97
475.484	2699.24
475.855	2774.26
476.227	2783.53
476.598	2897.65
476.97	2951.21
477.341	3024.65
477.713	3049.96
478.084	3132.22
478.455	3208.6
478.827	3324.08
479.198	3389.16
479.569	3456.51
479.94	3571.76
480.311	3607.46
480.682	3728.14
481.053	3880.45
481.424	4005.42
481.795	4059.88
482.166	4159.99
482.537	4224.85
482.908	4334.67
483.279	4470.04
483.65	4567.66
484.021	4754.78
484.391	4782.12
484.762	4902.79
485.133	5025.05
485.503	5110.92
485.874	5332.16
486.244	5392.5
486.615	5514.76
486.985	5681.76
487.356	5834.07
487.726	5936.21
488.097	6073.39
488.467	6205.36
488.837	6382.98
489.207	6527.61
489.578	6677.44
489.948	6820.03
490.318	7015.06
490.688	7112.23
491.058	7237.65
491.428	7420.24
491.798	7500.01
492.168	7749.05
492.538	7929.83
492.908	8025.65
493.278	8167.79
493.648	8294.12
494.017	8506.77
494.387	8626.99
494.757	8769.59
495.126	8924.16
495.496	8996.7
495.866	9080.54
496.235	9293.87
496.605	9406.86
496.974	9554.65
497.344	9740.18
497.713	9858.37
498.082	9956.22
498.452	10091.58
498.821	10190.34
499.19	10269.43
499.559	10354.63
499.928	10529.77
500.298	10674.17
500.667	10855.86
501.036	10830.77
501.405	10981.96
501.774	11063.54
502.143	11170.88
502.512	11324.77
502.88	11389.86
503.249	11375.17
503.618	11658.78
503.987	11619
504.356	11807.47
504.724	11911.65
505.093	11924.53
505.462	12008.37
505.83	12235.48
506.199	12322.03
506.567	12450.39
506.936	12438.64
507.304	12649.94
507.672	12719.54
508.041	12719.54
508.409	12929.93
508.777	13009.7
509.145	13058.51
509.514	13023.71
509.882	13216.47
510.25	13212.41
510.618	13305.51
510.986	13361.33
511.354	13495.56
511.722	13473.87
512.09	13641.55
512.458	13630.93
512.826	13747.08
513.193	13790.7
513.561	13832.96
513.929	13926.96
514.297	14061.65
514.664	14123.8
515.032	14141.2
515.4	14265.94
515.767	14332.83
516.135	14358.14
516.502	14306.62
516.869	14474.97
517.237	14587.96
517.604	14510.9
517.972	14632.93
518.339	14620.73
518.706	14631.58
519.073	14707.96
519.44	14825.02
519.808	14874.28
520.175	14841.97
520.542	15028.4
520.909	15049.65
521.276	15091
521.643	15189.98
522.009	15227.04
522.376	15262.97
522.743	15307.27
523.11	15316.53
523.477	15525.79
523.843	15526.92
524.21	15613.02
524.577	15666.35
524.943	15708.61
525.31	15664.32
525.676	15831.32
526.043	15846.91
526.409	15848.27
526.776	16012.11
527.142	15961.49
527.508	15928.49
527.874	15984.09
528.241	15983.41
528.607	16121.93
528.973	16153.57
529.339	16140.01
529.705	16139.34
530.071	16205.32
530.437	16218.88
530.803	16227.02
531.169	16297.3
531.535	16217.98
531.901	16154.93
532.267	16328.94
532.632	16281.48
532.998	16316.73
533.364	16339.1
533.73	16293.23
534.095	16461.81
534.461	16327.13
534.826	16371.42
535.192	16314.7
535.557	16337.3
535.923	16340.69
536.288	16387.92
536.653	16388.59
537.019	16299.56
537.384	16217.07
537.749	16256.39
538.114	16390.63
538.479	16133.01
538.845	16169.39
539.21	16171.43
539.575	16126.91
539.94	16112.22
540.305	16220.01
540.67	16095.95
541.034	16119.68
541.399	16155.61
541.764	16118.32
542.129	16075.38
542.494	16004.2
542.858	16087.13
543.223	15995.16
543.587	16034.48
543.952	15937.08
544.316	15929.85
544.681	15832
545.045	15856.63
545.41	15917.19
545.774	15855.95
546.138	15843.3
546.503	15922.17
546.867	15726.69
547.231	15771.66
547.595	15727.14
547.959	15729.4
548.324	15678.33
548.688	15631.33
549.052	15643.08
549.416	15605.56
549.779	15656.64
550.143	15637.88
550.507	15641.5
550.871	15676.75
551.235	15527.37
551.599	15571.89
551.962	15450.77
552.326	15459.58
552.689	15466.58
553.053	15452.57
553.417	15410.54
553.78	15452.12
554.143	15330.32
554.507	15409.19
554.87	15381.62
555.234	15595.62
555.597	15339.36
555.96	15366.7
556.323	15424.78
556.686	15373.93
557.05	15471.1
557.413	15464.33
557.776	15341.39
558.139	15403.08
558.502	15330.77
558.865	15429.75
559.228	15445.57
559.59	15447.6
559.953	15375.74
560.316	15485.57
560.679	15380.71
561.041	15526.7
561.404	15503.42
561.767	15577.32
562.129	15450.99
562.492	15578.22
562.854	15589.97
563.217	15539.35
563.579	15644.89
563.941	15626.58
564.304	15740.48
564.666	15667.48
565.028	15772.57
565.39	15636.75
565.753	15744.54
566.115	15726.69
566.477	15780.02
566.839	15807.59
567.201	15732.79
567.563	15852.34
567.925	15981.15
568.287	15801.72
568.648	15914.03
569.01	15882.85
569.372	15960.36
569.734	15980.92
570.095	15976.18
570.457	16057.08
570.819	16118.77
571.18	16061.6
571.542	16113.12
571.903	16001.26
572.265	16100.69
572.626	16112.44
572.987	16155.83
573.349	16146.57
573.71	16131.65
574.071	16169.17
574.432	16172.1
574.794	16276.73
575.155	16240.12
575.516	16146.34
575.877	16171.65
576.238	16226.11
576.599	16333.23
576.96	16351.76
577.32	16299.56
577.681	16310.4
578.042	16330.52
578.403	16347.47
578.763	16360.57
579.124	16364.19
579.485	16383.62
579.845	16375.94
580.206	16347.69
580.566	16305.66
580.927	16362.83
581.287	16428.59
581.648	16356.28
582.008	16308.37
582.368	16294.36
582.728	16375.94
583.089	16377.3
583.449	16287.35
583.809	16406
584.169	16445.09
584.529	16314.25
584.889	16355.38
585.249	16293
585.609	16254.59
585.969	16347.47
586.329	16243.97
586.688	16356.5
587.048	16313.79
587.408	16159.45
587.768	16322.16
588.127	16271.31
588.487	16166.91
588.846	16266.56
589.206	16247.13
589.565	16142.27
589.925	16274.93
590.284	16236.28
590.643	16231.99
591.003	16208.49
591.362	16208.94
591.721	16140.69
592.08	16141.37
592.44	16192.22
592.799	16161.26
593.158	16128.49
593.517	16127.81
593.876	16224.31
594.235	16113.12
594.593	16161.93
594.952	16187.7
595.311	16111.09
595.67	16147.7
596.029	16242.61
596.387	16201.25
596.746	16177.98
597.104	16107.25
597.463	16119.45
597.822	16174.59
598.18	16013.92
598.538	16123.97
598.897	16208.26
599.255	15980.24
599.613	16255.72
599.972	16140.24
600.33	16199.67
600.688	16144.76
601.046	16260.91
601.404	16178.2
601.762	16133.46
602.12	16187.02
602.478	16099.56
602.836	16163.97
603.194	16120.35
603.552	16132.1
603.91	16066.57
604.268	16165.55
604.625	16059.11
604.983	16179.56
605.341	16134.59
605.698	16124.87
606.056	16108.15
606.413	16202.38
606.771	16272.67
607.128	16164.65
607.485	16212.55
607.843	16198.54
608.2	16079.68
608.557	16281.7
608.914	16255.26
609.272	16218.43
609.629	16286
609.986	16321.48
610.343	16300.46
610.7	16342.72
611.057	16289.84
611.414	16345.66
611.771	16310.63
612.127	16455.94
612.484	16421.81
612.841	16418.42
613.198	16422.27
613.554	16350.86
613.911	16472.66
614.267	16367.8
614.624	16429.72
614.98	16417.97
615.337	16507.24
615.693	16583.39
616.05	16512.89
616.406	16571.19
616.762	16475.6
617.118	16577.06
617.475	16583.62
617.831	16503.17
618.187	16592.2
618.543	16547.46
618.899	16621.36
619.255	16652.99
619.611	16585.65
619.967	16645.08
620.323	16687.57
620.678	16641.02
621.034	16660.9
621.39	16658.87
621.746	16581.13
622.101	16793.33
622.457	16649.15
622.812	16685.99
623.168	16708.81
623.523	16700.45
623.879	16767.34
624.234	16653.22
624.589	16677.17
624.945	16620.9
625.3	16664.07
625.655	16571.64
626.01	16595.37
626.365	16610.96
626.72	16607.57
627.075	16551.98
627.43	16580.45
627.785	16570.06
628.14	16571.87
628.495	16631.07
628.85	16630.4
629.205	16585.88
629.559	16625.65
629.914	16502.94
630.269	16551.53
630.623	16558.99
630.978	16542.71
631.332	16523.51
631.687	16583.39
632.041	16475.82
632.396	16611.19
632.75	16478.99
633.104	16487.57
633.459	16371.19
633.813	16452.55
634.167	16420.91
634.521	16403.74
634.875	16430.18
635.229	16326.9
635.583	16235.83
635.937	16260.24
636.291	16293.23
636.645	16290.29
636.999	16269.28
637.352	16268.37
637.706	16215.49
638.06	16140.92
638.413	16172.78
638.767	16099.79
639.121	16145.89
639.474	16044.2
639.828	16029.73
640.181	16007.59
640.534	16090.75
640.888	15995.38
641.241	15913.13
641.594	16047.59
641.947	16072.44
642.301	15862.05
642.654	15989.28
643.007	15953.8
643.36	15969.85
643.713	15951.54
644.066	15979.34
644.419	15831.55
644.771	15798.33
645.124	15599.46
645.477	15660.25
645.83	15579.58
646.182	15480.82
646.535	15380.26
646.888	15450.77
647.24	15384.55
647.593	15378
647.945	15338.68
648.298	15280.38
648.65	15336.87
649.002	15272.24
649.355	15460.48
649.707	15371.45
650.059	15496.87
650.411	15591.78
650.763	15646.69
651.115	15743.87
651.467	15666.13
651.819	15705
652.171	15732.79
652.523	15603.98
652.875	15667.48
653.227	15557.88
653.578	15709.74
653.93	15681.95
654.282	15543.19
654.633	15567.83
654.985	15694.38
655.337	15613.93
655.688	15674.94
656.039	15746.58
656.391	15645.11
656.742	15573.7
657.094	15600.14
657.445	15754.71
657.796	15706.58
658.147	15704.09
658.498	15665
658.849	15601.5
659.2	15656.18
659.551	15617.54
659.902	15693.7
660.253	15645.34
660.604	15694.83
660.955	15586.81
661.306	15637.88
661.656	15707.03
662.007	15682.4
662.358	15632
662.708	15633.59
663.059	15748.84
663.409	15533.48
663.76	15730.31
664.11	15709.29
664.461	15809.17
664.811	15613.47
665.161	15639.91
665.511	15583.64
665.862	15766.69
666.212	15780.93
666.562	15705.9
666.912	15708.84
667.262	15653.25
667.612	15726.47
667.962	15786.58
668.312	15698.44
668.662	15714.49
669.011	15633.59
669.361	15595.4
669.711	15585.23
670.06	15626.58
670.41	15565.79
670.76	15638.78
671.109	15586.81
671.459	15655.51
671.808	15575.28
672.157	15555.62
672.507	15520.14
672.856	15559.92
673.205	15527.6
673.554	15547.03
673.904	15601.72
674.253	15640.82
674.602	15451.22
674.951	15303.65
675.3	15176.65
675.649	15410.99
675.998	15356.76
676.346	15447.38
676.695	15445.57
677.044	15281.28
677.393	15344.55
677.741	15423.42
678.09	15396.3
678.438	15353.37
678.787	15398.34
679.135	15371.9
679.484	15206.48
679.832	15304.33
680.181	15215.97
680.529	15253.26
680.877	15171.45
681.225	15156.31
681.573	15271.11
681.922	15173.03
682.27	15144.79
682.618	14998.12
682.966	15036.31
683.314	15031.34
683.661	14923.1
684.009	14931.91
684.357	14865.7
684.705	14910.67
685.053	14845.81
685.4	14830.22
685.748	14683.55
686.095	14753.61
686.443	14687.17
686.79	14642.65
687.138	14673.84
687.485	14716.32
687.832	14612.82
688.18	14660.05
688.527	14553.16
688.874	14535.08
689.221	14523.11
689.568	14385.71
689.915	14384.81
690.262	14356.11
690.609	14342.32
690.956	14319.5
691.303	14258.93
691.65	14271.59
691.997	14161.08
692.344	14144.36
692.69	14032.72
693.037	14008.32
693.383	13879.51
693.73	13990.01
694.077	13903.01
694.423	13886.74
694.769	13777.82
695.116	13747.08
695.462	13698.95
695.808	13618.27
696.155	13692.62
696.501	13529.91
696.847	13626.63
697.193	13537.82
697.539	13530.14
697.885	13399.52
698.231	13334.21
698.577	13390.48
698.923	13278.62
699.269	13300.09
699.614	13187.55
699.96	13196.14
700.306	13050.6
700.651	13098.74
700.997	12982.13
701.342	12960.21
701.688	12959.08
702.033	12953.66
702.379	12879.31
702.724	12786.88
703.069	12826.43
703.415	12748.46
703.76	12763.61
704.105	12731.74
704.45	12699.43
704.795	12551.63
705.14	12535.36
705.485	12556.6
705.83	12421.47
706.175	12496.72
706.52	12468.47
706.865	12308.02
707.209	12349.83
707.554	12246.56
707.899	12343.05
708.243	12141.7
708.588	12174.69
708.932	12059.67
709.277	12050.63
709.621	12087.69
709.966	11984.19
710.31	11986
710.654	11876.4
710.998	11956.39
711.342	11984.42
711.687	11885.89
712.031	11812.67
712.375	11720.69
712.719	11762.05
713.063	11741.03
713.407	11837.3
713.75	11786.46
714.094	11730.64
714.438	11693.12
714.782	11714.37
715.125	11588.72
715.469	11669.85
715.812	11554.6
716.156	11506.01
716.499	11505.56
716.843	11504.88
717.186	11438.44
717.53	11488.84
717.873	11478.89
718.216	11475.96
718.559	11454.26
718.902	11367.94
719.246	11396.64
719.589	11372.23
719.932	11357.09
720.275	11289.07
720.617	11306.02
720.96	11249.29
721.303	11266.47
721.646	11276.41
721.989	11245.68
722.331	11234.15
722.674	11221.27
723.016	11213.82
723.359	11197.54
723.701	11279.58
724.044	11117.55
724.386	11120.03
724.729	11206.58
725.071	11124.55
725.413	11094.95
725.755	11175.17
726.097	11099.92
726.439	11068.73
726.782	10968.4
727.124	11082.29
727.465	11098.34
727.807	11097.43
728.149	11037.1
728.491	10997.78
728.833	11027.38
729.175	10976.08
729.516	10967.27
729.858	10980.6
730.199	10987.61
730.541	10898.8
730.882	10896.76
731.224	10971.34
731.565	10951.45
731.906	10895.18
732.248	10892.47
732.589	10857.21
732.93	10903.32
733.271	10896.99
733.612	10910.55
733.953	10866.03
734.294	10821.96
734.635	10842.07
734.976	10821.51
735.317	10848.63
735.658	10813.15
735.999	10863.09
736.339	10863.77
736.68	10893.6
737.021	10831.45
737.361	10816.09
737.702	10896.99
738.042	10859.02
738.383	10907.83
738.723	10883.65
739.063	10864.45
739.404	10961.62
739.744	10891.56
740.084	10880.26
740.424	10948.74
740.764	10852.02
741.104	10965.91
741.444	10874.84
741.784	10908.06
742.124	11010.43
742.464	11056.98
742.804	10988.06
743.143	11001.17
743.483	11100.15
743.823	11002.75
744.162	11022.86
744.502	11148.05
744.841	11062.86
745.181	11177.66
745.52	11217.21
745.86	11262.85
746.199	11237.32
746.538	11267.37
746.877	11343.76
747.216	11456.97
747.556	11420.14
747.895	11468.72
748.234	11432.11
748.573	11524.77
748.911	11587.14
749.25	11698.55
749.589	11725.44
749.928	11826.45
750.267	11904.64
750.605	11960.01
750.944	11989.39
751.283	12042.27
751.621	12101.7
751.96	12195.71
752.298	12251.3
752.636	12456.27
752.975	12450.62
753.313	12562.03
753.651	12700.1
753.989	12813.55
754.327	12849.7
754.666	12988.46
755.004	13124.5
755.342	13252.63
755.679	13288.11
756.017	13434.32
