Data from hue_80_FLMS001491_5.txt Node
Date: Mon Feb 06 15:22:22 GMT 2017
User: dcchb
Spectrometer: FLMS00149
Trigger mode: 0
Integration Time (sec): 2.000000E-2
Scans to average: 10
Electric dark correction enabled: true
Nonlinearity correction enabled: false
Boxcar width: 0
XAxis mode: Wavelengths
Number of Pixels in Spectrum: 2048
>>>>>Begin Spectral Data<<<<<
341.393	-6.12
341.776	-6.12
342.16	-6.12
342.543	-66.45
342.927	-69.39
343.31	-84.76
343.693	-72.55
344.077	-67.36
344.46	-58.09
344.843	-29.84
345.226	-36.4
345.61	-23.29
345.993	-35.27
346.376	-13.8
346.759	17.39
347.142	37.5
347.525	42.47
347.908	24.17
348.291	81.11
348.674	98.51
349.057	120.21
349.44	136.03
349.823	154.78
350.206	143.26
350.588	201.34
350.971	213.31
351.354	232.75
351.737	246.53
352.119	243.14
352.502	284.72
352.884	286.31
353.267	286.98
353.65	313.65
354.032	292.63
354.414	300.77
354.797	314.33
355.179	339.19
355.562	330.6
355.944	333.99
356.326	329.24
356.709	328.11
357.091	362.24
357.473	326.76
357.855	337.15
358.238	354.33
358.62	331.95
359.002	311.39
359.384	336.7
359.766	344.16
360.148	348.23
360.53	326.53
360.912	323.37
361.294	345.51
361.676	338.28
362.057	336.02
362.439	325.18
362.821	326.3
363.203	316.81
363.584	326.98
363.966	320.2
364.348	313.65
364.729	337.38
365.111	319.98
365.493	309.13
365.874	324.95
366.256	322.46
366.637	316.81
367.019	316.36
367.4	303.03
367.781	326.08
368.163	315.23
368.544	331.28
368.925	311.84
369.306	332.86
369.688	293.99
370.069	307.1
370.45	346.87
370.831	305.74
371.212	296.02
371.593	316.36
371.974	316.14
372.355	326.3
372.736	324.27
373.117	333.31
373.498	322.24
373.879	332.41
374.26	313.2
374.641	326.76
375.021	328.79
375.402	319.3
375.783	335.12
376.163	331.28
376.544	319.53
376.925	333.99
377.305	337.6
377.686	343.25
378.066	318.17
378.447	333.99
378.827	312.52
379.208	326.08
379.588	325.4
379.968	320.88
380.349	346.42
380.729	313.42
381.109	348
381.489	335.12
381.87	322.92
382.25	341.45
382.63	325.85
383.01	351.39
383.39	331.5
383.77	325.4
384.15	340.32
384.53	359.3
384.91	349.81
385.29	369.24
385.67	358.17
386.049	342.58
386.429	349.58
386.809	354.1
387.189	356.36
387.568	380.09
387.948	350.03
388.328	362.01
388.707	358.62
389.087	374.21
389.466	348.68
389.846	365.4
390.225	366.76
390.605	365.63
390.984	356.13
391.363	358.62
391.743	382.12
392.122	372.18
392.501	390.48
392.881	389.13
393.26	377.6
393.639	376.7
394.018	386.42
394.397	398.85
394.776	380.09
395.155	350.03
395.534	380.99
395.913	399.98
396.292	374.89
396.671	392.74
397.05	370.15
397.429	381.44
397.808	378.28
398.186	372.63
398.565	384.61
398.944	382.35
399.323	410.37
399.701	391.61
400.08	385.96
400.458	395
400.837	411.73
401.215	413.53
401.594	411.95
401.972	374.21
402.351	388.9
402.729	409.24
403.107	408.11
403.486	421.67
403.864	411.27
404.242	400.2
404.62	421.44
404.999	390.71
405.377	416.92
405.755	413.08
406.133	435.91
406.511	430.26
406.889	417.83
407.267	431.39
407.645	424.83
408.023	422.57
408.401	443.14
408.779	418.28
409.156	446.08
409.534	439.07
409.912	446.08
410.29	421.9
410.667	454.21
411.045	438.62
411.422	473.42
411.8	456.02
412.178	460.99
412.555	459.18
412.933	442.46
413.31	459.63
413.687	471.61
414.065	479.97
414.442	487.88
414.819	483.14
415.197	462.35
415.574	500.09
415.951	495.57
416.328	480.88
416.705	503.7
417.082	489.92
417.46	514.1
417.837	515.45
418.214	496.24
418.591	500.31
418.967	505.74
419.344	509.8
419.721	505.06
420.098	502.35
420.475	516.13
420.852	510.25
421.228	537.15
421.605	536.69
421.982	539.63
422.358	539.86
422.735	547.32
423.111	515.68
423.488	543.47
423.864	537.15
424.241	550.93
424.617	572.4
424.994	564.26
425.37	578.5
425.746	552.29
426.123	565.17
426.499	553.87
426.875	579.41
427.251	582.12
427.627	572.4
428.003	566.3
428.379	602.91
428.756	573.76
429.132	591.16
429.507	603.13
429.883	602
430.259	630.25
430.635	652.4
431.011	614.66
431.387	637.03
431.763	639.29
432.138	625.51
432.514	643.36
432.89	653.3
433.265	633.87
433.641	665.05
434.016	663.02
434.392	660.53
434.767	672.51
435.143	688.56
435.518	694.2
435.894	700.31
436.269	707.54
436.644	708.89
437.02	707.54
437.395	716.58
437.77	718.16
438.145	733.07
438.52	729.46
438.895	752.28
439.271	740.08
439.646	761.32
440.021	746.86
440.395	748.21
440.77	753.19
441.145	743.7
441.52	757.93
441.895	751.83
442.27	781.89
442.645	758.61
443.019	776.91
443.394	800.87
443.769	779.17
444.143	794.54
444.518	808.78
444.892	791.83
445.267	805.16
445.641	810.13
446.016	830.25
446.39	819.4
446.764	854.65
447.139	829.79
447.513	830.25
447.887	802.68
448.262	864.37
448.636	842.22
449.01	849
449.384	855.78
449.758	879.51
450.132	861.21
450.506	892.62
450.88	913.41
451.254	886.74
451.628	919.51
452.002	922.45
452.376	917.25
452.75	918.83
453.123	945.72
453.497	922.9
453.871	954.76
454.244	952.5
454.618	972.62
454.992	960.41
455.365	966.06
455.739	980.07
456.112	1018.04
456.486	1003.8
456.859	1007.87
457.232	1028.21
457.606	1052.84
457.979	1061.65
458.352	1066.4
458.725	1077.92
459.099	1097.58
459.472	1137.58
459.845	1124.93
460.218	1117.02
460.591	1147.98
460.964	1146.62
461.337	1176
461.71	1183.68
462.083	1218.48
462.456	1198.82
462.829	1212.84
463.201	1238.37
463.574	1232.27
463.947	1242.44
464.32	1298.93
464.692	1297.13
465.065	1318.37
465.438	1348.2
465.81	1362.66
466.183	1394.53
466.555	1415.54
466.928	1420.97
467.3	1442.66
467.672	1463.9
468.045	1480.4
468.417	1471.81
468.789	1497.12
469.161	1536.44
469.534	1560.17
469.906	1601.07
470.278	1616.44
470.65	1635.2
471.022	1644.24
471.394	1721.75
471.766	1741.18
472.138	1776.21
472.51	1785.93
472.882	1852.59
473.253	1868.64
473.625	1913.83
473.997	1977.11
474.369	1974.62
474.74	1989.76
475.112	2066.15
475.484	2108.86
475.855	2182.3
476.227	2197.89
476.598	2288.29
476.97	2360.6
477.341	2397.89
477.713	2458.23
478.084	2486.02
478.455	2584.55
478.827	2574.16
479.198	2734.38
479.569	2749.52
479.94	2850.98
480.311	2900.93
480.682	3049.62
481.053	3115.38
481.424	3181.82
481.795	3262.5
482.166	3367.13
482.537	3445.32
482.908	3540.01
483.279	3635.37
483.65	3785.42
484.021	3856.38
484.391	3923.5
484.762	4039.43
485.133	4122.82
485.503	4261.12
485.874	4330.04
486.244	4419.3
486.615	4545.18
486.985	4671.5
487.356	4869.01
487.726	4937.94
488.097	5123.02
488.467	5172.73
488.837	5366.4
489.207	5516.45
489.578	5592.16
489.948	5733.39
490.318	5924.58
490.688	6007.29
491.058	6113.5
491.428	6251.12
491.798	6440.04
492.168	6596.65
492.538	6765.01
492.908	6885
493.278	6941.27
493.648	7101.95
494.017	7309.4
494.387	7383.52
494.757	7580.8
495.126	7600.24
495.496	7836.84
495.866	7933.56
496.235	8066.44
496.605	8166.78
496.974	8353.44
497.344	8480.21
497.713	8644.96
498.082	8740.32
498.452	8909.36
498.821	8994.1
499.19	9132.63
499.559	9259.4
499.928	9432.05
500.298	9449.91
500.667	9690.35
501.036	9637.7
501.405	9884.92
501.774	9900.74
502.143	10067.74
502.512	10145.71
502.88	10365.36
503.249	10348.64
503.618	10525.13
503.987	10654.62
504.356	10750.89
504.724	10780.04
505.093	10801.74
505.462	10978.68
505.83	11040.37
506.199	11186.36
506.567	11414.83
506.936	11388.16
507.304	11666.35
507.672	11742.95
508.041	11721.94
508.409	11858.88
508.777	11965.32
509.145	12148.59
509.514	12121.25
509.882	12279.89
510.25	12382.94
510.618	12457.29
510.986	12437.85
511.354	12599.88
511.722	12817.73
512.09	12857.73
512.458	12943.6
512.826	12967.55
513.193	13052.3
513.561	13099.98
513.929	13232.86
514.297	13339.52
514.664	13424.94
515.032	13476.69
515.4	13616.13
515.767	13612.51
516.135	13657.48
516.502	13692.06
516.869	13826.74
517.237	14003.01
517.604	13875.33
517.972	14136.34
518.339	14161.87
518.706	14179.5
519.073	14259.05
519.44	14293.62
519.808	14346.28
520.175	14467.18
520.542	14588.98
520.909	14663.1
521.276	14693.38
521.643	14761.41
522.009	14802.99
522.376	14930.67
522.743	15006.82
523.11	15158.01
523.477	15205.24
523.843	15255.4
524.21	15388.28
524.577	15421.73
524.943	15517.09
525.31	15486.13
525.676	15689.97
526.043	15668.5
526.409	15713.47
526.776	15814.94
527.142	15829.17
527.508	15933.13
527.874	16088.38
528.241	16039.34
528.607	16049.28
528.973	16102.39
529.339	16084.53
529.705	16203.4
530.071	16255.38
530.437	16331.99
530.803	16431.42
531.169	16437.52
531.535	16403.62
531.901	16386.22
532.267	16583.96
532.632	16528.14
532.998	16482.04
533.364	16682.94
533.73	16596.16
534.095	16626.67
534.461	16649.72
534.826	16770.17
535.192	16776.04
535.557	16839.09
535.923	16667.8
536.288	16846.32
536.653	16833.67
537.019	16649.27
537.384	16824.18
537.749	16764.97
538.114	16785.53
538.479	16720
538.845	16879.09
539.21	16745.53
539.575	16797.74
539.94	16791.18
540.305	16932.65
540.67	16867.79
541.034	16895.13
541.399	16834.12
541.764	16723.61
542.129	16790.28
542.494	16882.71
542.858	16886.1
543.223	16831.63
543.587	16881.58
543.952	16720.9
544.316	16828.02
544.681	16797.51
545.045	16742.82
545.41	16791.18
545.774	16797.96
546.138	16719.55
546.503	16779.66
546.867	16745.76
547.231	16947.79
547.595	16853.55
547.959	16831.18
548.324	16788.92
548.688	16753.22
549.052	16809.26
549.416	16775.82
549.779	16719.77
550.143	16708.93
550.507	16750.28
550.871	16823.5
551.235	16671.64
551.599	16865.98
551.962	16757.51
552.326	16804.29
552.689	16858.98
553.053	16746.66
553.417	16757.06
553.78	16864.85
554.143	16759.77
554.507	16828.92
554.87	16723.16
555.234	16877.51
555.597	16777.4
555.96	16741.92
556.323	16807.68
556.686	16820.11
557.05	16911.18
557.413	16957.96
557.776	16790.28
558.139	16910.5
558.502	16931.52
558.865	16871.41
559.228	16959.09
559.59	16962.93
559.953	17037.96
560.316	17102.36
560.679	17072.08
561.041	17026.66
561.404	17193.21
561.767	17218.74
562.129	17151.85
562.492	17227.33
562.854	17279.08
563.217	17174.22
563.579	17252.19
563.941	17289.47
564.304	17355.46
564.666	17301.68
565.028	17497.83
565.39	17427.32
565.753	17457.83
566.115	17560.65
566.477	17605.85
566.839	17652.86
567.201	17625.74
567.563	17571.05
567.925	17744.15
568.287	17712.74
568.648	17623.48
569.01	17783.7
569.372	17737.15
569.734	17786.18
570.095	17863.24
570.457	17835.9
570.819	17902.34
571.18	17978.27
571.542	18030.02
571.903	18010.59
572.265	17932.85
572.626	17994.09
572.987	18129.45
573.349	18102.79
573.71	18175.78
574.071	18136.68
574.432	18250.58
574.794	18277.92
575.155	18327.41
575.516	18246.96
575.877	18274.99
576.238	18278.38
576.599	18364.47
576.96	18340.29
577.32	18332.39
577.681	18383.91
578.042	18449.44
578.403	18322.67
578.763	18403.34
579.124	18394.08
579.485	18458.26
579.845	18437.02
580.206	18372.38
580.566	18379.16
580.927	18433.17
581.287	18444.02
581.648	18432.72
582.008	18434.53
582.368	18460.74
582.728	18479.27
583.089	18465.26
583.449	18437.69
583.809	18455.55
584.169	18452.38
584.529	18497.8
584.889	18540.06
585.249	18409.9
585.609	18400.18
585.969	18473.17
586.329	18372.38
586.688	18412.84
587.048	18338.49
587.408	18318.83
587.768	18429.33
588.127	18445.38
588.487	18292.61
588.846	18442.89
589.206	18304.14
589.565	18305.49
589.925	18299.39
590.284	18343.23
590.643	18271.37
591.003	18428.65
591.362	18376.68
591.721	18325.38
592.08	18301.88
592.44	18488.31
592.799	18332.39
593.158	18295.78
593.517	18244.25
593.876	18346.85
594.235	18187.76
594.593	18214.87
594.952	18283.12
595.311	18198.83
595.67	18405.83
596.029	18413.96
596.387	18386.62
596.746	18407.86
597.104	18286.96
597.463	18263.91
597.822	18411.71
598.18	18283.8
598.538	18270.69
598.897	18412.38
599.255	18276.79
599.613	18440.18
599.972	18280.18
600.33	18425.49
600.688	18278.83
601.046	18382.33
601.404	18472.95
601.762	18339.16
602.12	18433.63
602.478	18449.44
602.836	18445.83
603.194	18323.57
603.552	18366.96
603.91	18311.37
604.268	18292.39
604.625	18305.49
604.983	18453.51
605.341	18311.37
605.698	18380.07
606.056	18511.82
606.413	18348.66
606.771	18408.09
607.128	18540.52
607.485	18351.37
607.843	18442.89
608.2	18510.91
608.557	18553.85
608.914	18430.01
609.272	18568.76
609.629	18640.85
609.986	18552.72
610.343	18566.05
610.7	18651.47
611.057	18700.06
611.414	18610.57
611.771	18668.87
612.127	18720.17
612.484	18702.09
612.841	18733.5
613.198	18673.17
613.554	18703.9
613.911	18772.15
614.267	18724.47
614.624	18773.05
614.98	18846.5
615.337	18892.82
615.693	18862.99
616.05	18812.15
616.406	19006.27
616.762	18918.81
617.118	18920.39
617.475	18877.23
617.831	18961.3
618.187	19023.89
618.543	18975.76
618.899	19106.15
619.255	19058.92
619.611	19062.99
619.967	19077
620.323	19189.09
620.678	19043.33
621.034	19004.01
621.39	18989.54
621.746	19007.85
622.101	19158.8
622.457	19072.25
622.812	19169.2
623.168	19209.42
623.523	19083.1
623.879	19162.19
624.234	19051.46
624.589	19168.3
624.945	19110.44
625.3	19080.61
625.655	19207.84
626.01	19188.86
626.365	19145.02
626.72	19157.45
627.075	19102.76
627.43	19113.83
627.785	19081.07
628.14	19197
628.495	19066.6
628.85	19092.37
629.205	18963.56
629.559	19136.21
629.914	19147.05
630.269	19162.19
630.623	19050.11
630.978	18938.02
631.332	19048.3
631.687	19165.13
632.041	19076.09
632.396	19019.15
632.75	18978.02
633.104	19050.33
633.459	18822.99
633.813	19021.86
634.167	18837.46
634.521	18853.73
634.875	18818.47
635.229	18859.38
635.583	18769.44
635.937	18736.22
636.291	18690.12
636.645	18700.74
636.999	18740.28
637.352	18787.97
637.706	18571.02
638.06	18775.09
638.413	18592.04
638.767	18576.22
639.121	18713.39
639.474	18531.02
639.828	18624.13
640.181	18547.29
640.534	18588.65
640.888	18580.06
641.241	18430.01
641.594	18590.46
641.947	18518.14
642.301	18499.16
642.654	18461.2
643.007	18549.55
643.36	18459.61
643.713	18400.63
644.066	18590.23
644.419	18383.46
644.771	18320.63
645.124	18138.27
645.477	18117.7
645.83	17944.15
646.182	17943.92
646.535	17934.43
646.888	17900.53
647.24	17804.49
647.593	17825.28
647.945	17804.26
648.298	17776.69
648.65	17736.47
649.002	17670.03
649.355	17776.02
649.707	17766.52
650.059	17964.49
650.411	18000.64
650.763	18003.58
651.115	18261.2
651.467	18245.16
651.819	18180.98
652.171	18144.14
652.523	18200.86
652.875	18208.55
653.227	18128.1
653.578	18208.55
653.93	18099.62
654.282	18085.39
654.633	18160.41
654.985	18099.4
655.337	18147.76
655.688	18132.16
656.039	18243.57
656.391	18017.14
656.742	18135.78
657.094	18110.24
657.445	18196.12
657.796	18147.31
658.147	18111.83
658.498	18113.86
658.849	18230.47
659.2	18097.36
659.551	18111.15
659.902	18212.61
660.253	18145.72
660.604	18206.29
660.955	18100.75
661.306	18218.04
661.656	18159.73
662.007	18193.41
662.358	18209.22
662.708	18148.66
663.059	18120.41
663.409	18042.45
663.76	18161.54
664.11	18096.91
664.461	18300.75
664.811	18203.58
665.161	18261.43
665.511	18180.3
665.862	18210.58
666.212	18255.55
666.562	18201.32
666.912	18147.98
667.262	18119.96
667.612	18238.15
667.962	18208.09
668.312	18192.95
668.662	18302.33
669.011	18173.29
669.361	18197.25
669.711	18111.83
670.06	18131.49
670.41	18112.5
670.76	18060.53
671.109	18199.06
671.459	18174.42
671.808	18086.52
672.157	18114.76
672.507	18025.95
672.856	18056.23
673.205	18012.62
673.554	18079.51
673.904	18048.55
674.253	18161.32
674.602	18010.36
674.951	17754.77
675.3	17735.11
675.649	17963.58
675.998	17865.28
676.346	17920.19
676.695	18056.69
677.044	17877.93
677.393	17991.83
677.741	17910.93
678.09	17843.13
678.438	17834.55
678.787	17961.1
679.135	17823.02
679.484	17735.11
679.832	17788.9
680.181	17691.27
680.529	17755.23
680.877	17562.69
681.225	17672.74
681.573	17699.63
681.922	17607.43
682.27	17538.73
682.618	17553.2
682.966	17421.67
683.314	17506.87
683.661	17516.81
684.009	17378.96
684.357	17360.21
684.705	17348
685.053	17336.48
685.4	17330.15
685.748	17181.68
686.095	17165.86
686.443	17113.89
686.79	17063.49
687.138	17115.24
687.485	17204.73
687.832	17060.33
688.18	17063.49
688.527	16877.73
688.874	16957.51
689.221	16867.11
689.568	16884.74
689.915	16717.29
690.262	16727.91
690.609	16713.44
690.956	16600.68
691.303	16688.81
691.65	16523.85
691.997	16599.78
692.344	16446.11
692.69	16382.61
693.037	16375.15
693.383	16167.47
693.73	16294.7
694.077	16134.7
694.423	16173.12
694.769	16094.7
695.116	16006.12
695.462	16016.51
695.808	15891.55
696.155	15997.31
696.501	15824.2
696.847	15774.03
697.193	15723.41
697.539	15782.62
697.885	15623.76
698.231	15556.41
698.577	15568.62
698.923	15486.13
699.269	15372.69
699.614	15355.74
699.96	15266.7
700.306	15297.21
700.651	15223.77
700.997	15273.71
701.342	15112.36
701.688	15104.9
702.033	14993.04
702.379	15010.66
702.724	14885.47
703.069	15040.49
703.415	14770.67
703.76	14828.97
704.105	14808.64
704.45	14778.13
704.795	14600.96
705.14	14580.62
705.485	14586.72
705.83	14426.27
706.175	14476.44
706.52	14499.94
706.865	14425.37
707.209	14317.12
707.554	14316.9
707.899	14305.37
708.243	14195.54
708.588	14256.79
708.932	14121.42
709.277	14095.21
709.621	14111.93
709.966	13992.61
710.31	14022.22
710.654	13949.22
710.998	14001.2
711.342	14026.06
711.687	13889.11
712.031	13842.79
712.375	13789
712.719	13770.47
713.063	13795.78
713.407	13853.63
713.75	13681.43
714.094	13753.07
714.438	13636.01
714.782	13668.33
715.125	13514.43
715.469	13615
715.812	13482.34
716.156	13607.09
716.499	13379.3
716.843	13435.34
717.186	13381.33
717.53	13401.89
717.873	13357.83
718.216	13387.43
718.559	13311.5
718.902	13252.52
719.246	13288.45
719.589	13283.7
719.932	13185.18
720.275	13122.8
720.617	13186.76
720.96	13196.7
721.303	13185.4
721.646	13112.41
721.989	13085.74
722.331	13205.74
722.674	13028.57
723.016	13030.6
723.359	13163.03
723.701	13140.21
724.044	13073.09
724.386	12965.75
724.729	13069.92
725.071	12917.39
725.413	12987.67
725.755	12943.83
726.097	12877.61
726.439	12874.9
726.782	12903.83
727.124	13017.95
727.465	12867.67
727.807	12879.2
728.149	12897.27
728.491	12728.69
728.833	12883.71
729.175	12828.58
729.516	12796.49
729.858	12825.19
730.199	12832.19
730.541	12789.93
730.882	12784.28
731.224	12880.78
731.565	12741.12
731.906	12790.16
732.248	12812.3
732.589	12758.07
732.93	12710.61
733.271	12669.26
733.612	12700.44
733.953	12724.62
734.294	12755.36
734.635	12702.93
734.976	12770.95
735.317	12663.61
735.658	12665.19
735.999	12637.39
736.339	12674.68
736.68	12763.27
737.021	12720.78
737.361	12624.74
737.702	12724.4
738.042	12702.48
738.383	12747.22
738.723	12754.45
739.063	12643.04
739.404	12741.57
739.744	12697.96
740.084	12637.39
740.424	12761.46
740.764	12759.88
741.104	12753.1
741.444	12768.69
741.784	12688.47
742.124	12771.63
742.464	12767.11
742.804	12758.75
743.143	12852.53
743.483	12848.91
743.823	12864.73
744.162	12870.38
744.502	12838.97
744.841	12863.38
745.181	12976.59
745.52	12894.56
745.86	12985.18
746.199	13027.89
746.538	13009.81
746.877	13116.93
747.216	13194.89
747.556	13195.57
747.895	13266.3
748.234	13236.47
748.573	13231.95
748.911	13290.71
749.25	13438.95
749.589	13465.17
749.928	13479.41
750.267	13628.55
750.605	13693.86
750.944	13734.54
751.283	13733.41
751.621	13862.67
751.96	13926.63
752.298	14048.66
752.636	14091.14
752.975	14090.24
753.313	14198.93
753.651	14398.25
753.989	14391.7
754.327	14457.46
754.666	14520.73
755.004	14718.47
755.342	14881.85
755.679	14925.92
756.017	14948.75
756.355	15066.03
756.693	15140.6
757.031	15343.54
