Data from hue_90_FLMS001491_30.txt Node
Date: Mon Feb 06 15:24:55 GMT 2017
User: dcchb
Spectrometer: FLMS00149
Trigger mode: 0
Integration Time (sec): 2.000000E-2
Scans to average: 10
Electric dark correction enabled: true
Nonlinearity correction enabled: false
Boxcar width: 0
XAxis mode: Wavelengths
Number of Pixels in Spectrum: 2048
>>>>>Begin Spectral Data<<<<<
341.393	-10.72
341.776	-10.72
342.16	-10.72
342.543	-71.06
342.927	-64.73
343.31	-62.24
343.693	-67.22
344.077	-64.96
344.46	-56.59
344.843	-54.11
345.226	-51.85
345.61	-41.91
345.993	-22.47
346.376	8.04
346.759	-1.45
347.142	1.71
347.525	38.77
347.908	66.11
348.291	90.29
348.674	96.62
349.057	121.25
349.44	105.21
349.823	131.2
350.206	154.02
350.588	181.37
350.971	227.47
351.354	208.03
351.737	212.1
352.119	262.72
352.502	247.35
352.884	281.25
353.267	273.79
353.65	294.58
354.032	307.01
354.414	302.27
354.797	299.33
355.179	314.24
355.562	306.11
355.944	342.94
356.326	354.47
356.709	330.74
357.091	333
357.473	328.93
357.855	326.67
358.238	326.45
358.62	330.51
359.002	352.66
359.384	333
359.766	337.29
360.148	330.29
360.53	336.62
360.912	325.32
361.294	336.62
361.676	339.55
362.057	315.6
362.439	319.44
362.821	347.01
363.203	320.57
363.584	331.19
363.966	321.47
364.348	337.29
364.729	341.14
365.111	322.38
365.493	321.25
365.874	300.23
366.256	329.84
366.637	313.34
367.019	318.76
367.4	308.37
367.781	331.42
368.163	334.81
368.544	327.35
368.925	311.76
369.306	309.27
369.688	299.1
370.069	306.56
370.45	323.73
370.831	304.98
371.212	310.18
371.593	314.47
371.974	295.03
372.355	316.05
372.736	321.7
373.117	324.86
373.498	325.77
373.879	326.45
374.26	311.08
374.641	326.9
375.021	323.73
375.402	334.36
375.783	316.95
376.163	320.8
376.544	319.21
376.925	314.92
377.305	344.98
377.686	335.49
378.066	338.65
378.447	339.1
378.827	311.76
379.208	340.23
379.588	326.67
379.968	340.46
380.349	342.94
380.729	326.22
381.109	333.9
381.489	356.95
381.87	344.07
382.25	333.23
382.63	340.01
383.01	347.24
383.39	349.27
383.77	341.81
384.15	361.47
384.53	364.86
384.91	347.69
385.29	350.85
385.67	345.88
386.049	342.94
386.429	361.7
386.809	344.75
387.189	359.44
387.568	363.06
387.948	363.96
388.328	380.68
388.707	358.76
389.087	368.25
389.466	355.82
389.846	362.38
390.225	359.44
390.605	355.37
390.984	356.28
391.363	383.62
391.743	371.19
392.122	360.57
392.501	391.53
392.881	410.96
393.26	412.55
393.639	368.03
394.018	378.65
394.397	405.54
394.776	383.17
395.155	368.03
395.534	421.81
395.913	379.55
396.292	399.21
396.671	389.95
397.05	389.27
397.429	378.42
397.808	394.02
398.186	412.55
398.565	408.25
398.944	389.95
399.323	418.65
399.701	413.68
400.08	410.29
400.458	404.64
400.837	406.9
401.215	419.33
401.594	428.82
401.972	409.83
402.351	430.85
402.729	401.92
403.107	411.42
403.486	439.44
403.864	408.03
404.242	411.19
404.62	413.9
404.999	422.26
405.377	433.11
405.755	435.6
406.133	452.32
406.511	450.28
406.889	458.19
407.267	459.1
407.645	467.91
408.023	441.02
408.401	442.83
408.779	460.91
409.156	441.47
409.534	460
409.912	491.87
410.29	477.4
410.667	476.95
411.045	478.76
411.422	478.76
411.8	479.89
412.178	486.44
412.555	487.35
412.933	504.97
413.31	511.3
413.687	495.93
414.065	491.64
414.442	519.44
414.819	510.62
415.197	522.37
415.574	531.41
415.951	521.92
416.328	534.12
416.705	522.37
417.082	537.51
417.46	542.71
417.837	545.88
418.214	552.43
418.591	532.09
418.967	535.25
419.344	526.44
419.721	559.43
420.098	528.47
420.475	561.24
420.852	559.89
421.228	574.12
421.605	569.38
421.982	570.28
422.358	570.06
422.735	573.45
423.111	573.22
423.488	563.05
423.864	603.5
424.241	610.51
424.617	597.85
424.994	591.07
425.37	571.41
425.746	579.77
426.123	629.04
426.499	608.25
426.875	611.64
427.251	624.74
427.627	639.66
428.003	655.93
428.379	644.4
428.756	624.52
429.132	648.02
429.507	638.98
429.883	639.88
430.259	657.51
430.635	676.49
431.011	689.15
431.387	708.36
431.763	689.83
432.138	688.92
432.514	700.67
432.89	695.48
433.265	716.94
433.641	716.94
434.016	740.22
434.392	736.6
434.767	732.76
435.143	739.99
435.518	750.84
435.894	772.99
436.269	765.08
436.644	782.93
437.02	765.3
437.395	782.03
437.77	794.91
438.145	786.32
438.52	797.17
438.895	786.77
439.271	803.5
439.646	797.39
440.021	844.4
440.395	814.12
440.77	842.36
441.145	851.18
441.52	859.99
441.895	836.04
442.27	855.47
442.645	871.06
443.019	860.44
443.394	884.62
443.769	904.96
444.143	893.44
444.518	872.87
444.892	860.9
445.267	911.52
445.641	906.77
446.016	895.92
446.39	930.72
446.764	932.98
447.139	930.05
447.513	941.8
447.887	935.7
448.262	935.24
448.636	958.29
449.01	961.91
449.384	963.94
449.758	954.23
450.132	971.18
450.506	975.92
450.88	1014.79
451.254	995.13
451.628	1015.69
452.002	1047.11
452.376	1026.31
452.75	1046.2
453.123	1055.47
453.497	1062.92
453.871	1080.55
454.244	1072.64
454.618	1060.89
454.992	1092.75
455.365	1085.3
455.739	1123.71
456.112	1125.3
456.486	1121.91
456.859	1148.57
457.232	1161.45
457.606	1188.8
457.979	1199.87
458.352	1197.84
458.725	1210.04
459.099	1234.22
459.472	1243.71
459.845	1240.55
460.218	1306.76
460.591	1298.85
460.964	1309.92
461.337	1319.87
461.71	1321.9
462.083	1377.49
462.456	1371.62
462.829	1391.73
463.201	1391.5
463.574	1405.51
463.947	1430.82
464.32	1462.46
464.692	1456.59
465.065	1474.21
465.438	1495.46
465.81	1510.82
466.183	1582.46
466.555	1571.16
466.928	1607.54
467.3	1591.27
467.672	1621.33
468.045	1695.9
468.417	1691.83
468.789	1716.92
469.161	1731.16
469.534	1753.53
469.906	1820.42
470.278	1820.19
470.65	1850.93
471.022	1914.2
471.394	1930.25
471.766	1932.96
472.138	1981.09
472.51	2035.55
472.882	2064.48
473.253	2125.04
473.625	2147.19
473.997	2191.03
474.369	2238.26
474.74	2285.72
475.112	2319.84
475.484	2363.45
475.855	2445.94
476.227	2475.54
476.598	2554.64
476.97	2610.23
477.341	2682.77
477.713	2726.38
478.084	2791.24
478.455	2870.33
478.827	2927.51
479.198	3041.86
479.569	3061.29
479.94	3142.19
480.311	3200.72
480.682	3288.85
481.053	3465.57
481.424	3506.48
481.795	3579.92
482.166	3632.8
482.537	3773.59
482.908	3859.01
483.279	3941.94
483.65	4056.74
484.021	4155.95
484.391	4270.3
484.762	4315.72
485.133	4407.24
485.503	4499.9
485.874	4673.68
486.244	4778.76
486.615	4914.12
486.985	5021.69
487.356	5154.34
487.726	5255.13
488.097	5395.47
488.467	5458.51
488.837	5638.4
489.207	5747.77
489.578	5910.93
489.948	5992.06
490.318	6135.78
490.688	6191.83
491.058	6344.37
491.428	6540.29
491.798	6630.01
492.168	6792.94
492.538	6867.74
492.908	7034.29
493.278	7164.01
493.648	7253.04
494.017	7434.73
494.387	7566.71
494.757	7638.34
495.126	7780.04
495.496	7857.32
495.866	7929.86
496.235	8095.51
496.605	8269.51
496.974	8387.48
497.344	8416.63
497.713	8561.48
498.082	8682.38
498.452	8810.74
498.821	8875.37
499.19	9029.49
499.559	9120.11
499.928	9154.24
500.298	9317.4
500.667	9449.82
501.036	9532.53
501.405	9607.33
501.774	9679.42
502.143	9820.66
502.512	9879.42
502.88	9957.83
503.249	9998.28
503.618	10129.8
503.987	10160.54
504.356	10306.97
504.724	10367.99
505.093	10412.06
505.462	10500.19
505.83	10572.28
506.199	10640.3
506.567	10820.86
506.936	10789
507.304	10974.08
507.672	11028.99
508.041	11044.58
508.409	11163.45
508.777	11305.59
509.145	11351.47
509.514	11362.99
509.882	11442.31
510.25	11424.46
510.618	11529.99
510.986	11542.65
511.354	11666.49
511.722	11842.3
512.09	11853.37
512.458	11778.57
512.826	11937.67
513.193	11978.12
513.561	12024.22
513.929	12108.06
514.297	12198
514.664	12196.42
515.032	12283.65
515.4	12307.15
515.767	12326.13
516.135	12408.84
516.502	12269.41
516.869	12562.73
517.237	12512.57
517.604	12507.82
517.972	12655.61
518.339	12764.09
518.706	12699.91
519.073	12723.63
519.44	12717.53
519.808	12868.72
520.175	12775.84
520.542	12975.38
520.909	13023.29
521.276	13001.14
521.643	13023.06
522.009	13124.53
522.376	13146.45
522.743	13230.29
523.11	13337.18
523.477	13370.62
523.843	13381.24
524.21	13449.49
524.577	13442.49
524.943	13531.97
525.31	13544.18
525.676	13524.29
526.043	13581.69
526.409	13644.06
526.776	13812.42
527.142	13735.81
527.508	13749.6
527.874	13847.45
528.241	13942.81
528.607	13884.96
528.973	13937.61
529.339	13901.68
529.705	13923.83
530.071	14004.96
530.437	13943.72
530.803	13991.62
531.169	14051.28
531.535	14017.61
531.901	13999.98
532.267	14035.01
532.632	14090.38
532.998	14072.98
533.364	14121.34
533.73	14072.3
534.095	14164.05
534.461	14116.14
534.826	14095.12
535.192	14087.21
535.557	14176.03
535.923	14091.06
536.288	14056.48
536.653	14111.85
537.019	14035.92
537.384	14023.49
537.749	14081.79
538.114	14069.59
538.479	13981
538.845	13976.03
539.21	13927.44
539.575	13930.61
539.94	13898.97
540.305	13971.06
540.67	13851.29
541.034	13918.86
541.399	13875.24
541.764	13880.21
542.129	13856.94
542.494	13865.53
542.858	13845.64
543.223	13833.21
543.587	13825.3
543.952	13727.45
544.316	13730.16
544.681	13689.94
545.045	13698.52
545.41	13703.95
545.774	13668.47
546.138	13707.34
546.503	13651.07
546.867	13633.89
547.231	13655.36
547.595	13594.35
547.959	13578.53
548.324	13593.89
548.688	13526.55
549.052	13500.56
549.416	13506.44
549.779	13479.32
550.143	13332.43
550.507	13498.53
550.871	13488.13
551.235	13431.64
551.599	13437.29
551.962	13395.93
552.326	13399.32
552.689	13449.27
553.053	13358.19
553.417	13287.24
553.78	13431.19
554.143	13375.14
554.507	13321.58
554.87	13352.09
555.234	13415.14
555.597	13344.41
555.96	13323.17
556.323	13317.52
556.686	13218.54
557.05	13305.09
557.413	13289.72
557.776	13216.05
558.139	13327.01
558.502	13326.78
558.865	13295.6
559.228	13370.62
559.59	13304.64
559.953	13269.61
560.316	13331.3
560.679	13343.51
561.041	13370.17
561.404	13399.77
561.767	13440.9
562.129	13446.1
562.492	13562.03
562.854	13472.54
563.217	13394.13
563.579	13469.6
563.941	13458.53
564.304	13517.29
564.666	13560.45
565.028	13544.4
565.39	13554.12
565.753	13598.41
566.115	13612.88
566.477	13595.02
566.839	13622.14
567.201	13679.77
567.563	13672.31
567.925	13710.95
568.287	13663.72
568.648	13685.42
569.01	13710.95
569.372	13733.55
569.734	13724.51
570.095	13858.97
570.457	13863.94
570.819	13837.73
571.18	13922.7
571.542	13993.88
571.903	13918.18
572.265	13955.92
572.626	13908.69
572.987	13938.97
573.349	13969.93
573.71	14004.05
574.071	13972.19
574.432	14053.09
574.794	14046.76
575.155	13980.55
575.516	13995.01
575.877	14033.66
576.238	14062.58
576.599	14070.94
576.96	14075.92
577.32	14111.39
577.681	14108.68
578.042	14230.71
578.403	14167.89
578.763	14074.79
579.124	14245.85
579.485	14147.1
579.845	14261.67
580.206	14136.25
580.566	14166.08
580.927	14202.01
581.287	14156.82
581.648	14151.39
582.008	14174.22
582.368	14157.72
582.728	14190.49
583.089	14078.4
583.449	14111.39
583.809	14188.45
584.169	14150.26
584.529	14093.09
584.889	14160.66
585.249	14108.46
585.609	14010.61
585.969	14185.06
586.329	14127.44
586.688	14160.43
587.048	14094.22
587.408	14146.87
587.768	14071.62
588.127	14112.75
588.487	14058.29
588.846	14115.69
589.206	14015.13
589.565	13944.17
589.925	13996.6
590.284	14152.3
590.643	14032.3
591.003	14043.37
591.362	14008.8
591.721	14035.01
592.08	14023.94
592.44	14119.08
592.799	13974.45
593.158	14012.87
593.517	14053.54
593.876	14058.74
594.235	13910.95
594.593	13895.81
594.952	13995.01
595.311	13948.46
595.67	13975.35
596.029	14035.69
596.387	13977.84
596.746	14055.8
597.104	13977.39
597.463	13955.92
597.822	14028.23
598.18	13951.4
598.538	13822.36
598.897	13944.17
599.255	13809.03
599.613	13979.19
599.972	13922.25
600.33	13978.74
600.688	13923.6
601.046	13960.44
601.404	13992.3
601.762	13993.43
602.12	14032.3
602.478	14024.84
602.836	14050.15
603.194	13936.71
603.552	14000.89
603.91	13965.64
604.268	13899.2
604.625	13872.53
604.983	13995.92
605.341	13945.52
605.698	13983.26
606.056	14041.79
606.413	14006.09
606.771	14028.91
607.128	13946.65
607.485	14000.89
607.843	13966.31
608.2	14043.6
608.557	14042.47
608.914	14007.44
609.272	14229.58
609.629	14077.5
609.986	14120.66
610.343	13989.59
610.7	14144.84
611.057	14108.23
611.414	14117.04
611.771	14143.26
612.127	14198.4
612.484	14185.74
612.841	14207.44
613.198	14191.39
613.554	14171.28
613.911	14246.08
614.267	14249.47
614.624	14200.66
614.98	14204.5
615.337	14321.56
615.693	14326.53
616.05	14209.02
616.406	14350.26
616.762	14324.95
617.118	14199.98
617.475	14279.53
617.831	14341.44
618.187	14321.78
618.543	14368.79
618.899	14470.26
619.255	14398.62
619.611	14322.46
619.967	14472.06
620.323	14478.16
620.678	14321.78
621.034	14324.72
621.39	14429.35
621.746	14367.66
622.101	14535.34
622.457	14315
622.812	14461.89
623.168	14326.08
623.523	14430.48
623.879	14476.81
624.234	14342.35
624.589	14411.05
624.945	14423.02
625.3	14369.01
625.655	14359.07
626.01	14428.22
626.365	14529.91
626.72	14417.6
627.075	14479.97
627.43	14391.16
627.785	14380.99
628.14	14296.02
628.495	14479.75
628.85	14399.97
629.205	14337.6
629.559	14482.01
629.914	14312.75
630.269	14293.31
630.623	14254.67
630.978	14269.81
631.332	14312.97
631.687	14408.56
632.041	14276.59
632.396	14346.19
632.75	14258.06
633.104	14326.76
633.459	14170.83
633.813	14133.54
634.167	14288.34
634.521	14139.42
634.875	14204.5
635.229	14141.9
635.583	14108.46
635.937	14108.46
636.291	14077.27
636.645	14104.84
636.999	13984.62
637.352	14116.14
637.706	14015.35
638.06	13987.33
638.413	13962.47
638.767	14004.96
639.121	13943.26
639.474	13833.44
639.828	13957.5
640.181	13991.62
640.534	13867.56
640.888	13899.2
641.241	13858.52
641.594	13830.27
641.947	13870.27
642.301	13898.07
642.654	13825.98
643.007	13851.74
643.36	13778.75
643.713	13819.88
644.066	13869.37
644.419	13724.74
644.771	13678.19
645.124	13640.67
645.477	13542.14
645.83	13426.44
646.182	13375.37
646.535	13433.22
646.888	13433.9
647.24	13297.86
647.593	13317.97
647.945	13360
648.298	13274.81
648.65	13301.7
649.002	13237.29
649.355	13290.63
649.707	13353.67
650.059	13354.8
650.411	13449.72
650.763	13530.39
651.115	13673.21
651.467	13635.02
651.819	13672.31
652.171	13570.39
652.523	13591.63
652.875	13623.5
653.227	13553.9
653.578	13733.33
653.93	13596.83
654.282	13615.36
654.633	13579.88
654.985	13542.82
655.337	13548.47
655.688	13528.36
656.039	13637.96
656.391	13528.13
656.742	13572.2
657.094	13540.79
657.445	13527.68
657.796	13522.26
658.147	13520
658.498	13586.89
658.849	13619.66
659.2	13519.09
659.551	13452.65
659.902	13569.94
660.253	13543.05
660.604	13595.93
660.955	13507.57
661.306	13507.12
661.656	13520.45
662.007	13520
662.358	13537.4
662.708	13520.22
663.059	13519.09
663.409	13496.95
663.76	13561.35
664.11	13529.04
664.461	13563.84
664.811	13521.35
665.161	13564.29
665.511	13563.16
665.862	13546.66
666.212	13644.74
666.562	13643.16
666.912	13661.91
667.262	13642.93
667.612	13585.53
667.962	13644.29
668.312	13537.62
668.662	13644.29
669.011	13581.24
669.361	13623.95
669.711	13508.92
670.06	13489.72
670.41	13543.27
670.76	13591.86
671.109	13550.05
671.459	13503.73
671.808	13529.04
672.157	13525.87
672.507	13418.08
672.856	13425.54
673.205	13426.21
673.554	13469.38
673.904	13417.4
674.253	13373.56
674.602	13435.03
674.951	13262.83
675.3	13186.22
675.649	13421.92
675.998	13332.88
676.346	13352.32
676.695	13451.98
677.044	13259.67
677.393	13390.51
677.741	13347.12
678.09	13256.28
678.438	13278.42
678.787	13300.57
679.135	13329.95
679.484	13244.3
679.832	13190.29
680.181	13185.32
680.529	13218.99
680.877	13153.23
681.225	13152.32
681.573	13212.66
681.922	13098.09
682.27	13067.13
682.618	13104.64
682.966	13039.78
683.314	13075.26
683.661	12967.7
684.009	12905.55
684.357	12816.51
684.705	12891.77
685.053	12881.6
685.4	12827.59
685.748	12822.84
686.095	12804.99
686.443	12693.35
686.79	12775.16
687.138	12736.52
687.485	12719.57
687.832	12673.47
688.18	12689.74
688.527	12640.47
688.874	12586.24
689.221	12560.02
689.568	12560.02
689.915	12461.27
690.262	12472.79
690.609	12485.9
690.956	12348.05
691.303	12345.79
691.65	12265.34
691.997	12264.21
692.344	12180.37
692.69	12259.47
693.037	12165.23
693.383	12109.64
693.73	12146.25
694.077	12028.51
694.423	12065.8
694.769	11981.28
695.116	11927.72
695.462	11895.18
695.808	11852.92
696.155	11845.47
696.501	11718.92
696.847	11716.66
697.193	11658.8
697.539	11721.4
697.885	11615.87
698.231	11550.33
698.577	11491.8
698.923	11477.11
699.269	11384.01
699.614	11361.18
699.96	11385.82
700.306	11358.25
700.651	11337
700.997	11184.47
701.342	11207.52
701.688	11223.79
702.033	11153.05
702.379	11169.78
702.724	11085.26
703.069	11123.45
703.415	10954.64
703.76	10987.18
704.105	10966.84
704.45	10877.13
704.795	10929.33
705.14	10795.78
705.485	10816.79
705.83	10699.73
706.175	10739.51
706.52	10758.49
706.865	10681.2
707.209	10641.43
707.554	10635.55
707.899	10659.96
708.243	10549.91
708.588	10613.63
708.932	10436.01
709.277	10420.64
709.621	10496.12
709.966	10486.18
710.31	10469
710.654	10309.01
710.998	10299.29
711.342	10325.05
711.687	10284.15
712.031	10306.75
712.375	10198.05
712.719	10187.43
713.063	10238.05
713.407	10204.83
713.75	10116.47
714.094	10207.99
714.438	10117.15
714.782	10108.56
715.125	10054.78
715.469	10109.92
715.812	10052.29
716.156	10028.79
716.499	10000.32
716.843	10010.49
717.186	9921.45
717.53	9939.07
717.873	9962.58
718.216	9878.96
718.559	9913.09
718.902	9834.44
719.246	9897.49
719.589	9832.18
719.932	9821.11
720.275	9775.01
720.617	9741.11
720.96	9789.47
721.303	9773.2
721.646	9777.5
721.989	9751.96
722.331	9753.09
722.674	9704.96
723.016	9760.55
723.359	9704.73
723.701	9737.72
724.044	9689.82
724.386	9602.13
724.729	9600.33
725.071	9645.98
725.413	9552.64
725.755	9650.72
726.097	9551.97
726.439	9571.85
726.782	9517.39
727.124	9595.58
727.465	9542.93
727.807	9543.15
728.149	9521.68
728.491	9530.05
728.833	9562.14
729.175	9477.39
729.516	9557.16
729.858	9470.61
730.199	9558.29
730.541	9496.6
730.882	9459.99
731.224	9525.75
731.565	9439.43
731.906	9486.21
732.248	9451.4
732.589	9445.08
732.93	9359.88
733.271	9415.47
733.612	9411.18
733.953	9369.82
734.294	9423.83
734.635	9364.4
734.976	9401.24
735.317	9393.55
735.658	9481.46
735.999	9441.23
736.339	9381.8
736.68	9429.71
737.021	9436.49
737.361	9429.48
737.702	9409.37
738.042	9415.25
738.383	9457.96
738.723	9427.9
739.063	9432.65
739.404	9479.88
739.744	9441.23
740.084	9421.8
740.424	9470.61
740.764	9469.71
741.104	9499.76
741.444	9500.22
741.784	9462.03
742.124	9490.95
742.464	9506.77
742.804	9485.75
743.143	9554
743.483	9509.03
743.823	9456.83
744.162	9603.04
744.502	9700.21
744.841	9646.43
745.181	9700.44
745.52	9664.73
745.86	9663.38
746.199	9713.09
746.538	9742.24
746.877	9844.39
747.216	9802.81
747.556	9847.78
747.895	9849.81
748.234	9899.75
748.573	9956.93
748.911	10033.31
749.25	10093.65
749.589	10021.56
749.928	10135.91
750.267	10242.57
750.605	10257.94
750.944	10297.48
751.283	10403.24
751.621	10515.56
751.96	10489.57
752.298	10589.68
752.636	10697.7
752.975	10705.83
753.313	10769.11
753.651	10932.95
753.989	10958.03
754.327	11062.89
754.666	11132.49
755.004	11309.21
755.342	11397.57
755.679	11511.69
756.017	11490.45
756.355	11648.86
756.693	11783.55
757.031	11948.06
757.368	12004.11
757.706	12089.3
758.044	12311.44
758.381	12428.73
