Data from hue_150_FLMS001491_00050.txt Node
Date: Tue Feb 07 16:54:07 GMT 2017
User: dcchb
Spectrometer: FLMS00149
Trigger mode: 0
Integration Time (sec): 2.000000E-2
Scans to average: 10
Electric dark correction enabled: true
Nonlinearity correction enabled: false
Boxcar width: 0
XAxis mode: Wavelengths
Number of Pixels in Spectrum: 2048
>>>>>Begin Spectral Data<<<<<
341.393	28.62
341.776	28.62
342.16	28.62
342.543	-55.22
342.927	-64.26
343.31	-89.8
343.693	-71.95
344.077	-49.57
344.46	-45.51
344.843	-51.61
345.226	-22.01
345.61	-22.01
345.993	-36.92
346.376	-1.44
346.759	16.86
347.142	18.45
347.525	35.85
347.908	63.19
348.291	60.48
348.674	90.76
349.057	105.22
349.44	126.69
349.823	131.89
350.206	170.31
350.588	213.02
350.971	195.62
351.354	227.71
351.737	224.32
352.119	230.19
352.502	275.61
352.884	271.77
353.267	293.92
353.65	292.11
354.032	309.74
354.414	316.29
354.797	315.39
355.179	325.1
355.562	322.62
355.944	323.52
356.326	342.05
356.709	324.65
357.091	337.53
357.473	336.86
357.855	347.48
358.238	341.38
358.62	326.01
359.002	325.1
359.384	332.79
359.766	338.21
360.148	346.8
360.53	352
360.912	330.53
361.294	335.95
361.676	345.44
362.057	322.62
362.439	323.3
362.821	331.21
363.203	365.56
363.584	330.53
363.966	329.62
364.348	323.3
364.729	319
365.111	314.48
365.493	314.71
365.874	303.64
366.256	330.3
366.637	299.57
367.019	328.72
367.4	291.88
367.781	318.78
368.163	323.3
368.544	291.66
368.925	319
369.306	328.72
369.688	322.84
370.069	306.8
370.45	305.44
370.831	299.79
371.212	301.38
371.593	307.48
371.974	307.03
372.355	327.59
372.736	295.95
373.117	331.21
373.498	319.91
373.879	309.74
374.26	315.16
374.641	305.67
375.021	315.84
375.402	322.62
375.783	319.68
376.163	345.67
376.544	339.57
376.925	313.58
377.305	323.52
377.686	343.18
378.066	322.39
378.447	325.1
378.827	331.66
379.208	344.09
379.588	327.36
379.968	330.3
380.349	338.21
380.729	325.1
381.109	343.41
381.489	339.79
381.87	330.08
382.25	348.38
382.63	337.99
383.01	352.9
383.39	318.55
383.77	353.8
384.15	340.02
384.53	334.6
384.91	349.28
385.29	364.65
385.67	352.22
386.049	356.74
386.429	367.36
386.809	347.93
387.189	354.26
387.568	353.13
387.948	369.4
388.328	347.25
388.707	352.67
389.087	362.17
389.466	348.61
389.846	367.36
390.225	375.72
390.605	371.66
390.984	378.44
391.363	363.75
391.743	367.14
392.122	362.62
392.501	373.69
392.881	392.67
393.26	378.44
393.639	367.82
394.018	355.39
394.397	389.06
394.776	374.82
395.155	379.57
395.534	377.76
395.913	372.33
396.292	385.89
396.671	416.63
397.05	387.02
397.429	392.45
397.808	394.71
398.186	388.15
398.565	382.05
398.944	376.18
399.323	386.8
399.701	413.46
400.08	387.48
400.458	405.1
400.837	403.29
401.215	394.93
401.594	420.47
401.972	388.38
402.351	418.89
402.729	407.59
403.107	412.11
403.486	406.68
403.864	411.43
404.242	402.62
404.62	403.29
404.999	437.19
405.377	433.35
405.755	422.95
406.133	424.76
406.511	422.05
406.889	443.52
407.267	439.9
407.645	451.2
408.023	439.23
408.401	454.37
408.779	441.03
409.156	455.04
409.534	443.29
409.912	457.08
410.29	457.08
410.667	444.88
411.045	477.19
411.422	471.77
411.8	460.24
412.178	468.15
412.555	480.58
412.933	496.17
413.31	477.87
413.687	467.93
414.065	502.95
414.442	502.05
414.819	503.18
415.197	500.24
415.574	498.43
415.951	515.61
416.328	532.78
416.705	518.09
417.082	511.09
417.46	515.38
417.837	505.66
418.214	517.87
418.591	522.39
418.967	535.04
419.344	540.92
419.721	513.35
420.098	535.72
420.475	560.58
420.852	549.96
421.228	565.32
421.605	546.34
421.982	550.64
422.358	565.1
422.735	559.9
423.111	567.36
423.488	565.1
423.864	562.84
424.241	602.84
424.617	563.29
424.994	565.78
425.37	580.92
425.746	604.19
426.123	595.15
426.499	622.5
426.875	620.01
427.251	622.5
427.627	610.75
428.003	617.53
428.379	623.63
428.756	632.22
429.132	630.63
429.507	647.58
429.883	639.45
430.259	651.2
430.635	642.16
431.011	644.64
431.387	673.57
431.763	670.86
432.138	666.11
432.514	687.35
432.89	695.26
433.265	693.68
433.641	716.73
434.016	701.82
434.392	748.6
434.767	722.38
435.143	721.03
435.518	761.93
435.894	729.16
436.269	744.75
436.644	759.22
437.02	761.03
437.395	760.8
437.77	777.97
438.145	801.48
438.52	782.27
438.895	794.7
439.271	792.66
439.646	791.76
440.021	818.42
440.395	825.66
440.77	841.93
441.145	826.33
441.52	865.66
441.895	851.19
442.27	827.46
442.645	828.82
443.019	833.79
443.394	872.66
443.769	860.01
444.143	868.82
444.518	888.03
444.892	871.98
445.267	903.39
445.641	896.61
446.016	913.34
446.39	875.37
446.764	905.65
447.139	902.26
447.513	913.79
447.887	946.56
448.262	916.05
448.636	924.41
449.01	953.34
449.384	937.74
449.758	1003.28
450.132	989.27
450.506	962.15
450.88	982.94
451.254	982.49
451.628	1010.74
452.002	1016.16
452.376	1027.68
452.75	1022.94
453.123	1039.44
453.497	1031.75
453.871	1039.66
454.244	1075.59
454.618	1076.27
454.992	1085.76
455.365	1110.39
455.739	1127.8
456.112	1133.9
456.486	1105.87
456.859	1137.51
457.232	1138.19
457.606	1155.82
457.979	1203.5
458.352	1203.05
458.725	1207.34
459.099	1226.78
459.472	1215.48
459.845	1275.36
460.218	1289.82
460.591	1297.73
460.964	1300.9
461.337	1325.98
461.71	1330.73
462.083	1356.94
462.456	1358.75
462.829	1385.64
463.201	1389.48
463.574	1403.95
463.947	1436.94
464.32	1445.3
464.692	1466.32
465.065	1504.06
465.438	1504.06
465.81	1532.08
466.183	1578.86
466.555	1598.97
466.928	1584.73
467.3	1592.19
467.672	1645.07
468.045	1669.93
468.417	1673.54
468.789	1719.42
469.161	1708.34
469.534	1769.59
469.906	1857.72
470.278	1839.64
470.65	1850.71
471.022	1911.73
471.394	1964.38
471.766	1947.21
472.138	1999.41
472.51	2058.17
472.882	2100.42
473.253	2145.4
473.625	2190.37
473.997	2220.87
474.369	2227.65
474.74	2297.03
475.112	2351.49
475.484	2403.92
475.855	2488.21
476.227	2548.55
476.598	2586.74
476.97	2657.02
477.341	2702.44
477.713	2746.96
478.084	2803.68
478.455	2935.88
478.827	2958.48
479.198	3081.42
479.569	3105.6
479.94	3234.63
480.311	3248.42
480.682	3381.07
481.053	3492.93
481.424	3575.64
481.795	3624.68
482.166	3717.33
482.537	3799.82
482.908	3911.45
483.279	4019.47
483.65	4141.95
484.021	4233.7
484.391	4347.6
484.762	4466.24
485.133	4498.78
485.503	4622.62
485.874	4716.18
486.244	4870.3
486.615	5002.27
486.985	5077.07
487.356	5239.1
487.726	5379.21
488.097	5444.97
488.467	5587.56
488.837	5692.42
489.207	5860.1
489.578	6021.23
489.948	6146.42
490.318	6273.2
490.688	6372.4
491.058	6487.88
491.428	6643.36
491.798	6748.89
492.168	6899.39
492.538	7062.1
492.908	7194.3
493.278	7272.94
493.648	7385.94
494.017	7551.13
494.387	7675.87
494.757	7830.9
495.126	7941.85
495.496	7947.95
495.866	8113.37
496.235	8252.58
496.605	8434.72
496.974	8480.37
497.344	8588.16
497.713	8665.9
498.082	8860.25
498.452	8949.51
498.821	9030.41
499.19	9126
499.559	9304.3
499.928	9363.96
500.298	9449.16
500.667	9536.39
501.036	9621.36
501.405	9698.64
501.774	9825.65
502.143	9955.81
502.512	9926.43
502.88	9949.48
503.249	10093.21
503.618	10254.79
503.987	10222.7
504.356	10336.37
504.724	10473.09
505.093	10456.82
505.462	10587.21
505.83	10688.45
506.199	10734.55
506.567	10944.71
506.936	10886.86
507.304	10962.11
507.672	10996.46
508.041	11056.12
508.409	11240.98
508.777	11346.51
509.145	11396.68
509.514	11309.67
509.882	11475.09
510.25	11471.03
510.618	11474.19
510.986	11656.33
511.354	11636.9
511.722	11728.87
512.09	11820.17
512.458	11776.1
512.826	11917.57
513.193	11963.22
513.561	12027.85
513.929	12108.52
514.297	12085.02
514.664	12191.01
515.032	12218.13
515.4	12237.79
515.767	12295.19
516.135	12329.53
516.502	12327.95
516.869	12479.14
517.237	12427.61
517.604	12351.91
517.972	12536.53
518.339	12611.56
518.706	12573.82
519.073	12642.07
519.44	12637.1
519.808	12762.52
520.175	12735.4
520.542	12835.96
520.909	12875.51
521.276	12835.28
521.643	12903.3
522.009	12994.83
522.376	12983.98
522.743	12992.34
523.11	13104.66
523.477	13169.96
523.843	13200.02
524.21	13253.35
524.577	13209.96
524.943	13372.44
525.31	13281.15
525.676	13416.74
526.043	13435.72
526.409	13358.89
526.776	13501.71
527.142	13556.17
527.508	13425.1
527.874	13614.92
528.241	13543.97
528.607	13467.81
528.973	13586.68
529.339	13556.39
529.705	13643.17
530.071	13710.52
530.437	13706.45
530.803	13676.62
531.169	13732.66
531.535	13647.01
531.901	13659.67
532.267	13637.3
532.632	13715.26
532.998	13590.97
533.364	13748.25
533.73	13581.03
534.095	13705.09
534.461	13680.69
534.826	13654.47
535.192	13649.73
535.557	13702.15
535.923	13602.27
536.288	13540.58
536.653	13647.47
537.019	13557.07
537.384	13544.87
537.749	13534.25
538.114	13528.37
538.479	13460.58
538.845	13350.3
539.21	13396.85
539.575	13411.09
539.94	13383.52
540.305	13380.13
540.67	13375.16
541.034	13344.88
541.399	13297.64
541.764	13307.81
542.129	13169.29
542.494	13259.23
542.858	13120.47
543.223	13172.45
543.587	13212.68
543.952	13134.49
544.316	13136.29
544.681	13015.84
545.045	13080.48
545.41	13142.17
545.774	13036.41
546.138	13039.57
546.503	12971.78
546.867	12972.91
547.231	12965.68
547.595	12901.72
547.959	12951.89
548.324	12868.5
548.688	12840.26
549.052	12793.25
549.416	12718.22
549.779	12706.7
550.143	12744.89
550.507	12639.36
550.871	12793.25
551.235	12611.79
551.599	12736.08
551.962	12664.22
552.326	12579.25
552.689	12658.57
553.053	12471.45
553.417	12516.42
553.78	12643.2
554.143	12491.79
554.507	12459.47
554.87	12496.31
555.234	12591.67
555.597	12474.84
555.96	12423.54
556.323	12375.86
556.686	12491.11
557.05	12452.24
557.413	12422.19
557.776	12443.88
558.139	12431.45
558.502	12402.75
558.865	12329.53
559.228	12414.5
559.59	12389.87
559.953	12417.22
560.316	12480.72
560.679	12396.88
561.041	12448.85
561.404	12511.45
561.767	12534.5
562.129	12441.85
562.492	12529.53
562.854	12463.09
563.217	12435.52
563.579	12491.11
563.941	12468.06
564.304	12399.14
564.666	12486.59
565.028	12511.68
565.39	12548.74
565.753	12497.21
566.115	12529.53
566.477	12586.48
566.839	12613.14
567.201	12626.02
567.563	12571.79
567.925	12675.51
568.287	12597.55
568.648	12621.05
569.01	12761.39
569.372	12756.42
569.734	12667.15
570.095	12675.29
570.457	12769.97
570.819	12663.31
571.18	12765
571.542	12701.73
571.903	12782.63
572.265	12780.6
572.626	12865.79
572.987	12757.55
573.349	12887.03
573.71	12913.02
574.071	12817.21
574.432	12904.89
574.794	12912.12
575.155	12910.76
575.516	12792.35
575.877	12900.59
576.238	12958.9
576.599	12949.86
576.96	12936.3
577.32	12870.09
577.681	13004.09
578.042	12903.53
578.403	12963.87
578.763	12929.29
579.124	12890.88
579.485	12956.18
579.845	12977.43
580.206	12949.18
580.566	12950.31
580.927	12957.31
581.287	12979.91
581.648	12988.05
582.008	12941.72
582.368	12937.88
582.728	12922.29
583.089	12912.34
583.449	12906.02
583.809	12953.25
584.169	12996.64
584.529	12956.41
584.889	12977.43
585.249	12869.63
585.609	12877.99
585.969	12972.68
586.329	12846.13
586.688	12900.82
587.048	12918.22
587.408	12846.36
587.768	12916.19
588.127	12844.1
588.487	12824.21
588.846	12865.57
589.206	12767.26
589.565	12770.65
589.925	12855.62
590.284	12825.11
590.643	12883.19
591.003	12898.79
591.362	12936.52
591.721	12856.53
592.08	12850.65
592.44	12857.88
592.799	12933.36
593.158	12769.52
593.517	12853.81
593.876	12730.88
594.235	12746.47
594.593	12753.03
594.952	12795.96
595.311	12790.09
595.67	12728.39
596.029	12728.39
596.387	12756.87
596.746	12733.82
597.104	12689.53
597.463	12709.64
597.822	12756.87
598.18	12729.75
598.538	12698.11
598.897	12749.86
599.255	12574.05
599.613	12807.04
599.972	12689.3
600.33	12771.78
600.688	12676.87
601.046	12725
601.404	12874.83
601.762	12711.67
602.12	12845.45
602.478	12871.22
602.836	12776.75
603.194	12691.56
603.552	12796.41
603.91	12678
604.268	12742.63
604.625	12731.11
604.983	12706.7
605.341	12679.36
605.698	12700.37
606.056	12751.44
606.413	12743.53
606.771	12725.91
607.128	12788.73
607.485	12685.01
607.843	12729.75
608.2	12756.64
608.557	12769.07
608.914	12672.35
609.272	12835.96
609.629	12876.19
609.986	12903.08
610.343	12822.4
610.7	12913.7
611.057	12875.06
611.414	12861.95
611.771	12913.47
612.127	12968.84
612.484	12955.96
612.841	12911.67
613.198	12911.89
613.554	12983.75
613.911	12901.95
614.267	12983.75
614.624	12965
614.98	13037.31
615.337	13017.88
615.693	13000.25
616.05	12898.79
616.406	13034.37
616.762	12967.48
617.118	13011.1
617.475	13024.88
617.831	13041.38
618.187	13078.67
618.543	13094.94
618.899	13084.99
619.255	13115.95
619.611	13128.61
619.967	13085.67
620.323	13144.65
620.678	13129.29
621.034	13099.91
621.39	13146.69
621.746	13151.21
622.101	13244.09
622.457	13110.98
622.812	13225.33
623.168	13146.69
623.523	13107.59
623.879	13232.56
624.234	13132.68
624.589	13181.94
624.945	13123.64
625.3	13139.23
625.655	13150.76
626.01	13199.57
626.365	13114.37
626.72	13134.49
627.075	13144.88
627.43	13129.97
627.785	13100.59
628.14	13031.89
628.495	13096.97
628.85	13010.19
629.205	13065.79
629.559	13146.69
629.914	13028.05
630.269	13006.35
630.623	12990.08
630.978	12996.64
631.332	13101.49
631.687	13070.08
632.041	12960.7
632.396	12963.64
632.75	12963.42
633.104	13060.36
633.459	12922.29
633.813	12934.94
634.167	12877.09
634.521	12848.62
634.875	12893.36
635.229	12873.7
635.583	12850.42
635.937	12797.54
636.291	12837.77
636.645	12826.02
636.999	12786.7
637.352	12776.3
637.706	12671.67
638.06	12815.85
638.413	12740.37
638.767	12746.25
639.121	12739.47
639.474	12687.27
639.828	12692.01
640.181	12642.52
640.534	12680.03
640.888	12661.73
641.241	12633.71
641.594	12635.29
641.947	12616.53
642.301	12661.96
642.654	12592.35
643.007	12681.62
643.36	12653.37
643.713	12539.92
644.066	12607.04
644.419	12575.63
644.771	12493.37
645.124	12306.26
645.477	12301.06
645.83	12264
646.182	12177.67
646.535	12146.26
646.888	12181.97
647.24	12052.03
647.593	12106.49
647.945	12182.19
648.298	12096.55
648.65	12098.35
649.002	12025.36
649.355	12087.06
649.707	12097.45
650.059	12177.22
650.411	12282.3
650.763	12345.58
651.115	12408.4
651.467	12402.53
651.819	12454.05
652.171	12449.98
652.523	12338.8
652.875	12366.6
653.227	12372.47
653.578	12449.76
653.93	12409.98
654.282	12329.08
654.633	12333.15
654.985	12327.5
655.337	12378.57
655.688	12348.07
656.039	12379.7
656.391	12291.34
656.742	12333.38
657.094	12294.06
657.445	12416.99
657.796	12293.15
658.147	12335.64
658.498	12253.38
658.849	12395.07
659.2	12348.74
659.551	12275.07
659.902	12322.08
660.253	12372.25
660.604	12381.51
660.955	12370.21
661.306	12443.43
661.656	12326.6
662.007	12337.44
662.358	12412.02
662.708	12380.61
663.059	12392.81
663.409	12344.22
663.76	12371.12
664.11	12410.66
664.461	12405.01
664.811	12447.5
665.161	12448.63
665.511	12403.88
665.862	12313.49
666.212	12435.52
666.562	12507.16
666.912	12388.52
667.262	12322.53
667.612	12407.27
667.962	12403.43
668.312	12306.94
668.662	12444.33
669.011	12389.65
669.361	12332.7
669.711	12409.08
670.06	12393.71
670.41	12320.04
670.76	12271.23
671.109	12354.62
671.459	12350.55
671.808	12386.48
672.157	12295.64
672.507	12215.41
672.856	12232.14
673.205	12314.17
673.554	12304.22
673.904	12276.43
674.253	12293.83
674.602	12347.84
674.951	12072.14
675.3	12064
675.649	12262.42
675.998	12277.11
676.346	12162.53
676.695	12267.62
677.044	12068.07
677.393	12171.12
677.741	12231.23
678.09	12125.02
678.438	12170.67
678.787	12166.38
679.135	12103.1
679.484	12064.46
679.832	12095.87
680.181	12017.45
680.529	12042.08
680.877	11998.92
681.225	11901.98
681.573	12043.21
681.922	11948.3
682.27	11913.27
682.618	11960.96
682.966	11854.07
683.314	11902.65
683.661	11856.33
684.009	11728.65
684.357	11757.35
684.705	11668.31
685.053	11651.81
685.4	11678.25
685.748	11662.21
686.095	11635.99
686.443	11586.05
686.79	11577.01
687.138	11638.71
687.485	11591.7
687.832	11556.22
688.18	11589.67
688.527	11458.6
688.874	11469.44
689.221	11402.1
689.568	11379.28
689.915	11308.77
690.262	11311.03
690.609	11273.29
690.956	11250.69
691.303	11312.61
691.65	11230.35
691.997	11250.24
692.344	11127.98
692.69	11184.93
693.037	11201.2
693.383	10991.72
693.73	11026.74
694.077	10986.52
694.423	10951.94
694.769	10967.99
695.116	10913.07
695.462	10801.21
695.808	10870.59
696.155	10824.04
696.501	10799.86
696.847	10709.01
697.193	10651.84
697.539	10670.82
697.885	10609.35
698.231	10540.2
698.577	10531.16
698.923	10512.18
699.269	10450.04
699.614	10444.61
699.96	10330.04
700.306	10366.2
700.651	10269.48
700.997	10228.8
701.342	10209.59
701.688	10264.28
702.033	10128.69
702.379	10168.91
702.724	10071.97
703.069	10088.69
703.415	9990.61
703.76	9928.02
704.105	9928.47
704.45	9936.83
704.795	9922.59
705.14	9866.32
705.485	9756.04
705.83	9798.75
706.175	9822.26
706.52	9733.67
706.865	9742.48
707.209	9756.04
707.554	9667.23
707.899	9684.63
708.243	9615.93
708.588	9649.61
708.932	9552.21
709.277	9604.63
709.621	9523.28
709.966	9466.56
710.31	9524.64
710.654	9384.08
710.998	9444.64
711.342	9512.89
711.687	9421.14
712.031	9376.17
712.375	9367.58
712.719	9307.69
713.063	9253.68
713.407	9384.3
713.75	9230.86
714.094	9309.95
714.438	9217.3
714.782	9286.45
715.125	9184.08
715.469	9231.54
715.812	9167.36
716.156	9099.56
716.499	9071.99
716.843	9077.42
717.186	9031.09
717.53	9148.6
717.873	9146.12
718.216	9071.54
718.559	9059.56
718.902	9060.24
719.246	8977.08
719.589	8953.8
719.932	8874.71
720.275	8950.87
720.617	8828.84
720.96	8838.78
721.303	8925.56
721.646	8900.02
721.989	8803.75
722.331	8884.88
722.674	8864.31
723.016	8917.19
723.359	8831.77
723.701	8830.19
724.044	8856.41
724.386	8765.56
724.729	8870.19
725.071	8781.61
725.413	8813.92
725.755	8795.16
726.097	8762.4
726.439	8741.15
726.782	8752.45
727.124	8779.12
727.465	8718.33
727.807	8720.36
728.149	8740.93
728.491	8665
728.833	8719.46
729.175	8637.88
729.516	8703.42
729.858	8629.52
730.199	8736.18
730.541	8673.81
730.882	8640.14
731.224	8721.04
731.565	8659.12
731.906	8696.18
732.248	8712.45
732.589	8650.99
732.93	8584.77
733.271	8639.91
733.612	8658.22
733.953	8662.51
734.294	8633.81
734.635	8618.22
734.976	8670.42
735.317	8600.59
735.658	8642.85
735.999	8602.85
736.339	8625.45
736.68	8672
737.021	8649.86
737.361	8564.44
737.702	8640.59
738.042	8663.64
738.383	8617.54
738.723	8648.28
739.063	8700.7
739.404	8677.43
739.744	8688.73
740.084	8648.5
740.424	8699.35
740.764	8703.42
741.104	8706.35
741.444	8759.68
741.784	8650.54
742.124	8797.88
742.464	8777.54
742.804	8829.51
743.143	8787.93
743.483	8871.55
743.823	8826.58
744.162	8838.55
744.502	8928.72
744.841	8932.79
745.181	8945.22
745.52	8994.48
745.86	8999.9
746.199	8977.08
746.538	9043.07
746.877	9074.93
747.216	9083.07
747.556	9192.44
747.895	9187.92
748.234	9248.49
748.573	9341.36
748.911	9311.31
749.25	9339.56
749.589	9357.86
749.928	9490.74
750.267	9531.64
750.605	9576.39
750.944	9689.38
751.283	9712.2
751.621	9917.17
751.96	9907.9
752.298	9967.79
752.636	10021.57
752.975	10116.26
753.313	10217.5
753.651	10313.77
753.989	10378.85
754.327	10426.08
754.666	10579.52
755.004	10651.39
755.342	10825.17
755.679	10861.78
756.017	11093.86
756.355	11222.9
756.693	11245.27
757.031	11429.22
757.368	11532.04
757.706	11595.32
758.044	11826.04
758.381	11962.09
758.719	12017.23
759.056	12211.8
