Data from hue_190_FLMS001491_00030.txt Node
Date: Tue Feb 07 16:45:04 GMT 2017
User: dcchb
Spectrometer: FLMS00149
Trigger mode: 0
Integration Time (sec): 2.000000E-2
Scans to average: 10
Electric dark correction enabled: true
Nonlinearity correction enabled: false
Boxcar width: 0
XAxis mode: Wavelengths
Number of Pixels in Spectrum: 2048
>>>>>Begin Spectral Data<<<<<
341.393	-21.19
341.776	-21.19
342.16	-21.19
342.543	-46.5
342.927	-51.02
343.31	-62.54
343.693	-71.13
344.077	-48.76
344.46	-62.99
344.843	-47.4
345.226	-38.59
345.61	-33.61
345.993	-20.73
346.376	-3.79
346.759	-8.76
347.142	26.95
347.525	59.72
347.908	58.59
348.291	72.82
348.674	74.63
349.057	105.59
349.44	116.89
349.823	141.3
350.206	168.64
350.588	182.65
350.971	204.12
351.354	228.53
351.737	232.14
352.119	271.24
352.502	255.19
352.884	249.32
353.267	280.28
353.65	281.18
354.032	285.92
354.414	313.04
354.797	291.35
355.179	316.66
355.562	306.49
355.944	305.13
356.326	327.05
356.709	328.18
357.091	335.19
357.473	341.06
357.855	341.29
358.238	337.67
358.62	322.31
359.002	318.24
359.384	347.39
359.766	337.67
360.148	320.5
360.53	335.87
360.912	309.88
361.294	336.09
361.676	308.07
362.057	320.5
362.439	318.92
362.821	328.64
363.203	327.28
363.584	308.07
363.966	302.42
364.348	334.51
364.729	331.57
365.111	316.21
365.493	298.35
365.874	304
366.256	314.4
366.637	315.53
367.019	299.26
367.4	328.86
367.781	292.93
368.163	310.78
368.544	294.96
368.925	304.23
369.306	313.27
369.688	292.93
370.069	317.34
370.45	306.04
370.831	304.91
371.212	319.14
371.593	311.69
371.974	318.92
372.355	308.07
372.736	303.55
373.117	322.08
373.498	300.61
373.879	304.91
374.26	317.56
374.641	295.42
375.021	303.1
375.402	320.5
375.783	302.2
376.163	320.27
376.544	325.47
376.925	330.22
377.305	322.53
377.686	306.49
378.066	320.05
378.447	318.92
378.827	338.35
379.208	320.05
379.588	312.14
379.968	306.49
380.349	328.86
380.729	332.25
381.109	315.75
381.489	334.28
381.87	333.16
382.25	306.26
382.63	335.64
383.01	334.51
383.39	330.22
383.77	324.57
384.15	327.96
384.53	318.47
384.91	331.57
385.29	344.68
385.67	337
386.049	338.8
386.429	344.45
386.809	338.8
387.189	306.94
387.568	354.62
387.948	327.96
388.328	353.49
388.707	339.93
389.087	344.45
389.466	331.35
389.846	334.28
390.225	358.69
390.605	357.34
390.984	357.79
391.363	346.04
391.743	352.82
392.122	329.09
392.501	359.37
392.881	337.9
393.26	377.45
393.639	361.4
394.018	352.82
394.397	372.25
394.776	368.86
395.155	366.83
395.534	378.8
395.913	359.37
396.292	393.49
396.671	386.26
397.05	384.68
397.429	386.49
397.808	351.46
398.186	383.32
398.565	365.24
398.944	379.26
399.323	371.35
399.701	389.42
400.08	378.58
400.458	404.57
400.837	399.59
401.215	388.52
401.594	384.45
401.972	391.01
402.351	412.93
402.729	413.6
403.107	398.69
403.486	409.76
403.864	431.23
404.242	413.83
404.62	408.41
404.999	421.29
405.377	405.7
405.755	410.44
406.133	443.21
406.511	420.61
406.889	453.6
407.267	447.05
407.645	468.29
408.023	466.94
408.401	447.5
408.779	465.58
409.156	474.62
409.534	490.21
409.912	468.74
410.29	514.17
410.667	486.15
411.045	504.45
411.422	507.39
411.8	522.3
412.178	516.88
412.555	528.4
412.933	568.86
413.31	553.49
413.687	556.2
414.065	542.87
414.442	573.6
414.819	577.89
415.197	602.98
415.574	578.12
415.951	623.32
416.328	605.24
416.705	621.28
417.082	632.13
417.46	633.03
417.837	663.99
418.214	652.47
418.591	647.72
418.967	653.82
419.344	687.72
419.721	680.04
420.098	680.94
420.475	716.42
420.852	736.31
421.228	721.17
421.605	736.53
421.982	764.33
422.358	772.47
422.735	783.31
423.111	809.75
423.488	806.14
423.864	830.09
424.241	877.32
424.617	836.42
424.994	844.33
425.37	864.21
425.746	885.91
426.123	899.92
426.499	905.57
426.875	915.74
427.251	931.11
427.627	947.15
428.003	945.57
428.379	967.49
428.756	965
429.132	995.28
429.507	989.63
429.883	1025.11
430.259	1023.98
430.635	1025.11
431.011	1032.35
431.387	1068.05
431.763	1083.87
432.138	1084.32
432.514	1097.43
432.89	1135.62
433.265	1143.08
433.641	1177.65
434.016	1195.05
434.392	1197.09
434.767	1226.24
435.143	1249.06
435.518	1281.6
435.894	1292.9
436.269	1302.85
436.644	1332.45
437.02	1383.52
437.395	1360.7
437.77	1409.51
438.145	1436.18
438.52	1445.89
438.895	1457.65
439.271	1479.57
439.646	1547.13
440.021	1522.05
440.395	1525.67
440.77	1540.13
441.145	1591.88
441.52	1626.45
441.895	1604.08
442.27	1632.56
442.645	1665.1
443.019	1668.26
443.394	1712.1
443.769	1738.99
444.143	1734.25
444.518	1770.63
444.892	1769.05
445.267	1777.64
445.641	1772.89
446.016	1805.66
446.39	1824.19
446.764	1868.93
447.139	1850.86
447.513	1863.28
447.887	1856.5
448.262	1886.11
448.636	1913.9
449.01	1935.37
449.384	1982.83
449.758	1957.29
450.132	1983.28
450.506	2013.34
450.88	2042.94
451.254	2032.77
451.628	2035.94
452.002	2072.77
452.376	2093.79
452.75	2128.81
453.123	2139.66
453.497	2160.23
453.871	2179.21
454.244	2224.86
454.618	2240.68
454.992	2247.23
455.365	2285.42
455.739	2300.11
456.112	2363.38
456.486	2365.42
456.859	2374.46
457.232	2432.99
457.606	2424.17
457.979	2471.63
458.352	2505.98
458.725	2536.94
459.099	2553.66
459.472	2622.81
459.845	2661
460.218	2665.07
460.591	2688.12
460.964	2660.78
461.337	2751.85
461.71	2827.33
462.083	2824.84
462.456	2878.17
462.829	2868.46
463.201	2881.34
463.574	2907.32
463.947	2984.38
464.32	2996.36
464.692	3043.37
465.065	3086.53
465.438	3110.71
465.81	3203.81
466.183	3220.54
466.555	3252.85
466.928	3295.79
467.3	3310.25
467.672	3354.09
468.045	3420.08
468.417	3475.22
468.789	3484.26
469.161	3543.92
469.534	3614.2
469.906	3660.3
470.278	3726.74
470.65	3753.63
471.022	3813.52
471.394	3888.09
471.766	3886.96
472.138	3991.82
472.51	4048.76
472.882	4092.38
473.253	4143
473.625	4199.49
473.997	4302.09
474.369	4338.47
474.74	4423.89
475.112	4499.83
475.484	4531.91
475.855	4639.26
476.227	4669.99
476.598	4780.27
476.97	4852.58
477.341	4925.8
477.713	5015.97
478.084	5059.36
478.455	5234.27
478.827	5288.51
479.198	5411.21
479.569	5393.59
479.94	5527.37
480.311	5557.88
480.682	5734.14
481.053	5885.55
481.424	5894.59
481.795	5975.94
482.166	6067.92
482.537	6134.58
482.908	6311.3
483.279	6333
483.65	6509.94
484.021	6634.01
484.391	6677.85
484.762	6784.51
485.133	6801.46
485.503	6897.73
485.874	7086.42
486.244	7115.35
486.615	7269.47
486.985	7385.85
487.356	7458.84
487.726	7544.72
488.097	7668.56
488.467	7669.01
488.837	7891.37
489.207	7909
489.578	8151.93
489.948	8087.75
490.318	8307.18
490.688	8305.15
491.058	8461.98
491.428	8497.01
491.798	8585.14
492.168	8772.93
492.538	8814.97
492.908	8835.53
493.278	8956.66
493.648	8990.1
494.017	9077.11
494.387	9176.31
494.757	9165.92
495.126	9270.77
495.496	9322.07
495.866	9298.57
496.235	9427.15
496.605	9498.79
496.974	9597.32
497.344	9648.84
497.713	9734.94
498.082	9768.39
498.452	9840.02
498.821	9892.9
499.19	9870.31
499.559	9919.12
499.928	10020.58
500.298	9988.72
500.667	10126.8
501.036	10122.05
501.405	10156.17
501.774	10159.79
502.143	10215.38
502.512	10260.35
502.88	10369.73
503.249	10353.23
503.618	10388.03
503.987	10369.95
504.356	10403.17
504.724	10460.12
505.093	10486.33
505.462	10468.93
505.83	10538.99
506.199	10576.5
506.567	10673
506.936	10598.65
507.304	10722.94
507.672	10774.69
508.041	10802.03
508.409	10784.63
508.777	10844.97
509.145	10892.88
509.514	10731.98
509.882	10920.67
510.25	10811.52
510.618	10925.87
510.986	10910.96
511.354	10937.85
511.722	10989.15
512.09	11040.22
512.458	11066.88
512.826	11089.93
513.193	11108.46
513.561	11106.66
513.929	11170.38
514.297	11146.43
514.664	11137.84
515.032	11152.98
515.4	11194.56
515.767	11196.82
516.135	11214.45
516.502	11134.68
516.869	11228.24
517.237	11252.42
517.604	11153.21
517.972	11210.61
518.339	11212.64
518.706	11144.85
519.073	11211.06
519.44	11140.1
519.808	11210.84
520.175	11182.36
520.542	11290.16
520.909	11297.16
521.276	11249.25
521.643	11336.93
522.009	11277.73
522.376	11296.71
522.743	11323.83
523.11	11293.77
523.477	11319.08
523.843	11356.59
524.21	11432.3
524.577	11404.5
524.943	11329.93
525.31	11364.96
525.676	11351.4
526.043	11444.95
526.409	11379.87
526.776	11472.3
527.142	11372.19
527.508	11358.4
527.874	11448.12
528.241	11289.25
528.607	11313.43
528.973	11276.37
529.339	11317.5
529.705	11344.84
530.071	11253.77
530.437	11301.23
530.803	11293.54
531.169	11256.26
531.535	11134.23
531.901	11109.37
532.267	11093.55
532.632	11074.79
532.998	11053.55
533.364	11053.55
533.73	10966.1
534.095	11026.21
534.461	10997.51
534.826	10913.22
535.192	10874.57
535.557	10880.22
535.923	10743.73
536.288	10662.38
536.653	10686.78
537.019	10603.39
537.384	10561.13
537.749	10544.86
538.114	10525.2
538.479	10441.14
538.845	10435.04
539.21	10359.56
539.575	10289.96
539.94	10273.23
540.305	10244.53
540.67	10123.63
541.034	10106.46
541.399	10060.81
541.764	10002.05
542.129	10010.19
542.494	9950.76
542.858	9964.77
543.223	9857.42
543.587	9795.96
543.952	9725.22
544.316	9677.99
544.681	9658.33
545.045	9566.81
545.41	9491.56
545.774	9520.03
546.138	9431.45
546.503	9347.16
546.867	9287.72
547.231	9316.87
547.595	9301.51
547.959	9221.28
548.324	9161.4
548.688	9080.27
549.052	9107.39
549.416	8991.46
549.779	8993.49
550.143	8941.97
550.507	8947.17
550.871	8929.54
551.235	8849.32
551.599	8765.02
551.962	8726.38
552.326	8622.43
552.689	8753.27
553.053	8529.55
553.417	8596.44
553.78	8540.17
554.143	8403.9
554.507	8457.69
554.87	8403.23
555.234	8389.44
555.597	8310.12
555.96	8254.98
556.323	8256.79
556.686	8196
557.05	8195.32
557.413	8184.02
557.776	8127.98
558.139	8085.95
558.502	8115.32
558.865	8083.01
559.228	8029.45
559.59	7972.05
559.953	8046.85
560.316	8003.24
560.679	7890.7
561.041	7902.22
561.404	7917.14
561.767	7914.88
562.129	7865.84
562.492	7885.27
562.854	7846.86
563.217	7828.78
563.579	7768.44
563.941	7764.6
564.304	7784.71
564.666	7843.01
565.028	7792.62
565.39	7768.21
565.753	7859.74
566.115	7752.85
566.477	7728.44
566.839	7668.1
567.201	7737.93
567.563	7687.31
567.925	7718.95
568.287	7696.35
568.648	7702.23
569.01	7638.95
569.372	7682.11
569.734	7645.51
570.095	7634.21
570.457	7671.27
570.819	7698.84
571.18	7627.65
571.542	7666.75
571.903	7619.52
572.265	7644.6
572.626	7566.64
572.987	7532.29
573.349	7612.06
573.71	7656.13
574.071	7572.06
574.432	7631.27
574.794	7661.1
575.155	7628.1
575.516	7549.91
575.877	7601.66
576.238	7641.66
576.599	7614.09
576.96	7565.28
577.32	7534.32
577.681	7560.54
578.042	7546.07
578.403	7543.13
578.763	7558.05
579.124	7510.82
579.485	7556.24
579.845	7624.26
580.206	7467.43
580.566	7502.23
580.927	7466.3
581.287	7556.24
581.648	7510.14
582.008	7538.62
582.368	7487.77
582.728	7513.31
583.089	7514.21
583.449	7391.27
583.809	7476.47
584.169	7444.61
584.529	7377.26
584.889	7447.54
585.249	7412.29
585.609	7368
585.969	7390.14
586.329	7329.58
586.688	7333.2
587.048	7371.84
587.408	7283.25
587.768	7323.71
588.127	7324.38
588.487	7299.3
588.846	7377.04
589.206	7263.14
589.565	7313.76
589.925	7262.92
590.284	7232.86
590.643	7309.47
591.003	7302.24
591.362	7255.91
591.721	7201.68
592.08	7259.75
592.44	7217.27
592.799	7233.09
593.158	7228.79
593.517	7238.28
593.876	7137.72
594.235	7216.36
594.593	7165.29
594.952	7207.55
595.311	7119.87
595.67	7160.32
596.029	7201.9
596.387	7184.5
596.746	7123.71
597.104	7114.45
597.463	7125.97
597.822	7175.01
598.18	7053.66
598.538	7059.76
598.897	7093.88
599.255	7082.58
599.613	7144.28
599.972	7091.62
600.33	7046.2
600.688	7005.97
601.046	7087.33
601.404	7096.82
601.762	7053.66
602.12	7057.95
602.478	7057.5
602.836	7011.85
603.194	7011.4
603.552	7048.68
603.91	7030.38
604.268	7060.44
604.625	7044.62
604.983	7006.43
605.341	6989.7
605.698	7008.23
606.056	7092.75
606.413	7025.86
606.771	7009.14
607.128	6998.52
607.485	6985.41
607.843	6998.97
608.2	7047.1
608.557	7060.89
608.914	6979.76
609.272	6972.3
609.629	6988.8
609.986	7028.8
610.343	7011.17
610.7	7095.92
611.057	7052.3
611.414	7002.36
611.771	7038.74
612.127	7036.71
612.484	7033.32
612.841	7076.25
613.198	6997.39
613.554	7016.82
613.911	7080.77
614.267	7062.24
614.624	7012.53
614.98	7078.74
615.337	7095.92
615.693	7106.76
616.05	7052.53
616.406	7127.33
616.762	7025.86
617.118	7135.69
617.475	7146.54
617.831	7144.28
618.187	7069.02
618.543	7105.63
618.899	7114.67
619.255	7125.74
619.611	7152.41
619.967	7105.86
620.323	7129.81
620.678	7092.07
621.034	7065.86
621.39	7119.87
621.746	7084.84
622.101	7140.66
622.457	7097.27
622.812	7087.78
623.168	7076.93
623.523	7096.82
623.879	7196.03
624.234	7001.91
624.589	7139.98
624.945	7097.05
625.3	7132.07
625.655	7079.87
626.01	7090.04
626.365	7069.7
626.72	7068.35
627.075	7116.71
627.43	7025.41
627.785	7085.07
628.14	7101.56
628.495	7106.76
628.85	7031.74
629.205	7114.67
629.559	7075.8
629.914	7066.09
630.269	7097.5
630.623	7057.5
630.978	7084.84
631.332	7016.6
631.687	7017.73
632.041	7023.37
632.396	6954.45
632.75	6987.22
633.104	6968.69
633.459	6984.51
633.813	7007.78
634.167	6922.13
634.521	6947.22
634.875	6937.5
635.229	6909.03
635.583	6898.18
635.937	6917.39
636.291	6946.54
636.645	6874.23
636.999	6867.45
637.352	6897.95
637.706	6866.09
638.06	6896.82
638.413	6877.62
638.767	6863.15
639.121	6860.67
639.474	6801.91
639.828	6842.14
640.181	6840.1
640.534	6822.93
640.888	6860.22
641.241	6832.87
641.594	6839.65
641.947	6840.33
642.301	6782.7
642.654	6733.44
643.007	6764.85
643.36	6781.8
643.713	6768.24
644.066	6815.47
644.419	6733.66
644.771	6679.2
645.124	6669.26
645.477	6636.94
645.83	6611.63
646.182	6636.04
646.535	6626.77
646.888	6541.58
647.24	6596.95
647.593	6573.44
647.945	6599.66
648.298	6527.79
648.65	6559.66
649.002	6502.26
649.355	6583.61
649.707	6570.05
650.059	6573.22
650.411	6724.63
650.763	6651.86
651.115	6730.05
651.467	6732.31
651.819	6694.34
652.171	6752.87
652.523	6716.49
652.875	6712.65
653.227	6706.09
653.578	6741.12
653.93	6708.58
654.282	6741.57
654.633	6718.75
654.985	6678.75
655.337	6731.4
655.688	6750.16
656.039	6730.05
656.391	6658.86
656.742	6754.68
657.094	6779.09
657.445	6771.63
657.796	6761.23
658.147	6759.88
658.498	6787.45
658.849	6774.79
659.2	6758.07
659.551	6777.96
659.902	6792.65
660.253	6763.04
660.604	6790.84
660.955	6776.83
661.306	6778.18
661.656	6759.88
662.007	6742.03
662.358	6826.09
662.708	6810.5
663.059	6831.52
663.409	6743.38
663.76	6872.19
664.11	6834.23
664.461	6892.3
664.811	6828.8
665.161	6890.72
665.511	6886.2
665.862	6859.54
666.212	6835.36
666.562	6820.44
666.912	6848.46
667.262	6854.34
667.612	6853.21
667.962	6867.45
668.312	6893.43
668.662	6881.46
669.011	6872.64
669.361	6850.05
669.711	6861.57
670.06	6823.61
670.41	6811.85
670.76	6823.61
671.109	6839.42
671.459	6870.38
671.808	6818.18
672.157	6844.62
672.507	6821.35
672.856	6773.44
673.205	6802.59
673.554	6775.7
673.904	6762.82
674.253	6785.87
674.602	6786.32
674.951	6670.84
675.3	6613.67
675.649	6754
675.998	6660.67
676.346	6767.34
676.695	6746.55
677.044	6654.12
677.393	6706.09
677.741	6663.38
678.09	6749.71
678.438	6683.95
678.787	6642.37
679.135	6686.43
679.484	6636.94
679.832	6615.02
680.181	6643.5
680.529	6654.12
680.877	6598.98
681.225	6558.75
681.573	6679.65
681.922	6600.79
682.27	6604.63
682.618	6557.62
682.966	6581.8
683.314	6530.96
683.661	6564.4
684.009	6480.56
684.357	6457.74
684.705	6489.38
685.053	6448.7
685.4	6416.38
685.748	6406.22
686.095	6423.16
686.443	6340.68
686.79	6396.05
687.138	6374.35
687.485	6359.66
687.832	6379.78
688.18	6371.19
688.527	6277.86
688.874	6303.17
689.221	6243.96
689.568	6247.8
689.915	6274.24
690.262	6235.6
690.609	6195.83
690.956	6234.24
691.303	6156.96
691.65	6138.43
691.997	6156.5
692.344	6133
692.69	6070.41
693.037	6094.81
693.383	6005.1
693.73	5984.08
694.077	5955.15
694.423	5959.67
694.769	5944.98
695.116	5951.31
695.462	5904.31
695.808	5911.54
696.155	5861.37
696.501	5829.96
696.847	5810.53
697.193	5738.21
697.539	5810.75
697.885	5726.46
698.231	5763.29
698.577	5759.45
698.923	5723.07
699.269	5649.4
699.614	5643.52
699.96	5619.57
700.306	5623.41
700.651	5603.07
700.997	5566.69
701.342	5543.64
701.688	5534.15
702.033	5542.51
702.379	5490.08
702.724	5403.76
703.069	5451.66
703.415	5435.17
703.76	5383.19
704.105	5385.68
704.45	5366.24
704.795	5346.81
705.14	5301.16
705.485	5346.58
705.83	5322.85
706.175	5301.16
706.52	5271.78
706.865	5260.26
707.209	5236.98
707.554	5243.08
707.899	5252.35
708.243	5180.03
708.588	5193.37
708.932	5163.76
709.277	5118.57
709.621	5162.86
709.966	5129.41
710.31	5109.07
710.654	5117.44
710.998	5083.76
711.342	5072.47
711.687	5081.73
712.031	5057.55
712.375	5009.64
712.719	5006.7
713.063	5025.46
713.407	5001.28
713.75	4977.78
714.094	4982.52
714.438	4998.34
714.782	4975.52
715.125	4931
715.469	4962.64
715.812	4898.23
716.156	4879.25
716.499	4933.03
716.843	4919.02
717.186	4849.65
717.53	4908.18
717.873	4905.92
718.216	4897.1
718.559	4879.25
718.902	4853.49
719.246	4824.11
719.589	4891.91
719.932	4794.73
720.275	4826.37
720.617	4805.58
720.96	4791.34
721.303	4822.3
721.646	4834.96
721.989	4799.48
722.331	4890.1
722.674	4836.77
723.016	4824.56
723.359	4773.04
723.701	4785.47
724.044	4780.5
724.386	4793.83
724.729	4789.54
725.071	4794.28
725.413	4785.69
725.755	4737.79
726.097	4772.59
726.439	4714.28
726.782	4739.82
727.124	4802.42
727.465	4759.93
727.807	4744.56
728.149	4710.22
728.491	4775.07
728.833	4776.65
729.175	4741.85
729.516	4732.36
729.858	4773.49
730.199	4761.74
730.541	4740.72
730.882	4770.33
731.224	4788.18
731.565	4746.15
731.906	4764.45
732.248	4752.25
732.589	4756.54
732.93	4763.55
733.271	4743.43
733.612	4772.59
733.953	4764
734.294	4766.03
734.635	4778.01
734.976	4781.17
735.317	4767.84
735.658	4763.55
735.999	4783.21
736.339	4821.4
736.68	4797.44
737.021	4814.85
737.361	4817.33
737.702	4876.54
738.042	4796.77
738.383	4800.16
738.723	4856.43
739.063	4841.74
739.404	4832.7
739.744	4873.6
740.084	4867.95
740.424	4907.72
740.764	4962.64
741.104	4951.79
741.444	4942.07
741.784	4988.17
742.124	4983.65
742.464	4950.21
742.804	4990.89
743.143	5017.1
743.483	5065.23
743.823	5075.18
744.162	5090.32
744.502	5116.08
744.841	5155.4
745.181	5239.92
745.52	5225.46
745.86	5284.66
746.199	5312.91
746.538	5354.94
746.877	5414.38
747.216	5427.94
747.556	5459.12
747.895	5548.16
748.234	5535.05
748.573	5592.23
748.911	5647.59
749.25	5701.15
749.589	5758.1
749.928	5841.94
750.267	5935.95
750.605	5953.57
750.944	6014.81
751.283	6085.77
751.621	6234.69
751.96	6245.32
752.298	6404.41
752.636	6430.85
752.975	6586.78
753.313	6645.08
753.651	6803.49
753.989	6811.18
754.327	6978.18
754.666	7075.12
755.004	7154.22
755.342	7361.44
755.679	7480.76
756.017	7579.52
756.355	7694.09
756.693	7809.57
757.031	8037.13
757.368	8136.57
757.706	8265.6
758.044	8428.31
758.381	8659.26
758.719	8778.13
759.056	8976.77
759.394	9079.82
759.731	9267.84
760.068	9369.98
760.405	9482.29
760.743	9705.11
761.08	9985.78
761.417	10086.12
761.754	10219.67
762.091	10405.43
762.428	10615.6
762.765	10809.04
763.102	10985.08
763.438	11142.59
763.775	11308.01
764.112	11512.97
764.449	11673.42
764.785	11844.94
765.122	11991.83
765.458	12163.35
765.795	12325.16
766.131	12481.76
766.467	12654.19
766.804	12806.05
767.14	13000.39
