Data from hue_150_FLMS001491_00077.txt Node
Date: Tue Feb 07 16:54:30 GMT 2017
User: dcchb
Spectrometer: FLMS00149
Trigger mode: 0
Integration Time (sec): 2.000000E-2
Scans to average: 10
Electric dark correction enabled: true
Nonlinearity correction enabled: false
Boxcar width: 0
XAxis mode: Wavelengths
Number of Pixels in Spectrum: 2048
>>>>>Begin Spectral Data<<<<<
341.393	8.5
341.776	8.5
342.16	8.5
342.543	-61.1
342.927	-66.3
343.31	-75.56
343.693	-60.42
344.077	-82.57
344.46	-51.61
344.843	-63.13
345.226	-50.03
345.61	-54.09
345.993	-14.32
346.376	21.16
346.759	20.93
347.142	33.59
347.525	36.98
347.908	60.03
348.291	67.48
348.674	108.39
349.057	103.19
349.44	151.32
349.823	144.32
350.206	174.15
350.588	203.3
350.971	206.01
351.354	225.67
351.737	257.99
352.119	264.09
352.502	264.32
352.884	288.72
353.267	280.59
353.65	296.4
354.032	276.29
354.414	299.57
354.797	293.47
355.179	320.36
355.562	328.04
355.944	340.25
356.326	339.12
356.709	357.42
357.091	332.56
357.473	331.43
357.855	341.83
358.238	348.61
358.62	354.26
359.002	337.99
359.384	339.12
359.766	360.58
360.148	348.38
360.53	359.45
360.912	327.82
361.294	331.21
361.676	316.97
362.057	352.9
362.439	327.82
362.821	310.87
363.203	338.66
363.584	329.62
363.966	319
364.348	319.68
364.729	321.04
365.111	309.96
365.493	309.06
365.874	316.29
366.256	328.72
366.637	317.87
367.019	328.27
367.4	304.31
367.781	319.91
368.163	318.1
368.544	312.68
368.925	309.06
369.306	315.16
369.688	336.18
370.069	319
370.45	317.42
370.831	302.51
371.212	312.9
371.593	322.39
371.974	294.14
372.355	326.69
372.736	320.81
373.117	309.06
373.498	306.8
373.879	324.65
374.26	327.82
374.641	317.42
375.021	311.09
375.402	321.49
375.783	332.11
376.163	323.75
376.544	332.34
376.925	330.98
377.305	318.1
377.686	317.87
378.066	322.17
378.447	315.84
378.827	312.68
379.208	327.36
379.588	366.23
379.968	347.93
380.349	348.61
380.729	336.86
381.109	330.98
381.489	322.62
381.87	340.7
382.25	345.89
382.63	341.83
383.01	352.22
383.39	361.04
383.77	339.34
384.15	342.28
384.53	345.67
384.91	357.87
385.29	342.73
385.67	346.35
386.049	347.93
386.429	360.36
386.809	348.83
387.189	341.38
387.568	349.96
387.948	373.92
388.328	369.17
388.707	336.18
389.087	362.39
389.466	349.51
389.846	383.86
390.225	368.95
390.605	388.61
390.984	362.17
391.363	359.91
391.743	362.17
392.122	369.4
392.501	368.27
392.881	372.79
393.26	371.43
393.639	379.57
394.018	368.95
394.397	377.76
394.776	399
395.155	387.93
395.534	384.76
395.913	407.14
396.292	393.8
396.671	382.96
397.05	373.92
397.429	401.03
397.808	401.03
398.186	420.02
398.565	402.39
398.944	400.13
399.323	380.92
399.701	401.26
400.08	391.09
400.458	388.61
400.837	420.92
401.215	399.23
401.594	394.71
401.972	418.44
402.351	443.97
402.729	430.19
403.107	397.19
403.486	429.73
403.864	413.69
404.242	443.29
404.62	438.32
404.999	443.75
405.377	409.62
405.755	437.42
406.133	442.39
406.511	413.92
406.889	408.49
407.267	451.43
407.645	445.33
408.023	435.38
408.401	447.36
408.779	427.02
409.156	445.78
409.534	443.75
409.912	458.89
410.29	473.8
410.667	451.88
411.045	446.68
411.422	490.3
411.8	462.5
412.178	485.1
412.555	458.66
412.933	461.82
413.31	483.74
413.687	495.95
414.065	498.43
414.442	504.31
414.819	504.53
415.197	502.05
415.574	521.94
415.951	514.03
416.328	493.69
416.705	514.25
417.082	516.29
417.46	529.62
417.837	512.9
418.214	532.1
418.591	526
418.967	515.61
419.344	517.87
419.721	544.76
420.098	523.52
420.475	548.15
420.852	549.96
421.228	556.51
421.605	566.68
421.982	554.25
422.358	573.91
422.735	552.44
423.111	557.64
423.488	566.23
423.864	595.61
424.241	594.25
424.617	598.54
424.994	585.66
425.37	589.73
425.746	609.84
426.123	582.95
426.499	571.65
426.875	592.44
427.251	615.94
427.627	626.11
428.003	598.54
428.379	640.58
428.756	644.87
429.132	648.71
429.507	665.21
429.883	626.34
430.259	649.16
430.635	650.97
431.011	667.69
431.387	670.86
431.763	710.86
432.138	685.77
432.514	678.32
432.89	684.87
433.265	694.13
433.641	688.71
434.016	738.43
434.392	709.05
434.767	718.54
435.143	755.38
435.518	728.48
435.894	745.43
436.269	769.39
436.644	781.59
437.02	750.86
437.395	769.61
437.77	788.37
438.145	802.61
438.52	755.6
438.895	791.08
439.271	807.35
439.646	796.73
440.021	829.5
440.395	811.65
440.77	809.16
441.145	819.1
441.52	820.46
441.895	850.06
442.27	850.74
442.645	858.2
443.019	864.98
443.394	888.71
443.769	889.84
444.143	871.08
444.518	852.77
444.892	871.98
445.267	894.36
445.641	909.95
446.016	917.86
446.39	881.02
446.764	911.08
447.139	909.72
447.513	921.7
447.887	927.8
448.262	933.68
448.636	910.85
449.01	942.49
449.384	936.39
449.758	967.35
450.132	957.86
450.506	974.35
450.88	993.56
451.254	996.05
451.628	1003.28
452.002	1022.26
452.376	1020.23
452.75	1013
453.123	1032.88
453.497	1045.54
453.871	1025.2
454.244	1055.48
454.618	1068.14
454.992	1073.11
455.365	1095.93
455.739	1104.52
456.112	1109.94
456.486	1128.02
456.859	1137.96
457.232	1182.93
457.606	1145.2
457.979	1178.64
458.352	1199.43
458.725	1218.41
459.099	1211.63
459.472	1234.91
459.845	1248.7
460.218	1235.36
460.591	1307.68
460.964	1276.49
461.337	1335.7
461.71	1323.27
462.083	1363.5
462.456	1362.59
462.829	1334.57
463.201	1387
463.574	1379.54
463.947	1422.02
464.32	1467.22
464.692	1442.59
465.065	1462.93
465.438	1491.63
465.81	1531.63
466.183	1562.36
466.555	1576.14
466.928	1609.36
467.3	1589.03
467.672	1608.23
468.045	1674.45
468.417	1685.52
468.789	1706.09
469.161	1746.54
469.534	1721
469.906	1774.56
470.278	1810.72
470.65	1838.28
471.022	1870.6
471.394	1918.96
471.766	1969.35
472.138	1964.84
472.51	2043.93
472.882	2053.87
473.253	2136.58
473.625	2155.79
473.997	2210.03
474.369	2208.67
474.74	2252.06
475.112	2335.67
475.484	2380.42
475.855	2470.81
476.227	2480.75
476.598	2589
476.97	2636
477.341	2693.86
477.713	2758.03
478.084	2821.31
478.455	2916.9
478.827	2942.89
479.198	3085.71
479.569	3094.3
479.94	3184.01
480.311	3271.47
480.682	3386.27
481.053	3481.41
481.424	3567.28
481.795	3596.43
482.166	3714.85
482.537	3829.19
482.908	3938.34
483.279	3997.1
483.65	4122.29
484.021	4261.95
484.391	4343.3
484.762	4418.56
485.133	4558.21
485.503	4634.6
485.874	4774.93
486.244	4924.53
486.615	5004.3
486.985	5145.54
487.356	5275.71
487.726	5411.07
488.097	5509.6
488.467	5658.98
488.837	5837.95
489.207	5925.18
489.578	6090.38
489.948	6218.96
490.318	6269.35
490.688	6401.78
491.058	6588.44
491.428	6728.1
491.798	6793.18
492.168	7025.72
492.538	7143.23
492.908	7270.91
493.278	7394.75
493.648	7451.7
494.017	7660.96
494.387	7753.16
494.757	7846.94
495.126	8058.01
495.496	8151.57
495.866	8278.12
496.235	8426.59
496.605	8510.88
496.974	8597.43
497.344	8706.8
497.713	8852.79
498.082	8928.49
498.452	9077.87
498.821	9215.94
499.19	9284.42
499.559	9384.08
499.928	9478.99
500.298	9591.3
500.667	9702.03
501.036	9725.76
501.405	9921.24
501.774	9884.18
502.143	9983.38
502.512	10128.46
502.88	10208.23
503.249	10266.99
503.618	10332.98
503.987	10464.72
504.356	10498.4
504.724	10650.48
505.093	10673.76
505.462	10766.64
505.83	10804.83
506.199	10880.76
506.567	11169.79
506.936	10987.87
507.304	11180.41
507.672	11230.58
508.041	11272.84
508.409	11332.05
508.777	11419.95
509.145	11574.3
509.514	11585.6
509.882	11650.68
510.25	11652.49
510.618	11787.85
510.986	11765.93
511.354	11926.61
511.722	11922.99
512.09	12004.35
512.458	12068.3
512.826	12166.15
513.193	12165.7
513.561	12214.96
513.929	12265.13
514.297	12358.46
514.664	12408.18
515.032	12466.93
515.4	12503.09
515.767	12460.83
516.135	12614.5
516.502	12489.76
516.869	12599.36
517.237	12730.88
517.604	12607.49
517.972	12792.57
518.339	12833.48
518.706	12863.08
519.073	12800.93
519.44	12860.82
519.808	12943.76
520.175	12862.63
520.542	13070.08
520.909	13047.26
521.276	13087.03
521.643	13196.63
522.009	13147.14
522.376	13242.28
522.743	13192.56
523.11	13300.58
523.477	13386.23
523.843	13489.96
524.21	13526.11
524.577	13541.03
524.943	13539.67
525.31	13527.02
525.676	13634.58
526.043	13644.53
526.409	13604.08
526.776	13694.24
527.142	13697.41
527.508	13733.57
527.874	13725.43
528.241	13805.43
528.607	13830.06
528.973	13849.49
529.339	13823.96
529.705	13849.49
530.071	13897.4
530.437	13894.01
530.803	13910.96
531.169	13905.76
531.535	13838.42
531.901	13914.58
532.267	13848.59
532.632	13863.73
532.998	13844.52
533.364	13949.38
533.73	13856.73
534.095	13887.46
534.461	13901.7
534.826	13927.23
535.192	13836.84
535.557	13938.31
535.923	13798.42
536.288	13834.13
536.653	13812.21
537.019	13770.17
537.384	13777.63
537.749	13751.42
538.114	13659.67
538.479	13680.91
538.845	13641.14
539.21	13676.17
539.575	13620.35
539.94	13611.31
540.305	13607.92
540.67	13510.07
541.034	13521.37
541.399	13548.94
541.764	13464.19
542.129	13471.65
542.494	13421.71
542.858	13402.05
543.223	13389.85
543.587	13390.3
543.952	13324.31
544.316	13293.13
544.681	13306.68
545.045	13226.46
545.41	13271.43
545.774	13194.37
546.138	13140.59
546.503	13082.06
546.867	13097.88
547.231	13139.23
547.595	13062.17
547.959	13112.34
548.324	13014.71
548.688	12944.21
549.052	12946.47
549.416	12875.73
549.779	12887.94
550.143	12828.05
550.507	12826.02
550.871	12791.22
551.235	12800.03
551.599	12818.79
551.962	12731.78
552.326	12744.89
552.689	12726.36
553.053	12690.88
553.417	12624.67
553.78	12757.32
554.143	12615.63
554.507	12632.35
554.87	12615.4
555.234	12682.07
555.597	12600.26
555.96	12471
556.323	12570.21
556.686	12609.75
557.05	12618.34
557.413	12543.09
557.776	12494.73
558.139	12459.7
558.502	12450.21
558.865	12444.79
559.228	12478.23
559.59	12509.42
559.953	12438.68
560.316	12587.15
560.679	12467.61
561.041	12577.89
561.404	12565.46
561.767	12519.59
562.129	12491.56
562.492	12516.65
562.854	12551.9
563.217	12492.69
563.579	12527.5
563.941	12506.03
564.304	12531.79
564.666	12642.75
565.028	12598.91
565.39	12501.73
565.753	12688.62
566.115	12614.27
566.477	12606.82
566.839	12628.51
567.201	12641.39
567.563	12651.79
567.925	12694.04
568.287	12678.45
568.648	12724.33
569.01	12700.6
569.372	12755.74
569.734	12669.86
570.095	12739.92
570.457	12794.61
570.819	12840.93
571.18	12710.32
571.542	12738.11
571.903	12770.43
572.265	12850.42
572.626	12865.57
572.987	12849.07
573.349	12879.35
573.71	12943.98
574.071	12866.02
574.432	12904.21
574.794	13058.1
575.155	12900.37
575.516	12821.05
575.877	12975.39
576.238	12889.52
576.599	12993.7
576.96	12975.62
577.32	12945.56
577.681	12941.27
578.042	12937.88
578.403	12910.76
578.763	12922.74
579.124	13014.04
579.485	12965.45
579.845	12983.53
580.206	12959.57
580.566	12926.13
580.927	12982.62
581.287	12961.38
581.648	12913.7
582.008	13009.06
582.368	12901.27
582.728	12933.13
583.089	12974.04
583.449	12936.52
583.809	12984.88
584.169	12997.99
584.529	12900.82
584.889	12946.24
585.249	12917.54
585.609	12845.68
585.969	12967.03
586.329	12914.38
586.688	12930.2
587.048	12937.65
587.408	12778.34
587.768	12855.4
588.127	12798
588.487	12773.36
588.846	12902.63
589.206	12789.18
589.565	12854.94
589.925	12873.02
590.284	12821.73
590.643	12861.5
591.003	12821.95
591.362	12802.74
591.721	12785.34
592.08	12767.04
592.44	12799.13
592.799	12740.15
593.158	12703.31
593.517	12787.38
593.876	12750.31
594.235	12748.96
594.593	12817.21
594.952	12706.93
595.311	12730.88
595.67	12759.58
596.029	12818.56
596.387	12792.35
596.746	12766.81
597.104	12673.25
597.463	12795.74
597.822	12778.11
598.18	12708.28
598.538	12712.58
598.897	12729.52
599.255	12615.63
599.613	12784.89
599.972	12646.59
600.33	12741.73
600.688	12666.25
601.046	12750.31
601.404	12771.1
601.762	12650.2
602.12	12710.54
602.478	12742.18
602.836	12685.68
603.194	12660.83
603.552	12679.58
603.91	12608.4
604.268	12696.98
604.625	12638.68
604.983	12735.17
605.341	12679.58
605.698	12670.32
606.056	12741.95
606.413	12680.26
606.771	12691.78
607.128	12698.34
607.485	12632.35
607.843	12722.07
608.2	12719.58
608.557	12764.55
608.914	12736.08
609.272	12749.41
609.629	12788.96
609.986	12809.97
610.343	12781.05
610.7	12844.1
611.057	12856.53
611.414	12854.94
611.771	12845.68
612.127	12885
612.484	12909.18
612.841	12859.01
613.198	12802.06
613.554	12852.91
613.911	12955.05
614.267	12953.02
614.624	12904.21
614.98	12910.54
615.337	13016.07
615.693	12956.41
616.05	12878.67
616.406	13026.24
616.762	12959.12
617.118	12987.6
617.475	12931.1
617.831	12992.79
618.187	12995.73
618.543	12978.56
618.899	13084.77
619.255	13094.94
619.611	12998.22
619.967	13104.66
620.323	13134.94
620.678	12967.03
621.034	13077.31
621.39	13019.01
621.746	13036.63
622.101	13166.12
622.457	13046.13
622.812	13084.09
623.168	13011.32
623.523	13124.77
623.879	13155.05
624.234	13048.39
624.589	13076.63
624.945	13117.31
625.3	13122.06
625.655	13074.15
626.01	13111.43
626.365	13029.18
626.72	13047.03
627.075	13086.35
627.43	13047.93
627.785	13089.74
628.14	13006.35
628.495	12997.99
628.85	13037.54
629.205	12949.41
629.559	13030.08
629.914	13032.11
630.269	12976.75
630.623	12933.81
630.978	12976.07
631.332	12993.02
631.687	13016.97
632.041	12917.09
632.396	12920.03
632.75	12979.69
633.104	12880.03
633.459	12888.39
633.813	12789.18
634.167	12849.97
634.521	12821.27
634.875	12908.28
635.229	12783.99
635.583	12743.76
635.937	12728.62
636.291	12723.87
636.645	12713.93
636.999	12727.72
637.352	12715.51
637.706	12701.5
638.06	12743.31
638.413	12671.67
638.767	12742.18
639.121	12686.14
639.474	12624.22
639.828	12622.18
640.181	12607.27
640.534	12632.58
640.888	12616.08
641.241	12588.96
641.594	12510.55
641.947	12618.57
642.301	12571.56
642.654	12483.88
643.007	12513.48
643.36	12611.79
643.713	12510.09
644.066	12511.22
644.419	12518.46
644.771	12349.42
645.124	12296.77
645.477	12322.53
645.83	12233.04
646.182	12176.32
646.535	12081.41
646.888	12118.69
647.24	12023.1
647.593	12076.66
647.945	12024.68
648.298	12034.18
648.65	12040.5
649.002	12002.99
649.355	12069.65
649.707	12067.17
650.059	12116.88
650.411	12292.93
650.763	12271.46
651.115	12330.44
651.467	12328.63
651.819	12294.28
652.171	12357.33
652.523	12309.87
652.875	12285.02
653.227	12217.22
653.578	12381.74
653.93	12345.58
654.282	12279.59
654.633	12220.16
654.985	12336.31
655.337	12303.09
655.688	12317.78
656.039	12363.66
656.391	12318.69
656.742	12258.12
657.094	12321.63
657.445	12379.25
657.796	12345.81
658.147	12264
658.498	12202.53
658.849	12351.91
659.2	12316.88
659.551	12360.95
659.902	12347.84
660.253	12327.5
660.604	12344.68
660.955	12287.95
661.306	12367.95
661.656	12339.93
662.007	12381.96
662.358	12352.81
662.708	12442.75
663.059	12433.03
663.409	12322.3
663.76	12423.77
664.11	12436.42
664.461	12437.55
664.811	12438.46
665.161	12358.91
665.511	12336.77
665.862	12376.76
666.212	12367.95
666.562	12360.49
666.912	12348.97
667.262	12372.25
667.612	12334.05
667.962	12360.49
668.312	12344.45
668.662	12387.61
669.011	12388.97
669.361	12325.69
669.711	12232.36
670.06	12294.06
670.41	12308.52
670.76	12254.96
671.109	12318.46
671.459	12414.5
671.808	12336.99
672.157	12308.74
672.507	12174.28
672.856	12262.42
673.205	12293.38
673.554	12270.55
673.904	12248.18
674.253	12287.73
674.602	12252.47
674.951	12071.69
675.3	12034.63
675.649	12257.45
675.998	12230.78
676.346	12145.36
676.695	12186.71
677.044	12051.35
677.393	12127.73
677.741	12084.57
678.09	12161.4
678.438	12142.42
678.787	12120.73
679.135	12139.94
679.484	12001.18
679.832	12050.9
680.181	12004.35
680.529	12047.51
680.877	11942.65
681.225	11975.19
681.573	11965.93
681.922	11815.42
682.27	11836.44
682.618	11885.48
682.966	11845.03
683.314	11844.58
683.661	11800.28
684.009	11717.12
684.357	11726.39
684.705	11674.18
685.053	11720.29
685.4	11661.98
685.748	11641.42
686.095	11657.69
686.443	11615.88
686.79	11543.79
687.138	11591.7
687.485	11566.39
687.832	11535.88
688.18	11480.52
688.527	11436.22
688.874	11441.2
689.221	11444.81
689.568	11396
689.915	11370.01
690.262	11374.53
690.609	11367.53
690.956	11250.69
691.303	11278.04
691.65	11195.55
691.997	11180.41
692.344	11010.7
692.69	11075.78
693.037	11104.03
693.383	10869.46
693.73	10952.62
694.077	10937.03
694.423	10975.9
694.769	10937.48
695.116	10807.99
695.462	10808.9
695.808	10816.81
696.155	10782.46
696.501	10717.6
696.847	10657.26
697.193	10659.97
697.539	10654.32
697.885	10572.07
698.231	10573.2
698.577	10518.06
698.923	10434.22
699.269	10438.28
699.614	10409.81
699.96	10360.09
700.306	10306.54
700.651	10258.18
700.997	10239.42
701.342	10212.3
701.688	10137.28
702.033	10151.74
702.379	10074
702.724	10030.16
703.069	10085.75
703.415	9952.2
703.76	10085.3
704.105	9941.35
704.45	9930.95
704.795	9875.36
705.14	9808.92
705.485	9796.04
705.83	9754.24
706.175	9793.78
706.52	9708.13
706.865	9637.85
707.209	9708.36
707.554	9638.53
707.899	9643.28
708.243	9585.88
708.588	9590.62
708.932	9548.36
709.277	9566.44
709.621	9556.73
709.966	9492.1
710.31	9455.94
710.654	9337.97
710.998	9370.74
711.342	9378.2
711.687	9370.29
712.031	9257.98
712.375	9292.1
712.719	9290.07
713.063	9253.68
713.407	9230.41
713.75	9289.39
714.094	9273.12
714.438	9125.78
714.782	9173.01
715.125	9145.44
715.469	9121.48
715.812	9088.94
716.156	9050.98
716.499	9048.72
716.843	9095.72
717.186	9012.11
717.53	9015.95
717.873	9041.71
718.216	8974.59
718.559	8976.63
718.902	8933.92
719.246	8928.72
719.589	8928.72
719.932	8894.82
720.275	8923.75
720.617	8905.22
720.96	8871.77
721.303	8892.56
721.646	8887.37
721.989	8882.62
722.331	8873.13
722.674	8827.93
723.016	8874.94
723.359	8860.7
723.701	8780.25
724.044	8801.04
724.386	8707.03
724.729	8796.07
725.071	8802.62
725.413	8775.05
725.755	8817.76
726.097	8750.87
726.439	8704.09
726.782	8632.68
727.124	8730.08
727.465	8643.98
727.807	8702.96
728.149	8762.62
728.491	8651.44
728.833	8638.33
729.175	8666.13
729.516	8720.59
729.858	8636.07
730.199	8623.64
730.541	8655.51
730.882	8650.76
731.224	8672.46
731.565	8560.82
731.906	8568.73
732.248	8614.38
732.589	8601.95
732.93	8552.68
733.271	8554.27
733.612	8615.96
733.953	8631.55
734.294	8596.07
734.635	8518.56
734.976	8615.73
735.317	8616.41
735.658	8570.99
735.999	8614.15
736.339	8642.4
736.68	8647.6
737.021	8549.75
737.361	8571.89
737.702	8662.29
738.042	8602.17
738.383	8584.32
738.723	8613.47
739.063	8619.12
739.404	8645.34
739.744	8647.15
740.084	8649.63
740.424	8651.67
740.764	8608.95
741.104	8740.02
741.444	8645.34
741.784	8642.17
742.124	8737.99
742.464	8714.26
742.804	8712.45
743.143	8755.84
743.483	8827.48
743.823	8753.81
744.162	8763.75
744.502	8832.45
744.841	8782.06
745.181	8869.06
745.52	8866.12
745.86	8936.4
746.199	8956.06
746.538	8989.28
746.877	9077.64
747.216	9149.28
747.556	9104.53
747.895	9205.55
748.234	9147.02
748.573	9211.88
748.911	9277.86
749.25	9408.26
749.589	9380.23
749.928	9470.17
750.267	9527.12
750.605	9638.31
750.944	9638.31
751.283	9747.23
751.621	9810.05
751.96	9850.5
752.298	9968.69
752.636	10075.13
752.975	10037.39
753.313	10255.24
753.651	10350.6
753.989	10356.03
754.327	10480.32
754.666	10510.15
755.004	10678.96
755.342	10870.14
755.679	10944.26
756.017	11071.49
756.355	11130.02
756.693	11289.56
757.031	11490.46
757.368	11476.45
757.706	11738.82
758.044	11772.71
758.381	11985.14
758.719	12156.88
759.056	12245.92
