Data from hue_200_FLMS001491_00062.txt Node
Date: Tue Feb 07 16:43:46 GMT 2017
User: dcchb
Spectrometer: FLMS00149
Trigger mode: 0
Integration Time (sec): 2.000000E-2
Scans to average: 10
Electric dark correction enabled: true
Nonlinearity correction enabled: false
Boxcar width: 0
XAxis mode: Wavelengths
Number of Pixels in Spectrum: 2048
>>>>>Begin Spectral Data<<<<<
341.393	-9.38
341.776	-9.38
342.16	-9.38
342.543	-70.85
342.927	-61.81
343.31	-65.42
343.693	-61.35
344.077	-88.47
344.46	-55.93
344.843	-38.76
345.226	-55.7
345.61	-51.41
345.993	4.18
346.376	-24.52
346.759	6.67
347.142	17.97
347.525	49.15
347.908	49.83
348.291	89.38
348.674	90.28
349.057	134.12
349.44	138.87
349.823	128.47
350.206	173.44
350.588	203.95
350.971	221.35
351.354	226.55
351.737	245.98
352.119	267
352.502	245.76
352.884	268.81
353.267	296.83
353.65	275.81
354.032	290.95
354.414	305.42
354.797	311.74
355.179	319.65
355.562	322.82
355.944	324.85
356.326	339.99
356.709	350.61
357.091	329.37
357.473	337.73
357.855	353.1
358.238	325.53
358.62	343.83
359.002	335.25
359.384	319.2
359.766	358.97
360.148	334.34
360.53	344.28
360.912	318.75
361.294	323.72
361.676	333.89
362.057	330.5
362.439	346.09
362.821	327.11
363.203	346.77
363.584	335.47
363.966	320.56
364.348	329.37
364.729	320.33
365.111	315.58
365.493	325.3
365.874	328.01
366.256	329.14
366.637	317.39
367.019	324.17
367.4	316.49
367.781	324.4
368.163	314.23
368.544	326.66
368.925	342.25
369.306	337.96
369.688	325.53
370.069	310.84
370.45	308.13
370.831	329.6
371.212	317.62
371.593	310.84
371.974	313.33
372.355	325.08
372.736	309.26
373.117	327.34
373.498	329.37
373.879	322.59
374.26	337.51
374.641	317.17
375.021	310.16
375.402	332.76
375.783	337.51
376.163	320.56
376.544	336.15
376.925	339.99
377.305	340.89
377.686	344.96
378.066	334.12
378.447	339.99
378.827	333.44
379.208	337.05
379.588	326.21
379.968	332.53
380.349	346.54
380.729	350.39
381.109	352.19
381.489	355.13
381.87	351.29
382.25	370.27
382.63	344.06
383.01	329.37
383.39	350.39
383.77	347.67
384.15	357.39
384.53	360.56
384.91	355.81
385.29	335.02
385.67	377.73
386.049	362.14
386.429	377.73
386.809	350.61
387.189	370.72
387.568	370.72
387.948	355.36
388.328	377.73
388.707	380.89
389.087	373.89
389.466	376.15
389.846	380.89
390.225	383.61
390.605	384.51
390.984	372.08
391.363	393.32
391.743	386.77
392.122	395.36
392.501	398.52
392.881	396.49
393.26	398.07
393.639	420.44
394.018	410.27
394.397	395.36
394.776	411.85
395.155	407.56
395.534	411.18
395.913	391.52
396.292	421.8
396.671	416.37
397.05	438.07
397.429	419.31
397.808	426.77
398.186	412.53
398.565	447.11
398.944	418.18
399.323	439.88
399.701	447.11
400.08	437.39
400.458	428.58
400.837	437.62
401.215	462.02
401.594	445.98
401.972	447.11
402.351	457.05
402.729	444.17
403.107	460.89
403.486	451.85
403.864	460.44
404.242	479.87
404.62	483.72
404.999	482.81
405.377	499.31
405.755	501.34
406.133	506.54
406.511	517.61
406.889	497.28
407.267	527.78
407.645	514.9
408.023	514.68
408.401	519.87
408.779	541.34
409.156	529.59
409.534	559.19
409.912	551.96
410.29	561.23
410.667	595.13
411.045	580.21
411.422	609.36
411.8	618.4
412.178	605.07
412.555	662.92
412.933	624.73
413.31	648.23
413.687	656.14
414.065	666.54
414.442	680.77
414.819	702.92
415.197	697.72
415.574	697.27
415.951	726.2
416.328	727.78
416.705	731.39
417.082	749.47
417.46	741.11
417.837	786.31
418.214	784.27
418.591	814.33
418.967	792.41
419.344	791.5
419.721	808.23
420.098	845.29
420.475	845.51
420.852	869.69
421.228	895.23
421.605	870.6
421.982	890.71
422.358	904.04
422.735	925.06
423.111	941.11
423.488	994.21
423.864	982.23
424.241	987.21
424.617	1028.79
424.994	1060.42
425.37	1056.81
425.746	1071.27
426.123	1091.16
426.499	1075.11
426.875	1106.3
427.251	1143.59
427.627	1132.06
428.003	1148.56
428.379	1182.68
428.756	1169.8
429.132	1203.47
429.507	1220.87
429.883	1257.93
430.259	1226.3
430.635	1269.68
431.011	1260.64
431.387	1293.64
431.763	1330.25
432.138	1323.47
432.514	1371.15
432.89	1389
433.265	1405.05
433.641	1431.26
434.016	1474.2
434.392	1478.27
434.767	1554.87
435.143	1525.04
435.518	1533.86
435.894	1590.35
436.269	1616.34
436.644	1644.82
437.02	1681.42
437.395	1657.92
437.77	1745.6
438.145	1721.88
438.52	1792.16
438.895	1804.59
439.271	1844.81
439.646	1897.69
440.021	1907.18
440.395	1903.57
440.77	1921.87
441.145	1933.85
441.52	1999.16
441.895	1999.83
442.27	2057.01
442.645	2041.42
443.019	2103.56
443.394	2082.77
443.769	2120.51
444.143	2146.95
444.518	2155.76
444.892	2163.22
445.267	2189.89
445.641	2245.25
446.016	2243.44
446.39	2260.84
446.764	2295.87
447.139	2271.69
447.513	2323.44
447.887	2324.57
448.262	2376.77
448.636	2357.79
449.01	2365.25
449.384	2427.85
449.758	2408.64
450.132	2471.46
450.506	2503.1
450.88	2492.7
451.254	2507.62
451.628	2560.72
452.002	2589.65
452.376	2620.84
452.75	2602.08
453.123	2635.98
453.497	2688.18
453.871	2682.3
454.244	2777.44
454.618	2775.41
454.992	2838.23
455.365	2833.94
455.739	2896.76
456.112	2947.83
456.486	2915.74
456.859	2964.33
457.232	3058.79
457.606	3033.48
457.979	3067.15
458.352	3138.34
458.725	3184.21
459.099	3177.66
459.472	3216.53
459.845	3235.73
460.218	3359.12
460.591	3308.95
460.964	3328.39
461.337	3416.97
461.71	3489.96
462.083	3528.16
462.456	3504.88
462.829	3559.57
463.201	3626.46
463.574	3630.53
463.947	3678.66
464.32	3721.15
464.692	3796.85
465.065	3860.35
465.438	3889.28
465.81	3915.49
466.183	3976.96
466.555	4076.16
466.928	4078.65
467.3	4095.37
467.672	4148.93
468.045	4255.59
468.417	4219.21
468.789	4250.85
469.161	4380.34
469.534	4407.45
469.906	4550.5
470.278	4507.79
470.65	4599.77
471.022	4661.01
471.394	4687.9
471.766	4790.72
472.138	4814.9
472.51	4903.94
472.882	4960.66
473.253	5005.41
473.625	5100.32
473.997	5179.64
474.369	5249.01
474.74	5297.15
475.112	5390.93
475.484	5486.75
475.855	5556.35
476.227	5599.06
476.598	5722.22
476.97	5784.37
477.341	5872.73
477.713	5975.1
478.084	5994.31
478.455	6149.33
478.827	6225.03
479.198	6338.93
479.569	6392.26
479.94	6564.91
480.311	6620.96
480.682	6742.31
481.053	6872.02
481.424	6951.79
481.795	7012.36
482.166	7138.46
482.537	7171.22
482.908	7334.16
483.279	7438.56
483.65	7526.47
484.021	7675.84
484.391	7732.79
484.762	7792.68
485.133	7909.51
485.503	7993.12
485.874	8161.25
486.244	8207.81
486.615	8320.57
486.985	8401.93
487.356	8521.47
487.726	8631.3
488.097	8706.1
488.467	8782.03
488.837	8955.36
489.207	9057.5
489.578	9196.93
489.948	9274.45
490.318	9394.67
490.688	9432.63
491.058	9511.05
491.428	9658.39
491.798	9699.97
492.168	9845.5
492.538	9872.17
492.908	10020.87
493.278	10125.27
493.648	10193.52
494.017	10279.16
494.387	10307.41
494.757	10349.67
495.126	10475.32
495.496	10507.63
495.866	10576.11
496.235	10620.62
496.605	10713.5
496.974	10667.63
497.344	10746.05
497.713	10869.21
498.082	10959.6
498.452	11022.42
498.821	10986.94
499.19	11009.09
499.559	11172.7
499.928	11167.73
500.298	11240.27
500.667	11294.96
501.036	11310.32
501.405	11426.93
501.774	11374.05
502.143	11484.56
502.512	11545.35
502.88	11638.68
503.249	11593.71
503.618	11628.06
503.987	11670.09
504.356	11726.36
504.724	11752.57
505.093	11781.05
505.462	11712.8
505.83	11835.73
506.199	11929.97
506.567	12067.14
506.936	11955.96
507.304	12113.24
507.672	12079.34
508.041	12125.67
508.409	12198.21
508.777	12280.92
509.145	12253.35
509.514	12212
509.882	12302.39
510.25	12288.6
510.618	12386
510.986	12391.2
511.354	12489.73
511.722	12527.47
512.09	12633.91
512.458	12507.81
512.826	12526.34
513.193	12623.06
513.561	12672.1
513.929	12705.54
514.297	12702.6
514.664	12786.9
515.032	12786.44
515.4	12851.75
515.767	12768.36
516.135	12887.01
516.502	12770.17
516.869	12892.66
517.237	12903.73
517.604	12806.1
517.972	12945.31
518.339	12987.12
518.706	12919.77
519.073	13089.03
519.44	13106.44
519.808	13108.69
520.175	13024.18
520.542	13161.12
520.909	13158.19
521.276	13181.01
521.643	13227.34
522.009	13209.26
522.376	13261.01
522.743	13311.63
523.11	13349.14
523.477	13490.15
523.843	13375.81
524.21	13428.01
524.577	13430.72
524.943	13404.28
525.31	13489.7
525.676	13576.71
526.043	13528.8
526.409	13519.31
526.776	13663.03
527.142	13599.53
527.508	13489.7
527.874	13629.81
528.241	13599.76
528.607	13586.42
528.973	13632.75
529.339	13613.09
529.705	13708.23
530.071	13703.93
530.437	13667.78
530.803	13665.74
531.169	13732.18
531.535	13552.98
531.901	13577.38
532.267	13570.38
532.632	13606.08
532.998	13498.29
533.364	13577.61
533.73	13612.64
534.095	13610.6
534.461	13535.58
534.826	13592.75
535.192	13493.09
535.557	13617.38
535.923	13477.72
536.288	13431.17
536.653	13426.43
537.019	13286.54
537.384	13350.72
537.749	13305.98
538.114	13274.79
538.479	13263.27
538.845	13186.43
539.21	13103.05
539.575	13136.72
539.94	13197.05
540.305	13058.98
540.67	13035.25
541.034	13034.12
541.399	12995.7
541.764	12988.25
542.129	12904.63
542.494	12836.16
542.858	12869.61
543.223	12868.7
543.587	12832.54
543.952	12722.94
544.316	12740.79
544.681	12639.78
545.045	12668.93
545.41	12715.94
545.774	12625.32
546.138	12510.29
546.503	12543.96
546.867	12447.7
547.231	12398.66
547.595	12444.76
547.959	12354.59
548.324	12371.31
548.688	12269.62
549.052	12283.18
549.416	12225.1
549.779	12274.82
550.143	12053.13
550.507	12164.09
550.871	12062.62
551.235	12081.6
551.599	12162.28
551.962	12044.99
552.326	11979.23
552.689	11933.36
553.053	11864.21
553.417	11878.9
553.78	11981.94
554.143	11876.18
554.507	11810.88
554.87	11785.79
555.234	11818.33
555.597	11766.13
555.96	11702.18
556.323	11762.06
556.686	11720.03
557.05	11732.01
557.413	11666.25
557.776	11710.54
558.139	11680.48
558.502	11623.54
558.865	11591.67
559.228	11722.97
559.59	11616.3
559.953	11567.04
560.316	11648.62
560.679	11626.02
561.041	11618.11
561.404	11639.35
561.767	11665.34
562.129	11527.04
562.492	11663.99
562.854	11627.15
563.217	11558
563.579	11593.71
563.941	11681.39
564.304	11594.38
564.666	11676.42
565.028	11663.31
565.39	11539.02
565.753	11598.68
566.115	11673.7
566.477	11700.14
566.839	11680.03
567.201	11768.17
567.563	11674.16
567.925	11726.81
568.287	11708.73
568.648	11739.92
569.01	11759.13
569.372	11743.53
569.734	11708.96
570.095	11731.33
570.457	11749.41
570.819	11839.8
571.18	11753.93
571.542	11779.69
571.903	11799.8
572.265	11837.54
572.626	11816.98
572.987	11807.94
573.349	11891.33
573.71	11855.85
574.071	11913.7
574.432	11894.94
574.794	11948.95
575.155	11957.09
575.516	11829.86
575.877	11870.54
576.238	11922.51
576.599	11901.27
576.96	11930.19
577.32	11901.95
577.681	11912.12
578.042	11955.96
578.403	11965.67
578.763	11910.76
579.124	12021.72
579.485	11981.04
579.845	12001.15
580.206	11980.59
580.566	11968.61
580.927	11934.04
581.287	12058.78
581.648	11906.92
582.008	11986.01
582.368	11868.5
582.728	11919.57
583.089	11930.42
583.449	11940.36
583.809	11924.32
584.169	11952.34
584.529	11958.44
584.889	12042.96
585.249	11975.84
585.609	11896.98
585.969	11977.43
586.329	11827.37
586.688	11950.31
587.048	11880.93
587.408	11864.43
587.768	11905.56
588.127	11852.23
588.487	11898.56
588.846	11942.85
589.206	11931.78
589.565	11789.63
589.925	11864.43
590.284	11874.83
590.643	11890.2
591.003	11893.81
591.362	11875.28
591.721	11819.01
592.08	11798.22
592.44	11802.51
592.799	11835.28
593.158	11818.79
593.517	11755.06
593.876	11839.58
594.235	11766.58
594.593	11768.62
594.952	11781.5
595.311	11740.6
595.67	11847.26
596.029	11869.18
596.387	11859.69
596.746	11797.77
597.104	11771.33
597.463	11714.38
597.822	11733.14
598.18	11783.98
598.538	11725.45
598.897	11756.87
599.255	11647.04
599.613	11825.34
599.972	11727.26
600.33	11780.82
600.688	11729.75
601.046	11689.75
601.404	11761.39
601.762	11744.44
602.12	11785.11
602.478	11863.53
602.836	11779.24
603.194	11741.27
603.552	11701.27
603.91	11659.24
604.268	11776.98
604.625	11680.71
604.983	11729.07
605.341	11641.39
605.698	11754.61
606.056	11809.29
606.413	11711.9
606.771	11809.97
607.128	11762.74
607.485	11773.59
607.843	11772.91
608.2	11707.15
608.557	11878.67
608.914	11722.97
609.272	11803.87
609.629	11758
609.986	11896.98
610.343	11812.46
610.7	11901.49
611.057	11853.59
611.414	11776.75
611.771	11884.09
612.127	11964.77
612.484	11886.81
612.841	11876.41
613.198	11902.4
613.554	11862.85
613.911	11974.49
614.267	11987.37
614.624	11889.97
614.98	11910.53
615.337	11900.37
615.693	11916.86
616.05	12046.58
616.406	11927.48
616.762	11974.94
617.118	11949.86
617.475	11979.69
617.831	11984.2
618.187	12023.53
618.543	12013.36
618.899	12101.72
619.255	12008.61
619.611	12015.62
619.967	12052
620.323	12073.92
620.678	12047.03
621.034	11982.4
621.39	12068.72
621.746	11928.61
622.101	12113.47
622.457	12041.15
622.812	12047.71
623.168	12039.57
623.523	12062.17
623.879	12082.73
624.234	11992.79
624.589	12040.93
624.945	12037.54
625.3	12011.1
625.655	12010.64
626.01	12044.77
626.365	12023.3
626.72	12057.42
627.075	11972.91
627.43	11962.51
627.785	11936.75
628.14	12008.38
628.495	12036.86
628.85	11991.44
629.205	11876.41
629.559	11943.53
629.914	11905.56
630.269	11978.33
630.623	11901.27
630.978	11871.44
631.332	11928.39
631.687	11938.33
632.041	11907.14
632.396	11841.84
632.75	11880.7
633.104	11881.38
633.459	11787.15
633.813	11695.4
634.167	11782.18
634.521	11710.09
634.875	11796.64
635.229	11724.1
635.583	11643.42
635.937	11645.91
636.291	11702.86
636.645	11643.87
636.999	11584.22
637.352	11628.73
637.706	11587.38
638.06	11640.94
638.413	11614.27
638.767	11550.54
639.121	11564.55
639.474	11434.16
639.828	11533.14
640.181	11478.23
640.534	11552.8
640.888	11560.26
641.241	11506.48
641.594	11421.06
641.947	11456.08
642.301	11509.41
642.654	11478
643.007	11444.78
643.36	11362.53
643.713	11432.58
644.066	11536.76
644.419	11384.45
644.771	11306.48
645.124	11237.11
645.477	11198.69
645.83	11111.69
646.182	11053.16
646.535	11055.19
646.888	11049.54
647.24	10980.16
647.593	11057.45
647.945	11014.29
648.298	10975.64
648.65	10939.71
649.002	10923.22
649.355	10964.8
649.707	11008.19
650.059	11076.43
650.411	11202.3
650.763	11188.75
651.115	11271.46
651.467	11234.62
651.819	11241.85
652.171	11259.93
652.523	11205.92
652.875	11236.2
653.227	11160.72
653.578	11219.93
653.93	11275.52
654.282	11177.22
654.633	11214.73
654.985	11243.66
655.337	11251.12
655.688	11255.18
656.039	11326.14
656.391	11143.77
656.742	11267.16
657.094	11249.76
657.445	11254.51
657.796	11244.79
658.147	11228.74
658.498	11224.22
658.849	11249.99
659.2	11235.52
659.551	11278.46
659.902	11235.07
660.253	11264.9
660.604	11288.4
660.955	11280.27
661.306	11260.16
661.656	11228.07
662.007	11257.22
662.358	11315.97
662.708	11207.5
663.059	11280.27
663.409	11169.08
663.76	11288.86
664.11	11296.54
664.461	11253.15
664.811	11336.99
665.161	11271
665.511	11279.36
665.862	11256.77
666.212	11326.14
666.562	11291.12
666.912	11294.51
667.262	11265.58
667.612	11288.18
667.962	11254.73
668.312	11217.22
668.662	11297.22
669.011	11219.25
669.361	11187.62
669.711	11216.77
670.06	11261.29
670.41	11262.64
670.76	11195.98
671.109	11211.8
671.459	11191.46
671.808	11139.48
672.157	11192.36
672.507	11069.65
672.856	11140.61
673.205	11111.01
673.554	11096.77
673.904	11150.78
674.253	11190.1
674.602	11220.16
674.951	10984
675.3	10934.97
675.649	11058.13
675.998	11051.35
676.346	11066.26
676.695	11155.98
677.044	11016.32
677.393	11066.26
677.741	11071.23
678.09	11023.78
678.438	11034.63
678.787	11072.82
679.135	10948.53
679.484	10855.19
679.832	10903.1
680.181	10925.93
680.529	10921.41
680.877	10931.13
681.225	10877.34
681.573	10891.13
681.922	10828.53
682.27	10885.02
682.618	10745.82
682.966	10723.9
683.314	10760.06
683.661	10765.71
684.009	10667.86
684.357	10670.57
684.705	10677.8
685.053	10709.66
685.4	10667.86
685.748	10576.11
686.095	10525.71
686.443	10501.98
686.79	10477.13
687.138	10463.79
687.485	10532.27
687.832	10432.16
688.18	10431.03
688.527	10383.79
688.874	10367.3
689.221	10368.88
689.568	10334.53
689.915	10251.37
690.262	10313.51
690.609	10197.81
690.956	10219.96
691.303	10207.98
691.65	10160.52
691.997	10106.74
692.344	10028.78
692.69	10128.66
693.037	10023.13
693.383	9894.32
693.73	10008.21
694.077	9920.08
694.423	9869.46
694.769	9838.27
695.116	9877.14
695.462	9826.75
695.808	9692.51
696.155	9759.86
696.501	9699.29
696.847	9669.92
697.193	9640.31
697.539	9584.04
697.885	9593.53
698.231	9432.63
698.577	9502.69
698.923	9515.79
699.269	9374.33
699.614	9392.41
699.96	9302.47
700.306	9352.18
700.651	9219.53
700.997	9268.12
701.342	9302.92
701.688	9249.36
702.033	9170.72
702.379	9154.45
702.724	9164.39
703.069	9140.21
703.415	9010.05
703.76	9005.53
704.105	8970.5
704.45	9004.85
704.795	8892.53
705.14	8817.28
705.485	8902.7
705.83	8775.48
706.175	8810.05
706.52	8744.52
706.865	8745.87
707.209	8688.92
707.554	8707
707.899	8685.76
708.243	8622.26
708.588	8663.16
708.932	8553.33
709.277	8586.78
709.621	8552.66
709.966	8532.32
710.31	8523.5
710.654	8463.62
710.998	8453.22
711.342	8398.54
711.687	8410.29
712.031	8365.09
712.375	8359.44
712.719	8343.62
713.063	8355.37
713.407	8406.9
713.75	8353.57
714.094	8305.66
714.438	8259.33
714.782	8296.17
715.125	8203.06
715.469	8248.26
715.812	8184.76
716.156	8157.41
716.499	8204.42
716.843	8125.1
717.186	8092.1
717.53	8221.82
717.873	8203.06
718.216	8100.01
718.559	8113.57
718.902	8081.71
719.246	8067.47
719.589	8090.97
719.932	8010.3
720.275	8049.62
720.617	7999.45
720.96	8015.04
721.303	8003.29
721.646	8014.59
721.989	7918.55
722.331	7987.93
722.674	7958.55
723.016	7951.09
723.359	7923.52
723.701	7871.32
724.044	7861.83
724.386	7876.29
724.729	7897.76
725.071	7912.67
725.413	7843.07
725.755	7932.56
726.097	7799.68
726.439	7778.89
726.782	7814.37
727.124	7864.99
727.465	7823.86
727.807	7825.9
728.149	7807.82
728.491	7806.46
728.833	7836.74
729.175	7846.23
729.516	7770.3
729.858	7774.15
730.199	7736.63
730.541	7770.98
730.882	7765.33
731.224	7783.19
731.565	7726.01
731.906	7780.25
732.248	7794.71
732.589	7808.72
732.93	7732.79
733.271	7766.46
733.612	7787.7
733.953	7736.18
734.294	7743.19
734.635	7811.43
734.976	7779.34
735.317	7774.82
735.658	7733.69
735.999	7784.77
736.339	7824.77
736.68	7822.05
737.021	7845.1
737.361	7745.9
737.702	7834.48
738.042	7792.45
738.383	7785.22
738.723	7779.12
739.063	7790.64
739.404	7826.57
739.744	7839.91
740.084	7836.07
740.424	7817.08
740.764	7846.23
741.104	7908.61
741.444	7865.67
741.784	7896.85
742.124	7878.78
742.464	7896.85
742.804	7910.19
743.143	7959.45
743.483	7955.38
743.823	7985.44
744.162	7942.5
744.502	8035.16
744.841	8025.21
745.181	8088.94
745.52	8083.97
745.86	8126.23
746.199	8154.02
746.538	8213.46
746.877	8231.31
747.216	8308.14
747.556	8312.66
747.895	8359.89
748.234	8391.53
748.573	8507.91
748.911	8497.52
749.25	8567.35
749.589	8640.11
749.928	8682.6
750.267	8788.58
750.605	8854.57
750.944	8922.36
751.283	8953.55
751.621	9107.22
751.96	9122.13
752.298	9246.65
752.636	9357.83
752.975	9495.23
753.313	9467.89
753.651	9689.58
753.989	9732.29
754.327	9819.52
754.666	9922.79
755.004	10091.6
755.342	10241.2
755.679	10304.02
756.017	10487.75
756.355	10608.2
756.693	10746.27
757.031	10878.92
757.368	11014.06
757.706	11173.6
