Data from hue_30_FLMS001491_87.txt Node
Date: Mon Feb 06 15:06:12 GMT 2017
User: dcchb
Spectrometer: FLMS00149
Trigger mode: 0
Integration Time (sec): 2.000000E-2
Scans to average: 10
Electric dark correction enabled: true
Nonlinearity correction enabled: false
Boxcar width: 0
XAxis mode: Wavelengths
Number of Pixels in Spectrum: 2048
>>>>>Begin Spectral Data<<<<<
341.393	-5.17
341.776	-5.17
342.16	-5.17
342.543	-56.69
342.927	-59.18
343.31	-82.23
343.693	-42.91
344.077	-53.08
344.46	-51.27
344.843	-51.27
345.226	-46.98
345.61	-34.32
345.993	-16.69
346.376	-6.07
346.759	13.81
347.142	22.63
347.525	42.29
347.908	59.24
348.291	75.05
348.674	82.96
349.057	88.84
349.44	138.33
349.823	151.66
350.206	170.42
350.588	200.7
350.971	204.77
351.354	252.45
351.737	248.61
352.119	267.37
352.502	284.99
352.884	273.24
353.267	293.58
353.65	294.03
354.032	289.96
354.414	323.41
354.797	304.43
355.179	332.9
355.562	337.19
355.944	349.4
356.326	329.29
356.709	336.29
357.091	344.43
357.473	338.78
357.855	352.56
358.238	347.14
358.62	358.21
359.002	355.27
359.384	348.27
359.766	343.3
360.148	338.1
360.53	348.27
360.912	358.44
361.294	346.91
361.676	347.59
362.057	334.48
362.439	338.55
362.821	334.93
363.203	328.61
363.584	337.19
363.966	328.83
364.348	336.97
364.729	348.04
365.111	340.81
365.493	339
365.874	334.93
366.256	332.67
366.637	328.16
367.019	328.61
367.4	348.04
367.781	342.84
368.163	317.76
368.544	323.64
368.925	300.59
369.306	337.87
369.688	303.52
370.069	323.86
370.45	327.25
370.831	323.86
371.212	316.86
371.593	328.16
371.974	321.83
372.355	321.15
372.736	331.54
373.117	326.35
373.498	330.19
373.879	338.32
374.26	323.64
374.641	336.74
375.021	343.52
375.402	334.93
375.783	328.61
376.163	320.7
376.544	346.69
376.925	331.77
377.305	354.6
377.686	327.48
378.066	338.78
378.447	337.42
378.827	330.19
379.208	348.95
379.588	337.87
379.968	343.07
380.349	337.87
380.729	339.23
381.109	342.39
381.489	339
381.87	350.3
382.25	342.62
382.63	379.23
383.01	342.39
383.39	356.4
383.77	343.97
384.15	364.76
384.53	379.45
384.91	351.66
385.29	362.96
385.67	370.19
386.049	358.21
386.429	355.95
386.809	375.61
387.189	380.13
387.568	369.96
387.948	381.94
388.328	365.89
388.707	384.42
389.087	396.4
389.466	367.25
389.846	358.21
390.225	378.1
390.605	378.1
390.984	404.54
391.363	402.5
391.743	382.17
392.122	383.3
392.501	391.66
392.881	390.53
393.26	395.5
393.639	417.64
394.018	391.66
394.397	385.78
394.776	414.71
395.155	385.1
395.534	392.11
395.913	397.31
396.292	434.37
396.671	396.63
397.05	394.14
397.429	418.1
397.808	418.1
398.186	414.93
398.565	416.97
398.944	416.74
399.323	435.5
399.701	411.77
400.08	409.51
400.458	430.75
400.837	421.26
401.215	418.77
401.594	426.68
401.972	429.17
402.351	440.47
402.729	440.02
403.107	430.07
403.486	449.51
403.864	462.84
404.242	432.33
404.62	458.77
404.999	449.28
405.377	438.43
405.755	434.82
406.133	442.28
406.511	449.28
406.889	449.06
407.267	469.62
407.645	441.37
408.023	454.48
408.401	464.65
408.779	470.3
409.156	472.78
409.534	468.49
409.912	482.28
410.29	496.51
410.667	480.92
411.045	504.65
411.422	485.44
411.8	478.66
412.178	511.88
412.555	516.62
412.933	521.82
413.31	487.7
413.687	517.3
414.065	513.46
414.442	513.24
414.819	519.79
415.197	532.67
415.574	533.57
415.951	536.29
416.328	536.06
416.705	555.95
417.082	537.87
417.46	546.23
417.837	560.69
418.214	542.61
418.591	562.95
418.967	554.36
419.344	555.27
419.721	563.86
420.098	579.9
420.475	565.89
420.852	568.15
421.228	589.17
421.605	601.82
421.982	588.71
422.358	594.59
422.735	588.26
423.111	590.97
423.488	600.01
423.864	607.92
424.241	614.93
424.617	618.09
424.994	614.48
425.37	622.16
425.746	624.42
426.123	623.97
426.499	642.95
426.875	638.2
427.251	658.54
427.627	639.11
428.003	656.28
428.379	661.93
428.756	660.58
429.132	650.63
429.507	678.2
429.883	681.37
430.259	680.91
430.635	710.52
431.011	710.52
431.387	680.24
431.763	723.17
432.138	715.72
432.514	749.39
432.89	733.57
433.265	730.18
433.641	751.65
434.016	743.51
434.392	787.8
434.767	772.89
435.143	740.12
435.518	771.76
435.894	767.24
436.269	783.28
436.644	794.81
437.02	800.69
437.395	797.07
437.77	813.57
438.145	824.87
438.52	820.35
438.895	812.89
439.271	842.72
439.646	831.42
440.021	858.31
440.395	853.57
440.77	855.6
441.145	861.02
441.52	900.34
441.895	868.71
442.27	868.25
442.645	874.36
443.019	892.21
443.394	923.17
443.769	920
444.143	900.57
444.518	943.96
444.892	893.11
445.267	921.13
445.641	938.53
446.016	904.64
446.39	952.09
446.764	926.78
447.139	932.66
447.513	971.98
447.887	983.73
448.262	936.73
448.636	978.99
449.01	987.35
449.384	952.77
449.758	1006.78
450.132	975.82
450.506	993.45
450.88	996.84
451.254	1000.68
451.628	1039.32
452.002	1033.67
452.376	1034.8
452.75	1056.72
453.123	1059.66
453.497	1061.02
453.871	1095.59
454.244	1096.72
454.618	1077.74
454.992	1103.73
455.365	1095.59
455.739	1124.07
456.112	1148.92
456.486	1166.1
456.859	1183.95
457.232	1167.91
457.606	1180.79
457.979	1204.29
458.352	1206.1
458.725	1176.49
459.099	1258.3
459.472	1263.27
459.845	1258.53
460.218	1278.86
460.591	1307.34
460.964	1292.88
461.337	1316.83
461.71	1329.26
462.083	1356.38
462.456	1348.69
462.829	1376.72
463.201	1396.15
463.574	1390.05
463.947	1408.13
464.32	1438.18
464.692	1458.52
465.065	1466.43
465.438	1513.66
465.81	1541.46
466.183	1520.89
466.555	1510.27
466.928	1586.2
467.3	1538.29
467.672	1588.91
468.045	1641.34
468.417	1629.59
468.789	1636.82
469.161	1678.63
469.534	1667.78
469.906	1679.31
470.278	1695.12
470.65	1781.45
471.022	1787.1
471.394	1820.09
471.766	1836.59
472.138	1878.62
472.51	1907.77
472.882	1957.72
473.253	1956.14
473.625	2001.33
473.997	2022.8
474.369	2068.9
474.74	2070.71
475.112	2149.58
475.484	2162.46
475.855	2221.44
476.227	2230.93
476.598	2253.53
476.97	2297.37
477.341	2324.26
477.713	2421.89
478.084	2465.95
478.455	2493.75
478.827	2541.66
479.198	2608.55
479.569	2661.43
479.94	2712.73
480.311	2773.06
480.682	2834.76
481.053	2878.14
481.424	2954.75
481.795	2992.49
482.166	3017.35
482.537	3127.4
482.908	3143.67
483.279	3198.81
483.65	3262.32
484.021	3385.02
484.391	3410.11
484.762	3500.28
485.133	3470.22
485.503	3558.58
485.874	3681.06
486.244	3710.67
486.615	3774.39
486.985	3816.88
487.356	3908.85
487.726	3977.32
488.097	4096.87
488.467	4136.42
488.837	4207.6
489.207	4297.32
489.578	4344.32
489.948	4481.27
490.318	4524.66
490.688	4531.43
491.058	4650.53
491.428	4698.89
491.798	4779.34
492.168	4892.1
492.538	4930.29
492.908	5037.41
493.278	5149.95
493.648	5087.13
494.017	5195.82
494.387	5221.13
494.757	5314.46
495.126	5372.32
495.496	5446.44
495.866	5482.82
496.235	5522.37
496.605	5601.01
496.974	5709.48
497.344	5704.96
497.713	5838.52
498.082	5834.23
498.452	5915.35
498.821	5984.96
499.19	6025.41
499.559	6062.47
499.928	6139.3
500.298	6201.67
500.667	6199.64
501.036	6276.47
501.405	6368.9
501.774	6391.27
502.143	6465.17
502.512	6412.74
502.88	6511.95
503.249	6556.92
503.618	6603.47
503.987	6616.58
504.356	6692.28
504.724	6754.2
505.093	6786.06
505.462	6801.66
505.83	6877.36
506.199	6928.66
506.567	7024.7
506.936	7006.4
507.304	7071.93
507.672	7118.71
508.041	7146.73
508.409	7228.76
508.777	7259.72
509.145	7308.54
509.514	7358.48
509.882	7442.09
510.25	7446.39
510.618	7490.45
510.986	7486.84
511.354	7588.53
511.722	7635.53
512.09	7712.59
512.458	7665.14
512.826	7765.93
513.193	7758.02
513.561	7834.85
513.929	7862.65
514.297	7932.25
514.664	8015.41
515.032	7986.48
515.4	8082.08
515.767	8067.16
516.135	8129.31
516.502	8123.66
516.869	8227.61
517.237	8269.19
517.604	8249.3
517.972	8316.87
518.339	8393.03
518.706	8374.95
519.073	8431.9
519.44	8448.39
519.808	8552.57
520.175	8565
520.542	8659.01
520.909	8719.57
521.276	8644.55
521.643	8785.11
522.009	8802.96
522.376	8900.36
522.743	8883.18
523.11	8942.62
523.477	9020.13
523.843	9099.68
524.21	9168.15
524.577	9275.72
524.943	9213.8
525.31	9254.25
525.676	9400.01
526.043	9468.93
526.409	9418.99
526.776	9557.74
527.142	9627.57
527.508	9572.88
527.874	9686.1
528.241	9732.88
528.607	9733.11
528.973	9772.2
529.339	9829.83
529.705	9945.98
530.071	10070.5
530.437	10054
530.803	10148.91
531.169	10185.52
531.535	10143.94
531.901	10287.22
532.267	10266.88
532.632	10336.25
532.998	10360.21
533.364	10469.58
533.73	10468.91
534.095	10512.52
534.461	10547.32
534.826	10640.65
535.192	10625.29
535.557	10745.28
535.923	10756.81
536.288	10817.82
536.653	10839.74
537.019	10845.17
537.384	10931.04
537.749	10988.21
538.114	10976.91
538.479	11023.92
538.845	11103.47
539.21	11045.84
539.575	11168.55
539.94	11217.81
540.305	11334.87
540.67	11243.8
541.034	11297.58
541.399	11408.32
541.764	11419.16
542.129	11392.27
542.494	11512.49
542.858	11525.15
543.223	11565.6
543.587	11648.54
543.952	11605.15
544.316	11721.3
544.681	11724.01
545.045	11697.12
545.41	11914.97
545.774	11955.19
546.138	11915.42
546.503	12021.63
546.867	12102.31
547.231	12136.43
547.595	12220.27
547.959	12178.69
548.324	12218.24
548.688	12206.49
549.052	12251.23
549.416	12381.4
549.779	12392.02
550.143	12361.51
550.507	12529.64
550.871	12529.64
551.235	12515.63
551.599	12568.29
551.962	12604.44
552.326	12630.43
552.689	12737.77
553.053	12751.11
553.417	12783.65
553.78	12908.84
554.143	12855.28
554.507	12983.64
554.87	12988.39
555.234	13102.51
555.597	12969.4
555.96	13058.67
556.323	13174.37
556.686	13202.62
557.05	13272.67
557.413	13312.67
557.776	13316.06
558.139	13450.52
558.502	13515.61
558.865	13450.75
559.228	13550.86
559.59	13593.12
559.953	13614.81
560.316	13785.43
560.679	13706.33
561.041	13781.59
561.404	13815.26
561.767	13921.24
562.129	13917.18
562.492	14060.45
562.854	14043.05
563.217	13987.46
563.579	14158.98
563.941	14180.67
564.304	14229.26
564.666	14339.99
565.028	14372.31
565.39	14369.82
565.753	14424.06
566.115	14497.05
566.477	14632.41
566.839	14585.41
567.201	14608.46
567.563	14689.13
567.925	14729.13
568.287	14796.02
568.648	14843.71
569.01	14928.45
569.372	15026.07
569.734	14975.23
570.095	15098.39
570.457	15192.62
570.819	15169.57
571.18	15242.34
571.542	15329.34
571.903	15348.55
572.265	15440.53
572.626	15586.74
572.987	15589.22
573.349	15680.07
573.71	15718.03
574.071	15912.83
574.432	15986.95
574.794	16058.82
575.155	16081.64
575.516	16048.65
575.877	16132.49
576.238	16296.1
576.599	16475.08
576.96	16532.47
577.32	16564.56
577.681	16687.95
578.042	16868.29
578.403	16892.47
578.763	17081.16
579.124	17152.35
579.485	17299.23
579.845	17566.57
580.206	17547.36
580.566	17585.33
580.927	17816.28
581.287	18012.21
581.648	18200.45
582.008	18327.68
582.368	18478.64
582.728	18692.42
583.089	18880.21
583.449	18983.26
583.809	19144.84
584.169	19446.97
584.529	19554.54
584.889	19952.95
585.249	19943.46
585.609	20144.13
585.969	20484.46
586.329	20678.13
586.688	20981.62
587.048	21017.55
587.408	21394.27
587.768	21658.67
588.127	21789.74
588.487	22055.49
588.846	22434.01
589.206	22477.4
589.565	22656.61
589.925	23181.11
590.284	23267.67
590.643	23578.84
591.003	24098.6
591.362	24275.32
591.721	24532.72
592.08	24771.35
592.44	25136.54
592.799	25306.03
593.158	25628.96
593.517	25929.97
593.876	26247.02
594.235	26365.21
594.593	26642.94
594.952	27123.16
595.311	27392.08
595.67	27691.05
596.029	28130.59
596.387	28386.17
596.746	28795.43
597.104	28823.45
597.463	29107.06
597.822	29493.94
598.18	29769.87
598.538	30041.95
598.897	30463.41
599.255	30420.7
599.613	31141.58
599.972	31092.32
600.33	31565.07
600.688	31723.94
601.046	32068.11
601.404	32346.97
601.762	32620.64
602.12	32848.43
602.478	33255.43
602.836	33404.57
603.194	33603.21
603.552	33961.17
603.91	33996.42
604.268	34464.88
604.625	34532.68
604.983	34866.91
605.341	34982.16
605.698	35292.43
606.056	35649.71
606.413	35744.4
606.771	36031.62
607.128	36457.37
607.485	36249.02
607.843	36593.64
608.2	37022.78
608.557	37346.62
608.914	37418.25
609.272	37652.37
609.629	37958.35
609.986	38158.8
610.343	38248.51
610.7	38654.15
611.057	38771.89
611.414	38871.1
611.771	39017.53
612.127	39354.25
612.484	39389.5
612.841	39675.82
613.198	39690.51
613.554	39881.47
613.911	40177.95
614.267	40254.11
614.624	40397.38
614.98	40594.22
615.337	40810.93
615.693	40969.12
616.05	40996.46
616.406	41469.9
616.762	41389
617.118	41507.64
617.475	41577.01
617.831	41767.74
618.187	41951.92
618.543	41944.01
618.899	42350.78
619.255	42363.43
619.611	42406.6
619.967	42483.2
620.323	42773.59
620.678	42809.98
621.034	42798.45
621.39	42939.69
621.746	42922.74
622.101	43429.85
622.457	43197.31
622.812	43346.23
623.168	43586.23
623.523	43548.26
623.879	43741.25
624.234	43517.53
624.589	43814.92
624.945	43796.84
625.3	43995.26
625.655	43982.15
626.01	43995.71
626.365	44176.95
626.72	44103.73
627.075	44180.79
627.43	44242.71
627.785	44270.95
628.14	44404.06
628.495	44472.76
628.85	44460.55
629.205	44379.65
629.559	44801.34
629.914	44476.15
630.269	44553.43
630.623	44324.29
630.978	44387.11
631.332	44635.92
631.687	44785.74
632.041	44527.67
632.396	44669.14
632.75	44393.89
633.104	44634.79
633.459	44507.78
633.813	44627.1
634.167	44524.51
634.521	44604.05
634.875	44571.29
635.229	44728.57
635.583	44511.4
635.937	44565.18
636.291	44545.3
636.645	44569.03
636.999	44424.17
637.352	44745.52
637.706	44414
638.06	44628.23
638.413	44731.28
638.767	44425.07
639.121	44557.27
639.474	44361.8
639.828	44466.66
640.181	44539.65
640.534	44505.52
640.888	44405.19
641.241	44081.58
641.594	44409.71
641.947	44502.81
642.301	44374
642.654	44341.24
643.007	44278.86
643.36	44288.58
643.713	44110.28
644.066	44300.11
644.419	44177.17
644.771	43786.9
645.124	43562.27
645.477	43315.5
645.83	43222.17
646.182	43026.47
646.535	42884.55
646.888	42973.81
647.24	42776.53
647.593	43089.52
647.945	42942.18
648.298	42849.52
648.65	42778.56
649.002	42631
649.355	42874.83
649.707	42726.14
650.059	43085.9
650.411	43450.86
650.763	43477.53
651.115	43883.17
651.467	43785.54
651.819	43722.27
652.171	43777.63
652.523	43592.33
652.875	43591.42
653.227	43626.23
653.578	43793
653.93	43649.28
654.282	43546.68
654.633	43349.17
654.985	43457.87
655.337	43533.12
655.688	43485.44
656.039	43565.21
656.391	43223.75
656.742	43318.44
657.094	43480.01
657.445	43444.31
657.796	43379.9
658.147	43324.31
658.498	43247.48
658.849	43411.77
659.2	43243.41
659.551	43241.15
659.902	43451.77
660.253	43218.55
660.604	43337.42
660.955	43161.83
661.306	43420.81
661.656	43195.73
662.007	43122.96
662.358	43239.57
662.708	43270.53
663.059	43226.01
663.409	42953.25
663.76	43317.53
664.11	43329.74
664.461	43354.59
664.811	43258.78
665.161	43123.41
665.511	43057.88
665.862	43108.73
666.212	43299.45
666.562	43237.08
666.912	43263.52
667.262	43067.37
667.612	43121.83
667.962	43151.89
668.312	43131.1
668.662	43270.53
669.011	43071.21
669.361	42988.5
669.711	42871.67
670.06	42879.8
670.41	42888.62
670.76	42782.63
671.109	42958.67
671.459	42902.85
671.808	42797.32
672.157	42988.28
672.507	42674.61
672.856	42831.22
673.205	42828.05
673.554	42968.39
673.904	42709.19
674.253	42906.24
674.602	42861.05
674.951	42267.17
675.3	42068.98
675.649	42631.22
675.998	42635.29
676.346	42708.51
676.695	42800.94
677.044	42513.03
677.393	42652.24
677.741	42673.48
678.09	42578.8
678.438	42612.24
678.787	42664.44
679.135	42484.11
679.484	42317.79
679.832	42494.96
680.181	42119.15
680.529	42214.06
680.877	42115.76
681.225	42065.36
681.573	42399.82
681.922	42084.35
682.27	41794.41
682.618	41895.42
682.966	41906.95
683.314	41952.15
683.661	41867.63
684.009	41593.06
684.357	41589.67
684.705	41521.42
685.053	41734.3
685.4	41440.29
685.748	41306.74
686.095	41227.19
686.443	41166.4
686.79	41214.54
687.138	41189.68
687.485	41186.29
687.832	41005.28
688.18	41191.49
688.527	40876.24
688.874	40973.87
689.221	40713.53
689.568	40675.34
689.915	40518.96
690.262	40606.42
690.609	40505.4
690.956	40359.19
691.303	40334.11
691.65	40153.77
691.997	40182.02
692.344	39923.5
692.69	40023.61
693.037	39934.12
693.383	39603.51
693.73	39657.74
694.077	39571.42
694.423	39473.34
694.769	39336.4
695.116	39279
695.462	39242.39
695.808	39128.04
696.155	39185.89
696.501	38923.07
696.847	38961.49
697.193	38652.35
697.539	38749.07
697.885	38461.84
698.231	38304.56
698.577	38431.33
698.923	38343.2
699.269	38140.95
699.614	37938.01
699.96	38023.21
700.306	37880.61
700.651	37727.17
700.997	37645.14
701.342	37822.08
701.688	37639.04
702.033	37445.82
702.379	37357.69
702.724	37359.95
703.069	37383.9
703.415	36958.15
703.76	36902.56
704.105	36988.21
704.45	36938.49
704.795	36740.08
705.14	36436.58
705.485	36538.95
705.83	36509.58
706.175	36413.53
706.52	36370.82
706.865	36251.73
707.209	36272.29
707.554	36030.72
707.899	36080.89
708.243	35806.77
708.588	35996.6
708.932	35620.56
709.277	35789.37
709.621	35634.8
709.966	35434.35
710.31	35475.48
710.654	35232.1
710.998	35277.29
711.342	35317.07
711.687	35310.06
712.031	35113
712.375	34785.78
712.719	34948.04
713.063	34907.58
713.407	35002.05
713.75	34838.89
714.094	34803.63
714.438	34567.03
714.782	34558.44
715.125	34358.22
715.469	34531.1
715.812	34369.75
716.156	34285.45
716.499	34115.52
716.843	34140.37
717.186	34033.26
717.53	34115.29
717.873	34011.56
718.216	34048.85
718.559	33958.68
718.902	33570.44
719.246	33773.83
719.589	33644.12
719.932	33554.17
720.275	33541.75
720.617	33564.57
720.96	33473.72
721.303	33402.31
721.646	33472.59
721.989	33242.32
722.331	33346.72
722.674	33232.37
723.016	33188.99
723.359	33194.41
723.701	33145.37
724.044	32939.5
724.386	32848.66
724.729	32872.84
725.071	32775.89
725.413	32684.82
725.755	32741.09
726.097	32614.99
726.439	32462
726.782	32555.33
727.124	32588.55
727.465	32324.6
727.807	32251.61
728.149	32298.39
728.491	32207.54
728.833	32253.42
729.175	32101.11
729.516	32123.93
729.858	31958.06
730.199	32078.05
730.541	32060.65
730.882	31991.05
731.224	32077.15
731.565	31695.01
731.906	31812.98
732.248	31836.03
732.589	31727.56
732.93	31713.77
733.271	31560.1
733.612	31674.22
733.953	31517.39
734.294	31521.01
734.635	31343.16
734.976	31462.25
735.317	31391.75
735.658	31220.9
735.999	31249.83
736.339	31247.57
736.68	31312.43
737.021	31220
737.361	31103.17
737.702	31283.27
738.042	31180.23
738.383	31046.44
738.723	31067.69
739.063	30958.31
739.404	30857.97
739.744	30852.78
740.084	30768.03
740.424	30844.64
740.764	30779.11
741.104	30793.79
741.444	30663.4
741.784	30546.34
742.124	30511.09
742.464	30510.86
742.804	30437.19
743.143	30368.27
743.483	30305.22
743.823	30100.48
744.162	30412.56
744.502	30240.59
744.841	30125.56
745.181	30257.09
745.52	30081.5
745.86	30055.96
746.199	29986.13
746.538	30040.37
746.877	29963.99
747.216	30033.81
747.556	29805.35
747.895	29913.14
748.234	29637.22
748.573	29631.79
748.911	29634.96
749.25	29725.35
749.589	29559.25
749.928	29608.06
750.267	29600.38
750.605	29353.83
750.944	29446.49
751.283	29273.38
751.621	29382.31
751.96	29199.71
752.298	29246.49
752.636	29168.07
752.975	29054.18
753.313	28933.5
753.651	29194.97
753.989	28902.32
754.327	28850.57
754.666	28677.92
755.004	28756.33
755.342	28721.76
755.679	28732.61
756.017	28491.48
756.355	28645.38
756.693	28579.16
757.031	28541.88
757.368	28354.31
757.706	28362.9
