Data from hue_260_FLMS001491_00089.txt Node
Date: Tue Feb 07 15:59:43 GMT 2017
User: dcchb
Spectrometer: FLMS00149
Trigger mode: 0
Integration Time (sec): 2.000000E-2
Scans to average: 10
Electric dark correction enabled: true
Nonlinearity correction enabled: false
Boxcar width: 0
XAxis mode: Wavelengths
Number of Pixels in Spectrum: 2048
>>>>>Begin Spectral Data<<<<<
341.393	-16.77
341.776	-16.77
342.16	-16.77
342.543	-44.79
342.927	-73.26
343.31	-77.33
343.693	-72.81
344.077	-51.79
344.46	-65.13
344.843	-29.19
345.226	-41.17
345.61	-26.93
345.993	-3.66
346.376	-12.47
346.759	10.58
347.142	26.17
347.525	26.85
347.908	58.94
348.291	71.14
348.674	62.1
349.057	124.7
349.44	133.06
349.823	121.08
350.206	154.76
350.588	183.46
350.971	204.02
351.354	204.25
351.737	237.69
352.119	245.6
352.502	250.8
352.884	251.02
353.267	271.59
353.65	292.38
354.032	285.6
354.414	291.48
354.797	307.29
355.179	307.97
355.562	303.45
355.944	332.38
356.326	317.46
356.709	317.69
357.091	336.45
357.473	344.81
357.855	349.1
358.238	349.78
358.62	317.24
359.002	343.45
359.384	332.15
359.766	316.33
360.148	317.46
360.53	334.64
360.912	336.45
361.294	328.99
361.676	328.54
362.057	318.37
362.439	320.4
362.821	330.57
363.203	305.26
363.584	304.58
363.966	316.33
364.348	323.56
364.729	299.38
365.111	319.95
365.493	317.01
365.874	297.35
366.256	317.24
366.637	283.79
367.019	305.71
367.4	306.39
367.781	289.44
368.163	316.11
368.544	308.2
368.925	294.64
369.306	304.58
369.688	315.88
370.069	312.72
370.45	311.14
370.831	327.41
371.212	299.61
371.593	309.33
371.974	312.04
372.355	328.99
372.736	308.2
373.117	313.62
373.498	308.42
373.879	286.05
374.26	276.11
374.641	305.26
375.021	305.49
375.402	296.45
375.783	303.9
376.163	320.4
376.544	299.84
376.925	319.72
377.305	311.81
377.686	300.06
378.066	295.32
378.447	331.02
378.827	316.33
379.208	316.33
379.588	325.15
379.968	304.36
380.349	316.11
380.729	337.8
381.109	333.96
381.489	329.89
381.87	302.77
382.25	313.85
382.63	318.37
383.01	331.47
383.39	334.64
383.77	327.86
384.15	341.87
384.53	334.64
384.91	335.77
385.29	353.62
385.67	343.23
386.049	346.62
386.429	348.2
386.809	345.26
387.189	357.24
387.568	355.2
387.948	353.62
388.328	342.1
388.707	364.24
389.087	368.99
389.466	371.02
389.846	350.68
390.225	340.74
390.605	348.88
390.984	354.75
391.363	341.64
391.743	378.93
392.122	360.4
392.501	363.11
392.881	373.51
393.26	371.02
393.639	371.25
394.018	372.15
394.397	368.54
394.776	372.15
395.155	377.8
395.534	385.03
395.913	371.02
396.292	387.29
396.671	384.13
397.05	385.71
397.429	378.03
397.808	382.09
398.186	392.49
398.565	402.66
398.944	400.63
399.323	387.52
399.701	404.24
400.08	395.88
400.458	407.18
400.837	413.51
401.215	405.6
401.594	421.19
401.972	397.46
402.351	427.29
402.729	402.21
403.107	415.54
403.486	414.41
403.864	451.02
404.242	442.88
404.62	436.33
404.999	426.84
405.377	446.95
405.755	448.76
406.133	450.12
406.511	434.07
406.889	457.35
407.267	482.43
407.645	464.8
408.023	467.74
408.401	484.01
408.779	467.74
409.156	499.83
409.534	511.13
409.912	489.21
410.29	518.81
410.667	527.63
411.045	520.4
411.422	524.46
411.8	516.1
412.178	502.77
412.555	546.38
412.933	539.15
413.31	564.01
413.687	554.29
414.065	563.56
414.442	581.64
414.819	585.25
415.197	609.43
415.574	622.31
415.951	612.14
416.328	608.98
416.705	612.37
417.082	616.44
417.46	651.01
417.837	661.41
418.214	677.91
418.591	656.89
418.967	642.65
419.344	655.99
419.721	647.62
420.098	682.88
420.475	687.62
420.852	708.64
421.228	703.89
421.605	693.72
421.982	716.32
422.358	726.94
422.735	736.44
423.111	751.12
423.488	771.46
423.864	781.18
424.241	796.32
424.617	806.04
424.994	795.19
425.37	827.51
425.746	851.23
426.123	840.61
426.499	845.81
426.875	848.52
427.251	875.41
427.627	918.35
428.003	910.67
428.379	881.06
428.756	865.7
429.132	926.71
429.507	926.94
429.883	973.94
430.259	951.12
430.635	945.24
431.011	985.24
431.387	994.96
431.763	979.82
432.138	1002.19
432.514	1038.8
432.89	1036.77
433.265	1064.11
433.641	1074.96
434.016	1094.84
434.392	1099.59
434.767	1114.96
435.143	1129.19
435.518	1151.79
435.894	1181.85
436.269	1176.88
436.644	1226.59
437.02	1239.25
437.395	1244.22
437.77	1265.46
438.145	1269.53
438.52	1286.48
438.895	1308.85
439.271	1319.02
439.646	1329.87
440.021	1358.57
440.395	1383.42
440.77	1363.76
441.145	1392.69
441.52	1431.11
441.895	1408.96
442.27	1444.44
442.645	1416.87
443.019	1443.99
443.394	1473.59
443.769	1471.11
444.143	1499.81
444.518	1538.9
444.892	1524.44
445.267	1522.86
445.641	1567.6
446.016	1541.39
446.39	1553.59
446.764	1577.32
447.139	1582.97
447.513	1603.98
447.887	1588.84
448.262	1626.81
448.636	1632.46
449.01	1662.06
449.384	1659.58
449.758	1641.95
450.132	1672.46
450.506	1680.37
450.88	1710.65
451.254	1712
451.628	1722.85
452.002	1744.77
452.376	1769.4
452.75	1789.29
453.123	1796.29
453.497	1808.05
453.871	1853.92
454.244	1866.12
454.618	1881.72
454.992	1882.39
455.365	1921.94
455.739	1969.62
456.112	1942.96
456.486	1962.17
456.859	1996.97
457.232	2020.92
457.606	1997.19
457.979	2030.41
458.352	2084.2
458.725	2083.29
459.099	2106.34
459.472	2153.57
459.845	2167.81
460.218	2152.67
460.591	2179.56
460.964	2208.04
461.337	2233.8
461.71	2293.68
462.083	2291.2
462.456	2307.69
462.829	2328.26
463.201	2358.99
463.574	2360.57
463.947	2407.58
464.32	2436.28
464.692	2445.32
465.065	2474.02
465.438	2502.49
465.81	2513.79
466.183	2579.55
466.555	2588.59
466.928	2601.92
467.3	2656.38
467.672	2684.18
468.045	2724.18
468.417	2730.28
468.789	2726.21
469.161	2770.73
469.534	2850.96
469.906	2876.27
470.278	2881.92
470.65	2890.28
471.022	2940.9
471.394	2994
471.766	3001.23
472.138	3029.48
472.51	3077.16
472.882	3119.88
473.253	3158.97
473.625	3186.77
473.997	3230.16
474.369	3319.64
474.74	3320.55
475.112	3351.96
475.484	3424.73
475.855	3470.15
476.227	3482.35
476.598	3577.72
476.97	3621.33
477.341	3650.26
477.713	3723.93
478.084	3755.11
478.455	3813.87
478.827	3836.01
479.198	3941.77
479.569	3941.77
479.94	4012.96
480.311	4063.81
480.682	4116.23
481.053	4183.8
481.424	4265.16
481.795	4297.25
482.166	4347.64
482.537	4342.44
482.908	4486.85
483.279	4496.11
483.65	4594.19
484.021	4693.39
484.391	4668.76
484.762	4726.61
485.133	4768.19
485.503	4829.66
485.874	4896.55
486.244	4955.53
486.615	5046.83
486.985	5082.08
487.356	5185.13
487.726	5256.99
488.097	5313.72
488.467	5320.27
488.837	5398.46
489.207	5422.41
489.578	5454.73
489.948	5532.02
490.318	5583.09
490.688	5624.89
491.058	5713.71
491.428	5794.16
491.798	5759.58
492.168	5929.97
492.538	5911.89
492.908	5950.31
493.278	6029.63
493.648	6017.65
494.017	6075.96
494.387	6107.37
494.757	6159.8
495.126	6222.62
495.496	6203.41
495.866	6278.44
496.235	6350.07
496.605	6320.92
496.974	6391.88
497.344	6412.9
497.713	6458.54
498.082	6511.42
498.452	6527.7
498.821	6508.26
499.19	6550.52
499.559	6593.91
499.928	6654.47
500.298	6697.18
500.667	6722.49
501.036	6737.63
501.405	6800.68
501.774	6789.61
502.143	6901.25
502.512	6880.91
502.88	6929.04
503.249	6924.52
503.618	6968.81
503.987	6932.2
504.356	7015.59
504.724	6988.02
505.093	7024.63
505.462	7023.28
505.83	7020.34
506.199	7081.35
506.567	7180.11
506.936	7177.4
507.304	7214.68
507.672	7244.51
508.041	7254.46
508.409	7270.73
508.777	7313.21
509.145	7355.92
509.514	7362.7
509.882	7414
510.25	7398.86
510.618	7397.28
510.986	7431.17
511.354	7532.41
511.722	7514.79
512.09	7577.84
512.458	7538.74
512.826	7618.74
513.193	7554.11
513.561	7529.48
513.929	7648.12
514.297	7661.68
514.664	7666.42
515.032	7687.44
515.4	7735.12
515.767	7742.13
516.135	7741.67
516.502	7689.47
516.869	7820.09
517.237	7804.5
517.604	7813.09
517.972	7800.2
518.339	7839.53
518.706	7803.59
519.073	7880.2
519.44	7900.31
519.808	7913.2
520.175	7907.09
520.542	7979.18
520.909	7962.91
521.276	7971.73
521.643	8019.18
522.009	8099.41
522.376	8050.14
522.743	8094.43
523.11	8111.16
523.477	8189.57
523.843	8150.7
524.21	8140.08
524.577	8196.58
524.943	8240.19
525.31	8271.15
525.676	8316.12
526.043	8326.29
526.409	8286.75
526.776	8359.74
527.142	8417.59
527.508	8401.54
527.874	8451.71
528.241	8490.13
528.607	8476.12
528.973	8469.11
529.339	8487.64
529.705	8471.15
530.071	8543.69
530.437	8516.8
530.803	8545.27
531.169	8504.37
531.535	8514.99
531.901	8540.75
532.267	8574.42
532.632	8527.19
532.998	8593.4
533.364	8633.18
533.73	8627.08
534.095	8648.32
534.461	8668.2
534.826	8714.3
535.192	8662.55
535.557	8703.23
535.923	8628.43
536.288	8575.1
536.653	8685.15
537.019	8580.07
537.384	8667.75
537.749	8631.37
538.114	8633.63
538.479	8640.63
538.845	8669.33
539.21	8653.06
539.575	8640.86
539.94	8588.88
540.305	8654.87
540.67	8627.75
541.034	8589.56
541.399	8648.09
541.764	8607.41
542.129	8600.41
542.494	8574.2
542.858	8608.77
543.223	8592.73
543.587	8625.72
543.952	8606.06
544.316	8590.92
544.681	8592.95
545.045	8611.93
545.41	8652.16
545.774	8631.82
546.138	8592.27
546.503	8654.87
546.867	8668.88
547.231	8636.79
547.595	8594.53
547.959	8592.95
548.324	8556.34
548.688	8591.14
549.052	8574.65
549.416	8565.38
549.779	8530.58
550.143	8576.23
550.507	8574.65
550.871	8587.98
551.235	8451.03
551.599	8548.66
551.962	8570.35
552.326	8620.97
552.689	8597.25
553.053	8514.76
553.417	8514.99
553.78	8631.37
554.143	8484.71
554.507	8543.69
554.87	8569.9
555.234	8616.68
555.597	8546.63
555.96	8535.55
556.323	8662.55
556.686	8616.68
557.05	8701.65
557.413	8630.47
557.776	8601.09
558.139	8669.11
558.502	8674.98
558.865	8663.46
559.228	8680.63
559.59	8672.72
559.953	8711.82
560.316	8813.96
560.679	8739.16
561.041	8740.74
561.404	8751.82
561.767	8823.68
562.129	8747.75
562.492	8877.46
562.854	8824.81
563.217	8775.55
563.579	8885.6
563.941	8856.45
564.304	8863.45
564.666	8974.86
565.028	8936.22
565.39	8949.1
565.753	9004.92
566.115	8972.15
566.477	9042.43
566.839	9027.29
567.201	9135.54
567.563	9067.52
567.925	9215.76
568.287	9121.3
568.648	9180.06
569.01	9229.32
569.372	9260.73
569.734	9124.92
570.095	9249.43
570.457	9304.8
570.819	9266.15
571.18	9342.99
571.542	9366.27
571.903	9346.83
572.265	9300.05
572.626	9360.62
572.987	9361.07
573.349	9427.96
573.71	9490.78
574.071	9509.31
574.432	9483.55
574.794	9556.77
575.155	9532.81
575.516	9547.73
575.877	9595.86
576.238	9602.87
576.599	9678.57
576.96	9671.79
577.32	9633.6
577.681	9747.72
578.042	9782.75
578.403	9687.39
578.763	9780.04
579.124	9753.6
579.485	9840.83
579.845	9883.99
580.206	9787.04
580.566	9847.38
580.927	9878.12
581.287	9921.73
581.648	9843.54
582.008	9950.2
582.368	9926.25
582.728	9921.73
583.089	9983.65
583.449	9918.57
583.809	9967.61
584.169	10090.31
584.529	9979.36
584.889	10071.33
585.249	10049.18
585.609	10017.55
585.969	10093.25
586.329	10116.08
586.688	10118.56
587.048	10126.7
587.408	10038.56
587.768	10153.14
588.127	10135.06
588.487	10180.93
588.846	10207.82
589.206	10150.43
589.565	10160.59
589.925	10239.24
590.284	10229.07
590.643	10199.24
591.003	10287.82
591.362	10212.8
591.721	10299.8
592.08	10330.31
592.44	10330.08
592.799	10347.26
593.158	10280.59
593.517	10304.77
593.876	10403.75
594.235	10342.96
594.593	10328.73
594.952	10345.67
595.311	10293.92
595.67	10386.58
596.029	10427.25
596.387	10413.92
596.746	10498.44
597.104	10373.7
597.463	10408.05
597.822	10491.43
598.18	10449.17
598.538	10354.49
598.897	10421.38
599.255	10392.68
599.613	10492.79
599.972	10476.74
600.33	10497.31
600.688	10503.86
601.046	10478.55
601.404	10578.89
601.762	10588.83
602.12	10561.26
602.478	10623.63
602.836	10578.21
603.194	10502.28
603.552	10551.77
603.91	10525.78
604.268	10596.29
604.625	10521.26
604.983	10587.7
605.341	10520.58
605.698	10568.72
606.056	10584.76
606.413	10574.59
606.771	10651.2
607.128	10611.88
607.485	10623.63
607.843	10614.82
608.2	10669.06
608.557	10638.32
608.914	10617.76
609.272	10637.42
609.629	10751.99
609.986	10703.63
610.343	10671.54
610.7	10763.97
611.057	10781.6
611.414	10776.4
611.771	10700.92
612.127	10812.1
612.484	10862.04
612.841	10766
613.198	10824.98
613.554	10777.3
613.911	10837.64
614.267	10808.26
614.624	10785.66
614.98	10841.03
615.337	10895.94
615.693	10867.02
616.05	10886.9
616.406	10951.08
616.762	10871.54
617.118	10828.83
617.475	10861.59
617.831	10914.25
618.187	10862.04
618.543	10963.29
618.899	10972.78
619.255	10907.92
619.611	10979.1
619.967	11009.39
620.323	10925.77
620.678	10964.42
621.034	11008.48
621.39	10941.14
621.746	10948.37
622.101	11106.78
622.457	10955.15
622.812	10940.23
623.168	10999.22
623.523	10997.41
623.879	11003.96
624.234	10924.64
624.589	10961.25
624.945	11016.17
625.3	10963.51
625.655	10988.6
626.01	10984.08
626.365	10994.24
626.72	10957.41
627.075	10899.56
627.43	10960.35
627.785	10950.86
628.14	10970.97
628.495	10936.62
628.85	10926.45
629.205	10905.21
629.559	10970.52
629.914	10879.67
630.269	10896.62
630.623	10883.51
630.978	10881.71
631.332	10945.66
631.687	10863.17
632.041	10849.62
632.396	10851.42
632.75	10834.25
633.104	10886.68
633.459	10777.53
633.813	10748.38
634.167	10827.92
634.521	10737.08
634.875	10777.3
635.229	10715.38
635.583	10700.24
635.937	10670.19
636.291	10703.41
636.645	10664.76
636.999	10711.99
637.352	10696.4
637.706	10635.61
638.06	10622.73
638.413	10572.79
638.767	10546.12
639.121	10513.58
639.474	10537.76
639.828	10490.76
640.181	10535.27
640.534	10481.72
640.888	10535.95
641.241	10439.46
641.594	10463.19
641.947	10527.82
642.301	10550.19
642.654	10510.19
643.007	10457.31
643.36	10522.17
643.713	10476.74
644.066	10509.06
644.419	10501.38
644.771	10392
645.124	10259.12
645.477	10319.23
645.83	10227.94
646.182	10132.12
646.535	10104.78
646.888	10096.87
647.24	10005.57
647.593	10107.71
647.945	9996.76
648.298	10019.81
648.65	10060.03
649.002	9960.15
649.355	10067.26
649.707	10083.08
650.059	10091.22
650.411	10264.32
650.763	10232.68
651.115	10319.91
651.467	10316.75
651.819	10363.53
652.171	10278.33
652.523	10302.06
652.875	10283.3
653.227	10267.48
653.578	10300.48
653.93	10281.95
654.282	10216.19
654.633	10200.59
654.985	10263.42
655.337	10294.38
655.688	10196.75
656.039	10305.22
656.391	10217.54
656.742	10226.81
657.094	10243.08
657.445	10307.71
657.796	10218.67
658.147	10193.81
658.498	10240.82
658.849	10241.72
659.2	10224.55
659.551	10206.69
659.902	10276.07
660.253	10254.15
660.604	10267.71
660.955	10220.03
661.306	10234.72
661.656	10224.1
662.007	10241.5
662.358	10240.82
662.708	10262.06
663.059	10242.63
663.409	10135.28
663.76	10319.23
664.11	10298.22
664.461	10314.71
664.811	10235.62
665.161	10260.93
665.511	10213.7
665.862	10244.89
666.212	10285.11
666.562	10239.91
666.912	10290.08
667.262	10225.23
667.612	10153.14
667.962	10232
668.312	10278.33
668.662	10201.95
669.011	10133.25
669.361	10232.46
669.711	10185.9
670.06	10160.14
670.41	10126.47
670.76	10196.3
671.109	10186.81
671.459	10148.84
671.808	10152.23
672.157	10106.13
672.507	10111.56
672.856	10128.5
673.205	10151.1
673.554	10108.17
673.904	10083.31
674.253	10105.23
674.602	10112.01
674.951	9938.23
675.3	9920.83
675.649	10034.95
675.998	10046.7
676.346	10046.47
676.695	10057.09
677.044	9978.9
677.393	10023.2
677.741	10027.72
678.09	9990.66
678.438	10031.11
678.787	9995.85
679.135	9999.69
679.484	9894.39
679.832	9911.11
680.181	9925.57
680.529	9929.19
680.877	9895.29
681.225	9839.25
681.573	9933.93
681.922	9914.27
682.27	9805.35
682.618	9851.22
682.966	9800.15
683.314	9818.91
683.661	9776.2
684.009	9691.23
684.357	9732.36
684.705	9726.48
685.053	9654.39
685.4	9715.18
685.748	9721.06
686.095	9663.88
686.443	9596.99
686.79	9621.17
687.138	9600.16
687.485	9607.39
687.832	9481.06
688.18	9524.9
688.527	9454.85
688.874	9434.51
689.221	9488.97
689.568	9354.06
689.915	9390.67
690.262	9356.32
690.609	9319.03
690.956	9302.09
691.303	9310.67
691.65	9246.95
691.997	9189.32
692.344	9142.99
692.69	9204.69
693.037	9177.8
693.383	9084.24
693.73	9030.45
694.077	9056.89
694.423	9039.49
694.769	9047.63
695.116	8936.45
695.462	8967.63
695.808	8853.51
696.155	8905.49
696.501	8852.83
696.847	8839.5
697.193	8747.07
697.539	8715.89
697.885	8790.23
698.231	8692.16
698.577	8691.93
698.923	8694.19
699.269	8649.67
699.614	8580.97
699.96	8527.87
700.306	8573.29
700.651	8515.44
700.997	8470.47
701.342	8423.24
701.688	8467.53
702.033	8441.09
702.379	8363.35
702.724	8316.12
703.069	8357.03
703.415	8202.68
703.76	8261.44
704.105	8284.26
704.45	8299.17
704.795	8166.97
705.14	8230.02
705.485	8160.87
705.83	8147.09
706.175	8117.03
706.52	8091.04
706.865	8032.97
707.209	8052.18
707.554	8014.89
707.899	8041.1
708.243	7954.78
708.588	7976.02
708.932	7910.03
709.277	7932.63
709.621	7947.09
709.966	7856.93
710.31	7889.69
710.654	7793.88
710.998	7815.35
711.342	7823.25
711.687	7801.56
712.031	7749.36
712.375	7669.13
712.719	7647.44
713.063	7679.08
713.407	7715.23
713.75	7672.3
714.094	7655.35
714.438	7628.23
714.782	7658.97
715.125	7606.54
715.469	7628.01
715.812	7556.82
716.156	7524.05
716.499	7540.78
716.843	7537.61
717.186	7506.88
717.53	7532.87
717.873	7509.59
718.216	7505.52
718.559	7365.87
718.902	7477.95
719.246	7423.72
719.589	7421.46
719.932	7376.71
720.275	7380.33
720.617	7425.3
720.96	7352.31
721.303	7376.71
721.646	7403.6
721.989	7314.57
722.331	7360.22
722.674	7335.58
723.016	7343.04
723.359	7281.8
723.701	7338.52
724.044	7284.96
724.386	7289.26
724.729	7233.89
725.071	7265.3
725.413	7264.17
725.755	7237.06
726.097	7205.19
726.439	7209.94
726.782	7222.14
727.124	7223.95
727.465	7201.8
727.807	7223.5
728.149	7165.87
728.491	7208.13
728.833	7188.24
729.175	7161.58
729.516	7158.19
729.858	7149.6
730.199	7141.01
730.541	7156.61
730.882	7160
731.224	7172.2
731.565	7146.89
731.906	7107.57
732.248	7163.16
732.589	7127
732.93	7122.48
733.271	7197.28
733.612	7181.01
733.953	7115.48
734.294	7054.46
734.635	7139.66
734.976	7131.75
735.317	7073.9
735.658	7136.95
735.999	7066.66
736.339	7115.93
736.68	7127
737.021	7115.7
737.361	7113.89
737.702	7184.4
738.042	7146.89
738.383	7089.71
738.723	7088.36
739.063	7096.27
739.404	7128.13
739.744	7083.84
740.084	7122.71
740.424	7177.4
740.764	7149.15
741.104	7208.36
741.444	7166.32
741.784	7142.14
742.124	7213.33
742.464	7202.25
742.804	7200.9
743.143	7216.27
743.483	7203.16
743.823	7210.84
744.162	7223.04
744.502	7233.67
744.841	7289.71
745.181	7342.82
745.52	7319.77
745.86	7355.7
746.199	7409.03
746.538	7397.05
746.877	7456.71
747.216	7530.83
747.556	7507.1
747.895	7537.16
748.234	7578.52
748.573	7580.32
748.911	7663.94
749.25	7727.66
749.589	7696.7
749.928	7758.85
750.267	7772.63
750.605	7874.55
750.944	7985.51
751.283	7935.34
751.621	7990.48
751.96	8071.16
752.298	8183.25
752.636	8249.91
752.975	8241.1
753.313	8272.96
753.651	8429.57
753.989	8499.4
754.327	8558.83
754.666	8653.74
755.004	8748.2
755.342	8802.66
755.679	8953.85
756.017	8987.97
756.355	9120.17
756.693	9170.56
757.031	9341.18
757.368	9409.65
757.706	9531.46
758.044	9643.09
758.381	9756.99
758.719	9877.44
759.056	10006.93
759.394	10101.39
759.731	10147.94
760.068	10313.58
760.405	10440.59
760.743	10577.31
761.08	10723.29
761.417	10801.48
761.754	10918.54
762.091	11081.47
762.428	11066.33
762.765	11203.73
763.102	11416.38
763.438	11482.59
763.775	11572.99
764.112	11681.01
