Data from hue_38_FLMS001491_00071.txt Node
Date: Tue Feb 07 17:31:57 GMT 2017
User: dcchb
Spectrometer: FLMS00149
Trigger mode: 0
Integration Time (sec): 2.000000E-2
Scans to average: 10
Electric dark correction enabled: true
Nonlinearity correction enabled: false
Boxcar width: 0
XAxis mode: Wavelengths
Number of Pixels in Spectrum: 2048
>>>>>Begin Spectral Data<<<<<
341.393	-12.13
341.776	-12.13
342.16	-12.13
342.543	-78.35
342.927	-74.5
343.31	-56.88
343.693	-80.61
344.077	-70.44
344.46	-42.64
344.843	-52.13
345.226	-32.7
345.61	-20.72
345.993	-28.63
346.376	-1.29
346.759	3.01
347.142	30.35
347.525	38.49
347.908	71.26
348.291	58.37
348.674	87.98
349.057	96.57
349.44	99.5
349.823	131.82
350.206	152.16
350.588	197.58
350.971	212.95
351.354	222.89
351.737	233.06
352.119	247.52
352.502	271.48
352.884	285.26
353.267	290.91
353.65	291.14
354.032	280.29
354.414	316.22
354.797	321.87
355.179	327.75
355.562	330.91
355.944	328.42
356.326	343.34
356.709	347.41
357.091	342.66
357.473	338.82
357.855	358.71
358.238	336.11
358.62	313.96
359.002	341.98
359.384	341.76
359.766	324.58
360.148	353.51
360.53	335.43
360.912	346.28
361.294	318.25
361.676	316.22
362.057	326.84
362.439	316.67
362.821	335.2
363.203	325.71
363.584	345.15
363.966	313.28
364.348	319.16
364.729	287.97
365.111	332.72
365.493	311.02
365.874	316.67
366.256	311.25
366.637	325.49
367.019	337.91
367.4	343.34
367.781	340.4
368.163	306.5
368.544	317.8
368.925	307.63
369.306	317.58
369.688	317.58
370.069	315.54
370.45	309.89
370.831	330.91
371.212	325.26
371.593	303.34
371.974	337.91
372.355	306.5
372.736	334.53
373.117	310.12
373.498	319.84
373.879	321.19
374.26	328.65
374.641	326.84
375.021	329.33
375.402	317.12
375.783	343.79
376.163	332.04
376.544	311.93
376.925	312.38
377.305	326.84
377.686	348.54
378.066	342.21
378.447	319.16
378.827	344.24
379.208	322.77
379.588	325.94
379.968	354.41
380.349	342.21
380.729	345.37
381.109	344.24
381.489	353.51
381.87	356.67
382.25	352.6
382.63	326.62
383.01	341.3
383.39	348.31
383.77	356.22
384.15	331.36
384.53	331.59
384.91	377.46
385.29	361.64
385.67	347.18
386.049	360.97
386.429	341.53
386.809	369.55
387.189	344.47
387.568	352.83
387.948	365.03
388.328	340.4
388.707	354.19
389.087	353.28
389.466	381.53
389.846	367.29
390.225	368.2
390.605	350.34
390.984	351.7
391.363	360.97
391.743	373.85
392.122	374.75
392.501	376.33
392.881	369.1
393.26	370.46
393.639	389.44
394.018	386.5
394.397	374.3
394.776	377.01
395.155	383.34
395.534	375.65
395.913	369.1
396.292	386.28
396.671	383.56
397.05	378.14
397.429	393.51
397.808	392.6
398.186	407.52
398.565	403
398.944	394.86
399.323	402.32
399.701	392.15
400.08	374.52
400.458	406.61
400.837	387.63
401.215	393.73
401.594	407.74
401.972	414.75
402.351	389.21
402.729	427.18
403.107	416.78
403.486	410.68
403.864	424.24
404.242	420.4
404.62	408.65
404.999	436.67
405.377	418.82
405.755	421.08
406.133	431.47
406.511	417.46
406.889	423.34
407.267	428.76
407.645	414.97
408.023	433.73
408.401	425.14
408.779	439.83
409.156	443.22
409.534	445.26
409.912	458.82
410.29	462.66
410.667	461.75
411.045	477.57
411.422	469.21
411.8	465.14
412.178	458.36
412.555	456.33
412.933	474.63
413.31	482.32
413.687	476.89
414.065	485.48
414.442	477.35
414.819	466.27
415.197	498.36
415.574	479.83
415.951	492.26
416.328	516.44
416.705	508.76
417.082	487.52
417.46	495.2
417.837	512.6
418.214	521.86
418.591	500.62
418.967	509.44
419.344	528.87
419.721	526.61
420.098	532.49
420.475	546.95
420.852	513.5
421.228	515.09
421.605	572.94
421.982	532.49
422.358	571.13
422.735	561.19
423.111	571.36
423.488	563.67
423.864	566.38
424.241	558.7
424.617	579.26
424.994	568.42
425.37	582.65
425.746	561.64
426.123	599.83
426.499	569.32
426.875	576.1
427.251	600.51
427.627	604.35
428.003	588.08
428.379	604.57
428.756	620.85
429.132	595.54
429.507	622.88
429.883	621.07
430.259	642.09
430.635	640.73
431.011	648.87
431.387	631.24
431.763	653.61
432.138	657.68
432.514	654.74
432.89	671.69
433.265	666.27
433.641	677.34
434.016	661.07
434.392	711.46
434.767	686.15
435.143	685.93
435.518	689.77
435.894	706.49
436.269	705.59
436.644	723.89
437.02	718.24
437.395	726.83
437.77	756.21
438.145	743.55
438.52	736.55
438.895	750.33
439.271	742.65
439.646	754.18
440.021	781.52
440.395	768.41
440.77	758.69
441.145	782.65
441.52	784.46
441.895	782.65
442.27	808.18
442.645	774.51
443.019	791.46
443.394	797.56
443.769	830.56
444.143	803.44
444.518	794.63
444.892	818.58
445.267	812.48
445.641	831.01
446.016	816.32
446.39	852.25
446.764	851.12
447.139	853.61
447.513	858.58
447.887	856.77
448.262	882.08
448.636	855.42
449.01	854.96
449.384	887.28
449.758	871.91
450.132	890.67
450.506	898.58
450.88	890.67
451.254	928.41
451.628	908.52
452.002	930.89
452.376	915.75
452.75	908.97
453.123	931.57
453.497	938.58
453.871	971.8
454.244	950.33
454.618	1006.82
454.992	984
455.365	970.89
455.739	1016.32
456.112	1006.15
456.486	1003.21
456.859	1049.76
457.232	1030.78
457.606	1032.36
457.979	1049.99
458.352	1094.96
458.725	1074.62
459.099	1086.6
459.472	1124.56
459.845	1147.39
460.218	1113.04
460.591	1142.87
460.964	1127.5
461.337	1154.84
461.71	1176.99
462.083	1213.37
462.456	1230.77
462.829	1197.1
463.201	1214.73
463.574	1237.1
463.947	1258.57
464.32	1307.38
464.692	1328.85
465.065	1299.25
465.438	1327.95
465.81	1342.41
466.183	1340.6
466.555	1384.67
466.928	1405.68
467.3	1405.01
467.672	1421.5
468.045	1457.43
468.417	1454.5
468.789	1487.04
469.161	1490.88
469.534	1499.69
469.906	1548.5
470.278	1559.13
470.65	1607.49
471.022	1633.47
471.394	1672.12
471.766	1686.13
472.138	1716.41
472.51	1756.63
472.882	1804.54
473.253	1806.8
473.625	1866.24
473.997	1880.47
474.369	1911.88
474.74	1948.04
475.112	1983.52
475.484	2033.01
475.855	2040.24
476.227	2090.86
476.598	2171.76
476.97	2172.44
477.341	2238.43
477.713	2298.54
478.084	2326.11
478.455	2384.87
478.827	2444.75
479.198	2551.64
479.569	2553
479.94	2639.78
480.311	2712.32
480.682	2768.59
481.053	2860.33
481.424	2895.59
481.795	2977.17
482.166	3005.42
482.537	3126.32
482.908	3193.43
483.279	3288.35
483.65	3387.33
484.021	3473.2
484.391	3532.18
484.762	3625.96
485.133	3667.32
485.503	3736.92
485.874	3874.32
486.244	3919.29
486.615	4035.9
486.985	4183.01
487.356	4253.74
487.726	4325.15
488.097	4455.09
488.467	4507.07
488.837	4680.85
489.207	4716.56
489.578	4866.38
489.948	4932.37
490.318	5065.47
490.688	5171.46
491.058	5230.22
491.428	5377.78
491.798	5509.53
492.168	5637.66
492.538	5685.34
492.908	5840.6
493.278	5922.63
493.648	6000.14
494.017	6114.26
494.387	6196.52
494.757	6356.97
495.126	6419.11
495.496	6502.27
495.866	6589.95
496.235	6683.96
496.605	6861.36
496.974	6873.79
497.344	7008.25
497.713	7099.32
498.082	7212.54
498.452	7314.91
498.821	7396.26
499.19	7475.35
499.559	7568.46
499.928	7635.35
500.298	7734.1
500.667	7833.99
501.036	7886.87
501.405	7976.36
501.774	8040.99
502.143	8239.85
502.512	8264.94
502.88	8370.47
503.249	8398.49
503.618	8483.92
503.987	8557.13
504.356	8658.6
504.724	8714.42
505.093	8852.04
505.462	8819.73
505.83	8953.51
506.199	9045.71
506.567	9196.21
506.936	9186.04
507.304	9266.27
507.672	9384.91
508.041	9448.64
508.409	9534.74
508.777	9594.85
509.145	9711.45
509.514	9751.45
509.882	9823.32
510.25	9927.72
510.618	9981.73
510.986	9974.72
511.354	10174.94
511.722	10207.26
512.09	10318.67
512.458	10336.07
512.826	10421.72
513.193	10527.7
513.561	10546.23
513.929	10560.92
514.297	10691.77
514.664	10846.11
515.032	10814.7
515.4	10921.59
515.767	10965.21
516.135	11107.8
516.502	11055.37
516.869	11293.33
517.237	11234.13
517.604	11241.36
517.972	11392.31
518.339	11423.05
518.706	11462.82
519.073	11614.91
519.44	11659.2
519.808	11732.87
520.175	11714.34
520.542	11908.01
520.909	11869.14
521.276	11955.91
521.643	12152.29
522.009	12191.16
522.376	12240.88
522.743	12317.94
523.11	12452.62
523.477	12468.44
523.843	12595.45
524.21	12693.97
524.577	12792.28
524.943	12881.31
525.31	12997.24
525.676	13024.81
526.043	13119.5
526.409	13176.45
526.776	13347.29
527.142	13196.56
527.508	13396.78
527.874	13509.32
528.241	13653.72
528.607	13651.69
528.973	13738.01
529.339	13707.28
529.705	13879.48
530.071	13993.83
530.437	14032.7
530.803	14085.58
531.169	14197.21
531.535	14153.82
531.901	14313.59
532.267	14360.6
532.632	14467.03
532.998	14448.96
533.364	14627.71
533.73	14636.52
534.095	14683.3
534.461	14865.22
534.826	14871.54
535.192	14931.2
535.557	14987.25
535.923	14994.48
536.288	15125.55
536.653	15152.44
537.019	15074.25
537.384	15243.96
537.749	15312.44
538.114	15333.23
538.479	15437.63
538.845	15525.76
539.21	15369.84
539.575	15611.19
539.94	15630.85
540.305	15707.68
540.67	15684.86
541.034	15820.67
541.399	15852.08
541.764	15878.3
542.129	15963.04
542.494	16034.45
542.858	16110.16
543.223	16216.59
543.587	16319.87
543.952	16237.16
544.316	16370.94
544.681	16378.85
545.045	16494.1
545.41	16546.3
545.774	16579.3
546.138	16694.09
546.503	16649.12
546.867	16723.92
547.231	16942.22
547.595	16827.42
547.959	17032.84
548.324	16988.1
548.688	17089.56
549.052	17071.03
549.416	17161.2
549.779	17188.55
550.143	17172.73
550.507	17329.33
550.871	17428.54
551.235	17348.54
551.599	17492.04
551.962	17456.56
552.326	17634.41
552.689	17733.39
553.053	17647.06
553.417	17733.16
553.78	18007.73
554.143	17945.81
554.507	17972.93
554.87	17890
555.234	18171.12
555.597	18139.71
555.96	18233.72
556.323	18281.17
556.686	18275.97
557.05	18475.52
557.413	18541.28
557.776	18550.32
558.139	18625.34
558.502	18621.28
558.865	18741.05
559.228	18776.3
559.59	18871.21
559.953	18841.84
560.316	19167.93
560.679	19154.6
561.041	19209.06
561.404	19283.63
561.767	19428.49
562.129	19268.94
562.492	19523.63
562.854	19461.25
563.217	19497.41
563.579	19559.56
563.941	19757.74
564.304	19760.45
564.666	19834.58
565.028	19898.53
565.39	20006.32
565.753	20138.07
566.115	20108.02
566.477	20131.29
566.839	20308.92
567.201	20455.8
567.563	20577.83
567.925	20600.88
568.287	20650.83
568.648	20719.3
569.01	20818.05
569.372	20934.89
569.734	20981.89
570.095	21095.56
570.457	21093.53
570.819	21293.07
571.18	21329.23
571.542	21352.28
571.903	21322.22
572.265	21479.05
572.626	21514.53
572.987	21635.21
573.349	21826.62
573.71	21900.51
574.071	21980.06
574.432	22122.88
574.794	22267.73
575.155	22292.82
575.516	22295.76
575.877	22418.24
576.238	22540.04
576.599	22682.64
576.96	22838.34
577.32	22849.19
577.681	22994.49
578.042	23151.78
578.403	23272
578.763	23310.19
579.124	23564.87
579.485	23705.21
579.845	23917.18
580.206	23920.35
580.566	24165.54
580.927	24179.77
581.287	24564.62
581.648	24589.93
582.008	24701.12
582.368	24867.21
582.728	25114.89
583.089	25079.86
583.449	25416.35
583.809	25493.41
584.169	25679.62
584.529	25796.68
584.889	26210.45
585.249	26307.4
585.609	26331.81
585.969	26760.95
586.329	26875.3
586.688	27081.39
587.048	27286.36
587.408	27379.69
587.768	27622.17
588.127	27837.08
588.487	27942.84
588.846	28429.38
589.206	28355.03
589.565	28487.23
589.925	28923.15
590.284	29028.01
590.643	29188.46
591.003	29564.72
591.362	29880.64
591.721	29898.49
592.08	30064.59
592.44	30414.19
592.799	30581.41
593.158	30633.16
593.517	31000.61
593.876	31220.72
594.235	31249.42
594.593	31555.4
594.952	31723.08
595.311	31887.37
595.67	32144.31
596.029	32568.71
596.387	32681.92
596.746	32899.32
597.104	32910.17
597.463	33093.89
597.822	33409.36
598.18	33578.62
598.538	33690.03
598.897	33960.31
599.255	33946.3
599.613	34616.34
599.972	34469.9
600.33	34753.51
600.688	34811.58
601.046	35100.84
601.404	35322.08
601.762	35292.25
602.12	35629.87
602.478	35826.02
602.836	36124.77
603.194	35962.06
603.552	36226.69
603.91	36307.14
604.268	36571.54
604.625	36578.09
604.983	36835.71
605.341	36828.03
605.698	36979.89
606.056	37377.39
606.413	37313.67
606.771	37586.65
607.128	37682.7
607.485	37683.15
607.843	37915.91
608.2	38064.83
608.557	38277.71
608.914	38173.76
609.272	38571.03
609.629	38735.78
609.986	38937.35
610.343	38810.58
610.7	39054.64
611.057	39272.03
611.414	39196.78
611.771	39430.45
612.127	39635.19
612.484	39678.58
612.841	39900.49
613.198	39792.92
613.554	39948.62
613.911	40262.06
614.267	40351.55
614.624	40283.31
614.98	40408.95
615.337	40723.52
615.693	40697.31
616.05	40805.33
616.406	40953.12
616.762	41131.64
617.118	40986.79
617.475	41180
617.831	41257.74
618.187	41398.98
618.543	41287.57
618.899	41682.14
619.255	41685.75
619.611	41700.22
619.967	41842.13
620.323	41886.2
620.678	41782.25
621.034	41819.76
621.39	41849.82
621.746	41843.26
622.101	42301.11
622.457	42235.8
622.812	42222.46
623.168	42349.01
623.523	42462.91
623.879	42410.48
624.234	42264.04
624.589	42469.24
624.945	42623.58
625.3	42591.72
625.655	42724.14
626.01	42624.71
626.365	42846.63
626.72	42790.58
627.075	42728.44
627.43	42764.37
627.785	42623.36
628.14	42964.36
628.495	42881.65
628.85	42878.04
629.205	42867.19
629.559	43026.06
629.914	42934.76
630.269	43022.44
630.623	42648.67
630.978	42845.72
631.332	42948.09
631.687	43130.01
632.041	42930.24
632.396	43167.07
632.75	42887.08
633.104	43046.4
633.459	42840.75
633.813	42737.93
634.167	42774.31
634.521	42745.39
634.875	42807.08
635.229	42859.28
635.583	42738.61
635.937	42762.56
636.291	42729.34
636.645	42613.64
636.999	42719.63
637.352	42873.07
637.706	42530.93
638.06	42790.36
638.413	42735.44
638.767	42603.92
639.121	42696.8
639.474	42443.02
639.828	42493.19
640.181	42440.54
640.534	42564.83
640.888	42413.19
641.241	42205.29
641.594	42388.79
641.947	42508.11
642.301	42517.14
642.654	42502.68
643.007	42302.91
643.36	42394.66
643.713	42297.72
644.066	42441.89
644.419	42294.1
644.771	41971.17
645.124	41677.84
645.477	41665.64
645.83	41371.64
646.182	41180.46
646.535	41152.43
646.888	41273.34
647.24	41034.7
647.593	41352.88
647.945	41013.46
648.298	40900.24
648.65	40846.68
649.002	40742.95
649.355	41119.89
649.707	40867.92
650.059	41020.69
650.411	41584.29
650.763	41469.49
651.115	41924.62
651.467	41779.76
651.819	41886.88
652.171	41576.83
652.523	41691.18
652.875	41761.23
653.227	41556.94
653.578	41801.91
653.93	41690.27
654.282	41548.36
654.633	41429.04
654.985	41448.02
655.337	41364.41
655.688	41579.77
656.039	41742.25
656.391	41391.75
656.742	41467
657.094	41399.89
657.445	41589.71
657.796	41422.71
658.147	41517.62
658.498	41430.17
658.849	41520.56
659.2	41408.7
659.551	41330.06
659.902	41417.74
660.253	41401.24
660.604	41387.23
660.955	41225.43
661.306	41285.54
661.656	41094.36
662.007	41245.77
662.358	41144.98
662.708	41140.91
663.059	41199.21
663.409	40860.47
663.76	41314.46
664.11	41384.29
664.461	41260.45
664.811	41359.89
665.161	41185.2
665.511	41123.28
665.862	41292.09
666.212	41351.53
666.562	41274.01
666.912	41301.36
667.262	41079.22
667.612	41129.84
667.962	41393.78
668.312	41121.7
668.662	41342.26
669.011	41226.78
669.361	41178.87
669.711	41124.19
670.06	40944.3
670.41	40885.1
670.76	40890.97
671.109	41092.32
671.459	40842.16
671.808	40983.85
672.157	41060.46
672.507	40836.96
672.856	40867.7
673.205	40808.04
673.554	41003.06
673.904	40873.8
674.253	41197.63
674.602	40996.51
674.951	40331.21
675.3	40200.82
675.649	40957.19
675.998	40645.1
676.346	40762.16
676.695	40860.01
677.044	40515.16
677.393	40703.18
677.741	40900.46
678.09	40551.55
678.438	40634.26
678.787	40608.27
679.135	40611.21
679.484	40350.65
679.832	40429.29
680.181	40344.77
680.529	40408.27
680.877	40265.68
681.225	40233.14
681.573	40432.91
681.922	40179.58
682.27	40070.43
682.618	40029.75
682.966	39890.1
683.314	40136.64
683.661	39927.16
684.009	39897.1
684.357	39715.41
684.705	39709.31
685.053	39753.6
685.4	39758.12
685.748	39562.42
686.095	39477.9
686.443	39172.37
686.79	39270.68
687.138	39266.38
687.485	39460.5
687.832	39217.57
688.18	39060.74
688.527	38927.18
688.874	38917.24
689.221	38896.67
689.568	38749.79
689.915	38653.29
690.262	38828.65
690.609	38586.17
690.956	38480.87
691.303	38549.34
691.65	38242.23
691.997	38312.51
692.344	38156.13
692.69	38090.37
693.037	38016.25
693.383	37738.51
693.73	37833.88
694.077	37775.57
694.423	37783.94
694.769	37530.16
695.116	37457.16
695.462	37383.49
695.808	37239.54
696.155	37388.24
696.501	37030.06
696.847	37075.03
697.193	36807.24
697.539	37000.91
697.885	36727.69
698.231	36610.86
698.577	36701.48
698.923	36492.9
699.269	36356.85
699.614	36164.54
699.96	36071.21
700.306	36187.82
700.651	35882.52
700.997	35889.97
701.342	35817.43
701.688	35832.8
702.033	35640.72
702.379	35636.87
702.724	35436.43
703.069	35706.48
703.415	35338.58
703.76	35283.66
704.105	35140.16
704.45	35193.95
704.795	34985.37
705.14	34889.55
705.485	34974.97
705.83	34773.39
706.175	34793.28
706.52	34639.16
706.865	34602.78
707.209	34523.68
707.554	34499.73
707.899	34414.76
708.243	34215.44
708.588	34196.46
708.932	33990.14
709.277	33968.67
709.621	34025.84
709.966	33790.37
710.31	33869.24
710.654	33485.74
710.998	33625.63
711.342	33711.05
711.687	33546.99
712.031	33423.15
712.375	33135.7
712.719	33378.63
713.063	33257.95
713.407	33219.76
713.75	33207.56
714.094	33156.49
714.438	33043.27
714.782	33101.57
715.125	33053.21
715.469	32910.17
715.812	32708.14
716.156	32636.73
716.499	32622.04
716.843	32770.06
717.186	32420.46
717.53	32595.15
717.873	32457.3
718.216	32507.46
718.559	32204.42
718.902	32129.62
719.246	32218.43
719.589	32016.18
719.932	32012.56
720.275	31983.41
720.617	31940.47
720.96	31819.57
721.303	31884.88
721.646	31951.77
721.989	31512.46
722.331	31697.32
722.674	31648.5
723.016	31545.91
723.359	31632.23
723.701	31580.71
724.044	31469.07
724.386	31228.85
724.729	31521.95
725.071	31414.84
725.413	31269.08
725.755	31159.03
726.097	31131.91
726.439	30949.99
726.782	31008.52
727.124	30992.25
727.465	30910.67
727.807	30837.9
728.149	30857.11
728.491	30713.16
728.833	30861.86
729.175	30635.88
729.516	30534.86
729.858	30616.44
730.199	30626.84
730.541	30548.19
730.882	30556.33
731.224	30521.53
731.565	30319.05
731.906	30367.18
732.248	30398.59
732.589	30150.01
732.93	30156.34
733.271	30159.96
733.612	30165.83
733.953	30238.15
734.294	29973.75
734.635	29893.3
734.976	30089
735.317	29876.8
735.658	29899.17
735.999	29903.24
736.339	29802
736.68	29865.95
737.021	29623.25
737.361	29581.44
737.702	29895.56
738.042	29635.9
738.383	29589.12
738.723	29651.04
739.063	29599.07
739.404	29608.33
739.744	29491.95
740.084	29377.15
740.424	29476.81
740.764	29334.21
741.104	29376.7
741.444	29274.56
741.784	29159.76
742.124	29246.53
742.464	29047.67
742.804	29037.05
743.143	28997.05
743.483	29040.44
743.823	28854.91
744.162	28949.82
744.502	28805.64
744.841	28761.57
745.181	28778.52
745.52	28735.36
745.86	28825.75
746.199	28730.84
746.538	28628.02
746.877	28663.27
747.216	28537.4
747.556	28499.43
747.895	28522.03
748.234	28410.85
748.573	28357.07
748.911	28314.81
749.25	28249.95
749.589	28209.72
749.928	28159.56
750.267	28233.9
750.605	28095.38
750.944	28068.26
751.283	27923.63
751.621	27980.8
751.96	27746.23
752.298	27790.53
752.636	27865.78
752.975	27736.74
753.313	27656.52
753.651	27757.98
753.989	27535.17
754.327	27607.03
754.666	27352.8
755.004	27428.5
755.342	27434.38
755.679	27374.94
756.017	27369.52
756.355	27339.92
756.693	27215.85
