Data from hue_190_FLMS001491_00036.txt Node
Date: Tue Feb 07 16:45:12 GMT 2017
User: dcchb
Spectrometer: FLMS00149
Trigger mode: 0
Integration Time (sec): 2.000000E-2
Scans to average: 10
Electric dark correction enabled: true
Nonlinearity correction enabled: false
Boxcar width: 0
XAxis mode: Wavelengths
Number of Pixels in Spectrum: 2048
>>>>>Begin Spectral Data<<<<<
341.393	-13.66
341.776	-13.66
342.16	-13.66
342.543	-70.38
342.927	-65.63
343.31	-59.98
343.693	-70.38
344.077	-77.16
344.46	-69.93
344.843	-64.96
345.226	-48.91
345.61	-39.65
345.993	-27.44
346.376	5.1
346.759	8.71
347.142	32.22
347.525	44.19
347.908	60.46
348.291	90.29
348.674	84.87
349.057	132.55
349.44	129.16
349.823	144.3
350.206	164.87
350.588	184.3
350.971	194.47
351.354	215.04
351.737	240.8
352.119	238.99
352.502	242.83
352.884	271.53
353.267	263.4
353.65	285.77
354.032	302.72
354.414	298.2
354.797	319.67
355.179	303.62
355.562	321.25
355.944	331.42
356.326	336.39
356.709	329.16
357.091	317.63
357.473	329.16
357.855	337.52
358.238	310.18
358.62	330.97
359.002	313.57
359.384	328.03
359.766	347.46
360.148	349.72
360.53	328.25
360.912	328.71
361.294	313.57
361.676	312.21
362.057	335.26
362.439	336.62
362.821	328.93
363.203	316.28
363.584	311.76
363.966	318.54
364.348	295.94
364.729	331.87
365.111	316.05
365.493	305.66
365.874	315.83
366.256	308.37
366.637	320.57
367.019	306.33
367.4	315.37
367.781	307.01
368.163	317.86
368.544	312.66
368.925	303.85
369.306	311.53
369.688	290.97
370.069	295.26
370.45	298.88
370.831	301.81
371.212	308.59
371.593	304.07
371.974	318.08
372.355	292.77
372.736	328.03
373.117	319.21
373.498	310.63
373.879	303.85
374.26	306.11
374.641	312.21
375.021	306.79
375.402	311.76
375.783	327.35
376.163	308.59
376.544	330.51
376.925	322.6
377.305	318.99
377.686	323.96
378.066	327.58
378.447	323.51
378.827	321.25
379.208	304.53
379.588	332.77
379.968	323.73
380.349	338.88
380.729	323.96
381.109	303.17
381.489	344.52
381.87	316.05
382.25	313.34
382.63	316.28
383.01	330.51
383.39	335.03
383.77	321.02
384.15	328.25
384.53	328.48
384.91	334.58
385.29	330.06
385.67	329.84
386.049	355.37
386.429	326.22
386.809	337.07
387.189	354.69
387.568	353.34
387.948	345.88
388.328	329.16
388.707	330.29
389.087	341.36
389.466	345.88
389.846	354.47
390.225	343.62
390.605	343.17
390.984	366.22
391.363	353.79
391.743	355.6
392.122	354.02
392.501	361.47
392.881	368.03
393.26	381.81
393.639	370.96
394.018	371.42
394.397	376.84
394.776	351.3
395.155	351.53
395.534	382.49
395.913	373.22
396.292	374.35
396.671	380.68
397.05	397.63
397.429	388.14
397.808	394.47
398.186	398.76
398.565	391.3
398.944	384.07
399.323	404.41
399.701	385.65
400.08	384.75
400.458	392.21
400.837	392.66
401.215	408.25
401.594	387.91
401.972	403.51
402.351	417.29
402.729	424.75
403.107	428.14
403.486	414.81
403.864	411.42
404.242	415.48
404.62	431.75
404.999	440.57
405.377	431.98
405.755	421.36
406.133	443.05
406.511	434.01
406.889	455.03
407.267	461.81
407.645	457.97
408.023	457.52
408.401	467.91
408.779	492.54
409.156	471.53
409.534	460.91
409.912	481.02
410.29	492.09
410.667	511.98
411.045	485.09
411.422	518.08
411.8	541.13
412.178	524.86
412.555	532.32
412.933	509.04
413.31	547.46
413.687	564.63
414.065	558.98
414.442	552.88
414.819	577.74
415.197	600.79
415.574	586.78
415.951	618.64
416.328	598.98
416.705	602.6
417.082	612.99
417.46	623.16
417.837	650.05
418.214	634.23
418.591	664.52
418.967	644.4
419.344	650.73
419.721	671.3
420.098	668.13
420.475	695.93
420.852	724.18
421.228	711.29
421.605	725.76
421.982	737.73
422.358	760.33
422.735	764.17
423.111	785.42
423.488	778.86
423.864	814.79
424.241	839.88
424.617	820.67
424.994	823.38
425.37	835.36
425.746	859.31
426.123	883.95
426.499	874
426.875	900.89
427.251	921.23
427.627	921.23
428.003	907.9
428.379	955.58
428.756	946.32
429.132	962.59
429.507	967.79
429.883	982.93
430.259	982.93
430.635	1014.34
431.011	1002.81
431.387	1042.36
431.763	1037.16
432.138	1048.01
432.514	1069.03
432.89	1095.24
433.265	1091.85
433.641	1104.5
434.016	1157.16
434.392	1155.12
434.767	1205.52
435.143	1222.02
435.518	1232.64
435.894	1252.07
436.269	1276.03
436.644	1293.88
437.02	1294.1
437.395	1307.44
437.77	1339.53
438.145	1397.38
438.52	1392.86
438.895	1408.68
439.271	1428.11
439.646	1459.52
440.021	1507.43
440.395	1510.37
440.77	1468.34
441.145	1529.13
441.52	1566.87
441.895	1587.88
442.27	1579.07
442.645	1600.31
443.019	1643.02
443.394	1609.12
443.769	1635.79
444.143	1619.29
444.518	1684.6
444.892	1668.33
445.267	1695.68
445.641	1717.6
446.016	1765.28
446.39	1759.18
446.764	1765.73
447.139	1716.01
447.513	1773.41
447.887	1769.57
448.262	1787.65
448.636	1826.29
449.01	1845.05
449.384	1862.9
449.758	1876.91
450.132	1926.86
450.506	1947.19
450.88	1941.54
451.254	1925.27
451.628	1945.84
452.002	1985.61
452.376	2004.14
452.75	2038.72
453.123	2047.76
453.497	2069.9
453.871	2092.5
454.244	2121.2
454.618	2132.05
454.992	2160.97
455.365	2191.48
455.739	2216.57
456.112	2232.38
456.486	2262.21
456.859	2277.36
457.232	2356.9
457.606	2321.87
457.979	2379.05
458.352	2428.31
458.725	2450.23
459.099	2450.91
459.472	2497.24
459.845	2512.38
460.218	2543.79
460.591	2548.31
460.964	2586.73
461.337	2673.96
461.71	2711.92
462.083	2735.2
462.456	2729.55
462.829	2767.96
463.201	2812.71
463.574	2762.99
463.947	2797.57
464.32	2920.05
464.692	2937
465.065	2988.07
465.438	3014.74
465.81	3043.44
466.183	3099.93
466.555	3172.25
466.928	3166.82
467.3	3219.25
467.672	3261.51
468.045	3339.7
468.417	3350.1
468.789	3362.07
469.161	3426.03
469.534	3509.87
469.906	3583.54
470.278	3562.52
470.65	3587.6
471.022	3682.97
471.394	3745.57
471.766	3777.88
472.138	3809.74
472.51	3870.76
472.882	3923.41
473.253	4002.28
473.625	4049.29
473.997	4179
474.369	4205.67
474.74	4243.18
475.112	4333.35
475.484	4348.71
475.855	4484.53
476.227	4501.7
476.598	4637.29
476.97	4673.45
477.341	4872.54
477.713	4841.13
478.084	4877.96
478.455	5072.31
478.827	5104.85
479.198	5204.74
479.569	5262.14
479.94	5392.3
480.311	5451.28
480.682	5587.1
481.053	5662.58
481.424	5721.78
481.795	5830.26
482.166	5916.81
482.537	5992.96
482.908	6109.57
483.279	6138.72
483.65	6306.85
484.021	6470.24
484.391	6526.96
484.762	6576.68
485.133	6603.12
485.503	6717.69
485.874	6907.74
486.244	6941.87
486.615	7098.92
486.985	7129.88
487.356	7319.03
487.726	7280.16
488.097	7564.9
488.467	7527.16
488.837	7708.17
489.207	7757.89
489.578	7876.08
489.948	7918.79
490.318	8083.98
490.688	8089.63
491.058	8236.52
491.428	8365.33
491.798	8346.12
492.168	8575.49
492.538	8627.02
492.908	8663.63
493.278	8788.82
493.648	8741.37
494.017	8884.41
494.387	8971.19
494.757	9010.06
495.126	9049.38
495.496	9111.75
495.866	9201.02
496.235	9272.2
496.605	9319.2
496.974	9366.43
497.344	9452.31
497.713	9404.4
498.082	9525.53
498.452	9669.48
498.821	9673.09
499.19	9718.97
499.559	9758.06
499.928	9774.33
500.298	9822.47
500.667	9955.35
501.036	9835.35
501.405	9966.19
501.774	9962.58
502.143	9999.86
502.512	10071.73
502.88	10149.46
503.249	10107.21
503.618	10150.14
503.987	10177.94
504.356	10238.28
504.724	10293.42
505.093	10292.51
505.462	10283.7
505.83	10366.41
506.199	10389.23
506.567	10506.97
506.936	10492.96
507.304	10542
507.672	10538.83
508.041	10572.73
508.409	10582.67
508.777	10633.97
509.145	10641.88
509.514	10681.65
509.882	10725.04
510.25	10644.14
510.618	10727.53
510.986	10802.1
511.354	10801.65
511.722	10874.42
512.09	10894.98
512.458	10917.58
512.826	10945.6
513.193	10967.52
513.561	10946.28
513.929	11010.46
514.297	10965.49
514.664	11077.12
515.032	11024.24
515.4	11090.68
515.767	11001.87
516.135	11099.95
516.502	10967.75
516.869	11046.16
517.237	11079.38
517.604	11033.74
517.972	11098.59
518.339	11129.1
518.706	11107.63
519.073	11113.06
519.44	11099.5
519.808	11162.09
520.175	11186.73
520.542	11227.85
520.909	11199.38
521.276	11180.4
521.643	11217.46
522.009	11222.43
522.376	11245.48
522.743	11198.02
523.11	11259.49
523.477	11236.22
523.843	11286.61
524.21	11362.54
524.577	11296.78
524.943	11301.75
525.31	11314.63
525.676	11324.8
526.043	11420.62
526.409	11308.98
526.776	11356.21
527.142	11309.43
527.508	11237.35
527.874	11358.92
528.241	11360.05
528.607	11267.85
528.973	11344.91
529.339	11224.92
529.705	11287.74
530.071	11399.83
530.437	11251.58
530.803	11280.06
531.169	11239.38
531.535	11121.64
531.901	11167.52
532.267	11089.33
532.632	11141.76
532.998	11060.63
533.364	11003.91
533.73	11035.09
534.095	11017.46
534.461	10956.22
534.826	10950.8
535.192	10930.24
535.557	10936.79
535.923	10821.76
536.288	10812.72
536.653	10849.56
537.019	10710.13
537.384	10740.41
537.749	10631.03
538.114	10594.2
538.479	10588.1
538.845	10532.51
539.21	10456.12
539.575	10463.13
539.94	10330.48
540.305	10386.52
540.67	10313.53
541.034	10350.59
541.399	10274.89
541.764	10199.86
542.129	10131.84
542.494	10125.06
542.858	10065.85
543.223	10039.86
543.587	9973.88
543.952	9859.3
544.316	9930.49
544.681	9821.56
545.045	9817.5
545.41	9779.08
545.774	9711.06
546.138	9644.62
546.503	9690.95
546.867	9529.59
547.231	9455.7
547.595	9478.75
547.959	9412.99
548.324	9382.25
548.688	9345.64
549.052	9230.62
549.416	9288.24
549.779	9241.92
550.143	9124.18
550.507	9130.73
550.871	9076.5
551.235	8950.4
551.599	9005.99
551.962	8965.99
552.326	8946.56
552.689	8956.95
553.053	8821.59
553.417	8820.91
553.78	8820.23
554.143	8657.53
554.507	8686.68
554.87	8693.68
555.234	8659.11
555.597	8547.7
555.96	8516.74
556.323	8503.86
556.686	8466.8
557.05	8495.27
557.413	8462.5
557.776	8476.29
558.139	8436.06
558.502	8349.74
558.865	8379.34
559.228	8334.82
559.59	8302.96
559.953	8343.41
560.316	8298.67
560.679	8263.41
561.041	8283.3
561.404	8313.35
561.767	8257.99
562.129	8195.39
562.492	8251.44
562.854	8203.98
563.217	8175.28
563.579	8196.52
563.941	8151.33
564.304	8166.24
564.666	8163.3
565.028	8134.15
565.39	8116.52
565.753	8183.19
566.115	8143.87
566.477	8138.22
566.839	8124.66
567.201	8059.35
567.563	8113.81
567.925	8130.08
568.287	8098.22
568.648	8097.54
569.01	8105.9
569.372	8192.45
569.734	8016.41
570.095	8096.19
570.457	8082.85
570.819	8103.42
571.18	8055.96
571.542	8121.95
571.903	8116.98
572.265	8074.27
572.626	8085.79
572.987	8108.61
573.349	8076.52
573.71	8039.46
574.071	8102.51
574.432	8048.96
574.794	8139.12
575.155	8092.8
575.516	8039.01
575.877	8084.21
576.238	8024.55
576.599	8100.03
576.96	8088.05
577.32	8060.93
577.681	8080.37
578.042	8092.57
578.403	8048.28
578.763	8068.16
579.124	7993.36
579.485	8049.18
579.845	8120.82
580.206	8018.45
580.566	8001.05
580.927	7990.88
581.287	8076.07
581.648	7951.1
582.008	8028.84
582.368	7995.62
582.728	7990.88
583.089	7996.3
583.449	8004.66
583.809	7943.42
584.169	7978.45
584.529	7839.69
584.889	7938
585.249	7899.58
585.609	7860.71
585.969	7916.53
586.329	7888.06
586.688	7883.54
587.048	7848.51
587.408	7836.53
587.768	7886.47
588.127	7830.88
588.487	7786.14
588.846	7902.74
589.206	7841.28
589.565	7848.96
589.925	7781.84
590.284	7791.33
590.643	7812.58
591.003	7848.28
591.362	7846.93
591.721	7779.58
592.08	7753.14
592.44	7737.55
592.799	7804.89
593.158	7749.98
593.517	7713.82
593.876	7791.56
594.235	7713.37
594.593	7701.62
594.952	7755.4
595.311	7781.39
595.67	7694.84
596.029	7731.68
596.387	7737.32
596.746	7704.11
597.104	7657.1
597.463	7686.93
597.822	7660.04
598.18	7632.92
598.538	7646.48
598.897	7684.67
599.255	7655.29
599.613	7688.74
599.972	7580.49
600.33	7685.12
600.688	7585.69
601.046	7641.73
601.404	7696.65
601.762	7679.02
602.12	7674.73
602.478	7664.33
602.836	7716.31
603.194	7606.71
603.552	7605.12
603.91	7552.02
604.268	7649.64
604.625	7600.38
604.983	7542.75
605.341	7609.42
605.698	7621.17
606.056	7586.82
606.413	7580.94
606.771	7628.4
607.128	7624.79
607.485	7608.51
607.843	7585.46
608.2	7591.57
608.557	7652.58
608.914	7642.41
609.272	7636.08
609.629	7665.01
609.986	7763.76
610.343	7636.99
610.7	7712.01
611.057	7649.64
611.414	7644.9
611.771	7631.56
612.127	7688.29
612.484	7639.7
612.841	7695.74
613.198	7638.57
613.554	7679.7
613.911	7665.46
614.267	7686.03
614.624	7696.87
614.98	7712.69
615.337	7664.33
615.693	7688.74
616.05	7691.68
616.406	7709.75
616.762	7706.82
617.118	7631.56
617.475	7698.46
617.831	7707.04
618.187	7726.7
618.543	7743.88
618.899	7711.56
619.255	7745.91
619.611	7782.75
619.967	7794.72
620.323	7735.06
620.678	7744.33
621.034	7807.15
621.39	7734.16
621.746	7732.58
622.101	7818
622.457	7794.95
622.812	7668.63
623.168	7770.09
623.523	7713.6
623.879	7772.58
624.234	7757.66
624.589	7803.99
624.945	7785.91
625.3	7765.12
625.655	7779.81
626.01	7834.95
626.365	7763.09
626.72	7745.23
627.075	7663.65
627.43	7705.91
627.785	7737.1
628.14	7778.23
628.495	7764.67
628.85	7714.73
629.205	7660.72
629.559	7686.48
629.914	7676.99
630.269	7648.74
630.623	7691.68
630.978	7638.12
631.332	7711.34
631.687	7673.37
632.041	7637.89
632.396	7658
632.75	7639.25
633.104	7652.81
633.459	7611.23
633.813	7635.63
634.167	7614.84
634.521	7587.27
634.875	7603.32
635.229	7596.76
635.583	7514.73
635.937	7511.34
636.291	7493.94
636.645	7538.91
636.999	7481.29
637.352	7551.79
637.706	7463.89
638.06	7479.7
638.413	7525.35
638.767	7491.68
639.121	7431.34
639.474	7429.99
639.828	7420.95
640.181	7431.57
640.534	7445.81
640.888	7387.73
641.241	7378.46
641.594	7408.07
641.947	7316.77
642.301	7429.31
642.654	7398.8
643.007	7369.2
643.36	7349.99
643.713	7390.67
644.066	7356.32
644.419	7337.79
644.771	7313.83
645.124	7268.41
645.477	7266.6
645.83	7216.66
646.182	7221.63
646.535	7125.36
646.888	7183.89
647.24	7067.74
647.593	7171.01
647.945	7131.69
648.298	7143.67
648.65	7049.43
649.002	7107.74
649.355	7132.59
649.707	7058.25
650.059	7157.91
650.411	7243.78
650.763	7221.86
651.115	7349.54
651.467	7294.17
651.819	7341.4
652.171	7322.19
652.523	7315.41
652.875	7257.79
653.227	7248.75
653.578	7257.11
653.93	7261.86
654.282	7288.98
654.633	7220.73
654.985	7258.24
655.337	7330.78
655.688	7235.64
656.039	7334.4
656.391	7249.88
656.742	7255.3
657.094	7248.75
657.445	7301.18
657.796	7319.93
658.147	7269.77
658.498	7270.67
658.849	7301.86
659.2	7317.9
659.551	7313.38
659.902	7372.59
660.253	7337.11
660.604	7361.06
660.955	7341.85
661.306	7333.04
661.656	7291.01
662.007	7381.85
662.358	7354.51
662.708	7349.31
663.059	7383.44
663.409	7312.7
663.76	7361.29
664.11	7317.22
664.461	7409.65
664.811	7319.71
665.161	7330.1
665.511	7401.29
665.862	7345.02
666.212	7309.31
666.562	7395.41
666.912	7365.81
667.262	7356.32
667.612	7380.72
667.962	7392.02
668.312	7323.78
668.662	7346.15
669.011	7430.67
669.361	7374.17
669.711	7333.72
670.06	7373.94
670.41	7337.11
670.76	7359.48
671.109	7365.36
671.459	7322.42
671.808	7343.66
672.157	7328.3
672.507	7278.35
672.856	7271.35
673.205	7260.05
673.554	7263.44
673.904	7272.03
674.253	7347.96
674.602	7258.92
674.951	7168.53
675.3	7154.74
675.649	7255.3
675.998	7220.05
676.346	7208.53
676.695	7277.22
677.044	7214.85
677.393	7268.18
677.741	7198.13
678.09	7204.23
678.438	7173.05
678.787	7224.57
679.135	7245.59
679.484	7150.45
679.832	7162.65
680.181	7105.93
680.529	7099.83
680.877	7098.47
681.225	7074.07
681.573	7152.48
681.922	7062.54
682.27	7084.01
682.618	7060.05
682.966	7059.38
683.314	7078.59
683.661	7014.41
684.009	7030.68
684.357	6953.62
684.705	6995.2
685.053	6944.35
685.4	6928.98
685.748	6888.53
686.095	6870
686.443	6853.73
686.79	6923.33
687.138	6900.96
687.485	6819.16
687.832	6817.35
688.18	6824.58
688.527	6752.72
688.874	6832.49
689.221	6716.33
689.568	6733.51
689.915	6729.67
690.262	6718.14
690.609	6718.37
690.956	6614.42
691.303	6651.03
691.65	6627.3
691.997	6606.06
692.344	6520.63
692.69	6513.18
693.037	6477.7
693.383	6478.83
693.73	6483.57
694.077	6463.69
694.423	6459.84
694.769	6420.3
695.116	6402.67
695.462	6393.63
695.808	6359.96
696.155	6394.31
696.501	6293.29
696.847	6353.86
697.193	6279.28
697.539	6275.67
697.885	6241.54
698.231	6215.56
698.577	6140.76
698.923	6127.88
699.269	6154.99
699.614	6123.36
699.96	6070.93
700.306	6060.53
700.651	6054.88
700.997	6000.87
701.342	5991.38
701.688	6011.49
702.033	5990.25
702.379	5940.54
702.724	5974.43
703.069	5990.03
703.415	5867.09
703.76	5896.02
704.105	5853.31
704.45	5809.24
704.795	5781.22
705.14	5780.99
705.485	5761.33
705.83	5780.09
706.175	5803.36
706.52	5742.8
706.865	5706.87
707.209	5689.92
707.554	5696.93
707.899	5657.15
708.243	5635.69
708.588	5594.33
708.932	5592.97
709.277	5559.98
709.621	5597.72
709.966	5533.99
710.31	5565.86
710.654	5505.52
710.998	5519.08
711.342	5477.05
711.687	5511.85
712.031	5436.14
712.375	5416.26
712.719	5435.69
713.063	5443.83
713.407	5458.51
713.75	5421.45
714.094	5440.21
714.438	5418.52
714.782	5411.74
715.125	5343.72
715.469	5382.81
715.812	5311.4
716.156	5288.8
716.499	5372.87
716.843	5303.49
717.186	5270.05
717.53	5305.3
717.873	5323.6
718.216	5308.24
718.559	5303.26
718.902	5280.89
719.246	5255.81
719.589	5243.38
719.932	5294.9
720.275	5251.06
720.617	5262.14
720.96	5295.81
721.303	5276.82
721.646	5258.07
721.989	5222.59
722.331	5281.34
722.674	5260.55
723.016	5206.54
723.359	5180.78
723.701	5237.96
724.044	5215.13
724.386	5161.57
724.729	5208.58
725.071	5194.11
725.413	5198.63
725.755	5204.06
726.097	5188.69
726.439	5149.37
726.782	5145.53
727.124	5233.89
727.465	5185.3
727.807	5194.57
728.149	5104.17
728.491	5161.35
728.833	5145.53
729.175	5113.89
729.516	5122.03
729.858	5183.95
730.199	5150.73
730.541	5138.52
730.882	5117.28
731.224	5154.57
731.565	5084.51
731.906	5123.16
732.248	5112.54
732.589	5154.79
732.93	5140.56
733.271	5122.03
733.612	5120.22
733.953	5173.55
734.294	5181.91
734.635	5155.02
734.976	5195.47
735.317	5191.86
735.658	5129.26
735.999	5231.85
736.339	5164.74
736.68	5152.08
737.021	5185.75
737.361	5182.14
737.702	5222.59
738.042	5183.72
738.383	5177.39
738.723	5189.6
739.063	5258.75
739.404	5272.98
739.744	5236.37
740.084	5231.63
740.424	5250.61
740.764	5282.02
741.104	5283.15
741.444	5273.43
741.784	5259.2
742.124	5282.47
742.464	5334.68
742.804	5327.67
743.143	5354.79
743.483	5395.24
743.823	5358.4
744.162	5402.02
744.502	5401.79
744.841	5477.95
745.181	5517.5
745.52	5512.75
745.86	5566.08
746.199	5590.26
746.538	5684.72
746.877	5703.03
747.216	5700.77
747.556	5739.41
747.895	5846.3
748.234	5851.5
748.573	5853.31
748.911	5939.41
749.25	5963.81
749.589	5977.82
749.928	6109.35
750.267	6149.57
750.605	6170.59
750.944	6293.07
751.283	6292.62
751.621	6451.93
751.96	6465.95
752.298	6604.25
752.636	6685.15
752.975	6693.74
753.313	6882.43
753.651	6926.27
753.989	7014.63
754.327	7110.22
754.666	7200.39
755.004	7308.64
755.342	7441.97
755.679	7598.57
756.017	7689.64
756.355	7898.45
756.693	7949.75
757.031	8127.37
757.368	8253.24
757.706	8398.32
758.044	8511.54
758.381	8721.25
758.719	8760.57
759.056	8971.64
759.394	9200.34
759.731	9329.6
760.068	9351.07
760.405	9530.5
760.743	9745.86
761.08	9899.53
761.417	10028.56
761.754	10196.7
762.091	10416.12
762.428	10555.78
762.765	10685.27
763.102	10972.27
763.438	11043.23
763.775	11224.92
764.112	11442.76
764.449	11611.12
764.785	11751
765.122	11900.38
765.458	11962.07
765.795	12282.29
766.131	12327.94
766.467	12449.74
766.804	12630.53
