Data from hue_10_FLMS001491_71.txt Node
Date: Mon Feb 06 15:32:30 GMT 2017
User: dcchb
Spectrometer: FLMS00149
Trigger mode: 0
Integration Time (sec): 2.000000E-2
Scans to average: 10
Electric dark correction enabled: true
Nonlinearity correction enabled: false
Boxcar width: 0
XAxis mode: Wavelengths
Number of Pixels in Spectrum: 2048
>>>>>Begin Spectral Data<<<<<
341.393	-5.01
341.776	-5.01
342.16	-5.01
342.543	-37.56
342.927	-75.29
343.31	-64
343.693	-62.19
344.077	-63.09
344.46	-73.03
344.843	-43.43
345.226	-36.43
345.61	-43.43
345.993	-20.83
346.376	-16.31
346.759	17.58
347.142	38.83
347.525	26.17
347.908	67.53
348.291	82.22
348.674	91.25
349.057	99.16
349.44	128.32
349.823	142.33
350.206	150.46
350.588	190.46
350.971	205.15
351.354	220.29
351.737	253.28
352.119	280.4
352.502	248.54
352.884	281.53
353.267	287.63
353.65	297.35
354.032	298.93
354.414	299.16
354.797	303
355.179	336.67
355.562	323.56
355.944	332.6
356.326	340.06
356.709	348.42
357.091	346.62
357.473	351.59
357.855	370.12
358.238	359.72
358.62	337.35
359.002	353.62
359.384	329.44
359.766	344.58
360.148	327.18
360.53	363.11
360.912	346.39
361.294	340.97
361.676	326.73
362.057	333.06
362.439	306.62
362.821	327.86
363.203	318.37
363.584	320.18
363.966	326.28
364.348	323.34
364.729	319.72
365.111	322.21
365.493	315.88
365.874	315.66
366.256	309.1
366.637	314.98
367.019	307.97
367.4	327.41
367.781	311.36
368.163	314.98
368.544	313.85
368.925	311.59
369.306	319.5
369.688	294.87
370.069	301.19
370.45	312.94
370.831	324.47
371.212	317.46
371.593	303
371.974	302.77
372.355	331.47
372.736	298.25
373.117	315.43
373.498	309.55
373.879	316.11
374.26	326.28
374.641	307.75
375.021	322.66
375.402	312.72
375.783	323.34
376.163	335.77
376.544	339.61
376.925	320.4
377.305	350.91
377.686	325.37
378.066	309.1
378.447	323.56
378.827	334.19
379.208	343.68
379.588	335.32
379.968	334.41
380.349	328.54
380.729	362.89
381.109	326.5
381.489	319.95
381.87	312.04
382.25	329.21
382.63	333.06
383.01	317.24
383.39	346.39
383.77	341.19
384.15	347.29
384.53	342.1
384.91	347.29
385.29	331.47
385.67	340.51
386.049	337.8
386.429	328.08
386.809	345.94
387.189	344.13
387.568	341.87
387.948	343.45
388.328	365.82
388.707	354.52
389.087	336.22
389.466	354.07
389.846	359.72
390.225	354.98
390.605	354.75
390.984	345.26
391.363	349.1
391.743	363.34
392.122	361.53
392.501	343.23
392.881	365.82
393.26	359.04
393.639	365.15
394.018	349.55
394.397	347.07
394.776	350.91
395.155	347.52
395.534	357.91
395.913	362.66
396.292	375.77
396.671	373.28
397.05	379.61
397.429	357.01
397.808	365.15
398.186	366.73
398.565	388.87
398.944	379.38
399.323	361.98
399.701	396.33
400.08	372.83
400.458	371.93
400.837	384.58
401.215	373.06
401.594	386.61
401.972	374.41
402.351	379.16
402.729	360.85
403.107	364.02
403.486	393.39
403.864	396.33
404.242	375.99
404.62	372.6
404.999	385.48
405.377	383.45
405.755	398.37
406.133	395.88
406.511	370.34
406.889	394.3
407.267	392.49
407.645	411.47
408.023	406.5
408.401	433.17
408.779	397.69
409.156	401.75
409.534	400.17
409.912	415.54
410.29	430.91
410.667	395.65
411.045	418.93
411.422	406.73
411.8	424.58
412.178	419.61
412.555	435.88
412.933	446.95
413.31	423.9
413.687	444.01
414.065	428.87
414.442	458.7
414.819	423
415.197	438.36
415.574	444.47
415.951	451.02
416.328	452.83
416.705	437.01
417.082	450.79
417.46	467.97
417.837	471.36
418.214	450.34
418.591	446.73
418.967	445.14
419.344	460.74
419.721	467.97
420.098	465.48
420.475	458.93
420.852	480.17
421.228	479.72
421.605	463.9
421.982	488.08
422.358	466.84
422.735	465.48
423.111	492.37
423.488	493.96
423.864	483.79
424.241	474.97
424.617	498.93
424.994	510.45
425.37	500.06
425.746	486.05
426.123	518.36
426.499	503
426.875	502.54
427.251	498.93
427.627	507.97
428.003	513.39
428.379	503
428.756	519.72
429.132	541.86
429.507	526.72
429.883	532.37
430.259	537.12
430.635	526.72
431.011	559.72
431.387	561.07
431.763	560.39
432.138	542.09
432.514	542.99
432.89	552.26
433.265	546.84
433.641	541.19
434.016	574.63
434.392	569.21
434.767	579.15
435.143	562.88
435.518	576.67
435.894	575.31
436.269	583.9
436.644	593.84
437.02	583.9
437.395	595.2
437.77	617.57
438.145	625.03
438.52	592.26
438.895	615.08
439.271	611.24
439.646	623.22
440.021	613.95
440.395	624.12
440.77	631.35
441.145	620.51
441.52	640.62
441.895	636.33
442.27	625.7
442.645	642.43
443.019	641.3
443.394	665.25
443.769	641.07
444.143	668.64
444.518	635.2
444.892	641.75
445.267	660.28
445.641	670.67
446.016	660.05
446.39	643.1
446.764	672.26
447.139	659.6
447.513	665.02
447.887	670
448.262	661.41
448.636	677.68
449.01	684.69
449.384	674.52
449.758	680.84
450.132	667.96
450.506	705.7
450.88	703.22
451.254	705.02
451.628	711.13
452.002	692.37
452.376	721.52
452.75	705.7
453.123	728.3
453.497	757.23
453.871	726.49
454.244	736.44
454.618	735.76
454.992	740.05
455.365	753.38
455.739	783.89
456.112	745.7
456.486	789.54
456.859	759.71
457.232	789.32
457.606	784.12
457.979	804.46
458.352	808.07
458.725	791.8
459.099	820.05
459.472	826.6
459.845	821.63
460.218	851.01
460.591	821.86
460.964	872.25
461.337	849.88
461.71	866.38
462.083	863.21
462.456	875.41
462.829	910.44
463.201	884
463.574	861.63
463.947	909.09
464.32	928.97
464.692	921.52
465.065	928.52
465.438	960.16
465.81	964.9
466.183	948.63
466.555	994.96
466.928	978.91
467.3	977.33
467.672	1027.73
468.045	1019.14
468.417	997.22
468.789	1042.42
469.161	1048.97
469.534	1056.88
469.906	1085.35
470.278	1092.36
470.65	1093.94
471.022	1124.67
471.394	1114.5
471.766	1154.5
472.138	1146.59
472.51	1152.24
472.882	1185.69
473.253	1209.42
473.625	1213.94
473.997	1246.48
474.369	1277.89
474.74	1269.53
475.112	1262.75
475.484	1292.35
475.855	1367.83
476.227	1356.76
476.598	1388.85
476.97	1403.99
477.341	1426.81
477.713	1455.29
478.084	1479.69
478.455	1523.08
478.827	1535.28
479.198	1601.72
479.569	1588.16
479.94	1650.08
480.311	1651.21
480.682	1689.63
481.053	1730.99
481.424	1726.47
481.795	1795.84
482.166	1815.73
482.537	1862.73
482.908	1895.5
483.279	1924.88
483.65	1953.35
484.021	1986.57
484.391	2060.47
484.762	2062.05
485.133	2070.41
485.503	2129.62
485.874	2156.74
486.244	2208.04
486.615	2240.8
486.985	2270.18
487.356	2314.02
487.726	2356.51
488.097	2402.15
488.467	2405.09
488.837	2468.37
489.207	2496.16
489.578	2550.63
489.948	2572.55
490.318	2600.79
490.688	2630.17
491.058	2702.94
491.428	2725.08
491.798	2776.61
492.168	2829.49
492.538	2822.48
492.908	2859.32
493.278	2913.1
493.648	2954
494.017	2980.9
494.387	3012.08
494.757	3065.64
495.126	3080.55
495.496	3127.78
495.866	3099.54
496.235	3167.33
496.605	3227.67
496.974	3209.14
497.344	3251.4
497.713	3280.78
498.082	3295.92
498.452	3312.19
498.821	3358.51
499.19	3361
499.559	3395.12
499.928	3410.94
500.298	3438.06
500.667	3483.48
501.036	3460.21
501.405	3529.81
501.774	3516.25
502.143	3563.71
502.512	3547.43
502.88	3635.57
503.249	3599.64
503.618	3661.78
503.987	3657.71
504.356	3667.66
504.724	3708.33
505.093	3731.16
505.462	3739.97
505.83	3747.88
506.199	3807.77
506.567	3827.88
506.936	3843.47
507.304	3855.68
507.672	3866.3
508.041	3857.94
508.409	3904.71
508.777	3910.14
509.145	3942
509.514	3951.04
509.882	3986.07
510.25	3975.45
510.618	4015.67
510.986	4038.72
511.354	4000.53
511.722	4031.49
512.09	4051.38
512.458	4042.56
512.826	4065.39
513.193	4085.5
513.561	4108.32
513.929	4085.05
514.297	4130.7
514.664	4181.32
515.032	4139.74
515.4	4177.02
515.767	4211.82
516.135	4203.24
516.502	4184.93
516.869	4245.72
517.237	4231.26
517.604	4269
517.972	4275.1
518.339	4285.04
518.706	4310.8
519.073	4292.5
519.44	4243.69
519.808	4321.2
520.175	4279.62
520.542	4360.07
520.909	4350.13
521.276	4318.26
521.643	4378.83
522.009	4364.81
522.376	4413.4
522.743	4388.32
523.11	4420.63
523.477	4430.8
523.843	4444.36
524.21	4509.44
524.577	4546.5
524.943	4569.78
525.31	4563.45
525.676	4582.89
526.043	4619.95
526.409	4561.19
526.776	4632.83
527.142	4649.1
527.508	4678.93
527.874	4708.53
528.241	4764.35
528.607	4741.3
528.973	4801.64
529.339	4714.64
529.705	4830.79
530.071	4887.29
530.437	4868.3
530.803	4847.74
531.169	4900.85
531.535	4870.56
531.901	4896.1
532.267	4962.31
532.632	4967.06
532.998	4978.13
533.364	5004.8
533.73	4998.92
534.095	5036.21
534.461	5070.56
534.826	5087.96
535.192	5095.19
535.557	5137.68
535.923	5148.07
536.288	5156.88
536.653	5166.83
537.019	5151.91
537.384	5191.69
537.749	5203.89
538.114	5248.41
538.479	5255.41
538.845	5249.76
539.21	5259.03
539.575	5301.51
539.94	5301.97
540.305	5336.31
540.67	5365.01
541.034	5381.74
541.399	5480.04
541.764	5428.74
542.129	5474.39
542.494	5486.14
542.858	5542.41
543.223	5532.69
543.587	5599.13
543.952	5585.35
544.316	5619.02
544.681	5586.48
545.045	5635.29
545.41	5666.7
545.774	5720.49
546.138	5761.39
546.503	5708.73
546.867	5765.46
547.231	5815.17
547.595	5788.73
547.959	5808.84
548.324	5844.32
548.688	5836.87
549.052	5913.25
549.416	5885
549.779	5911.67
550.143	5881.84
550.507	5950.76
550.871	6011.32
551.235	5949.63
551.599	6086.13
551.962	6077.54
552.326	6063.98
552.689	6041.83
553.053	6084.09
553.417	6116.18
553.78	6135.62
554.143	6133.13
554.507	6112.34
554.87	6215.61
555.234	6218.55
555.597	6180.13
555.96	6271.88
556.323	6266.23
556.686	6270.75
557.05	6292.67
557.413	6287.7
557.776	6269.4
558.139	6361.15
558.502	6359.79
558.865	6356.63
559.228	6444.08
559.59	6382.39
559.953	6400.02
560.316	6454.93
560.679	6388.49
561.041	6528.37
561.404	6492.22
561.767	6577.64
562.129	6536.51
562.492	6574.02
562.854	6632.1
563.217	6612.21
563.579	6634.81
563.941	6624.64
564.304	6631.42
564.666	6706.9
565.028	6726.56
565.39	6728.59
565.753	6745.99
566.115	6786.45
566.477	6800
566.839	6793.9
567.201	6889.04
567.563	6793
567.925	6887.91
568.287	6927.23
568.648	6921.58
569.01	6946.67
569.372	7030.51
569.734	7002.49
570.095	7089.94
570.457	7100.34
570.819	7130.39
571.18	7126.32
571.542	7158.41
571.903	7148.92
572.265	7273.66
572.626	7308.47
572.987	7310.73
573.349	7359.76
573.71	7436.82
574.071	7463.49
574.432	7503.94
574.794	7570.83
575.155	7598.85
575.516	7668.68
575.877	7755.69
576.238	7810.6
576.599	7923.14
576.96	7941.9
577.32	8094.89
577.681	8192.28
578.042	8250.14
578.403	8366.52
578.763	8410.13
579.124	8499.4
579.485	8635.89
579.845	8713.85
580.206	8854.41
580.566	8977.8
580.927	9081.3
581.287	9288.07
581.648	9355.19
582.008	9571.23
582.368	9674.73
582.728	9876.08
583.089	10003.08
583.449	10183.42
583.809	10373.02
584.169	10648.04
584.529	10774.82
584.889	11104.3
585.249	11197.86
585.609	11429.49
585.969	11687.33
586.329	11923.26
586.688	12134.78
587.048	12387.2
587.408	12645.05
587.768	12929.34
588.127	13211.59
588.487	13399.61
588.846	13862.64
589.206	13955.97
589.565	14315.06
589.925	14706.92
590.284	15020.35
590.643	15357.07
591.003	15698.3
591.362	16024.17
591.721	16236.59
592.08	16630.93
592.44	17063.69
592.799	17406.51
593.158	17744.35
593.517	18049.88
593.876	18397.67
594.235	18794.49
594.593	19119.23
594.952	19574.36
595.311	19802.83
595.67	20227.67
596.029	20669.24
596.387	21116.92
596.746	21504.48
597.104	21720.52
597.463	22090.45
597.822	22597.78
598.18	22885.68
598.538	23185.11
598.897	23780.35
599.255	23979.44
599.613	24711.17
599.972	24764.73
600.33	25238.16
600.688	25432.74
601.046	25875.21
601.404	26531.69
601.762	26749.99
602.12	27167.83
602.478	27537.31
602.836	27761.26
603.194	27985.66
603.552	28471.3
603.91	28667
604.268	29202.13
604.625	29332.52
604.983	29759.18
605.341	29988.77
605.698	30464.69
606.056	30673.05
606.413	31058.58
606.771	31574.95
607.128	31851.32
607.485	31934.26
607.843	32295.61
608.2	32844.74
608.557	33008.58
608.914	33270.95
609.272	33624.84
609.629	33970.82
609.986	34394.53
610.343	34387.75
610.7	34890.57
611.057	35052.37
611.414	35285.58
611.771	35589.53
612.127	35997.88
612.484	36088.27
612.841	36472.44
613.198	36534.82
613.554	36878.99
613.911	37197.62
614.267	37270.39
614.624	37557.16
614.98	37870.15
615.337	38043.03
615.693	38255
616.05	38457.25
616.406	38752.39
616.762	38907.41
617.118	39016.78
617.475	39195.76
617.831	39460.61
618.187	39704.22
618.543	39788.29
618.899	40096.76
619.255	40295.17
619.611	40379.69
619.967	40571.55
620.323	40944.42
620.678	40878.2
621.034	40880.24
621.39	41030.07
621.746	41176.5
622.101	41542.59
622.457	41420.11
622.812	41703.27
623.168	41858.97
623.523	41982.13
623.879	42286.3
624.234	41999.98
624.589	42355.68
624.945	42239.75
625.3	42555.67
625.655	42439.52
626.01	42806.52
626.365	42785.73
626.72	42871.82
627.075	42964.03
627.43	43064.36
627.785	43027.75
628.14	43229.78
628.495	43370.12
628.85	43354.75
629.205	43293.96
629.559	43648.53
629.914	43459.38
630.269	43642.65
630.623	43584.12
630.978	43486.27
631.332	43762.65
631.687	43782.76
632.041	43655.31
632.396	43842.65
632.75	43638.13
633.104	43768.98
633.459	43657.79
633.813	43607.4
634.167	43816.66
634.521	43880.16
634.875	43925.36
635.229	43955.64
635.583	43665.25
635.937	43803.1
636.291	43892.81
636.645	43982.76
636.999	43823.89
637.352	43938.24
637.706	43751.8
638.06	43962.87
638.413	43893.72
638.767	43727.4
639.121	44095.75
639.474	43832.25
639.828	43761.07
640.181	43964.9
640.534	43869.09
640.888	43782.08
641.241	43713.61
641.594	43799.48
641.947	43862.08
642.301	43783.21
642.654	43946.6
643.007	43841.29
643.36	43862.08
643.713	43793.38
644.066	43925.58
644.419	43672.26
644.771	43491.7
645.124	43062.1
645.477	43222.32
645.83	42823.46
646.182	42716.8
646.535	42629.35
646.888	42841.77
647.24	42517.26
647.593	42856.46
647.945	42683.36
648.298	42554.54
648.65	42384.15
649.002	42317.94
649.355	42502.34
649.707	42383.48
650.059	42531.27
650.411	43165.6
650.763	43137.35
651.115	43559.26
651.467	43434.75
651.819	43472.03
652.171	43438.82
652.523	43287.63
652.875	43300.74
653.227	43341.42
653.578	43495.09
653.93	43384.13
654.282	43107.52
654.633	43146.62
654.985	43420.96
655.337	43259.61
655.688	43288.54
656.039	43335.99
656.391	43131.93
656.742	43217.58
657.094	43108.2
657.445	43319.72
657.796	43213.74
658.147	42984.36
658.498	43100.75
658.849	43208.99
659.2	43107.3
659.551	43015.55
659.902	43198.6
660.253	43071.59
660.604	43050.58
660.955	42864.59
661.306	43077.24
661.656	42904.37
662.007	43049
662.358	43042.89
662.708	42925.16
663.059	42932.39
663.409	42716.57
663.76	43165.38
664.11	42877.25
664.461	43125.6
664.811	42972.39
665.161	43062.55
665.511	42855.55
665.862	42968.77
666.212	42973.97
666.562	43030.46
666.912	42982.33
667.262	42820.75
667.612	42925.38
667.962	42949.34
668.312	42879.06
668.662	42995.89
669.011	42844.71
669.361	42801.77
669.711	42733.75
670.06	42747.31
670.41	42605.39
670.76	42727.87
671.109	42783.47
671.459	42874.08
671.808	42790.24
672.157	42781.21
672.507	42529.91
672.856	42599.52
673.205	42717.7
673.554	42749.12
673.904	42465.73
674.253	42731.04
674.602	42623.92
674.951	41984.39
675.3	41820.1
675.649	42537.14
675.998	42478.84
676.346	42498.28
676.695	42515.68
677.044	42346.87
677.393	42415.11
677.741	42487.2
678.09	42329.92
678.438	42235.68
678.787	42376.24
679.135	42334.89
679.484	42107.78
679.832	42242.46
680.181	42005.86
680.529	42035.01
680.877	41952.53
681.225	41872.75
681.573	42088.34
681.922	41905.07
682.27	41723.15
682.618	41802.25
682.966	41621.69
683.314	41671.63
683.661	41539.66
684.009	41408.81
684.357	41425.54
684.705	41208.37
685.053	41532.88
685.4	41312.77
685.748	41099.67
686.095	41039.78
686.443	40908.94
686.79	41035.26
687.138	41001.37
687.485	41031.2
687.832	40887.47
688.18	40728.83
688.527	40564.09
688.874	40635.5
689.221	40412.45
689.568	40567.93
689.915	40431.44
690.262	40362.74
690.609	40317.09
690.956	40096.53
691.303	40198.22
691.65	40088.85
691.997	40064.21
692.344	39739.48
692.69	39745.58
693.037	39706.26
693.383	39425.59
693.73	39546.49
694.077	39327.06
694.423	39363.67
694.769	39203.45
695.116	39169.78
695.462	39095.43
695.808	38948.99
696.155	39145.37
696.501	38755.77
696.847	38668.77
697.193	38475.1
697.539	38600.75
697.885	38369.57
698.231	38258.39
698.577	38370.02
698.923	38243.02
699.269	38026.08
699.614	37974.78
699.96	37638.74
700.306	37824.27
700.651	37611.17
700.997	37535.02
701.342	37488.92
701.688	37476.03
702.033	37326.43
702.379	37210.73
702.724	37169.15
703.069	37265.64
703.415	36862.27
703.76	36756.51
704.105	36797.86
704.45	36689.16
704.795	36492.11
705.14	36306.35
705.485	36346.12
705.83	36345.44
706.175	36398.77
706.52	36252.56
706.865	36287.37
707.209	36051.21
707.554	35940.71
707.899	36074.26
708.243	35830.65
708.588	35869.97
708.932	35565.12
709.277	35529.42
709.621	35624.11
709.966	35403.55
710.31	35353.15
710.654	35189.31
710.998	35194.51
711.342	35165.13
711.687	35067.06
712.031	34967.63
712.375	34847.85
712.719	34834.07
713.063	34727.18
713.407	34872.04
713.75	34681.31
714.094	34588.43
714.438	34474.76
714.782	34535.09
715.125	34271.6
715.469	34465.72
715.812	34211.94
716.156	33937.82
716.499	34109.57
716.843	34119.96
717.186	33887.43
717.53	34000.19
717.873	33994.54
718.216	34035.22
718.559	33794.55
718.902	33622.12
719.246	33743.93
719.589	33515.46
719.932	33405.63
720.275	33397.27
720.617	33387.55
720.96	33208.8
721.303	33294
721.646	33358.18
721.989	33043.16
722.331	33124.28
722.674	32982.59
723.016	33127.67
723.359	32999.77
723.701	33075.47
724.044	32749.83
724.386	32608.59
724.729	32880.67
725.071	32690.62
725.413	32792.54
725.755	32724.07
726.097	32534.7
726.439	32432.55
726.782	32526.33
727.124	32464.41
727.465	32292.89
727.807	32354.81
728.149	32274.36
728.491	32193.69
728.833	32113.24
729.175	32060.13
729.516	32052.67
729.858	31927.48
730.199	32112.56
730.541	31950.76
730.882	31802.29
731.224	31932.9
731.565	31724.32
731.906	31704.21
732.248	31762.29
732.589	31573.82
732.93	31537.21
733.271	31430.32
733.612	31561.61
733.953	31532.46
734.294	31360.26
734.635	31199.36
734.976	31493.82
735.317	31101.29
735.658	31246.82
735.999	31253.15
736.339	31077.33
736.68	31135.41
737.021	31147.16
737.361	30873.27
737.702	31006.6
738.042	30915.08
738.383	30976.77
738.723	30935.42
739.063	30817.23
739.404	30872.82
739.744	30774.06
740.084	30555.09
740.424	30527.29
740.764	30550.79
741.104	30564.13
741.444	30470.34
741.784	30291.59
742.124	30427.86
742.464	30362.78
742.804	30281.2
743.143	30225.15
743.483	30417.91
743.823	30133.85
744.162	30172.95
744.502	30132.72
744.841	30097.47
745.181	30062.44
745.52	29919.85
745.86	30003.69
746.199	29937.93
746.538	29895.44
746.877	29902.45
747.216	29873.07
747.556	29804.37
747.895	29753.07
748.234	29657.48
748.573	29662.45
748.911	29529.58
749.25	29542.01
749.589	29507.2
749.928	29478.05
750.267	29480.76
750.605	29366.19
750.944	29248.91
751.283	29130.49
751.621	29232.86
751.96	29170.26
752.298	29106.31
752.636	29063.83
752.975	29012.08
753.313	28763.72
753.651	28916.94
753.989	28891.85
754.327	28732.31
754.666	28628.13
755.004	28698.64
755.342	28698.19
755.679	28511.75
756.017	28305.2
756.355	28412.09
756.693	28277.86
757.031	28441.02
757.368	28303.85
757.706	28140.46
758.044	28050.29
758.381	28108.6
758.719	27986.57
759.056	28002.84
759.394	27935.95
759.731	27719.23
760.068	27749.28
760.405	27528.73
760.743	27580.25
761.08	27585.22
761.417	27376.86
761.754	27430.87
