Data from hue_34_FLMS001491_00037.txt Node
Date: Tue Feb 07 17:25:32 GMT 2017
User: dcchb
Spectrometer: FLMS00149
Trigger mode: 0
Integration Time (sec): 2.000000E-2
Scans to average: 10
Electric dark correction enabled: true
Nonlinearity correction enabled: false
Boxcar width: 0
XAxis mode: Wavelengths
Number of Pixels in Spectrum: 2048
>>>>>Begin Spectral Data<<<<<
341.393	-15.96
341.776	-15.96
342.16	-15.96
342.543	-46.92
342.927	-68.16
343.31	-80.37
343.693	-56.64
344.077	-74.26
344.46	-63.64
344.843	-53.47
345.226	-36.52
345.61	-41.27
345.993	-11.21
346.376	5.96
346.759	8.22
347.142	22.68
347.525	48.45
347.908	66.3
348.291	77.14
348.674	81.89
349.057	106.75
349.44	103.81
349.823	153.3
350.206	153.98
350.588	203.02
350.971	198.05
351.354	236.69
351.737	222
352.119	260.42
352.502	271.72
352.884	283.24
353.267	287.31
353.65	303.35
354.032	297.93
354.414	316.46
354.797	323.92
355.179	339.96
355.562	334.31
355.944	354.2
356.326	344.48
356.709	330.47
357.091	338.83
357.473	343.58
357.855	352.39
358.238	356.01
358.62	334.54
359.002	346.74
359.384	340.64
359.766	341.09
360.148	346.06
360.53	342
360.912	351.71
361.294	324.14
361.676	337.7
362.057	363.69
362.439	308.33
362.821	327.31
363.203	335.9
363.584	326.18
363.966	333.18
364.348	322.56
364.729	301.77
365.111	308.78
365.493	317.59
365.874	324.82
366.256	320.53
366.637	308.1
367.019	328.89
367.4	334.54
367.781	311.26
368.163	328.21
368.544	304.26
368.925	323.01
369.306	316.46
369.688	326.4
370.069	319.62
370.45	317.82
370.831	313.97
371.212	309.91
371.593	307.42
371.974	336.8
372.355	305.84
372.736	293.41
373.117	323.92
373.498	321.66
373.879	305.39
374.26	330.7
374.641	315.33
375.021	310.36
375.402	309.91
375.783	329.79
376.163	340.19
376.544	326.4
376.925	323.92
377.305	340.64
377.686	352.84
378.066	343.35
378.447	344.48
378.827	336.57
379.208	344.93
379.588	336.8
379.968	344.71
380.349	339.96
380.729	331.6
381.109	349.68
381.489	343.13
381.87	354.65
382.25	325.5
382.63	328.44
383.01	352.39
383.39	352.39
383.77	362.34
384.15	343.8
384.53	347.87
384.91	357.59
385.29	359.62
385.67	347.87
386.049	332.73
386.429	351.94
386.809	349.91
387.189	328.44
387.568	343.58
387.948	369.11
388.328	359.17
388.707	346.97
389.087	364.82
389.466	344.71
389.846	361.88
390.225	382.22
390.605	351.71
390.984	376.57
391.363	376.8
391.743	376.12
392.122	369.11
392.501	375.44
392.881	395.33
393.26	386.97
393.639	380.87
394.018	382.67
394.397	399.85
394.776	358.27
395.155	383.8
395.534	372.05
395.913	360.3
396.292	386.06
396.671	397.14
397.05	386.97
397.429	393.29
397.808	383.58
398.186	370.47
398.565	395.55
398.944	391.94
399.323	400.53
399.701	377.7
400.08	394.88
400.458	410.92
400.837	383.58
401.215	390.13
401.594	409.11
401.972	392.16
402.351	376.35
402.729	389.68
403.107	417.47
403.486	423.58
403.864	392.39
404.242	408.66
404.62	413.41
404.999	415.44
405.377	413.41
405.755	433.29
406.133	432.84
406.511	417.25
406.889	411.6
407.267	427.64
407.645	394.2
408.023	405.5
408.401	433.07
408.779	427.42
409.156	432.39
409.534	435.78
409.912	418.38
410.29	456.8
410.667	463.8
411.045	443.24
411.422	458.15
411.8	446.17
412.178	440.07
412.555	466.51
412.933	474.65
413.31	456.34
413.687	486.85
414.065	487.53
414.442	489.11
414.819	458.38
415.197	497.02
415.574	485.04
415.951	456.34
416.328	480.52
416.705	464.48
417.082	473.74
417.46	499.05
417.837	510.13
418.214	498.83
418.591	509.22
418.967	492.95
419.344	500.18
419.721	486.17
420.098	519.62
420.475	496.57
420.852	517.59
421.228	527.3
421.605	517.81
421.982	527.75
422.358	537.92
422.735	519.85
423.111	514.2
423.488	536.34
423.864	556.68
424.241	564.59
424.617	543.8
424.994	525.27
425.37	535.21
425.746	540.41
426.123	571.14
426.499	561.88
426.875	574.08
427.251	567.98
427.627	583.35
428.003	573.4
428.379	548.09
428.756	570.69
429.132	566.4
429.507	578.83
429.883	598.26
430.259	588.54
430.635	607.98
431.011	615.21
431.387	609.11
431.763	609.79
432.138	573.63
432.514	630.12
432.89	627.41
433.265	637.36
433.641	648.88
434.016	623.35
434.392	617.47
434.767	664.7
435.143	658.15
435.518	639.39
435.894	654.53
436.269	666.73
436.644	667.86
437.02	691.37
437.395	648.66
437.77	684.13
438.145	710.35
438.52	707.18
438.895	699.28
439.271	705.6
439.646	723.68
440.021	721.2
440.395	723.46
440.77	731.82
441.145	714.42
441.52	742.44
441.895	717.35
442.27	744.25
442.645	754.19
443.019	760.06
443.394	766.39
443.769	753.51
444.143	756.22
444.518	764.58
444.892	763.23
445.267	753.96
445.641	783.57
446.016	776.34
446.39	760.52
446.764	796
447.139	817.69
447.513	804.13
447.887	786.96
448.262	783.34
448.636	800.52
449.01	832.83
449.384	829.67
449.758	835.99
450.132	808.43
450.506	823.34
450.88	839.16
451.254	839.84
451.628	839.16
452.002	846.62
452.376	848.42
452.75	865.82
453.123	872.83
453.497	881.19
453.871	883
454.244	884.81
454.618	918.93
454.992	913.06
455.365	941.98
455.739	934.75
456.112	938.14
456.486	936.78
456.859	957.57
457.232	972.71
457.606	959.61
457.979	966.84
458.352	989.21
458.725	953.05
459.099	967.06
459.472	1021.53
459.845	1018.59
460.218	1020.62
460.591	1017.69
460.964	1067.4
461.337	1057.46
461.71	1056.33
462.083	1098.13
462.456	1101.98
462.829	1103.33
463.201	1106.04
463.574	1136.78
463.947	1143.33
464.32	1130
464.692	1172.48
465.065	1187.85
465.438	1175.65
465.81	1235.31
466.183	1208.64
466.555	1223.1
466.928	1254.74
467.3	1268.75
467.672	1258.81
468.045	1278.47
468.417	1312.59
468.789	1317.11
469.161	1320.05
469.534	1370.44
469.906	1386.26
470.278	1410.44
470.65	1413.38
471.022	1461.06
471.394	1453.15
471.766	1486.37
472.138	1504.68
472.51	1535.64
472.882	1559.14
473.253	1553.04
473.625	1612.47
473.997	1639.59
474.369	1679.81
474.74	1710.1
475.112	1725.92
475.484	1768.4
475.855	1798.23
476.227	1850.43
476.598	1881.84
476.97	1922.97
477.341	1959.13
477.713	2016.98
478.084	2003.42
478.455	2089.75
478.827	2109.63
479.198	2155.51
479.569	2179.01
479.94	2274.38
480.311	2290.65
480.682	2363.86
481.053	2446.35
481.424	2459
481.795	2519.57
482.166	2571.99
482.537	2654.03
482.908	2690.86
483.279	2757.75
483.65	2831.87
484.021	2926.34
484.391	2973.57
484.762	2993.23
485.133	3098.53
485.503	3134.01
485.874	3188.02
486.244	3315.03
486.615	3389.6
486.985	3449.71
487.356	3555.25
487.726	3585.08
488.097	3681.8
488.467	3727.22
488.837	3836.14
489.207	3891.51
489.578	3939.87
489.948	4078.62
490.318	4127.21
490.688	4216.02
491.058	4295.79
491.428	4389.35
491.798	4428.89
492.168	4552.06
492.538	4613.75
492.908	4669.11
493.278	4788.43
493.648	4801.54
494.017	4924.48
494.387	4994.98
494.757	5003.34
495.126	5100.29
495.496	5149.33
495.866	5267.74
496.235	5364.92
496.605	5381.64
496.974	5462.09
497.344	5578.02
497.713	5569.66
498.082	5617.56
498.452	5735.08
498.821	5774.17
499.19	5833.15
499.559	5921.06
499.928	5948.18
500.298	5972.58
500.667	6098.91
501.036	6148.17
501.405	6191.79
501.774	6195.18
502.143	6310.65
502.512	6403.76
502.88	6416.64
503.249	6495.06
503.618	6492.57
503.987	6596.75
504.356	6643.98
504.724	6708.38
505.093	6712
505.462	6788.61
505.83	6801.94
506.199	6871.09
506.567	6963.07
506.936	7005.55
507.304	7098.43
507.672	7052.1
508.041	7143.63
508.409	7119.45
508.777	7217.97
509.145	7352.66
509.514	7422.94
509.882	7414.35
510.25	7440.79
510.618	7464.52
510.986	7557.17
511.354	7617.29
511.722	7641.92
512.09	7693.89
512.458	7778.86
512.826	7811.4
513.193	7846.43
513.561	7806.66
513.929	7929.14
514.297	7945.41
514.664	8007.33
515.032	8051.4
515.4	8082.36
515.767	8159.19
516.135	8217.27
516.502	8127.33
516.869	8283.48
517.237	8328
517.604	8312.63
517.972	8412.52
518.339	8369.36
518.706	8451.16
519.073	8408.23
519.44	8524.15
519.808	8626.3
520.175	8623.59
520.542	8647.54
520.909	8745.39
521.276	8765.05
521.643	8812.06
522.009	8866.29
522.376	8856.58
522.743	8974.99
523.11	8969.34
523.477	9121.88
523.843	9117.81
524.21	9206.4
524.577	9264.47
524.943	9329.78
525.31	9398.48
525.676	9400.29
526.043	9485.94
526.409	9452.04
526.776	9583.56
527.142	9624.69
527.508	9646.84
527.874	9720.51
528.241	9757.12
528.607	9812.03
528.973	9861.97
529.339	9853.61
529.705	9960.73
530.071	10087.96
530.437	10087.05
530.803	10130.89
531.169	10204.79
531.535	10167.28
531.901	10171.34
532.267	10295.86
532.632	10311.23
532.998	10372.92
533.364	10547.83
533.73	10496.08
534.095	10633.93
534.461	10624.44
534.826	10705.34
535.192	10674.83
535.557	10795.51
535.923	10740.82
536.288	10792.8
536.653	10864.88
537.019	10849.29
537.384	10972.9
537.749	10966.8
538.114	11003.86
538.479	11059.23
538.845	11035.73
539.21	11103.07
539.575	11236.85
539.94	11203.86
540.305	11372.89
540.67	11309.62
541.034	11338.32
541.399	11392.33
541.764	11503.29
542.129	11555.04
542.494	11504.87
542.858	11568.37
543.223	11630.06
543.587	11658.99
543.952	11658.99
544.316	11725.65
544.681	11761.13
545.045	11863.5
545.41	11868.25
545.774	11911.18
546.138	11994.12
546.503	12038.86
546.867	11991.63
547.231	12136.71
547.595	12074.57
547.959	12282.47
548.324	12204.74
548.688	12202.48
549.052	12287.67
549.416	12310.5
549.779	12341.91
550.143	12391.17
550.507	12476.82
550.871	12533.31
551.235	12525.63
551.599	12715.46
551.962	12616.7
552.326	12637.04
552.689	12744.83
553.053	12745.51
553.417	12772.63
553.78	12971.27
554.143	12838.39
554.507	12974.21
554.87	13004.26
555.234	13098.5
555.597	13055.33
555.96	13112.06
556.323	13095.33
556.686	13157.48
557.05	13134.65
557.413	13235.67
557.776	13265.27
558.139	13388.89
558.502	13337.36
558.865	13534.64
559.228	13614.64
559.59	13559.73
559.953	13665.26
560.316	13685.15
560.679	13658.71
561.041	13764.02
561.404	13889.66
561.767	13941.19
562.129	13775.54
562.492	13957.01
562.854	13960.62
563.217	13986.16
563.579	14039.94
563.941	14134.4
564.304	14143.22
564.666	14273.38
565.028	14260.27
565.39	14399.25
565.753	14378.01
566.115	14415.98
566.477	14470.44
566.839	14492.59
567.201	14640.6
567.563	14628.17
567.925	14720.83
568.287	14756.08
568.648	14711.34
569.01	14846.25
569.372	14951.1
569.734	14952.23
570.095	15005.34
570.457	15103.19
570.819	15108.16
571.18	15181.38
571.542	15217.76
571.903	15367.82
572.265	15323.07
572.626	15446.01
572.987	15458.21
573.349	15551.31
573.71	15683.74
574.071	15779.1
574.432	15872.21
574.794	15956.28
575.155	16060.91
575.516	15946.11
575.877	16130.06
576.238	16228.81
576.599	16396.72
576.96	16455.25
577.32	16544.28
577.681	16660.21
578.042	16878.51
578.403	16940.2
578.763	17073.31
579.124	17151.72
579.485	17360.98
579.845	17444.6
580.206	17634.88
580.566	17763.01
580.927	17867.41
581.287	18077.12
581.648	18128.2
582.008	18443.22
582.368	18526.38
582.728	18680.05
583.089	18871.9
583.449	19025.57
583.809	19255.17
584.169	19511.44
584.529	19597.99
584.889	19986
585.249	20008.82
585.609	20267.35
585.969	20538.75
586.329	20635.25
586.688	20913.66
587.048	21177.83
587.408	21299.19
587.768	21538.5
588.127	21746.18
588.487	21938.49
588.846	22401.3
589.206	22465.93
589.565	22793.38
589.925	23037.9
590.284	23237.67
590.643	23516.53
591.003	23815.5
591.362	24113.8
591.721	24303.63
592.08	24598.53
592.44	24868.58
592.799	25159.88
593.158	25363.03
593.517	25541.79
593.876	25982.9
594.235	26149.23
594.593	26328.21
594.952	26695.65
595.311	26782.43
595.67	27184.45
596.029	27501.73
596.387	27809.52
596.746	28101.72
597.104	28152.11
597.463	28411.09
597.822	28742.38
598.18	28869.38
598.538	29100.56
598.897	29614.67
599.255	29621.9
599.613	30242
599.972	30227.54
600.33	30483.13
600.688	30704.36
601.046	31082.21
601.404	31322.65
601.762	31453.04
602.12	31637.22
602.478	31940.26
602.836	32192.46
603.194	32201.5
603.552	32425.45
603.91	32550.19
604.268	32970.07
604.625	33156.28
604.983	33311.07
605.341	33277.18
605.698	33640.33
606.056	33956.93
606.413	34020.89
606.771	34270.6
607.128	34598.72
607.485	34533.87
607.843	34690.92
608.2	35136.79
608.557	35328.65
608.914	35286.16
609.272	35622.65
609.629	35723.44
609.986	35974.51
610.343	35991.45
610.7	36359.58
611.057	36409.52
611.414	36561.84
611.771	36652.68
612.127	36974.48
612.484	37014.93
612.841	37268.26
613.198	37261.93
613.554	37388.71
613.911	37725.42
614.267	37718.87
614.624	37774.01
614.98	37891.29
615.337	38295.8
615.693	38341.45
616.05	38324.05
616.406	38769.69
616.762	38735.11
617.118	38736.02
617.475	38871.38
617.831	39089.9
618.187	39088.55
618.543	39267.75
618.899	39520.4
619.255	39573.96
619.611	39690.34
619.967	39624.13
620.323	39852.14
620.678	39899.83
621.034	39868.64
621.39	39963.55
621.746	39966.04
622.101	40423.2
622.457	40219.14
622.812	40272.25
623.168	40489.42
623.523	40506.14
623.879	40718.56
624.234	40585.68
624.589	40603.99
624.945	40786.81
625.3	40721.05
625.655	40938.9
626.01	41020.7
626.365	40966.47
626.72	41043.98
627.075	41136.86
627.43	40869.29
627.785	40945
628.14	41181.37
628.495	41082.85
628.85	41194.71
629.205	41073.81
629.559	41454.81
629.914	41251.66
630.269	41287.59
630.623	41327.36
630.978	41211.2
631.332	41399
631.687	41618.43
632.041	41406.68
632.396	41560.12
632.75	41339.79
633.104	41384.31
633.459	41300.92
633.813	41348.6
634.167	41477.19
634.521	41463.85
634.875	41447.36
635.229	41420.69
635.583	41283.29
635.937	41245.55
636.291	41331.43
636.645	41265.44
636.999	41163.52
637.352	41337.98
637.706	41132.79
638.06	41333.01
638.413	41179.34
638.767	41119
639.121	41332.33
639.474	40963.75
639.828	41119
640.181	41242.39
640.534	41259.11
640.888	41132.11
641.241	40943.64
641.594	41067.93
641.947	41039.91
642.301	41075.61
642.654	41030.87
643.007	41073.58
643.36	41000.14
643.713	41010.53
644.066	41267.7
644.419	40914.72
644.771	40606.02
645.124	40318.12
645.477	40209.65
645.83	40048.52
646.182	39858.7
646.535	39757.68
646.888	39843.56
647.24	39715.88
647.593	39983.89
647.945	39743.9
648.298	39545.26
648.65	39493.06
649.002	39458.26
649.355	39768.3
649.707	39724.01
650.059	39909.77
650.411	40335.07
650.763	40241.74
651.115	40569.19
651.467	40548.4
651.819	40514.73
652.171	40461.62
652.523	40338.23
652.875	40318.35
653.227	40307.5
653.578	40427.04
653.93	40359.25
654.282	40180.95
654.633	40145.02
654.985	40281.74
655.337	40220.04
655.688	40417.1
656.039	40350.21
656.391	40183.21
656.742	40141.18
657.094	40178.46
657.445	40435.86
657.796	40222.08
658.147	40198.58
658.498	40191.12
658.849	40299.36
659.2	40164.68
659.551	40075.64
659.902	40261.85
660.253	40139.82
660.604	40311.34
660.955	40006.94
661.306	40214.62
661.656	40129.65
662.007	39923.78
662.358	39954.51
662.708	40164.9
663.059	40046.04
663.409	39782.32
663.76	40070.44
664.11	40072.7
664.461	39973.72
664.811	40055.3
665.161	39917.91
665.511	39923.33
665.862	39867.06
666.212	40075.42
666.562	40091.91
666.912	39992.03
667.262	40163.55
667.612	40000.16
667.962	39869.54
668.312	39885.14
668.662	40135.75
669.011	40060.05
669.361	39852.82
669.711	39935.98
670.06	39908.64
670.41	39817.57
670.76	39766.72
671.109	39937.34
671.459	39865.93
671.808	39748.87
672.157	39856.21
672.507	39696.67
672.856	39646.05
673.205	39733.28
673.554	39796.55
673.904	39645.6
674.253	39926.94
674.602	39596.78
674.951	39075.89
675.3	38933.52
675.649	39477.24
675.998	39482.21
676.346	39504.81
676.695	39675.88
677.044	39378.03
677.393	39393.63
677.741	39666.16
678.09	39476.79
678.438	39548.42
678.787	39371.25
679.135	39359.28
679.484	39142.11
679.832	39369.45
680.181	39136.23
680.529	39195.44
680.877	39074.54
681.225	39110.24
681.573	39347.98
681.922	38950.92
682.27	38945.73
682.618	38996.57
682.966	38903.69
683.314	38948.67
683.661	38725.62
684.009	38707.54
684.357	38638.62
684.705	38609.24
685.053	38474.33
685.4	38536.47
685.748	38362.92
686.095	38222.81
686.443	38142.81
686.79	38112.75
687.138	38134.45
687.485	38190.94
687.832	37946.21
688.18	38122.7
688.527	37930.39
688.874	37857.17
689.221	37811.97
689.568	37638.87
689.915	37594.35
690.262	37616.27
690.609	37561.58
690.956	37321.14
691.303	37420.12
691.65	37230.52
691.997	37226.9
692.344	37081.14
692.69	36949.85
693.037	36951.66
693.383	36655.62
693.73	36894.03
694.077	36517.32
694.423	36651.78
694.769	36457.43
695.116	36411.78
695.462	36305.12
695.808	36219.02
696.155	36320.03
696.501	36019.25
696.847	36101.73
697.193	35781.52
697.539	35966.6
697.885	35762.99
698.231	35690.22
698.577	35605.48
698.923	35587.62
699.269	35379.95
699.614	35329.78
699.96	35230.57
700.306	35190.8
700.651	35051.14
700.997	34802.79
701.342	34932.5
701.688	34808.44
702.033	34714.2
702.379	34656.12
702.724	34585.84
703.069	34638.95
703.415	34274.44
703.76	34257.04
704.105	34405.51
704.45	34238.73
704.795	34038.51
705.14	34013.65
705.485	34003.71
705.83	33801.46
706.175	33631.06
706.52	33821.79
706.865	33599.2
707.209	33624.74
707.554	33403.27
707.899	33409.83
708.243	33311.3
708.588	33279.66
708.932	33047.35
709.277	33097.29
709.621	33080.12
709.966	32688.04
710.31	33010.29
710.654	32676.74
710.998	32692.56
711.342	32723.74
711.687	32593.13
712.031	32465.45
712.375	32359.91
712.719	32458.21
713.063	32311.78
713.407	32436.75
713.75	32120.37
714.094	32233.36
714.438	32111.33
714.782	32203.31
715.125	31940.26
715.469	32132.8
715.812	31939.58
716.156	31797.21
716.499	31661.85
716.843	31770.1
717.186	31413.04
717.53	31578.69
717.873	31638.12
718.216	31581.63
718.559	31414.63
718.902	31345.48
719.246	31306.61
719.589	31320.84
719.932	31052.6
720.275	31161.3
720.617	31064.35
720.96	30931.47
721.303	30908.65
721.646	30988.65
721.989	30708.66
722.331	30917.24
722.674	30695.32
723.016	30764.02
723.359	30739.62
723.701	30808.31
724.044	30546.85
724.386	30391.83
724.729	30506.18
725.071	30413.52
725.413	30362.9
725.755	30418.04
726.097	30253.07
726.439	30012.4
726.782	30053.08
727.124	30226.18
727.465	30153.64
727.807	30009.69
728.149	29992.52
728.491	29909.58
728.833	29989.13
729.175	29778.74
729.516	29811.96
729.858	29737.38
730.199	29751.39
730.541	29717.27
730.882	29662.81
731.224	29711.17
731.565	29536.03
731.906	29676.14
732.248	29547.78
732.589	29443.15
732.93	29331.06
733.271	29181.46
733.612	29248.81
733.953	29355.25
734.294	29296.49
734.635	29141.01
734.976	29260.78
735.317	29148.47
735.658	29045.42
735.999	29075.7
736.339	28906.9
736.68	29126.32
737.021	28920.23
737.361	28839.78
737.702	28959.32
738.042	28791.64
738.383	28673
738.723	28820.8
739.063	28672.55
739.404	28716.62
739.744	28708.03
740.084	28463.52
740.424	28646.11
740.764	28619.9
741.104	28579.45
741.444	28347.36
741.784	28397.98
742.124	28287.7
742.464	28310.07
742.804	28270.98
743.143	28197.31
743.483	28331.09
743.823	28067.6
744.162	28127.93
744.502	28225.11
744.841	27995.28
745.181	28085.22
745.52	28077.99
745.86	28116.63
746.199	27975.85
746.538	27902.18
746.877	27877.32
747.216	27894.94
747.556	27830.77
747.895	27799.81
748.234	27689.07
748.573	27565.91
748.911	27670.09
749.25	27553.94
749.589	27456.54
749.928	27463.77
750.267	27634.84
750.605	27385.81
750.944	27310.55
751.283	27236.2
751.621	27409.53
751.96	27094.51
752.298	27193.27
752.636	27168.18
752.975	27065.14
753.313	26929.55
753.651	27054.97
753.989	26894.52
754.327	26792.15
754.666	26658.59
755.004	26788.31
755.342	26709.89
755.679	26700.85
756.017	26467.41
756.355	26672.6
756.693	26492.27
757.031	26561.87
757.368	26370.92
757.706	26450.69
758.044	26323.46
758.381	26275.78
