Data from hue_310_FLMS001491_37.txt Node
Date: Mon Feb 06 15:49:37 GMT 2017
User: dcchb
Spectrometer: FLMS00149
Trigger mode: 0
Integration Time (sec): 2.000000E-2
Scans to average: 10
Electric dark correction enabled: true
Nonlinearity correction enabled: false
Boxcar width: 0
XAxis mode: Wavelengths
Number of Pixels in Spectrum: 2048
>>>>>Begin Spectral Data<<<<<
341.393	-6.79
341.776	-6.79
342.16	-6.79
342.543	-60.35
342.927	-56.28
343.31	-60.8
343.693	-60.35
344.077	-65.1
344.46	-67.81
344.843	-54.93
345.226	-42.72
345.61	-38.21
345.993	-5.89
346.376	-9.28
346.759	-0.24
347.142	54.67
347.525	35.47
347.908	55.13
348.291	75.69
348.674	90.6
349.057	93.77
349.44	133.77
349.823	148.68
350.206	159.76
350.588	199.53
350.971	211.73
351.354	241.56
351.737	242.01
352.119	267.55
352.502	269.58
352.884	270.94
353.267	286.08
353.65	276.36
354.032	307.55
354.414	305.74
354.797	319.98
355.179	293.76
355.562	332.63
355.944	343.03
356.326	324.72
356.709	327.89
357.091	326.3
357.473	346.42
357.855	349.13
358.238	355.46
358.62	330.37
359.002	317.49
359.384	336.47
359.766	325.4
360.148	354.78
360.53	338.28
360.912	345.74
361.294	344.38
361.676	330.82
362.057	334.44
362.439	307.32
362.821	336.93
363.203	339.19
363.584	319.75
363.966	329.69
364.348	306.87
364.729	323.82
365.111	318.85
365.493	314.1
365.874	311.84
366.256	322.24
366.637	298.51
367.019	315.23
367.4	303.71
367.781	318.62
368.163	291.5
368.544	318.85
368.925	289.24
369.306	316.81
369.688	309.58
370.069	303.93
370.45	322.69
370.831	285.63
371.212	294.44
371.593	295.8
371.974	312.52
372.355	335.34
372.736	311.16
373.117	326.76
373.498	322.69
373.879	314.55
374.26	305.29
374.641	335.57
375.021	312.97
375.402	320.2
375.783	321.33
376.163	327.89
376.544	310.71
376.925	322.01
377.305	319.53
377.686	323.59
378.066	327.89
378.447	329.69
378.827	317.27
379.208	319.53
379.588	333.54
379.968	329.69
380.349	327.43
380.729	332.41
381.109	325.4
381.489	336.47
381.87	336.7
382.25	325.18
382.63	316.59
383.01	341.45
383.39	317.04
383.77	328.11
384.15	338.28
384.53	340.32
384.91	356.59
385.29	336.47
385.67	331.95
386.049	355.46
386.429	352.97
386.809	351.39
387.189	344.84
387.568	344.16
387.948	356.81
388.328	355
388.707	336.93
389.087	357.26
389.466	363.14
389.846	366.53
390.225	359.52
390.605	355
390.984	351.16
391.363	359.07
391.743	361.56
392.122	370.82
392.501	375.57
392.881	377.15
393.26	371.05
393.639	378.73
394.018	376.7
394.397	367.21
394.776	372.18
395.155	366.08
395.534	369.92
395.913	368.56
396.292	373.76
396.671	385.74
397.05	378.28
397.429	381.44
397.808	390.48
398.186	375.8
398.565	370.15
398.944	397.72
399.323	403.59
399.701	395.91
400.08	384.38
400.458	387.55
400.837	395.68
401.215	388.9
401.594	407.43
401.972	394.55
402.351	403.59
402.729	401.56
403.107	392.97
403.486	411.5
403.864	405.4
404.242	409.01
404.62	408.11
404.999	431.61
405.377	394.78
405.755	429.35
406.133	439.52
406.511	430.93
406.889	460.54
407.267	450.14
407.645	432.29
408.023	422.57
408.401	454.89
408.779	460.31
409.156	467.09
409.534	460.54
409.912	466.41
410.29	485.62
410.667	487.88
411.045	486.3
411.422	490.59
411.8	492.4
412.178	512.29
412.555	493.31
412.933	513.64
413.31	512.97
413.687	533.98
414.065	536.92
414.442	550.71
414.819	550.48
415.197	570.37
415.574	553.87
415.951	550.93
416.328	563.13
416.705	563.36
417.082	577.15
417.46	576.92
417.837	610.82
418.214	617.14
418.591	622.79
418.967	618.5
419.344	620.53
419.721	624.6
420.098	639.07
420.475	663.25
420.852	683.36
421.228	665.28
421.605	668.22
421.982	672.51
422.358	703.02
422.735	691.72
423.111	688.1
423.488	697.37
423.864	708.22
424.241	739.85
424.617	740.76
424.994	729.91
425.37	748.44
425.746	741.44
426.123	761.1
426.499	759.97
426.875	766.29
427.251	759.29
427.627	788.44
428.003	814.88
428.379	807.42
428.756	830.47
429.132	802.68
429.507	826.63
429.883	827.53
430.259	847.87
430.635	868.89
431.011	861.88
431.387	868.44
431.763	879.28
432.138	871.15
432.514	882.9
432.89	915.67
433.265	924.26
433.641	940.07
434.016	952.5
434.392	966.29
434.767	994.08
435.143	944.59
435.518	999.73
435.894	1001.99
436.269	1002.67
436.644	1027.08
437.02	1040.86
437.395	1071.14
437.77	1053.74
438.145	1074.99
438.52	1076.12
438.895	1056.91
439.271	1080.64
439.646	1092.61
440.021	1078.83
440.395	1109.79
440.77	1110.92
441.145	1085.83
441.52	1121.09
441.895	1135.1
442.27	1171.71
442.645	1142.1
443.019	1153.18
443.394	1165.83
443.769	1162.44
444.143	1156.34
444.518	1147.3
444.892	1154.53
445.267	1166.51
445.641	1192.95
446.016	1178.71
446.39	1163.12
446.764	1182.78
447.139	1188.2
447.513	1205.6
447.887	1217.81
448.262	1198.37
448.636	1215.1
449.01	1203.34
449.384	1230.46
449.758	1231.14
450.132	1245.38
450.506	1235.21
450.88	1262.1
451.254	1231.59
451.628	1241.54
452.002	1258.71
452.376	1238.37
452.75	1279.95
453.123	1278.82
453.497	1296.9
453.871	1300.29
454.244	1327.18
454.618	1315.88
454.992	1339.84
455.365	1326.96
455.739	1350.01
456.112	1375.99
456.486	1341.65
456.859	1366.28
457.232	1387.97
457.606	1389.78
457.979	1398.14
458.352	1413.73
458.725	1417.12
459.099	1402.66
459.472	1442.43
459.845	1450.8
460.218	1455.99
460.591	1459.83
460.964	1432.26
461.337	1468.65
461.71	1486.73
462.083	1530.34
462.456	1533.96
462.829	1500.51
463.201	1535.54
463.574	1559.49
463.947	1526.5
464.32	1602.2
464.692	1551.36
465.065	1580.96
465.438	1592.94
465.81	1620.96
466.183	1623.67
466.555	1644.69
466.928	1631.81
467.3	1646.95
467.672	1670.22
468.045	1689.66
468.417	1665.03
468.789	1686.04
469.161	1700.73
469.534	1727.85
469.906	1754.29
470.278	1784.35
470.65	1783.67
471.022	1802.65
471.394	1818.02
471.766	1805.81
472.138	1838.81
472.51	1871.35
472.882	1866.15
473.253	1898.47
473.625	1907.51
473.997	1926.26
474.369	1966.26
474.74	1931.46
475.112	1961.52
475.484	1964
475.855	1982.08
476.227	2067.73
476.598	2089.87
476.97	2029.76
477.341	2113.6
477.713	2112.47
478.084	2107.5
478.455	2168.97
478.827	2190.89
479.198	2234.96
479.569	2208.06
479.94	2265.69
480.311	2294.61
480.682	2331.68
481.053	2339.13
481.424	2378.23
481.795	2374.61
482.166	2433.37
482.537	2430.66
482.908	2454.61
483.279	2524.67
483.65	2519.24
484.021	2536.42
484.391	2528.28
484.762	2557.88
485.133	2591.33
485.503	2596.3
485.874	2610.09
486.244	2660.71
486.615	2649.18
486.985	2660.03
487.356	2719.01
487.726	2757.2
488.097	2795.17
488.467	2796.3
488.837	2832.23
489.207	2848.95
489.578	2911.1
489.948	2895.73
490.318	2881.94
490.688	2920.14
491.058	2978.44
491.428	2974.37
491.798	3020.02
492.168	3064.76
492.538	3049.4
492.908	3076.74
493.278	3107.47
493.648	3101.6
494.017	3149.51
494.387	3181.15
494.757	3185.44
495.126	3156.74
495.496	3194.03
495.866	3205.33
496.235	3251.88
496.605	3295.72
496.974	3279.9
497.344	3290.75
497.713	3328.71
498.082	3311.31
498.452	3310.18
498.821	3353.12
499.19	3333.23
499.559	3402.16
499.928	3381.59
500.298	3431.31
500.667	3429.5
501.036	3414.81
501.405	3499.33
501.774	3445.09
502.143	3470.63
502.512	3476.05
502.88	3480.8
503.249	3486.9
503.618	3524.19
503.987	3562.83
504.356	3488.48
504.724	3560.12
505.093	3549.72
505.462	3558.31
505.83	3596.28
506.199	3574.36
506.567	3631.53
506.936	3614.35
507.304	3631.75
507.672	3661.13
508.041	3690.28
508.409	3666.33
508.777	3715.37
509.145	3704.97
509.514	3712.2
509.882	3700.45
510.25	3722.15
510.618	3708.14
510.986	3759.44
511.354	3727.35
511.722	3752.88
512.09	3775.03
512.458	3727.57
512.826	3800.34
513.193	3782.49
513.561	3806.21
513.929	3816.83
514.297	3856.38
514.664	3868.81
515.032	3871.52
515.4	3857.96
515.767	3869.04
516.135	3864.74
516.502	3876.27
516.869	3920.33
517.237	3946.77
517.604	3893.44
517.972	3939.77
518.339	3928.92
518.706	3926.66
519.073	3948.13
519.44	3980.67
519.808	3976.83
520.175	4004.17
520.542	4015.02
520.909	4002.59
521.276	4033.1
521.643	4090.73
522.009	4066.09
522.376	4114
522.743	4089.14
523.11	4103.38
523.477	4150.61
523.843	4161.01
524.21	4158.07
524.577	4189.93
524.943	4169.14
525.31	4203.49
525.676	4244.39
526.043	4278.74
526.409	4256.82
526.776	4308.35
527.142	4320.55
527.508	4297.95
527.874	4360.55
528.241	4372.75
528.607	4365.07
528.973	4393.99
529.339	4383.6
529.705	4387.89
530.071	4439.42
530.437	4500.66
530.803	4534.33
531.169	4529.36
531.535	4532.3
531.901	4511.96
532.267	4573.42
532.632	4550.83
532.998	4607.77
533.364	4572.75
533.73	4624.27
534.095	4687.55
534.461	4664.72
534.826	4642.35
535.192	4734.55
535.557	4708.56
535.923	4699.75
536.288	4703.37
536.653	4719.64
537.019	4825.62
537.384	4780.88
537.749	4831.27
538.114	4862.46
538.479	4895.68
538.845	4872.63
539.21	4839.63
539.575	4890.25
539.94	4918.5
540.305	4984.49
540.67	4948.1
541.034	4965.28
541.399	4978.61
541.764	5044.6
542.129	5053.64
542.494	5038.27
542.858	5117.14
543.223	5110.81
543.587	5151.49
543.952	5179.06
544.316	5150.13
544.681	5128.21
545.045	5209.11
545.41	5223.13
545.774	5211.6
546.138	5237.14
546.503	5269
546.867	5269.68
547.231	5304.93
547.595	5354.42
547.959	5374.99
548.324	5392.16
548.688	5351.26
549.052	5419.28
549.416	5409.56
549.779	5457.7
550.143	5441.42
550.507	5464.7
550.871	5507.86
551.235	5444.14
551.599	5492.95
551.962	5551.93
552.326	5582.66
552.689	5630.35
553.053	5583.79
553.417	5610.46
553.78	5677.8
554.143	5621.98
554.507	5663.79
554.87	5696.33
555.234	5732.26
555.597	5668.54
555.96	5715.09
556.323	5711.47
556.686	5719.61
557.05	5787.4
557.413	5823.34
557.776	5800.29
558.139	5843.45
558.502	5814.97
558.865	5799.61
559.228	5846.16
559.59	5888.87
559.953	5890.68
560.316	5946.27
560.679	5880.06
561.041	5994.63
561.404	5992.37
561.767	6024.23
562.129	6054.29
562.492	6086.15
562.854	6057.23
563.217	6060.84
563.579	6093.61
563.941	6078.24
564.304	6163.44
564.666	6162.08
565.028	6157.11
565.39	6179.94
565.753	6215.64
566.115	6238.01
566.477	6250.89
566.839	6237.79
567.201	6301.74
567.563	6313.27
567.925	6368.41
568.287	6335.41
568.648	6350.78
569.01	6416.99
569.372	6459.93
569.734	6438.23
570.095	6482.53
570.457	6569.98
570.819	6568.85
571.18	6565.91
571.542	6603.43
571.903	6598.91
572.265	6645.69
572.626	6653.6
572.987	6703.76
573.349	6776.08
573.71	6825.34
574.071	6811.56
574.432	6949.86
574.794	7056.52
575.155	7015.85
575.516	7079.12
575.877	7122.51
576.238	7156.18
576.599	7233.24
576.96	7266.91
577.32	7332
577.681	7445.89
578.042	7471.43
578.403	7527.25
578.763	7654.47
579.124	7663.29
579.485	7803.17
579.845	7943.51
580.206	7998.19
580.566	8131.3
580.927	8227.11
581.287	8316.38
581.648	8438.63
582.008	8574
582.368	8697.38
582.728	8830.71
583.089	9025.29
583.449	9115.68
583.809	9361.55
584.169	9494.2
584.529	9597.93
584.889	9787.53
585.249	9966.28
585.609	10096.67
585.969	10341.63
586.329	10532.59
586.688	10738.46
587.048	10999.24
587.408	11148.85
587.768	11380.25
588.127	11622.73
588.487	11808.04
588.846	12175.26
589.206	12270.4
589.565	12525.31
589.925	12848.24
590.284	13006.65
590.643	13401.44
591.003	13650.47
591.362	13941.99
591.721	14127.75
592.08	14367.74
592.44	14756.66
592.799	15050.66
593.158	15327.72
593.517	15542.4
593.876	15814.71
594.235	16071.43
594.593	16411.31
594.952	16734.91
595.311	16979.2
595.67	17334.22
596.029	17759.74
596.387	18020.08
596.746	18305.95
597.104	18467.3
597.463	18889.88
597.822	19145.25
598.18	19355.86
598.538	19636.31
598.897	20044.2
599.255	20190.87
599.613	20782.26
599.972	20918.76
600.33	21343.38
600.688	21431.74
601.046	21896.36
601.404	22095
601.762	22365.27
602.12	22729.56
602.478	23047.74
602.836	23391.91
603.194	23494.28
603.552	23670.32
603.91	23912.8
604.268	24242.96
604.625	24494.71
604.983	24888.6
605.341	24937.41
605.698	25308.7
606.056	25545.53
606.413	25778.97
606.771	26219.86
607.128	26321.78
607.485	26416.69
607.843	26797.02
608.2	27133.28
608.557	27318.59
608.914	27475.42
609.272	27761.97
609.629	27990.89
609.986	28342.97
610.343	28383.87
610.7	28720.81
611.057	28831.32
611.414	29018.21
611.771	29234.7
612.127	29590.39
612.484	29640.79
612.841	29929.59
613.198	30020.21
613.554	30144.28
613.911	30570.26
614.267	30626.98
614.624	30693.87
614.98	30955.78
615.337	31179.73
615.693	31284.14
616.05	31389.22
616.406	31747.63
616.762	31710.79
617.118	31913.72
617.475	32057.22
617.831	32315.75
618.187	32419.02
618.543	32590.32
618.899	32645.23
619.255	33049.29
619.611	33033.69
619.967	33193.46
620.323	33341.71
620.678	33432.1
621.034	33266
621.39	33462.16
621.746	33486.79
622.101	34044.97
622.457	33832.77
622.812	34104.85
623.168	34089.94
623.523	34255.81
623.879	34448.35
624.234	34298.52
624.589	34470.49
624.945	34658.74
625.3	34674.33
625.655	34724.72
626.01	34793.2
626.365	34998.16
626.72	34856.02
627.075	35162.68
627.43	35131.27
627.785	35009.23
628.14	35233.86
628.495	35277.93
628.85	35211.94
629.205	35230.47
629.559	35602.67
629.914	35553.63
630.269	35490.58
630.623	35392.73
630.978	35461.88
631.332	35666.39
631.687	35764.02
632.041	35687.86
632.396	35774.41
632.75	35787.75
633.104	35703.68
633.459	35686.96
633.813	35665.71
634.167	35649.44
634.521	35634.98
634.875	35816.67
635.229	35835.2
635.583	35665.94
635.937	35715.43
636.291	35686.51
636.645	35757.46
636.999	35676.11
637.352	35738.93
637.706	35766.28
638.06	35721.31
638.413	35822.55
638.767	35642.44
639.121	35889.66
639.474	35563.57
639.828	35707.97
640.181	35700.29
640.534	35741.64
640.888	35687.18
641.241	35591.14
641.594	35577.36
641.947	35774.41
642.301	35519.5
642.654	35600.41
643.007	35770.8
643.36	35682.44
643.713	35602.67
644.066	35791.14
644.419	35536.9
644.771	35270.92
645.124	35082
645.477	35000.87
645.83	34724.5
646.182	34696.02
646.535	34631.39
646.888	34824.61
647.24	34458.74
647.593	34799.97
647.945	34626.87
648.298	34466.42
648.65	34377.39
649.002	34405.63
649.355	34568.79
649.707	34469.14
650.059	34576.03
650.411	35079.29
650.763	35073.87
651.115	35511.14
651.467	35429.56
651.819	35304.37
652.171	35270.47
652.523	35109.12
652.875	35162.9
653.227	35016.92
653.578	35412.39
653.93	35175.11
654.282	35079.06
654.633	35096.24
654.985	35032.74
655.337	35101.89
655.688	35158.61
656.039	35271.37
656.391	34886.75
656.742	35029.8
657.094	34969.24
657.445	35197.7
657.796	35026.41
658.147	35051.95
658.498	35000.65
658.849	35063.92
659.2	35060.76
659.551	35035
659.902	35132.85
660.253	34905.28
660.604	35035
660.955	34893.08
661.306	35091.04
661.656	34971.72
662.007	34864.38
662.358	34946.19
662.708	34992.06
663.059	34929.46
663.409	34682.01
663.76	34887.2
664.11	34910.71
664.461	35001.1
664.811	34935.79
665.161	34917.94
665.511	34782.12
665.862	34905.28
666.212	35018.73
666.562	35038.16
666.912	34962.91
667.262	34882.23
667.612	34827.77
667.962	34852.4
668.312	34932.4
668.662	34950.71
669.011	34850.14
669.361	34809.01
669.711	34833.65
670.06	34953.87
670.41	34772.4
670.76	34757.49
671.109	34732.41
671.459	34752.97
671.808	34785.29
672.157	34801.33
672.507	34497.38
672.856	34564.5
673.205	34607.21
673.554	34729.69
673.904	34559.98
674.253	34781.22
674.602	34644.72
674.951	34317.28
675.3	33960.9
675.649	34585.07
675.998	34570.38
676.346	34488.57
676.695	34634.1
677.044	34353.88
677.393	34493.99
677.741	34460.32
678.09	34361.57
678.438	34298.52
678.787	34399.99
679.135	34404.05
679.484	34204.06
679.832	34438.63
680.181	34087.9
680.529	34321.57
680.877	34063.5
681.225	34052.88
681.573	34307.33
681.922	33973.78
682.27	33969.71
682.618	33977.85
682.966	33938.08
683.314	33882.48
683.661	33887.91
684.009	33611.98
684.357	33673.45
684.705	33520.46
685.053	33587.8
685.4	33563.62
685.748	33399.33
686.095	33365.21
686.443	33296.96
686.79	33248.83
687.138	33378.09
687.485	33388.71
687.832	33171.32
688.18	33266.91
688.527	32913.92
688.874	32920.93
689.221	33056.52
689.568	32976.52
689.915	32864.66
690.262	32719.58
690.609	32716.87
690.956	32632.35
691.303	32629.18
691.65	32531.79
691.997	32563.88
692.344	32238.23
692.69	32296.76
693.037	32272.58
693.383	32072.81
693.73	32192.36
694.077	31968.41
694.423	31946.26
694.769	31856.55
695.116	31657.91
695.462	31692.03
695.808	31561.19
696.155	31561.42
696.501	31291.37
696.847	31269.9
697.193	31031.26
697.539	31244.59
697.885	30986.06
698.231	30998.27
698.577	31028.32
698.923	30862
699.269	30789.91
699.614	30638.05
699.96	30607.99
700.306	30498.17
700.651	30535.91
700.997	30365.74
701.342	30354.44
701.688	30309.25
702.033	30158.29
702.379	30179.53
702.724	30039.87
703.069	30126.43
703.415	29813.21
703.76	29851.18
704.105	29796.04
704.45	29825.42
704.795	29554.46
705.14	29629.26
705.485	29478.53
705.83	29331.19
706.175	29450.28
706.52	29341.36
706.865	29234.02
707.209	29128.94
707.554	29168.48
707.899	29278.09
708.243	29069.5
708.588	28906.8
708.932	28791.09
709.277	28791.77
709.621	28874.71
709.966	28691.66
710.31	28639.68
710.654	28427.94
710.998	28483.08
711.342	28522.4
711.687	28482.4
712.031	28334.61
712.375	28198.34
712.719	28226.59
713.063	28243.99
713.407	28305.68
713.75	27977.56
714.094	28079.47
714.438	27975.3
714.782	27919.25
715.125	27867.95
715.469	27821.85
715.812	27763.55
716.156	27544.57
716.499	27573.27
716.843	27708.41
717.186	27417.57
717.53	27485.82
717.873	27561.52
718.216	27363.11
718.559	27378.93
718.902	27154.75
719.246	27334.18
719.589	27154.75
719.932	26947.53
720.275	27073.62
720.617	27048.54
720.96	27106.39
721.303	26857.58
721.646	26980.97
721.989	26739.62
722.331	26873.86
722.674	26721.09
723.016	26790.92
723.359	26716.8
723.701	26772.84
724.044	26538.95
724.386	26413.75
724.729	26344.15
725.071	26432.06
725.413	26548.89
725.755	26319.97
726.097	26358.39
726.439	26161.56
726.782	26180.09
727.124	26326.53
727.465	26159.07
727.807	26224.61
728.149	26043.14
728.491	26026.19
728.833	26159.3
729.175	25974.22
729.516	26039.3
729.858	25819.87
730.199	25908.01
730.541	25860.32
730.882	25746.88
731.224	25910.04
731.565	25666.43
731.906	25694
732.248	25778.52
732.589	25665.53
732.93	25469.6
733.271	25536.72
733.612	25508.92
733.953	25567.68
734.294	25504.17
734.635	25413.33
734.976	25422.82
735.317	25214.46
735.658	25258.08
735.999	25174.92
736.339	25271.41
736.68	25253.79
737.021	25152.32
737.361	25085.88
737.702	25187.8
738.042	25108.48
738.383	24893.57
738.723	25134.47
739.063	24875.26
739.404	24980.12
739.744	25045.66
740.084	24742.84
740.424	24786.9
740.764	24869.39
741.104	24770.18
741.444	24644.31
741.784	24675.5
742.124	24693.35
742.464	24668.49
742.804	24614.03
743.143	24482.73
743.483	24632.78
743.823	24348.27
744.162	24289.29
744.502	24569.74
744.841	24267.14
745.181	24317.09
745.52	24242.96
745.86	24254.49
746.199	24145.34
746.538	24113.7
746.877	24303.3
747.216	24179.92
747.556	24165.23
747.895	24136.07
748.234	24076.64
748.573	23969.75
748.911	24049.75
749.25	23968.17
749.589	23950.54
749.928	23746.48
750.267	23842.07
750.605	23739.47
750.944	23725.92
751.283	23639.59
751.621	23605.24
751.96	23480.27
752.298	23609.08
752.636	23544
752.975	23473.27
753.313	23350.78
753.651	23450.22
753.989	23367.51
754.327	23250.9
754.666	23212.71
755.004	23170.45
755.342	23109.89
755.679	23054.07
756.017	22923
756.355	23014.52
756.693	22882.55
757.031	23028.31
757.368	22860.85
757.706	22812.04
758.044	22594.19
758.381	22727.3
758.719	22643.91
759.056	22622.67
759.394	22588.54
759.731	22422.22
760.068	22356.23
760.405	22398.72
