Data from hue_130_FLMS001491_00100.txt Node
Date: Tue Feb 07 16:58:22 GMT 2017
User: dcchb
Spectrometer: FLMS00149
Trigger mode: 0
Integration Time (sec): 2.000000E-2
Scans to average: 10
Electric dark correction enabled: true
Nonlinearity correction enabled: false
Boxcar width: 0
XAxis mode: Wavelengths
Number of Pixels in Spectrum: 2048
>>>>>Begin Spectral Data<<<<<
341.393	-9.1
341.776	-9.1
342.16	-9.1
342.543	-47.74
342.927	-75.08
343.31	-55.87
343.693	-67.85
344.077	-57
344.46	-55.42
344.843	-73.73
345.226	-20.17
345.61	-57.91
345.993	-27.4
346.376	5.59
346.759	-10
347.142	21.41
347.525	54.18
347.908	59.6
348.291	75.65
348.674	110.22
349.057	98.7
349.44	126.04
349.823	138.47
350.206	156.78
350.588	195.87
350.971	190
351.354	221.18
351.737	239.71
352.119	254.17
352.502	267.96
352.884	283.78
353.267	277
353.65	285.36
354.032	309.31
354.414	313.83
354.797	321.74
355.179	352.02
355.562	333.49
355.944	333.27
356.326	328.97
356.709	340.73
357.091	326.71
357.473	330.56
357.855	341.86
358.238	351.35
358.62	321.07
359.002	335.53
359.384	356.54
359.766	342.76
360.148	334.4
360.53	352.02
360.912	345.47
361.294	329.2
361.676	326.04
362.057	334.17
362.439	323.78
362.821	324.68
363.203	325.58
363.584	343.21
363.966	299.37
364.348	322.42
364.729	327.17
365.111	331.69
365.493	322.87
365.874	318.81
366.256	310.22
366.637	300.73
367.019	311.8
367.4	320.84
367.781	324.23
368.163	302.31
368.544	305.7
368.925	320.84
369.306	318.13
369.688	325.58
370.069	302.53
370.45	303.21
370.831	308.18
371.212	297.79
371.593	306.83
371.974	300.5
372.355	306.38
372.736	318.13
373.117	298.92
373.498	308.86
373.879	300.95
374.26	323.78
374.641	312.03
375.021	321.74
375.402	328.75
375.783	324.23
376.163	328.97
376.544	313.16
376.925	309.77
377.305	314.29
377.686	317.68
378.066	317.22
378.447	319.26
378.827	322.65
379.208	319.71
379.588	346.83
379.968	345.7
380.349	323.55
380.729	337.11
381.109	339.37
381.489	342.76
381.87	328.75
382.25	322.65
382.63	317.22
383.01	332.59
383.39	348.86
383.77	343.89
384.15	337.11
384.53	337.56
384.91	357.67
385.29	352.02
385.67	324.68
386.049	328.07
386.429	344.57
386.809	353.83
387.189	355.64
387.568	356.32
387.948	361.52
388.328	335.3
388.707	336.88
389.087	333.72
389.466	351.12
389.846	352.7
390.225	357.67
390.605	371.91
390.984	364.91
391.363	370.78
391.743	363.32
392.122	387.28
392.501	387.28
392.881	351.12
393.26	361.29
393.639	381.4
394.018	364.91
394.397	371.23
394.776	373.49
395.155	364
395.534	370.56
395.913	384.57
396.292	383.66
396.671	369.65
397.05	359.71
397.429	381.63
397.808	379.59
398.186	377.79
398.565	407.16
398.944	387.28
399.323	358.8
399.701	379.59
400.08	380.5
400.458	412.36
400.837	417.79
401.215	395.87
401.594	398.8
401.972	392.25
402.351	407.84
402.729	415.75
403.107	389.76
403.486	392.25
403.864	400.61
404.242	399.26
404.62	410.55
404.999	409.42
405.377	412.14
405.755	419.59
406.133	397.67
406.511	438.35
406.889	436.77
407.267	432.02
407.645	434.28
408.023	441.06
408.401	422.53
408.779	429.99
409.156	433.15
409.534	429.31
409.912	435.64
410.29	440.38
410.667	448.52
411.045	452.59
411.422	439.03
411.8	452.14
412.178	445.36
412.555	477.67
412.933	470.67
413.31	455.3
413.687	476.54
414.065	457.78
414.442	480.83
414.819	462.3
415.197	464.11
415.574	484.9
415.951	493.04
416.328	497.33
416.705	475.41
417.082	468.41
417.46	491.91
417.837	517.44
418.214	494.17
418.591	498.01
418.967	511.34
419.344	494.17
419.721	486.71
420.098	490.78
420.475	512.02
420.852	509.08
421.228	517.9
421.605	514.28
421.982	526.26
422.358	535.3
422.735	535.75
423.111	540.27
423.488	549.53
423.864	549.08
424.241	532.36
424.617	523.55
424.994	544.11
425.37	537.56
425.746	553.6
426.123	553.6
426.499	544.11
426.875	580.49
427.251	561.96
427.627	587.5
428.003	581.62
428.379	588.63
428.756	581.85
429.132	590.44
429.507	611.45
429.883	593.37
430.259	599.25
430.635	605.8
431.011	622.53
431.387	608.29
431.763	603.54
432.138	630.21
432.514	630.66
432.89	659.14
433.265	646.25
433.641	627.95
434.016	647.38
434.392	667.95
434.767	653.26
435.143	661.85
435.518	656.88
435.894	669.3
436.269	670.43
436.644	681.96
437.02	694.39
437.395	678.57
437.77	709.76
438.145	698.46
438.52	685.35
438.895	699.36
439.271	753.6
439.646	725.8
440.021	730.32
440.395	721.28
440.77	711.56
441.145	757.89
441.52	761.73
441.895	756.53
442.27	773.71
442.645	752.01
443.019	774.61
443.394	785.46
443.769	762.64
444.143	774.39
444.518	779.58
444.892	780.71
445.267	794.27
445.641	786.36
446.016	780.26
446.39	813.93
446.764	805.35
447.139	820.71
447.513	823.42
447.887	829.98
448.262	834.05
448.636	820.94
449.01	816.42
449.384	822.97
449.758	852.12
450.132	843.09
450.506	874.5
450.88	863.88
451.254	863.65
451.628	879.47
452.002	870.66
452.376	928.51
452.75	908.85
453.123	899.81
453.497	905.23
453.871	939.58
454.244	949.52
454.618	932.12
454.992	959.92
455.365	971.9
455.739	959.01
456.112	1013.93
456.486	989.52
456.859	989.52
457.232	994.72
457.606	995.85
457.979	1033.59
458.352	1037.2
458.725	1058.45
459.099	1057.09
459.472	1067.71
459.845	1090.08
460.218	1077.88
460.591	1099.35
460.964	1107.71
461.337	1136.86
461.71	1150.87
462.083	1156.98
462.456	1163.3
462.829	1174.83
463.201	1196.75
463.574	1186.13
463.947	1217.31
464.32	1239.91
464.692	1268.61
465.065	1276.52
465.438	1287.82
465.81	1309.74
466.183	1329.4
466.555	1349.51
466.928	1357.87
467.3	1363.07
467.672	1397.65
468.045	1439.91
468.417	1438.1
468.789	1473.8
469.161	1511.32
469.534	1504.76
469.906	1526.23
470.278	1580.47
470.65	1591.99
471.022	1624.31
471.394	1680.35
471.766	1681.03
472.138	1699.79
472.51	1761.93
472.882	1799.44
473.253	1803.29
473.625	1844.87
473.997	1900.46
474.369	1910.4
474.74	1932.77
475.112	1999.21
475.484	2055.71
475.855	2123.05
476.227	2162.37
476.598	2224.97
476.97	2225.2
477.341	2285.53
477.713	2349.49
478.084	2395.81
478.455	2531.85
478.827	2547.22
479.198	2664.73
479.569	2664.73
479.94	2775.46
480.311	2788.12
480.682	2897.72
481.053	3016.36
481.424	3096.81
481.795	3149.47
482.166	3231.27
482.537	3337.26
482.908	3433.3
483.279	3501.55
483.65	3582.9
484.021	3701.54
484.391	3814.08
484.762	3894.3
485.133	3976.34
485.503	4107.63
485.874	4240.06
486.244	4308.3
486.615	4428.3
486.985	4553.72
487.356	4695.87
487.726	4785.35
488.097	4912.81
488.467	4994.61
488.837	5186.02
489.207	5254.04
489.578	5405.45
489.948	5517.99
490.318	5622.62
490.688	5730.41
491.058	5929.28
491.428	6071.2
491.798	6142.38
492.168	6349.83
492.538	6423.05
492.908	6612.65
493.278	6686.32
493.648	6724.51
494.017	6922.25
494.387	7016.03
494.757	7152.52
495.126	7343.03
495.496	7435.45
495.866	7515.68
496.235	7684.49
496.605	7760.19
496.974	7919.51
497.344	8072.95
497.713	8092.84
498.082	8228.65
498.452	8361.98
498.821	8463.9
499.19	8550.68
499.559	8658.47
499.928	8712.26
500.298	8855.98
500.667	8996.54
501.036	9023.21
501.405	9188.18
501.774	9215.07
502.143	9329.42
502.512	9387.95
502.88	9497.09
503.249	9560.82
503.618	9689.63
503.987	9760.36
504.356	9838.55
504.724	9955.16
505.093	10005.33
505.462	10075.38
505.83	10192.67
506.199	10289.39
506.567	10414.36
506.936	10324.19
507.304	10503.85
507.672	10542.04
508.041	10607.35
508.409	10696.39
508.777	10819.09
509.145	10820.45
509.514	10828.13
509.882	10903.39
510.25	10976.6
510.618	11100.22
510.986	11092.08
511.354	11175.69
511.722	11254.56
512.09	11347.22
512.458	11323.71
512.826	11442.58
513.193	11444.61
513.561	11447.33
513.929	11584.5
514.297	11691.16
514.664	11728.9
515.032	11720.31
515.4	11758.05
515.767	11859.74
516.135	11838.05
516.502	11712.63
516.869	11993.75
517.237	11929.8
517.604	11928.9
517.972	12039.17
518.339	12030.14
518.706	12051.15
519.073	12172.5
519.44	12098.38
519.808	12084.82
520.175	12177.48
520.542	12292.28
520.909	12325.04
521.276	12290.02
521.643	12410.24
522.009	12460.63
522.376	12450.92
522.743	12459.73
523.11	12525.94
523.477	12684.81
523.843	12667.86
524.21	12705.37
524.577	12766.39
524.943	12767.29
525.31	12707.86
525.676	12802.54
526.043	12785.82
526.409	12840.74
526.776	12933.61
527.142	12892.71
527.508	12982.2
527.874	12967.51
528.241	12937.91
528.607	12935.65
528.973	12976.1
529.339	12970.45
529.705	13030.56
530.071	13054.06
530.437	13033.27
530.803	12980.62
531.169	13003.22
531.535	13050.22
531.901	12925.03
532.267	12963.67
532.632	13073.72
532.998	12939.72
533.364	12993.27
533.73	12959.15
534.095	13023.33
534.461	12938.36
534.826	12911.24
535.192	12830.11
535.557	12988.98
535.923	12894.07
536.288	12936.1
536.653	13012.48
537.019	12863.33
537.384	12870.57
537.749	12830.34
538.114	12804.35
538.479	12798.7
538.845	12696.78
539.21	12652.49
539.575	12619.5
539.94	12627.41
540.305	12702.66
540.67	12631.02
541.034	12572.49
541.399	12600.52
541.764	12563.45
542.129	12579.95
542.494	12475.32
542.858	12490.91
543.223	12437.81
543.587	12488.2
543.952	12416.34
544.316	12426.06
544.681	12269.9
545.045	12313.29
545.41	12289.34
545.774	12198.49
546.138	12171.15
546.503	12195.33
546.867	12092.05
547.231	12126.18
547.595	12069.91
547.959	12150.81
548.324	11956.69
548.688	11972.28
549.052	11952.85
549.416	11978.39
549.779	11899.52
550.143	11898.61
550.507	11885.73
550.871	11813.64
551.235	11895.9
551.599	11882.34
551.962	11786.3
552.326	11766.41
552.689	11832.4
553.053	11691.39
553.417	11731.84
553.78	11768.67
554.143	11698.84
554.507	11652.97
554.87	11683.03
555.234	11683.48
555.597	11606.19
555.96	11605.06
556.323	11553.99
556.686	11601.9
557.05	11636.7
557.413	11546.31
557.776	11553.09
558.139	11500.66
558.502	11523.71
558.865	11536.36
559.228	11560.32
559.59	11535.69
559.953	11461.11
560.316	11548.79
560.679	11531.17
561.041	11513.31
561.404	11579.53
561.767	11525.52
562.129	11529.81
562.492	11596.25
562.854	11528
563.217	11473.09
563.579	11580.43
563.941	11636.02
564.304	11531.62
564.666	11623.82
565.028	11648.45
565.39	11570.71
565.753	11627.21
566.115	11585.63
566.477	11711.27
566.839	11690.48
567.201	11604.16
567.563	11646.87
567.925	11750.82
568.287	11769.35
568.648	11685.96
569.01	11663.59
569.372	11767.32
569.734	11661.33
570.095	11805.51
570.457	11793.53
570.819	11713.76
571.18	11753.08
571.542	11807.54
571.903	11804.38
572.265	11866.98
572.626	11779.07
572.987	11822.68
573.349	11870.14
573.71	11863.36
574.071	11893.42
574.432	11782.23
574.794	11906.52
575.155	11976.58
575.516	11844.38
575.877	11813.19
576.238	11869.24
576.599	11857.48
576.96	11868.11
577.32	11851.16
577.681	11877.37
578.042	11923.7
578.403	11912.85
578.763	11882.12
579.124	11920.53
579.485	11943.58
579.845	11902.68
580.206	11955.34
580.566	11924.6
580.927	11897.26
581.287	11906.98
581.648	11946.52
582.008	11999.4
582.368	11947.43
582.728	11916.69
583.089	12005.96
583.449	11901.78
583.809	11979.06
584.169	11897.71
584.529	11909.69
584.889	11959.63
585.249	11903.81
585.609	11753.76
585.969	11863.13
586.329	11864.72
586.688	11949.69
587.048	11790.37
587.408	11794.44
587.768	11856.58
588.127	11726.64
588.487	11731.16
588.846	11803.93
589.206	11732.97
589.565	11715.12
589.925	11749.69
590.284	11685.29
590.643	11678.28
591.003	11745.4
591.362	11687.32
591.721	11685.06
592.08	11693.87
592.44	11715.57
592.799	11770.48
593.158	11666.3
593.517	11684.61
593.876	11713.76
594.235	11617.94
594.593	11721.44
594.952	11708.11
595.311	11636.47
595.67	11623.14
596.029	11746.53
596.387	11712.18
596.746	11695.23
597.104	11673.31
597.463	11706.08
597.822	11656.13
598.18	11602.58
598.538	11662.24
598.897	11652.29
599.255	11599.86
599.613	11699.07
599.972	11688.22
600.33	11658.17
600.688	11595.12
601.046	11582.46
601.404	11636.47
601.762	11671.73
602.12	11614.1
602.478	11740.43
602.836	11691.61
603.194	11552.63
603.552	11589.92
603.91	11581.56
604.268	11650.03
604.625	11581.33
604.983	11624.5
605.341	11604.38
605.698	11678.05
606.056	11631.5
606.413	11573.42
606.771	11686.64
607.128	11663.82
607.485	11626.98
607.843	11576.36
608.2	11694.55
608.557	11727.54
608.914	11721.22
609.272	11710.37
609.629	11753.98
609.986	11754.66
610.343	11663.37
610.7	11801.67
611.057	11693.2
611.414	11748.79
611.771	11712.86
612.127	11806.86
612.484	11761.89
612.841	11800.31
613.198	11712.18
613.554	11760.99
613.911	11877.37
614.267	11849.35
614.624	11754.66
614.98	11836.69
615.337	11895.9
615.693	11838.73
616.05	11802.57
616.406	11939.29
616.762	11859.29
617.118	11856.81
617.475	11918.5
617.831	11838.28
618.187	11881.21
618.543	11891.38
618.899	11905.17
619.255	11944.94
619.611	11972.28
619.967	11952.85
620.323	11930.48
620.678	11889.57
621.034	11981.32
621.39	12001.44
621.746	11922.57
622.101	12032.4
622.457	11942.23
622.812	12005.05
623.168	11959.86
623.523	11927.31
623.879	12012.51
624.234	11893.87
624.589	11919.4
624.945	11944.94
625.3	12031.27
625.655	11990.81
626.01	12033.98
626.365	12030.36
626.72	11888.44
627.075	11920.53
627.43	11952.62
627.785	11946.07
628.14	11990.59
628.495	11908.33
628.85	11895.68
629.205	11881.21
629.559	11882.57
629.914	11916.92
630.269	11934.09
630.623	11880.54
630.978	11900.42
631.332	11886.18
631.687	11866.98
632.041	11867.2
632.396	11836.24
632.75	11763.93
633.104	11790.37
633.459	11709.92
633.813	11723.03
634.167	11760.09
634.521	11716.47
634.875	11806.64
635.229	11764.61
635.583	11713.76
635.937	11661.11
636.291	11712.63
636.645	11659.98
636.999	11670.15
637.352	11654.33
637.706	11652.07
638.06	11580.2
638.413	11657.26
638.767	11586.31
639.121	11643.48
639.474	11598.73
639.828	11542.01
640.181	11528.91
640.534	11615.46
640.888	11467.66
641.241	11516.7
641.594	11468.34
641.947	11475.8
642.301	11486.87
642.654	11440.55
643.007	11493.88
643.36	11544.05
643.713	11458.63
644.066	11459.53
644.419	11409.36
644.771	11408.01
645.124	11318.06
645.477	11240.1
645.83	11233.09
646.182	11197.62
646.535	11184.96
646.888	11202.81
647.24	11078.75
647.593	11154
647.945	11095.47
648.298	11134.11
648.65	11096.83
649.002	10968.24
649.355	11042.59
649.707	11039.65
650.059	11152.19
650.411	11186.32
650.763	11263.83
651.115	11331.4
651.467	11388.12
651.819	11320.78
652.171	11322.58
652.523	11259.76
652.875	11310.38
653.227	11227.9
653.578	11339.76
653.93	11339.53
654.282	11264.73
654.633	11220.44
654.985	11353.77
655.337	11273.55
655.688	11342.7
656.039	11306.99
656.391	11264.51
656.742	11318.29
657.094	11286.2
657.445	11412.3
657.796	11285.07
658.147	11288.23
658.498	11296.37
658.849	11240.55
659.2	11312.87
659.551	11385.86
659.902	11329.14
660.253	11268.8
660.604	11384.5
660.955	11300.66
661.306	11408.91
661.656	11342.7
662.007	11362.58
662.358	11331.62
662.708	11346.31
663.059	11355.35
663.409	11220.21
663.76	11418.17
664.11	11392.19
664.461	11404.39
664.811	11401.23
665.161	11413.43
665.511	11405.52
665.862	11288.46
666.212	11336.37
666.562	11409.59
666.912	11278.07
667.262	11365.52
667.612	11382.7
667.962	11394.67
668.312	11379.98
668.662	11433.77
669.011	11343.83
669.361	11332.75
669.711	11392.19
670.06	11317.16
670.41	11363.71
670.76	11241.23
671.109	11334.56
671.459	11355.58
671.808	11339.98
672.157	11363.03
672.507	11228.8
672.856	11345.18
673.205	11258.63
673.554	11321
673.904	11297.5
674.253	11346.09
674.602	11313.54
674.951	11117.17
675.3	11085.98
675.649	11263.83
675.998	11191.97
676.346	11182.47
676.695	11221.12
677.044	11140.22
677.393	11184.28
677.741	11238.52
678.09	11149.71
678.438	11168.01
678.787	11130.27
679.135	11043.72
679.484	10974.8
679.832	11185.19
680.181	10981.58
680.529	11076.49
680.877	11036.94
681.225	10966.43
681.573	11076.94
681.922	10959.88
682.27	10963.05
682.618	10957.4
682.966	10888.47
683.314	10871.52
683.661	10904.74
684.009	10861.35
684.357	10846.44
684.705	10916.04
685.053	10828.13
685.4	10754.69
685.748	10792.43
686.095	10676.72
686.443	10742.49
686.79	10663.84
687.138	10650.74
687.485	10751.07
687.832	10667.91
688.18	10683.05
688.527	10583.62
688.874	10568.48
689.221	10546.11
689.568	10529.61
689.915	10514.24
690.262	10418.88
690.609	10349.95
690.956	10326.23
691.303	10407.58
691.65	10307.47
691.997	10308.15
692.344	10220.69
692.69	10223.63
693.037	10193.57
693.383	10120.58
693.73	10143.41
694.077	10039.91
694.423	10087.59
694.769	10060.92
695.116	10013.69
695.462	10027.7
695.808	9927.59
696.155	9992.22
696.501	9834.26
696.847	9818.89
697.193	9752.68
697.539	9819.35
697.885	9721.5
698.231	9724.66
698.577	9701.84
698.923	9629.52
699.269	9650.31
699.614	9590.2
699.96	9553.82
700.306	9496.87
700.651	9470.65
700.997	9469.3
701.342	9412.8
701.688	9385.46
702.033	9319.92
702.379	9308.4
702.724	9362.41
703.069	9266.37
703.415	9165.8
703.76	9176.43
704.105	9185.69
704.45	9159.25
704.795	9145.92
705.14	9056.43
705.485	9060.27
705.83	9036.99
706.175	9049.2
706.52	8967.17
706.865	9004.68
707.209	8924.91
707.554	8891.69
707.899	8919.26
708.243	8885.36
708.588	8785.7
708.932	8790.67
709.277	8797.68
709.621	8734.4
709.966	8637.91
710.31	8751.8
710.654	8623.22
710.998	8647.63
711.342	8604.24
711.687	8616.89
712.031	8576.22
712.375	8571.7
712.719	8570.11
713.063	8614.41
713.407	8553.84
713.75	8468.87
714.094	8498.7
714.438	8413.51
714.782	8498.7
715.125	8444.02
715.469	8444.47
715.812	8332.15
716.156	8419.84
716.499	8326.28
716.843	8326.5
717.186	8290.57
717.53	8302.55
717.873	8357.92
718.216	8311.59
718.559	8290.57
718.902	8261.2
719.246	8268.65
719.589	8282.66
719.932	8232.5
720.275	8174.42
720.617	8264.36
720.96	8225.49
721.303	8250.12
721.646	8211.25
721.989	8163.57
722.331	8193.63
722.674	8139.84
723.016	8148.2
723.359	8106.62
723.701	8132.39
724.044	8069.56
724.386	8031.6
724.729	8117.7
725.071	8131.03
725.413	8123.8
725.755	8117.92
726.097	8031.6
726.439	8031.37
726.782	8034.99
727.124	8068.66
727.465	8031.14
727.807	8107.07
728.149	8004.48
728.491	8006.74
728.833	7993.18
729.175	8032.5
729.516	8013.29
729.858	8055.78
730.199	8019.17
730.541	7992.95
730.882	8018.49
731.224	8053.29
731.565	8002.9
731.906	8002.44
732.248	8028.88
732.589	7938.72
732.93	7942.79
733.271	7947.53
733.612	8017.81
733.953	7992.28
734.294	8016.23
734.635	7945.95
734.976	7994.54
735.317	7982.33
735.658	7950.92
735.999	7982.56
736.339	7951.37
736.68	8044.48
737.021	7960.19
737.361	7973.75
737.702	8049.68
738.042	8005.16
738.383	7998.6
738.723	8080.86
739.063	8031.82
739.404	7955.67
739.744	8069.34
740.084	7999.73
740.424	8050.81
740.764	8022.78
741.104	8087.87
741.444	8041.99
741.784	8099.62
742.124	8077.02
742.464	8159.73
742.804	8159.28
743.143	8132.16
743.483	8236.34
743.823	8218.26
744.162	8138.94
744.502	8247.64
744.841	8252.16
745.181	8310.01
745.52	8293.74
745.86	8379.84
746.199	8397.46
746.538	8443.56
746.877	8519.04
747.216	8518.36
747.556	8533.5
747.895	8566.72
748.234	8575.09
748.573	8668.19
748.911	8756.55
749.25	8752.26
749.589	8808.75
749.928	8963.55
750.267	8985.92
750.605	9040.61
750.944	9125.35
751.283	9178.23
751.621	9200.15
751.96	9288.29
752.298	9429.3
752.636	9557.43
752.975	9599.24
753.313	9732.34
753.651	9752.23
753.989	9821.83
754.327	9984.31
754.666	10041.94
755.004	10166
755.342	10295.49
755.679	10400.8
756.017	10547.91
756.355	10727.8
756.693	10730.06
757.031	10969.6
757.368	11111.06
757.706	11117.84
758.044	11407.55
758.381	11460.43
758.719	11595.8
759.056	11758.28
759.394	11955.11
759.731	11979.52
760.068	12164.82
760.405	12347.64
