Data from hue_170_FLMS001491_00034.txt Node
Date: Tue Feb 07 16:48:36 GMT 2017
User: dcchb
Spectrometer: FLMS00149
Trigger mode: 0
Integration Time (sec): 2.000000E-2
Scans to average: 10
Electric dark correction enabled: true
Nonlinearity correction enabled: false
Boxcar width: 0
XAxis mode: Wavelengths
Number of Pixels in Spectrum: 2048
>>>>>Begin Spectral Data<<<<<
341.393	-16.1
341.776	-16.1
342.16	-16.1
342.543	-58.81
342.927	-77.57
343.31	-71.92
343.693	-60.62
344.077	-66.5
344.46	-54.29
344.843	-55.87
345.226	-42.09
345.61	-53.84
345.993	9.43
346.376	-10
346.759	22.77
347.142	25.25
347.525	51.02
347.908	71.81
348.291	52.82
348.674	77.91
349.057	104.12
349.44	144.12
349.823	160.84
350.206	180.05
350.588	195.19
350.971	194.06
351.354	235.87
351.737	228.41
352.119	270.22
352.502	269.99
352.884	248.98
353.267	267.28
353.65	298.69
354.032	307.28
354.414	302.53
354.797	319.94
355.179	292.14
355.562	315.42
355.944	341.18
356.326	345.02
356.709	327.62
357.091	327.39
357.473	357.22
357.855	348.41
358.238	332.36
358.62	337.56
359.002	352.93
359.384	356.77
359.766	344.12
360.148	326.49
360.53	353.15
360.912	333.27
361.294	332.82
361.676	340.05
362.057	322.87
362.439	326.26
362.821	328.52
363.203	341.18
363.584	323.78
363.966	328.75
364.348	326.26
364.729	333.95
365.111	318.58
365.493	310.67
365.874	318.58
366.256	319.94
366.637	303.66
367.019	330.56
367.4	315.42
367.781	320.84
368.163	313.83
368.544	334.17
368.925	320.39
369.306	318.13
369.688	296.88
370.069	323.1
370.45	312.25
370.831	318.35
371.212	300.73
371.593	303.89
371.974	317.45
372.355	324.23
372.736	330.78
373.117	303.44
373.498	314.74
373.879	304.34
374.26	305.02
374.641	323.55
375.021	337.34
375.402	299.82
375.783	323.55
376.163	322.19
376.544	337.11
376.925	300.27
377.305	327.17
377.686	331.46
378.066	337.34
378.447	335.3
378.827	334.4
379.208	344.12
379.588	325.58
379.968	333.27
380.349	320.39
380.729	337.56
381.109	357.22
381.489	332.59
381.87	315.87
382.25	330.1
382.63	325.58
383.01	340.05
383.39	339.37
383.77	330.1
384.15	345.25
384.53	359.93
384.91	336.43
385.29	338.69
385.67	341.18
386.049	368.97
386.429	347.5
386.809	355.64
387.189	323.78
387.568	348.86
387.948	345.92
388.328	364.45
388.707	347.73
389.087	365.36
389.466	380.5
389.846	375.53
390.225	367.39
390.605	364.68
390.984	361.74
391.363	368.52
391.743	365.36
392.122	376.43
392.501	384.79
392.881	376.66
393.26	371.91
393.639	370.78
394.018	391.57
394.397	386.83
394.776	390.22
395.155	404
395.534	378.24
395.913	372.82
396.292	405.58
396.671	390.89
397.05	387.5
397.429	406.26
397.808	381.18
398.186	391.12
398.565	403.77
398.944	389.99
399.323	397.45
399.701	408.75
400.08	393.83
400.458	384.34
400.837	444.68
401.215	416.2
401.594	416.2
401.972	408.52
402.351	394.51
402.729	398.13
403.107	408.52
403.486	420.05
403.864	411.68
404.242	433.6
404.62	403.77
404.999	437.45
405.377	464.79
405.755	434.96
406.133	439.48
406.511	448.29
406.889	448.52
407.267	434.96
407.645	451.46
408.023	461.85
408.401	442.64
408.779	449.2
409.156	459.37
409.534	464.34
409.912	476.99
410.29	503.89
410.667	484
411.045	499.37
411.422	489.42
411.8	501.85
412.178	502.53
412.555	509.53
412.933	521.96
413.31	502.53
413.687	512.02
414.065	521.51
414.442	555.18
414.819	555.18
415.197	521.06
415.574	549.53
415.951	561.28
416.328	563.32
416.705	568.97
417.082	575.75
417.46	558.8
417.837	572.58
418.214	598.12
418.591	575.97
418.967	604.45
419.344	593.15
419.721	586.59
420.098	613.94
420.475	596.09
420.852	597.22
421.228	633.37
421.605	636.31
421.982	627.95
422.358	633.15
422.735	657.33
423.111	651.9
423.488	665.24
423.864	678.57
424.241	671.34
424.617	702.98
424.994	676.99
425.37	688.29
425.746	701.85
426.123	699.59
426.499	685.8
426.875	730.77
427.251	731
427.627	740.71
428.003	754.5
428.379	743.88
428.756	756.76
429.132	766.7
429.507	776.42
429.883	803.09
430.259	792.69
430.635	805.12
431.011	815.06
431.387	782.75
431.763	814.39
432.138	835.63
432.514	839.7
432.89	837.66
433.265	870.66
433.641	883.31
434.016	876.53
434.392	892.12
434.767	912.24
435.143	915.63
435.518	924.44
435.894	933.48
436.269	957.43
436.644	970.54
437.02	969.18
437.395	971.22
437.77	978.9
438.145	1038.33
438.52	1013.48
438.895	1039.69
439.271	1037.88
439.646	1034.94
440.021	1079.92
440.395	1103.87
440.77	1050.76
441.145	1122.4
441.52	1078.11
441.895	1093.47
442.27	1114.04
442.645	1100.25
443.019	1133.02
443.394	1145
443.769	1157.65
444.143	1118.11
444.518	1176.18
444.892	1178.22
445.267	1173.25
445.641	1183.87
446.016	1201.49
446.39	1221.61
446.764	1238.1
447.139	1192
447.513	1227.03
447.887	1268.38
448.262	1253.7
448.636	1247.37
449.01	1287.59
449.384	1299.8
449.758	1292.56
450.132	1320.36
450.506	1323.98
450.88	1331.43
451.254	1338.89
451.628	1371.88
452.002	1370.3
452.376	1374.37
452.75	1375.27
453.123	1408.95
453.497	1427.7
453.871	1416.86
454.244	1463.63
454.618	1491.88
454.992	1510.41
455.365	1491.88
455.739	1543.86
456.112	1568.26
456.486	1582.95
456.859	1587.25
457.232	1620.01
457.606	1636.06
457.979	1645.1
458.352	1650.75
458.725	1675.15
459.099	1681.71
459.472	1707.02
459.845	1747.24
460.218	1742.72
460.591	1770.07
460.964	1799.9
461.337	1837.86
461.71	1890.06
462.083	1886
462.456	1908.14
462.829	1900.91
463.201	1943.85
463.574	1966.22
463.947	1992.66
464.32	2019.78
464.692	2057.97
465.065	2093.9
465.438	2071.53
465.81	2148.36
466.183	2151.75
466.555	2230.85
466.928	2245.53
467.3	2232.65
467.672	2273.1
468.045	2332.76
468.417	2379.54
468.789	2398.3
469.161	2424.51
469.534	2465.19
469.906	2533.44
470.278	2526.2
470.65	2611.63
471.022	2658.86
471.394	2733.43
471.766	2741.79
472.138	2751.06
472.51	2868.12
472.882	2918.74
473.253	2947.21
473.625	3032.86
473.997	3076.47
474.369	3109.01
474.74	3161.22
475.112	3245.06
475.484	3332.29
475.855	3398.95
476.227	3437.14
476.598	3517.59
476.97	3589.91
477.341	3654.99
477.713	3746.51
478.084	3793.74
478.455	3950.57
478.827	3998.93
479.198	4120.29
479.569	4151.92
479.94	4322.09
480.311	4362.31
480.682	4485.25
481.053	4586.26
481.424	4697.22
481.795	4755.75
482.166	4924.11
482.537	4946.25
482.908	5098.57
483.279	5231.9
483.65	5335.85
484.021	5475.05
484.391	5599.8
484.762	5639.12
485.133	5685.9
485.503	5838.89
485.874	5992.33
486.244	6085.21
486.615	6241.59
486.985	6321.81
487.356	6577.17
487.726	6548.25
488.097	6757.73
488.467	6838.86
488.837	7047.22
489.207	7159.3
489.578	7284.72
489.948	7404.27
490.318	7565.62
490.688	7626.86
491.058	7706.18
491.428	7976.68
491.798	8014.2
492.168	8147.53
492.538	8299.39
492.908	8413.28
493.278	8514.75
493.648	8608.53
494.017	8737.57
494.387	8830.67
494.757	8935.75
495.126	9033.38
495.496	9127.16
495.866	9298
496.235	9359.47
496.605	9483.99
496.974	9505.68
497.344	9597.21
497.713	9696.19
498.082	9904.77
498.452	9982.05
498.821	9994.71
499.19	10078.77
499.559	10169.85
499.928	10274.93
500.298	10313.57
500.667	10451.65
501.036	10453.45
501.405	10573.9
501.774	10619.78
502.143	10724.41
502.512	10688.48
502.88	10814.12
503.249	10823.39
503.618	10898.64
503.987	11014.12
504.356	11096.83
504.724	11111.74
505.093	11136.6
505.462	11171.63
505.83	11260.89
506.199	11336.59
506.567	11414.11
506.936	11466.99
507.304	11591.96
507.672	11554.67
508.041	11621.78
508.409	11702.46
508.777	11748.56
509.145	11836.47
509.514	11799.86
509.882	11894.77
510.25	11869.69
510.618	12014.32
510.986	12021.77
511.354	12155.56
511.722	12109.91
512.09	12238.94
512.458	12149.23
512.826	12214.54
513.193	12286.63
513.561	12224.48
513.929	12264.48
514.297	12389.45
514.664	12487.07
515.032	12488.65
515.4	12541.53
515.767	12617.46
516.135	12611.36
516.502	12524.13
516.869	12673.06
517.237	12697.46
517.604	12617.69
517.972	12724.81
518.339	12791.25
518.706	12750.57
519.073	12804.13
519.44	12820.17
519.808	12864.01
520.175	12904.69
520.542	12998.02
520.909	13051.13
521.276	12929.55
521.643	12997.79
522.009	13020.39
522.376	13069.2
522.743	13082.54
523.11	13141.74
523.477	13177.68
523.843	13221.52
524.21	13280.72
524.577	13315.07
524.943	13387.16
525.31	13373.83
525.676	13427.84
526.043	13448.4
526.409	13416.77
526.776	13471.23
527.142	13486.82
527.508	13540.38
527.874	13502.41
528.241	13515.75
528.607	13508.51
528.973	13550.32
529.339	13479.82
529.705	13502.64
530.071	13624.44
530.437	13480.72
530.803	13583.54
531.169	13578.57
531.535	13576.54
531.901	13513.94
532.267	13489.53
532.632	13574.73
532.998	13512.58
533.364	13512.81
533.73	13520.72
534.095	13477.78
534.461	13530.89
534.826	13455.86
535.192	13517.78
535.557	13431.68
535.923	13366.37
536.288	13414.73
536.653	13397.33
537.019	13344.68
537.384	13303.32
537.749	13358.69
538.114	13256.09
538.479	13285.47
538.845	13208.18
539.21	13115.76
539.575	13081.63
539.94	13076.21
540.305	13167.96
540.67	13045.02
541.034	13052.26
541.399	13005.03
541.764	12974.74
542.129	13029.21
542.494	12936.55
542.858	12854.97
543.223	12894.75
543.587	12861.3
543.952	12774.3
544.316	12781.53
544.681	12680.74
545.045	12717.35
545.41	12622.66
545.774	12572.04
546.138	12591.7
546.503	12565.26
546.867	12450.24
547.231	12488.88
547.595	12499.5
547.959	12394.19
548.324	12436.9
548.688	12330.01
549.052	12283.01
549.416	12224.48
549.779	12246.63
550.143	12221.09
550.507	12191.94
550.871	12172.73
551.235	12063.13
551.599	12173.86
551.962	12130.02
552.326	12027.42
552.689	12068.1
553.053	11964.37
553.417	11960.53
553.78	11942.45
554.143	11889.35
554.507	11942.23
554.87	11936.58
555.234	11981.78
555.597	11799.18
555.96	11859.97
556.323	11876.69
556.686	11791.72
557.05	11841.89
557.413	11796.24
557.776	11790.14
558.139	11716.7
558.502	11727.54
558.865	11709.69
559.228	11761.22
559.59	11755.57
559.953	11781.55
560.316	11856.35
560.679	11720.31
561.041	11740.88
561.404	11773.19
561.767	11789.46
562.129	11778.16
562.492	11812.29
562.854	11653.42
563.217	11663.14
563.579	11736.81
563.941	11770.26
564.304	11714.21
564.666	11749.47
565.028	11730.71
565.39	11754.66
565.753	11784.27
566.115	11800.76
566.477	11842.8
566.839	11803.93
567.201	11878.28
567.563	11746.98
567.925	11855
568.287	11811.84
568.648	11817.49
569.01	11822.01
569.372	11920.99
569.734	11817.94
570.095	11847.54
570.457	11904.49
570.819	11841.89
571.18	11872.4
571.542	11911.95
571.903	11889.57
572.265	11888.9
572.626	11935
572.987	11862.91
573.349	11978.16
573.71	11996.46
574.071	11969.8
574.432	11997.82
574.794	11977.71
575.155	11959.18
575.516	11924.6
575.877	11925.51
576.238	11979.29
576.599	11966.63
576.96	11841.44
577.32	12099.74
577.681	12003.7
578.042	12021.1
578.403	11972.74
578.763	11897.48
579.124	12030.81
579.485	12072.17
579.845	11998.5
580.206	11955.56
580.566	12050.7
580.927	11981.55
581.287	11948.78
581.648	11917.82
582.008	12023.36
582.368	11959.18
582.728	11928.9
583.089	11946.97
583.449	11984.26
583.809	11913.98
584.169	12013.41
584.529	11895.68
584.889	11991.04
585.249	11812.74
585.609	11817.94
585.969	11984.94
586.329	11815.23
586.688	11912.85
587.048	11918.05
587.408	11820.2
587.768	11807.32
588.127	11814.55
588.487	11766.19
588.846	11859.29
589.206	11756.92
589.565	11736.13
589.925	11874.21
590.284	11814.32
590.643	11784.72
591.003	11755.11
591.362	11843.02
591.721	11751.05
592.08	11681.44
592.44	11743.82
592.799	11744.04
593.158	11739.75
593.517	11704.95
593.876	11774.32
594.235	11667.66
594.593	11705.4
594.952	11721.22
595.311	11633.54
595.67	11656.81
596.029	11653.42
596.387	11665.85
596.746	11684.16
597.104	11684.83
597.463	11583.14
597.822	11670.6
598.18	11645.74
598.538	11654.55
598.897	11715.57
599.255	11548.79
599.613	11787.88
599.972	11660.2
600.33	11691.61
600.688	11688.45
601.046	11642.58
601.404	11745.17
601.762	11637.6
602.12	11702.46
602.478	11591.5
602.836	11642.35
603.194	11538.4
603.552	11584.5
603.91	11551.73
604.268	11638.28
604.625	11539.3
604.983	11538.4
605.341	11611.39
605.698	11577.04
606.056	11598.51
606.413	11588.34
606.771	11683.03
607.128	11644.16
607.485	11558.06
607.843	11562.8
608.2	11586.08
608.557	11643.93
608.914	11652.97
609.272	11707.88
609.629	11712.4
609.986	11748.11
610.343	11681.9
610.7	11671.28
611.057	11766.87
611.414	11698.39
611.771	11747.21
612.127	11773.65
612.484	11758.28
612.841	11782.46
613.198	11775.23
613.554	11714.21
613.911	11833.3
614.267	11777.26
614.624	11790.59
614.98	11844.15
615.337	11845.96
615.693	11810.25
616.05	11858.39
616.406	11885.73
616.762	11773.87
617.118	11843.02
617.475	11821.78
617.831	11831.27
618.187	11937.03
618.543	11944.49
618.899	11911.72
619.255	11858.84
619.611	11914.21
619.967	11922.79
620.323	12028.33
620.678	11894.32
621.034	11876.92
621.39	11815
621.746	11861.55
622.101	11991.27
622.457	11923.25
622.812	11895.68
623.168	11923.7
623.523	11941.55
623.879	11950.14
624.234	11879.41
624.589	11955.56
624.945	11894.77
625.3	11898.61
625.655	11895.22
626.01	11894.77
626.365	11926.64
626.72	11831.5
627.075	11914.21
627.43	11838.73
627.785	11878.28
628.14	11858.16
628.495	11891.16
628.85	11914.88
629.205	11791.27
629.559	11899.97
629.914	11833.3
630.269	11796.92
630.623	11863.36
630.978	11777.94
631.332	11866.07
631.687	11804.6
632.041	11770.48
632.396	11813.42
632.75	11789.69
633.104	11730.48
633.459	11647.77
633.813	11671.05
634.167	11621.78
634.521	11711.73
634.875	11708.11
635.229	11655
635.583	11579.07
635.937	11618.62
636.291	11624.04
636.645	11594.21
636.999	11565.74
637.352	11536.14
637.706	11537.04
638.06	11593.99
638.413	11521.9
638.767	11548.34
639.121	11597.38
639.474	11571.62
639.828	11507.66
640.181	11458.4
640.534	11494.78
640.888	11404.62
641.241	11368.91
641.594	11387.89
641.947	11480.55
642.301	11368.01
642.654	11432.86
643.007	11478.29
643.36	11403.71
643.713	11389.93
644.066	11391.51
644.419	11308.8
644.771	11223.6
645.124	11223.83
645.477	11173.21
645.83	11173.66
646.182	11021.35
646.535	11041.46
646.888	11054.79
647.24	11048.24
647.593	11049.14
647.945	11040.33
648.298	11038.3
648.65	11011.63
649.002	11007.11
649.355	11055.7
649.707	11076.71
650.059	11104.74
650.411	11179.54
650.763	11202.36
651.115	11299.53
651.467	11229.48
651.819	11259.31
652.171	11210.95
652.523	11187.9
652.875	11193.77
653.227	11138.18
653.578	11261.79
653.93	11266.99
654.282	11189.03
654.633	11204.17
654.985	11170.95
655.337	11226.77
655.688	11233.09
656.039	11258.86
656.391	11170.27
656.742	11200.33
657.094	11233.77
657.445	11306.31
657.796	11277.39
658.147	11201
658.498	11288.69
658.849	11248.91
659.2	11258.18
659.551	11257.95
659.902	11273.77
660.253	11215.47
660.604	11219.08
660.955	11262.92
661.306	11360.77
661.656	11219.54
662.007	11260.44
662.358	11343.15
662.708	11312.87
663.059	11330.95
663.409	11226.31
663.76	11345.86
664.11	11379.53
664.461	11369.36
664.811	11363.03
665.161	11288.69
665.511	11281.68
665.862	11291.17
666.212	11329.36
666.562	11391.73
666.912	11274
667.262	11347.44
667.612	11377.27
667.962	11324.17
668.312	11350.15
668.662	11429.7
669.011	11312.41
669.361	11378.18
669.711	11322.36
670.06	11303.6
670.41	11304.28
670.76	11295.92
671.109	11289.82
671.459	11261.12
671.808	11281.23
672.157	11292.98
672.507	11248.91
672.856	11144.96
673.205	11254.79
673.554	11248.46
673.904	11226.31
674.253	11262.7
674.602	11232.19
674.951	11015.7
675.3	10979.99
675.649	11154.9
675.998	11158.97
676.346	11136.83
676.695	11120.1
677.044	11102.93
677.393	11063.83
677.741	11127.56
678.09	11092.76
678.438	11005.08
678.787	11103.15
679.135	11045.3
679.484	10983.84
679.832	11050.05
680.181	10995.81
680.529	10993.78
680.877	10938.64
681.225	10843.5
681.573	11035.13
681.922	10933.22
682.27	10832.65
682.618	10888.7
682.966	10879.43
683.314	10870.17
683.661	10802.82
684.009	10765.31
684.357	10720.11
684.705	10721.02
685.053	10804.41
685.4	10701.36
685.748	10630.4
686.095	10618.42
686.443	10624.75
686.79	10642.83
687.138	10623.84
687.485	10577.07
687.832	10537.29
688.18	10496.39
688.527	10515.15
688.874	10387.47
689.221	10409.84
689.568	10344.98
689.915	10351.31
690.262	10314.7
690.609	10292.1
690.956	10292.1
691.303	10279.9
691.65	10251.2
691.997	10231.09
692.344	10166
692.69	10075.84
693.037	10093.01
693.383	10011.66
693.73	10063.18
694.077	10001.71
694.423	9957.42
694.769	9889.4
695.116	9872
695.462	9853.47
695.808	9834.71
696.155	9857.31
696.501	9779.8
696.847	9759.46
697.193	9690.76
697.539	9765.11
697.885	9581.84
698.231	9643.08
698.577	9575.74
698.923	9532.8
699.269	9501.39
699.614	9438.34
699.96	9431.56
700.306	9383.65
700.651	9329.64
700.997	9348.17
701.342	9188.4
701.688	9253.49
702.033	9196.09
702.379	9122.64
702.724	9185.24
703.069	9158.57
703.415	9099.82
703.76	9052.13
704.105	9009.42
704.45	9023.66
704.795	8970.78
705.14	8931.91
705.485	8890.56
705.83	8911.12
706.175	8910.44
706.52	8788.19
706.865	8825.25
707.209	8844.91
707.554	8768.07
707.899	8792.71
708.243	8673.39
708.588	8666.16
708.932	8672.71
709.277	8609.21
709.621	8641.75
709.966	8580.73
710.31	8616.21
710.654	8493.28
710.998	8526.5
711.342	8501.19
711.687	8463.9
712.031	8436.56
712.375	8386.16
712.719	8416.67
713.063	8430.23
713.407	8380.29
713.75	8335.32
714.094	8335.32
714.438	8329.67
714.782	8368.99
715.125	8279.27
715.469	8296.22
715.812	8232.27
716.156	8202.44
716.499	8246.73
716.843	8256.45
717.186	8175.55
717.53	8194.76
717.873	8163.57
718.216	8166.73
718.559	8131.71
718.902	8073.18
719.246	8152.5
719.589	8102.78
719.932	8033.4
720.275	8109.33
720.617	8049.45
720.96	8062.1
721.303	8041.77
721.646	8078.38
721.989	8003.35
722.331	7974.65
722.674	8061.65
723.016	7981.65
723.359	8041.54
723.701	8034.99
724.044	7964.71
724.386	7967.42
724.729	7971.03
725.071	7968.1
725.413	7982.78
725.755	7947.08
726.097	7932.16
726.439	7936.91
726.782	7977.81
727.124	7912.96
727.465	7915.67
727.807	7902.33
728.149	7896.69
728.491	7876.12
728.833	7877.02
729.175	7859.62
729.516	7850.58
729.858	7822.79
730.199	7892.17
730.541	7903.01
730.882	7813.07
731.224	7902.56
731.565	7783.47
731.906	7785.95
732.248	7834.99
732.589	7834.54
732.93	7788.67
733.271	7885.39
733.612	7827.76
733.953	7896.91
734.294	7895.78
734.635	7803.81
734.976	7841.09
735.317	7771.49
735.658	7809
735.999	7840.42
736.339	7865.05
736.68	7881.32
737.021	7856.69
737.361	7807.65
737.702	7938.27
738.042	7847.87
738.383	7923.58
738.723	7912.96
739.063	7912.28
739.404	7893.97
739.744	7931.71
740.084	7951.82
740.424	7961.77
740.764	7880.64
741.104	7963.12
741.444	7901.88
741.784	7993.86
742.124	8027.3
742.464	8038.38
742.804	8039.51
743.143	8060.97
743.483	8028.88
743.823	8077.47
744.162	8086.96
744.502	8162.89
744.841	8162.89
745.181	8256
745.52	8228.2
745.86	8252.61
746.199	8305.26
746.538	8374.19
746.877	8437.46
747.216	8434.75
747.556	8465.94
747.895	8530.79
748.234	8594.07
748.573	8593.62
748.911	8644.46
749.25	8718.13
749.589	8787.96
749.928	8914.96
750.267	8886.49
750.605	8992.02
750.944	9065.92
751.283	9046.94
751.621	9259.14
751.96	9228.85
752.298	9334.39
752.636	9496.64
752.975	9564.21
753.313	9668.62
753.651	9775.51
753.989	9818.44
754.327	9934.6
754.666	10069.06
755.004	10203.97
755.342	10382.72
755.679	10433.34
756.017	10533.23
756.355	10649.38
756.693	10804.86
757.031	11014.34
757.368	11035.81
757.706	11231.06
758.044	11288.91
758.381	11483.48
758.719	11592.41
759.056	11789.01
759.394	11884.6
