Data from hue_150_FLMS001491_00006.txt Node
Date: Tue Feb 07 16:53:33 GMT 2017
User: dcchb
Spectrometer: FLMS00149
Trigger mode: 0
Integration Time (sec): 2.000000E-2
Scans to average: 10
Electric dark correction enabled: true
Nonlinearity correction enabled: false
Boxcar width: 0
XAxis mode: Wavelengths
Number of Pixels in Spectrum: 2048
>>>>>Begin Spectral Data<<<<<
341.393	2.03
341.776	2.03
342.16	2.03
342.543	-67.57
342.927	-64.63
343.31	-54.91
343.693	-80.9
344.077	-52.65
344.46	-47
344.843	-49.26
345.226	-44.07
345.61	-58.3
345.993	-23.05
346.376	14.91
346.759	-11.07
347.142	32.32
347.525	49.26
347.908	70.73
348.291	70.51
348.674	84.97
349.057	98.53
349.44	113.9
349.823	150.05
350.206	173.1
350.588	178.75
350.971	185.98
351.354	223.04
351.737	231.63
352.119	249.03
352.502	248.58
352.884	264.4
353.267	258.75
353.65	283.61
354.032	291.29
354.414	275.47
354.797	297.85
355.179	315.92
355.562	315.47
355.944	314.79
356.326	331.52
356.709	324.96
357.091	326.09
357.473	319.99
357.855	325.64
358.238	318.41
358.62	327
359.002	326.32
359.384	326.32
359.766	340.78
360.148	336.94
360.53	313.66
360.912	348.01
361.294	313.66
361.676	358.41
362.057	335.36
362.439	351.63
362.821	331.06
363.203	318.18
363.584	324.96
363.966	295.59
364.348	311.86
364.729	320.9
365.111	324.74
365.493	310.73
365.874	305.53
366.256	299.2
366.637	311.63
367.019	298.75
367.4	289.71
367.781	300.11
368.163	312.31
368.544	291.97
368.925	322.93
369.306	323.38
369.688	311.86
370.069	317.51
370.45	317.96
370.831	298.98
371.212	303.72
371.593	323.38
371.974	296.26
372.355	304.62
372.736	327.45
373.117	312.99
373.498	330.39
373.879	309.14
374.26	310.27
374.641	313.66
375.021	307.56
375.402	327.9
375.783	306.21
376.163	313.21
376.544	318.86
376.925	327.9
377.305	330.39
377.686	325.42
378.066	338.3
378.447	332.87
378.827	333.32
379.208	324.96
379.588	321.8
379.968	328.35
380.349	336.04
380.729	322.03
381.109	357.73
381.489	345.53
381.87	334.23
382.25	326.32
382.63	346.88
383.01	339.2
383.39	365.64
383.77	365.87
384.15	338.97
384.53	340.78
384.91	351.4
385.29	337.84
385.67	344.17
386.049	365.64
386.429	336.94
386.809	356.15
387.189	353.44
387.568	337.17
387.948	357.5
388.328	371.29
388.707	345.75
389.087	346.66
389.466	351.86
389.846	378.07
390.225	393.89
390.605	355.7
390.984	378.52
391.363	377.62
391.743	369.93
392.122	349.6
392.501	377.84
392.881	396.6
393.26	369.93
393.639	397.28
394.018	373.78
394.397	404.06
394.776	374.91
395.155	379.65
395.534	369.93
395.913	391.85
396.292	384.85
396.671	403.15
397.05	384.4
397.429	383.49
397.808	391.63
398.186	374.68
398.565	383.72
398.944	415.36
399.323	391.18
399.701	414.23
400.08	378.3
400.458	400.22
400.837	418.07
401.215	420.1
401.594	414.23
401.972	427.33
402.351	409.93
402.729	409.48
403.107	414.45
403.486	422.81
403.864	405.87
404.242	449.71
404.62	441.57
404.999	422.59
405.377	424.4
405.755	439.54
406.133	442.93
406.511	442.02
406.889	439.76
407.267	424.85
407.645	435.24
408.023	455.58
408.401	456.26
408.779	459.87
409.156	468.69
409.534	461.46
409.912	474.79
410.29	476.37
410.667	483.6
411.045	479.54
411.422	497.16
411.8	472.76
412.178	488.35
412.555	474.34
412.933	483.6
413.31	497.39
413.687	477.05
414.065	477.28
414.442	498.29
414.819	504.17
415.197	506.2
415.574	510.5
415.951	520.89
416.328	533.09
416.705	503.04
417.082	522.02
417.46	530.38
417.837	550.95
418.214	519.99
418.591	532.19
418.967	533.09
419.344	541.91
419.721	549.82
420.098	555.69
420.475	547.78
420.852	555.01
421.228	556.6
421.605	572.87
421.982	566.09
422.358	557.05
422.735	569.25
423.111	574.67
423.488	573.77
423.864	563.83
424.241	584.17
424.617	584.39
424.994	595.69
425.37	602.47
425.746	577.39
426.123	609.48
426.499	616.48
426.875	590.49
427.251	600.66
427.627	628.23
428.003	635.69
428.379	642.92
428.756	637.05
429.132	660.32
429.507	645.63
429.883	668.91
430.259	664.84
430.635	650.6
431.011	688.12
431.387	684.5
431.763	693.54
432.138	698.96
432.514	720.66
432.89	703.71
433.265	730.83
433.641	722.24
434.016	728.57
434.392	756.14
434.767	741
435.143	748.23
435.518	754.33
435.894	764.95
436.269	767.21
436.644	771.96
437.02	776.48
437.395	785.97
437.77	789.36
438.145	812.63
438.52	794.78
438.895	788.91
439.271	828
439.646	836.14
440.021	821
440.395	850.83
440.77	824.61
441.145	855.12
441.52	854.21
441.895	852.86
442.27	865.29
442.645	853.08
443.019	879.98
443.394	857.38
443.769	878.85
444.143	891.05
444.518	892.41
444.892	908.22
445.267	913.42
445.641	915.23
446.016	894.89
446.39	922.69
446.764	945.51
447.139	932.63
447.513	918.62
447.887	925.63
448.262	935.34
448.636	959.97
449.01	956.81
449.384	950.48
449.758	965.85
450.132	982.12
450.506	1018.73
450.88	989.35
451.254	980.54
451.628	1004.27
452.002	1001.33
452.376	1029.58
452.75	1045.85
453.123	1058.73
453.497	1072.51
453.871	1081.1
454.244	1068.9
454.618	1109.58
454.992	1095.34
455.365	1112.29
455.739	1126.52
456.112	1170.36
456.486	1162.23
456.859	1182.79
457.232	1168.56
457.606	1194.09
457.979	1229.12
458.352	1213.75
458.725	1237.71
459.099	1252.17
459.472	1242.45
459.845	1305.05
460.218	1305.73
460.591	1278.61
460.964	1319.06
461.337	1321.32
461.71	1369.68
462.083	1368.33
462.456	1384.82
462.829	1412.17
463.201	1421.43
463.574	1419.85
463.947	1445.84
464.32	1472.73
464.692	1519.51
465.065	1540.3
465.438	1541.88
465.81	1565.16
466.183	1582.78
466.555	1599.28
466.928	1632.95
467.3	1642.67
467.672	1672.72
468.045	1686.51
468.417	1735.55
468.789	1745.72
469.161	1769.67
469.534	1777.13
469.906	1831.82
470.278	1869.1
470.65	1891.48
471.022	1940.06
471.394	1957.01
471.766	2004.02
472.138	2046.5
472.51	2068.65
472.882	2102.54
473.253	2175.08
473.625	2212.6
473.997	2248.3
474.369	2262.31
474.74	2305.25
475.112	2333.27
475.484	2461.86
475.855	2478.13
476.227	2537.79
476.598	2605.13
476.97	2646.26
477.341	2710.66
477.713	2792.47
478.084	2809.42
478.455	2928.51
478.827	3010.32
479.198	3097.77
479.569	3101.84
479.94	3221.38
480.311	3283.98
480.682	3413.92
481.053	3488.95
481.424	3593.13
481.795	3648.72
482.166	3720.13
482.537	3835.61
482.908	3973
483.279	4017.75
483.65	4105.2
484.021	4218.19
484.391	4389.49
484.762	4440.34
485.133	4515.36
485.503	4613.21
485.874	4770.95
486.244	4856.6
486.615	4978.17
486.985	5082.58
487.356	5219.98
487.726	5283.93
488.097	5521.89
488.467	5584.71
488.837	5758.49
489.207	5844.14
489.578	6019.95
489.948	6112.38
490.318	6243
490.688	6369.1
491.058	6560.28
491.428	6646.6
491.798	6760.5
492.168	6973.83
492.538	7083.66
492.908	7139.7
493.278	7241.39
493.648	7393.03
494.017	7573.13
494.387	7644.77
494.757	7766.12
495.126	7940.58
495.496	8006.34
495.866	8111.43
496.235	8237.3
496.605	8311.87
496.974	8490.4
497.344	8634.58
497.713	8696.49
498.082	8819.88
498.452	8946.66
498.821	9033.43
499.19	9109.14
499.559	9228.91
499.928	9404.72
500.298	9374.89
500.667	9599.97
501.036	9616.24
501.405	9707.54
501.774	9790.93
502.143	9868.44
502.512	9973.52
502.88	10070.7
503.249	10131.94
503.618	10261.65
503.987	10331.71
504.356	10424.58
504.724	10578.03
505.093	10627.07
505.462	10670.23
505.83	10702.32
506.199	10778.25
506.567	10966.04
506.936	10896.44
507.304	11044.46
507.672	11078.58
508.041	11205.58
508.409	11260.49
508.777	11317.44
509.145	11481.05
509.514	11434.95
509.882	11562.63
510.25	11602.63
510.618	11607.83
510.986	11712.91
511.354	11777.54
511.722	11850.54
512.09	12032.23
512.458	12022.73
512.826	12065.45
513.193	12024.09
513.561	12191.32
513.929	12190.64
514.297	12276.74
514.664	12370.75
515.032	12357.19
515.4	12414.36
515.767	12479.9
516.135	12538.65
516.502	12395.83
516.869	12635.6
517.237	12632.89
517.604	12584.75
517.972	12703.39
518.339	12710.4
518.706	12774.81
519.073	12780.68
519.44	12873.56
519.808	12868.59
520.175	12822.26
520.542	13074.46
520.909	13066.78
521.276	13017.74
521.643	13174.12
522.009	13071.97
522.376	13169.15
522.743	13283.49
523.11	13257.96
523.477	13370.04
523.843	13345.19
524.21	13482.58
524.577	13462.02
524.943	13474.9
525.31	13516.03
525.676	13614.33
526.043	13651.84
526.409	13589.7
526.776	13733.42
527.142	13663.6
527.508	13656.36
527.874	13764.16
528.241	13822.69
528.607	13728.45
528.973	13885.74
529.339	13778.17
529.705	13849.58
530.071	13890.71
530.437	13893.19
530.803	13942.91
531.169	13950.37
531.535	13838.28
531.901	13834.21
532.267	13881.44
532.632	13905.62
532.998	13972.74
533.364	13857.94
533.73	13897.26
534.095	13859.52
534.461	13862.46
534.826	14023.13
535.192	13898.17
535.557	13936.81
535.923	13824.04
536.288	13896.36
536.653	13898.84
537.019	13769.36
537.384	13846.42
537.749	13762.12
538.114	13737.27
538.479	13678.28
538.845	13769.13
539.21	13680.77
539.575	13653.43
539.94	13583.37
540.305	13676.48
540.67	13524.84
541.034	13562.58
541.399	13562.81
541.764	13585.18
542.129	13521.9
542.494	13497.27
542.858	13545.86
543.223	13370.04
543.587	13484.39
543.952	13435.58
544.316	13398.29
544.681	13324.62
545.045	13366.65
545.41	13333.89
545.774	13401.68
546.138	13243.72
546.503	13255.47
546.867	13166.66
547.231	13191.29
547.595	13233.32
547.959	13176.38
548.324	13174.34
548.688	13055.02
549.052	13038.98
549.416	13071.75
549.779	13078.53
550.143	12999.66
550.507	13017.28
550.871	12941.35
551.235	12821.58
551.599	12921.24
551.962	12909.27
552.326	12867.01
552.689	12867.91
553.053	12775.26
553.417	12783.39
553.78	12886.89
554.143	12806.67
554.507	12783.84
554.87	12840.57
555.234	12878.98
555.597	12749.72
555.96	12744.52
556.323	12758.08
556.686	12748.14
557.05	12776.39
557.413	12736.61
557.776	12739.33
558.139	12781.81
558.502	12795.14
558.865	12734.13
559.228	12731.19
559.59	12750.85
559.953	12770.06
560.316	12814.58
560.679	12733.45
561.041	12726.45
561.404	12774.13
561.767	12811.19
562.129	12744.52
562.492	12845.99
562.854	12751.3
563.217	12751.53
563.579	12861.58
563.941	12864.75
564.304	12913.56
564.666	12924.86
565.028	12896.38
565.39	12889.15
565.753	12992.2
566.115	13013.67
566.477	12939.77
566.839	12948.36
567.201	13001.47
567.563	12959.43
567.925	13083.05
568.287	13064.06
568.648	13107.9
569.01	13104.29
569.372	13174.79
569.734	13093.67
570.095	13049.83
570.457	13114.91
570.819	13192.42
571.18	13185.19
571.542	13261.12
571.903	13227
572.265	13179.77
572.626	13254.11
572.987	13203.49
573.349	13327.33
573.71	13263.15
574.071	13313.1
574.432	13227.9
574.794	13330.95
575.155	13314.68
575.516	13228.13
575.877	13365.75
576.238	13339.76
576.599	13361
576.96	13367.56
577.32	13283.49
577.681	13384.96
578.042	13409.82
578.403	13354.23
578.763	13410.27
579.124	13393.09
579.485	13429.25
579.845	13469.48
580.206	13439.87
580.566	13430.16
580.927	13451.62
581.287	13474.45
581.648	13375.24
582.008	13428.35
582.368	13408.69
582.728	13476.03
583.089	13405.75
583.449	13353.32
583.809	13446.2
584.169	13383.6
584.529	13294.34
584.889	13448.91
585.249	13337.5
585.609	13319.2
585.969	13414.79
586.329	13316.71
586.688	13417.27
587.048	13310.61
587.408	13257.73
587.768	13263.15
588.127	13293.66
588.487	13273.55
588.846	13351.51
589.206	13271.97
589.565	13227.22
589.925	13294.11
590.284	13284.62
590.643	13252.31
591.003	13232.42
591.362	13279.65
591.721	13305.19
592.08	13308.35
592.44	13282.81
592.799	13240.1
593.158	13293.89
593.517	13179.09
593.876	13229.03
594.235	13184.51
594.593	13288.01
594.952	13154.91
595.311	13232.19
595.67	13224.29
596.029	13195.13
596.387	13298.86
596.746	13211.4
597.104	13274.45
597.463	13163.5
597.822	13252.31
598.18	13188.13
598.538	13164.85
598.897	13248.01
599.255	13211.63
599.613	13355.81
599.972	13277.62
600.33	13243.72
600.688	13147
601.046	13240.56
601.404	13252.98
601.762	13231.74
602.12	13234.23
602.478	13242.36
602.836	13201.69
603.194	13246.21
603.552	13231.52
603.91	13105.42
604.268	13183.83
604.625	13172.53
604.983	13224.06
605.341	13203.72
605.698	13278.29
606.056	13283.94
606.413	13204.85
606.771	13273.32
607.128	13284.4
607.485	13201.91
607.843	13293.21
608.2	13183.61
608.557	13423.6
608.914	13222.48
609.272	13304.51
609.629	13373.66
609.986	13396.48
610.343	13358.29
610.7	13415.24
611.057	13296.37
611.414	13380.21
611.771	13424.05
612.127	13380.67
612.484	13362.81
612.841	13362.81
613.198	13370.27
613.554	13382.47
613.911	13456.37
614.267	13426.99
614.624	13467.89
614.98	13475.58
615.337	13482.58
615.693	13484.62
616.05	13511.28
616.406	13545.41
616.762	13504.28
617.118	13476.71
617.475	13488.91
617.831	13502.24
618.187	13556.93
618.543	13615.69
618.899	13603.26
619.255	13622.69
619.611	13584.73
619.967	13664.27
620.323	13643.03
620.678	13613.2
621.034	13564.16
621.39	13620.88
621.746	13661.79
622.101	13760.09
622.457	13572.3
622.812	13605.07
623.168	13673.54
623.523	13697.94
623.879	13706.98
624.234	13620.66
624.589	13538.63
624.945	13623.6
625.3	13661.34
625.655	13583.82
626.01	13598.29
626.365	13608.68
626.72	13663.37
627.075	13604.16
627.43	13567.1
627.785	13527.55
628.14	13601.22
628.495	13535.69
628.85	13619.98
629.205	13537.05
629.559	13576.59
629.914	13559.42
630.269	13605.52
630.623	13510.61
630.978	13525.97
631.332	13499.98
631.687	13546.76
632.041	13510.83
632.396	13540.89
632.75	13529.14
633.104	13433.55
633.459	13391.06
633.813	13423.15
634.167	13365.07
634.521	13372.98
634.875	13390.61
635.229	13310.16
635.583	13302.7
635.937	13205.53
636.291	13328.46
636.645	13298.63
636.999	13262.25
637.352	13343.83
637.706	13222.03
638.06	13293.66
638.413	13189.03
638.767	13194.46
639.121	13218.64
639.474	13131.18
639.828	13095.25
640.181	13170.28
640.534	13121.69
640.888	13156.04
641.241	13073.1
641.594	13130.5
641.947	13103.84
642.301	13099.09
642.654	13093.22
643.007	13094.34
643.36	13013.44
643.713	12988.13
644.066	13052.31
644.419	12911.98
644.771	12894.12
645.124	12773.68
645.477	12829.04
645.83	12713.79
646.182	12631.98
646.535	12624.07
646.888	12660.68
647.24	12472.67
647.593	12641.93
647.945	12670.63
648.298	12473.12
648.65	12509.5
649.002	12494.81
649.355	12591.76
649.707	12530.74
650.059	12707.91
650.411	12781.13
650.763	12736.61
651.115	12885.54
651.467	12810.96
651.819	12798.99
652.171	12866.55
652.523	12878.98
652.875	12862.03
653.227	12809.61
653.578	12852.77
653.93	12819.55
654.282	12798.76
654.633	12805.99
654.985	12815.03
655.337	12819.55
655.688	12759.66
656.039	12772.77
656.391	12734.35
656.742	12851.87
657.094	12858.87
657.445	12816.16
657.796	12804.18
658.147	12809.38
658.498	12779.78
658.849	12900.23
659.2	12832.88
659.551	12791.75
659.902	12833.79
660.253	12793.34
660.604	12847.12
660.955	12842.37
661.306	12899.32
661.656	12809.38
662.007	12802.6
662.358	12839.44
662.708	12810.28
663.059	12860
663.409	12703.39
663.76	12789.72
664.11	12834.92
664.461	12846.89
664.811	12816.39
665.161	12774.58
665.511	12845.76
665.862	12894.58
666.212	12909.04
666.562	12956.04
666.912	12837.85
667.262	12786.1
667.612	12892.99
667.962	12849.83
668.312	12792.43
668.662	12909.72
669.011	12848.93
669.361	12796.05
669.711	12759.66
670.06	12797.86
670.41	12808.02
670.76	12695.49
671.109	12823.84
671.459	12763.96
671.808	12837.18
672.157	12770.74
672.507	12639.44
672.856	12738.65
673.205	12768.93
673.554	12822.04
673.904	12700.68
674.253	12784.07
674.602	12719.21
674.951	12538.2
675.3	12379.34
675.649	12624.3
675.998	12605.54
676.346	12656.62
676.695	12731.19
677.044	12571.19
677.393	12643.96
677.741	12628.59
678.09	12578.65
678.438	12614.13
678.787	12574.13
679.135	12494.59
679.484	12426.79
679.832	12515.38
680.181	12445.32
680.529	12530.07
680.877	12412.1
681.225	12439.67
681.573	12485.77
681.922	12339.56
682.27	12300.69
682.618	12388.83
682.966	12368.04
683.314	12390.86
683.661	12320.35
684.009	12333.69
684.357	12180.92
684.705	12275.61
685.053	12231.32
685.4	12271.54
685.748	12146.12
686.095	12107.93
686.443	12070.19
686.79	12038.33
687.138	12062.51
687.485	12070.87
687.832	11974.15
688.18	12023.19
688.527	11972.11
688.874	11949.52
689.221	11906.35
689.568	11775.06
689.915	11781.39
690.262	11818.45
690.609	11749.52
690.956	11683.31
691.303	11679.24
691.65	11684.44
691.997	11593.37
692.344	11533.03
692.69	11498
693.037	11538.23
693.383	11413.03
693.73	11427.27
694.077	11391.34
694.423	11396.31
694.769	11296.88
695.116	11324.9
695.462	11210.33
695.808	11195.86
696.155	11228.18
696.501	11145.02
696.847	11121.52
697.193	10997.45
697.539	11128.97
697.885	11046.49
698.231	10901.86
698.577	10923.33
698.923	10929.66
699.269	10879.94
699.614	10827.51
699.96	10762.65
700.306	10723.79
700.651	10652.6
700.997	10648.31
701.342	10693.5
701.688	10553.17
702.033	10539.16
702.379	10547.07
702.724	10524.24
703.069	10506.39
703.415	10414.64
703.76	10387.75
704.105	10332.84
704.45	10393.85
704.795	10299.84
705.14	10278.6
705.485	10316.79
705.83	10180.98
706.175	10186.62
706.52	10146.63
706.865	10105.5
707.209	10110.69
707.554	10063.46
707.899	10084.25
708.243	9957.93
708.588	9964.26
708.932	9883.36
709.277	9857.59
709.621	9907.08
709.966	9844.94
710.31	9930.81
710.654	9820.31
710.998	9832.74
711.342	9837.71
711.687	9737.37
712.031	9666.41
712.375	9734.89
712.719	9739.18
713.063	9696.02
713.407	9727.43
713.75	9703.7
714.094	9622.8
714.438	9564.72
714.782	9605.4
715.125	9546.19
715.469	9549.35
715.812	9503.25
716.156	9481.78
716.499	9477.26
716.843	9456.7
717.186	9401.79
717.53	9442.69
717.873	9375.8
718.216	9403.82
718.559	9350.04
718.902	9313.43
719.246	9384.16
719.589	9304.84
719.932	9239.08
720.275	9291.73
720.617	9294.67
720.96	9249.02
721.303	9263.49
721.646	9323.37
721.989	9165.18
722.331	9249.47
722.674	9230.04
723.016	9199.08
723.359	9139.87
723.701	9142.81
724.044	9094.9
724.386	9084.28
724.729	9165.18
725.071	9161.79
725.413	9129.48
725.755	9127.9
726.097	9035.47
726.439	9065.75
726.782	9034.79
727.124	9022.36
727.465	9009.93
727.807	9068.24
728.149	8972.87
728.491	9025.53
728.833	9038.86
729.175	8977.84
729.516	9112.53
729.858	8987.56
730.199	9013.55
730.541	9013.32
730.882	9032.08
731.224	8984.4
731.565	8985.98
731.906	8991.63
732.248	8998.18
732.589	8949.6
732.93	8901.23
733.271	8940.78
733.612	8934.91
733.953	8955.47
734.294	8903.49
734.635	8870.05
734.976	8950.73
735.317	8873.66
735.658	8894.23
735.999	8888.35
736.339	8928.8
736.68	8955.92
737.021	8920.9
737.361	8942.14
737.702	8934.23
738.042	8907.79
738.383	8995.02
738.723	8952.53
739.063	8943.49
739.404	8957.05
739.744	8933.55
740.084	8943.04
740.424	9008.35
740.764	9002.02
741.104	9017.16
741.444	9047.22
741.784	8995.92
742.124	9068.24
742.464	9084.05
742.804	9037.28
743.143	9072.3
743.483	9092.87
743.823	9040.44
744.162	9185.75
744.502	9153.88
744.841	9131.06
745.181	9242.02
745.52	9218.97
745.86	9260.1
746.199	9296.03
746.538	9275.46
746.877	9383.03
747.216	9383.48
747.556	9459.86
747.895	9527.43
748.234	9492.63
748.573	9500.99
748.911	9577.38
749.25	9677.49
749.589	9626.64
749.928	9800.42
750.267	9856.01
750.605	9932.17
750.944	9958.61
751.283	9954.77
751.621	10034.31
751.96	10134.65
752.298	10223.91
752.636	10319.73
752.975	10349.78
753.313	10438.6
753.651	10563.79
753.989	10585.71
754.327	10680.17
754.666	10798.36
755.004	10858.25
755.342	11068.18
755.679	11137.79
756.017	11259.59
756.355	11453.71
756.693	11503.65
757.031	11674.04
757.368	11750.65
757.706	11879.24
758.044	11999.91
758.381	12208.72
758.719	12273.12
