Data from hue_90_FLMS001491_89.txt Node
Date: Mon Feb 06 15:25:48 GMT 2017
User: dcchb
Spectrometer: FLMS00149
Trigger mode: 0
Integration Time (sec): 2.000000E-2
Scans to average: 10
Electric dark correction enabled: true
Nonlinearity correction enabled: false
Boxcar width: 0
XAxis mode: Wavelengths
Number of Pixels in Spectrum: 2048
>>>>>Begin Spectral Data<<<<<
341.393	-23.69
341.776	-23.69
342.16	-23.69
342.543	-53.52
342.927	-64.14
343.31	-52.84
343.693	-72.95
344.077	-74.98
344.46	-65.72
344.843	-52.84
345.226	-42.67
345.61	-39.5
345.993	-9.22
346.376	-0.64
346.759	6.37
347.142	33.71
347.525	45.69
347.908	50.89
348.291	71.9
348.674	83.66
349.057	119.14
349.44	137.21
349.823	135.63
350.206	155.52
350.588	179.25
350.971	210.88
351.354	208.17
351.737	228.51
352.119	256.98
352.502	256.53
352.884	252.69
353.267	285.68
353.65	285.23
354.032	288.62
354.414	302.41
354.797	322.52
355.179	308.73
355.562	324.78
355.944	318.23
356.326	328.17
356.709	337.66
357.091	348.28
357.473	336.08
357.855	324.55
358.238	341.5
358.62	344.44
359.002	344.21
359.384	334.04
359.766	351.22
360.148	324.78
360.53	335.63
360.912	319.81
361.294	334.95
361.676	324.1
362.057	332.69
362.439	326.36
362.821	326.14
363.203	327.27
363.584	315.51
363.966	326.81
364.348	338.11
364.729	323.88
365.111	332.24
365.493	322.75
365.874	317.77
366.256	302.63
366.637	313.48
367.019	321.84
367.4	302.41
367.781	308.28
368.163	286.36
368.544	324.33
368.925	310.54
369.306	339.47
369.688	321.84
370.069	295.63
370.45	311.45
370.831	325.68
371.212	320.94
371.593	315.74
371.974	304.89
372.355	317.32
372.736	320.26
373.117	328.17
373.498	325.23
373.879	330.66
374.26	316.42
374.641	332.69
375.021	324.1
375.402	323.88
375.783	346.25
376.163	321.84
376.544	320.49
376.925	327.72
377.305	334.72
377.686	326.81
378.066	329.07
378.447	310.77
378.827	342.86
379.208	342.18
379.588	319.36
379.968	353.03
380.349	344.21
380.729	359.58
381.109	343.76
381.489	352.12
381.87	350.32
382.25	351.9
382.63	333.37
383.01	347.6
383.39	362.07
383.77	340.82
384.15	347.83
384.53	353.25
384.91	343.99
385.29	343.76
385.67	350.77
386.049	346.93
386.429	363.65
386.809	358.68
387.189	364.78
387.568	352.8
387.948	366.36
388.328	365.68
388.707	362.07
389.087	370.43
389.466	362.52
389.846	391.44
390.225	366.59
390.605	351.45
390.984	376.98
391.363	367.72
391.743	365.23
392.122	368.85
392.501	363.87
392.881	394.61
393.26	376.76
393.639	384.89
394.018	394.16
394.397	386.92
394.776	404.33
395.155	390.54
395.534	386.92
395.913	378.11
396.292	406.59
396.671	408.39
397.05	400.03
397.429	403.87
397.808	390.31
398.186	409.3
398.565	416.75
398.944	413.14
399.323	426.02
399.701	396.42
400.08	405.91
400.458	418.79
400.837	414.49
401.215	419.69
401.594	424.44
401.972	420.37
402.351	402.52
402.729	428.05
403.107	446.36
403.486	418.34
403.864	431.44
404.242	427.83
404.62	442.52
404.999	442.97
405.377	455.62
405.755	445
406.133	432.35
406.511	445.23
406.889	452.91
407.267	459.69
407.645	468.05
408.023	459.01
408.401	449.07
408.779	473.02
409.156	467.15
409.534	457.43
409.912	473.25
410.29	470.76
410.667	467.15
411.045	492.01
411.422	470.99
411.8	472.12
412.178	497.2
412.555	497.43
412.933	500.82
413.31	490.88
413.687	514.38
414.065	515.74
414.442	502.63
414.819	492.46
415.197	525.68
415.574	527.49
415.951	505.79
416.328	523.42
416.705	512.57
417.082	498.33
417.46	534.04
417.837	526.13
418.214	530.65
418.591	534.49
418.967	523.42
419.344	560.93
419.721	567.71
420.098	555.28
420.475	539.24
420.852	563.19
421.228	591.21
421.605	562.97
421.982	549.63
422.358	552.57
422.735	561.16
423.111	555.96
423.488	586.47
423.864	577.88
424.241	608.84
424.617	583.76
424.994	621.72
425.37	597.09
425.746	619.69
426.123	619.91
426.499	609.74
426.875	615.39
427.251	632.57
427.627	628.05
428.003	644.09
428.379	654.49
428.756	649.74
429.132	660.59
429.507	640.48
429.883	654.49
430.259	661.04
430.635	677.09
431.011	678.67
431.387	684.54
431.763	717.54
432.138	706.24
432.514	713.92
432.89	727.48
433.265	716.63
433.641	735.62
434.016	720.02
434.392	728.84
434.767	743.3
435.143	758.89
435.518	767.25
435.894	775.62
436.269	782.85
436.644	783.75
437.02	788.04
437.395	781.04
437.77	808.83
438.145	795.05
438.52	818.78
438.895	839.57
439.271	822.17
439.646	840.02
440.021	828.95
440.395	840.47
440.77	831.88
441.145	848.61
441.52	832.34
441.895	830.98
442.27	861.04
442.645	858.1
443.019	892
443.394	874.37
443.769	884.76
444.143	889.51
444.518	896.06
444.892	898.55
445.267	899.91
445.641	922.28
446.016	903.52
446.39	907.14
446.764	916.63
447.139	907.82
447.513	926.8
447.887	943.97
448.262	949.62
448.636	948.27
449.01	962.95
449.384	961.37
449.758	961.15
450.132	984.2
450.506	984.88
450.88	974.71
451.254	988.72
451.628	1002.05
452.002	1023.07
452.376	1045.44
452.75	1041.6
453.123	1063.97
453.497	1045.66
453.871	1102.16
454.244	1090.41
454.618	1099.45
454.992	1104.19
455.365	1088.83
455.739	1148.94
456.112	1143.52
456.486	1151.2
456.859	1162.05
457.232	1174.93
457.606	1203.4
457.979	1193.23
458.352	1220.58
458.725	1239.56
459.099	1236.85
459.472	1282.49
459.845	1285.21
460.218	1281.59
460.591	1280.46
460.964	1318.88
461.337	1344.64
461.71	1373.57
462.083	1379.22
462.456	1373.11
462.829	1389.61
463.201	1445.43
463.574	1421.93
463.947	1428.71
464.32	1467.35
464.692	1483.62
465.065	1477.29
465.438	1528.14
465.81	1549.38
466.183	1559.55
466.555	1592.99
466.928	1641.36
467.3	1607.23
467.672	1667.57
468.045	1704.63
468.417	1718.64
468.789	1715.25
469.161	1737.85
469.534	1776.27
469.906	1808.58
470.278	1805.64
470.65	1847.9
471.022	1894.23
471.394	1932.65
471.766	1995.24
472.138	2018.52
472.51	2081.34
472.882	2105.75
473.253	2133.77
473.625	2180.78
473.997	2222.81
474.369	2245.63
474.74	2283.37
475.112	2342.13
475.484	2418.96
475.855	2463.93
476.227	2520.88
476.598	2569.47
476.97	2614.66
477.341	2674.77
477.713	2713.19
478.084	2757.48
478.455	2872.96
478.827	2921.55
479.198	3008.32
479.569	3050.13
479.94	3191.14
480.311	3239.05
480.682	3346.17
481.053	3463
481.424	3508.42
481.795	3575.77
482.166	3648.08
482.537	3766.27
482.908	3844.24
483.279	3939.6
483.65	4054.63
484.021	4159.93
484.391	4297.78
484.762	4365.35
485.133	4450.55
485.503	4512.92
485.874	4706.59
486.244	4720.6
486.615	4874.49
486.985	4998.56
487.356	5123.75
487.726	5272.45
488.097	5453.46
488.467	5471.54
488.837	5679.22
489.207	5811.41
489.578	5916.5
489.948	6013.22
490.318	6088.02
490.688	6234
491.058	6401.46
491.428	6523.03
491.798	6637.83
492.168	6795.34
492.538	6855
492.908	7033.98
493.278	7164.83
493.648	7255.22
494.017	7405.72
494.387	7563.23
494.757	7609.56
495.126	7819.27
495.496	7843.23
495.866	8052.71
496.235	8147.62
496.605	8238.02
496.974	8384.68
497.344	8518.46
497.713	8684.11
498.082	8693.83
498.452	8849.75
498.821	8942.63
499.19	9023.31
499.559	9094.49
499.928	9194.38
500.298	9336.29
500.667	9481.37
501.036	9531.54
501.405	9683.86
501.774	9717.3
502.143	9798.65
502.512	9918.43
502.88	10009.95
503.249	10041.59
503.618	10156.16
503.987	10286.33
504.356	10327.91
504.724	10391.18
505.093	10448.13
505.462	10543.49
505.83	10627.33
506.199	10741.23
506.567	10885.41
506.936	10891.73
507.304	11011.05
507.672	11003.14
508.041	11130.82
508.409	11282.01
508.777	11327.88
509.145	11449.91
509.514	11450.81
509.882	11491.04
510.25	11572.85
510.618	11631.6
510.986	11650.81
511.354	11762.9
511.722	11840.86
512.09	11955.43
512.458	12034.53
512.826	12026.62
513.193	12095.32
513.561	12093.06
513.929	12119.05
514.297	12274.52
514.664	12346.84
515.032	12352.03
515.4	12418.92
515.767	12554.29
516.135	12536.89
516.502	12429.55
516.869	12652.37
517.237	12624.12
517.604	12714.74
517.972	12777.79
518.339	12813.49
518.706	12820.27
519.073	12940.27
519.44	12900.49
519.808	13086.03
520.175	12942.75
520.542	13140.71
520.909	13279.02
521.276	13148.17
521.643	13232.69
522.009	13288.28
522.376	13352.46
522.743	13367.83
523.11	13475.39
523.477	13509.29
523.843	13712.9
524.21	13651.43
524.577	13692.79
524.943	13782.05
525.31	13687.59
525.676	13790.19
526.043	13779.57
526.409	13863.86
526.776	13969.84
527.142	13909.28
527.508	13958.09
527.874	14097.07
528.241	14051.2
528.607	14006
528.973	14158.09
529.339	14147.02
529.705	14223.4
530.071	14227.01
530.437	14262.94
530.803	14256.16
531.169	14326.67
531.535	14239.89
531.901	14271.76
532.267	14256.39
532.632	14262.04
532.998	14303.62
533.364	14369.61
533.73	14321.47
534.095	14396.5
534.461	14414.8
534.826	14332.32
535.192	14464.07
535.557	14412.32
535.923	14324.19
536.288	14392.21
536.653	14350.63
537.019	14216.39
537.384	14379.55
537.749	14219.1
538.114	14319.67
538.479	14256.84
538.845	14243.74
539.21	14191.31
539.575	14225.88
539.94	14170.07
540.305	14210.74
540.67	14186.11
541.034	14243.28
541.399	14199.44
541.764	14227.92
542.129	14169.16
542.494	14169.39
542.858	14162.61
543.223	14022.27
543.587	14175.04
543.952	14013.01
544.316	14026.11
544.681	13983.86
545.045	13970.75
545.41	14029.73
545.774	13956.51
546.138	13899.34
546.503	13917.87
546.867	13928.26
547.231	13984.08
547.595	13909.73
547.959	13902.28
548.324	13802.84
548.688	13848.94
549.052	13900.47
549.416	13839.9
549.779	13870.41
550.143	13725.11
550.507	13761.94
550.871	13799.91
551.235	13648.72
551.599	13762.39
551.962	13759
552.326	13631.77
552.689	13760.36
553.053	13668.38
553.417	13588.16
553.78	13826.12
554.143	13670.42
554.507	13696.41
554.87	13614.6
555.234	13786.8
555.597	13616.63
555.96	13592.45
556.323	13592.68
556.686	13550.87
557.05	13632.9
557.413	13629.29
557.776	13664.77
558.139	13760.81
558.502	13565.79
558.865	13690.76
559.228	13642.85
559.59	13745.44
559.953	13621.83
560.316	13707.7
560.679	13714.48
561.041	13732.11
561.404	13745.22
561.767	13864.54
562.129	13692.34
562.492	13812.56
562.854	13752.68
563.217	13753.81
563.579	13776.4
563.941	13906.34
564.304	13903.41
564.666	13892.56
565.028	13895.72
565.39	13866.12
565.753	13923.07
566.115	14013.01
566.477	13882.16
566.839	13992.44
567.201	14041.48
567.563	14020.92
567.925	14053.01
568.287	14071.99
568.648	14086.45
569.01	14107.47
569.372	14149.05
569.734	14111.54
570.095	14165.32
570.457	14135.04
570.819	14158.77
571.18	14163.96
571.542	14263.4
571.903	14201.93
572.265	14276.96
572.626	14360.57
572.987	14307.01
573.349	14379.33
573.71	14403.73
574.071	14349.04
574.432	14397.4
574.794	14493.22
575.155	14460.91
575.516	14504.29
575.877	14450.06
576.238	14468.36
576.599	14548.59
576.96	14470.62
577.32	14408.25
577.681	14523.95
578.042	14468.59
578.403	14507.46
578.763	14553.78
579.124	14512.88
579.485	14526.89
579.845	14566.44
580.206	14571.64
580.566	14545.42
580.927	14605.31
581.287	14685.76
581.648	14532.99
582.008	14613.67
582.368	14570.73
582.728	14597.85
583.089	14540.23
583.449	14546.1
583.809	14603.5
584.169	14535.25
584.529	14527.8
584.889	14589.49
585.249	14429.72
585.609	14468.81
585.969	14538.87
586.329	14554.69
586.688	14455.03
587.048	14445.54
587.408	14451.41
587.768	14433.34
588.127	14460
588.487	14411.64
588.846	14484.41
589.206	14394.69
589.565	14438.98
589.925	14512.2
590.284	14368.03
590.643	14398.76
591.003	14420
591.362	14488.25
591.721	14379.33
592.08	14372.77
592.44	14494.12
592.799	14478.53
593.158	14354.02
593.517	14448.48
593.876	14370.06
594.235	14357.18
594.593	14368.03
594.952	14374.35
595.311	14300.23
595.67	14401.7
596.029	14413.45
596.387	14385.88
596.746	14372.32
597.104	14367.57
597.463	14317.86
597.822	14308.37
598.18	14291.87
598.538	14348.82
598.897	14403.96
599.255	14234.02
599.613	14551.75
599.972	14419.55
600.33	14401.25
600.688	14315.15
601.046	14430.85
601.404	14409.38
601.762	14318.08
602.12	14433.79
602.478	14471.3
602.836	14434.47
603.194	14308.14
603.552	14463.39
603.91	14320.12
604.268	14328.71
604.625	14346.56
604.983	14446.67
605.341	14358.53
605.698	14368.48
606.056	14357.63
606.413	14305.2
606.771	14396.95
607.128	14382.26
607.485	14344.75
607.843	14292.1
608.2	14403.05
608.557	14495.48
608.914	14324.86
609.272	14463.16
609.629	14390.62
609.986	14472.88
610.343	14463.62
610.7	14497.74
611.057	14485.31
611.414	14459.32
611.771	14534.12
612.127	14624.74
612.484	14561.92
612.841	14611.41
613.198	14553.11
613.554	14535.71
613.911	14709.49
614.267	14632.65
614.624	14685.53
614.98	14633.78
615.337	14743.16
615.693	14657.51
616.05	14657.51
616.406	14786.09
616.762	14626.55
617.118	14699.54
617.475	14693.22
617.831	14700.67
618.187	14675.14
618.543	14811.63
618.899	14785.64
619.255	14816.83
619.611	14780.22
619.967	14805.08
620.323	14853.21
620.678	14726.21
621.034	14770.28
621.39	14753.33
621.746	14832.87
622.101	14959.88
622.457	14839.43
622.812	14780.22
623.168	14845.75
623.523	14882.14
623.879	14845.75
624.234	14765.98
624.589	14852.99
624.945	14720.79
625.3	14731.41
625.655	14827
626.01	14822.03
626.365	14817.96
626.72	14740.67
627.075	14784.74
627.43	14785.64
627.785	14738.41
628.14	14783.83
628.495	14822.7
628.85	14839.2
629.205	14672.42
629.559	14799.88
629.914	14731.41
630.269	14801.01
630.623	14716.04
630.978	14654.12
631.332	14701.12
631.687	14667
632.041	14605.76
632.396	14661.35
632.75	14626.1
633.104	14609.38
633.459	14577.74
633.813	14533.67
634.167	14583.61
634.521	14551.75
634.875	14577.29
635.229	14531.64
635.583	14431.08
635.937	14454.13
636.291	14472.66
636.645	14499.32
636.999	14434.92
637.352	14386.56
637.706	14386.1
638.06	14362.6
638.413	14444.41
638.767	14318.08
639.121	14409.38
639.474	14352.21
639.828	14278.76
640.181	14242.15
640.534	14240.57
640.888	14248.93
641.241	14225.88
641.594	14301.14
641.947	14295.94
642.301	14198.09
642.654	14246
643.007	14204.19
643.36	14143.63
643.713	14127.13
644.066	14188.6
644.419	14079.9
644.771	14036.74
645.124	13935.95
645.477	13908.83
645.83	13754.93
646.182	13730.08
646.535	13606.01
646.888	13689.17
647.24	13599.01
647.593	13717.42
647.945	13726.01
648.298	13628.84
648.65	13576.41
649.002	13589.52
649.355	13711.09
649.707	13655.05
650.059	13681.04
650.411	13863.41
650.763	13919
651.115	14016.4
651.467	13971.43
651.819	13977.53
652.171	13941.14
652.523	13920.35
652.875	13944.76
653.227	13855.5
653.578	13894.37
653.93	13969.84
654.282	13864.76
654.633	13855.95
654.985	13918.09
655.337	13879.45
655.688	13836.06
656.039	13984.08
656.391	13772.56
656.742	13864.76
657.094	13937.98
657.445	13887.36
657.796	13874.93
658.147	13876.51
658.498	13941.6
658.849	13909.96
659.2	13896.4
659.551	13940.92
659.902	13969.39
660.253	13924.42
660.604	13921.03
660.955	13907.02
661.306	13877.19
661.656	13920.58
662.007	13831.09
662.358	13925.33
662.708	13980.69
663.059	13886.68
663.409	13897.3
663.76	13987.7
664.11	13917.42
664.461	13992.44
664.811	13947.02
665.161	13990.41
665.511	13949.51
665.862	13942.95
666.212	14023.4
666.562	14025.44
666.912	13956.51
667.262	13953.12
667.612	13946.34
667.962	13957.87
668.312	13999.45
668.662	14066.79
669.011	14005.55
669.361	13964.65
669.711	13900.47
670.06	13883.97
670.41	13851.66
670.76	13820.47
671.109	13868.38
671.459	13893.91
671.808	13837.19
672.157	13820.24
672.507	13805.1
672.856	13782.28
673.205	13774.82
673.554	13871.09
673.904	13805.1
674.253	13893.69
674.602	13732.79
674.951	13566.24
675.3	13505
675.649	13701.6
675.998	13730.3
676.346	13777.76
676.695	13757.42
677.044	13628.84
677.393	13678.1
677.741	13662.28
678.09	13711.55
678.438	13616.63
678.787	13656.63
679.135	13751.55
679.484	13537.09
679.832	13615.05
680.181	13441.95
680.529	13478.11
680.877	13515.62
681.225	13535.28
681.573	13560.82
681.922	13389.75
682.27	13455.28
682.618	13358.34
682.966	13399.24
683.314	13448.5
683.661	13399.69
684.009	13239.92
684.357	13251.67
684.705	13155.85
685.053	13186.14
685.4	13264.33
685.748	13142.97
686.095	13117.21
686.443	13075.86
686.79	13068.63
687.138	13100.94
687.485	13070.66
687.832	13036.76
688.18	13077.66
688.527	12871.79
688.874	12901.4
689.221	12880.83
689.568	12796.54
689.915	12776.43
690.262	12774.62
690.609	12736.2
690.956	12622.76
691.303	12567.4
691.65	12566.94
691.997	12645.59
692.344	12519.04
692.69	12609.65
693.037	12478.58
693.383	12392.03
693.73	12343.67
694.077	12310.45
694.423	12350.9
694.769	12230.46
695.116	12202.66
695.462	12188.65
695.808	12049.44
696.155	12169.89
696.501	12044.02
696.847	12080.18
697.193	11955.89
697.539	11956.79
697.885	11830.92
698.231	11834.31
698.577	11777.59
698.923	11832.95
699.269	11728.1
699.614	11671.6
699.96	11717.93
700.306	11687.87
700.651	11587.99
700.997	11610.36
701.342	11488.1
701.688	11534.43
702.033	11457.59
702.379	11423.92
702.724	11407.2
703.069	11450.36
703.415	11229.58
703.76	11260.76
704.105	11264.6
704.45	11162.91
704.795	11221.89
705.14	11097.83
705.485	11050.15
705.83	11109.58
706.175	11075.46
706.52	10966.99
706.865	10913.43
707.209	10937.16
707.554	10874.78
707.899	10840.21
708.243	10846.99
708.588	10848.8
708.932	10695.13
709.277	10741
709.621	10702.36
709.966	10648.58
710.31	10708.91
710.654	10531.52
710.998	10581.69
711.342	10582.59
711.687	10551.86
712.031	10457.17
712.375	10476.83
712.719	10447.9
713.063	10461.69
713.407	10495.59
713.75	10408.36
714.094	10471.86
714.438	10355.7
714.782	10403.16
715.125	10316.83
715.469	10293.78
715.812	10303.95
716.156	10252.88
716.499	10224.18
716.843	10262.82
717.186	10196.16
717.53	10215.59
717.873	10253.11
718.216	10181.7
718.559	10164.97
718.902	10072.09
719.246	10153.67
719.589	10049.04
719.932	10135.14
720.275	10090.4
720.617	10072.32
720.96	10082.94
721.303	10041.36
721.646	9919.78
721.989	9956.84
722.331	10016.95
722.674	10015.37
723.016	10027.12
723.359	9954.58
723.701	9943.28
724.044	9907.8
724.386	9842.27
724.729	9900.8
725.071	9868.48
725.413	9852.89
725.755	9858.54
726.097	9835.94
726.439	9757.98
726.782	9816.96
727.124	9818.54
727.465	9819.9
727.807	9806.56
728.149	9786
728.491	9754.81
728.833	9731.31
729.175	9701.48
729.516	9802.04
729.858	9683.63
730.199	9786.45
730.541	9785.55
730.882	9735.15
731.224	9775.15
731.565	9668.71
731.906	9702.84
732.248	9716.17
732.589	9691.76
732.93	9647.25
733.271	9705.55
733.612	9699
733.953	9740.58
734.294	9651.54
734.635	9691.54
734.976	9716.17
735.317	9691.31
735.658	9682.27
735.999	9635.72
736.339	9666.23
736.68	9712.1
737.021	9653.12
737.361	9611.54
737.702	9678.21
738.042	9682.95
738.383	9615.38
738.723	9711.2
739.063	9674.82
739.404	9652.67
739.744	9636.85
740.084	9713.91
740.424	9776.28
740.764	9651.77
741.104	9713.46
741.444	9686.12
741.784	9664.42
742.124	9715.49
742.464	9744.64
742.804	9726.11
743.143	9798.2
743.483	9759.11
743.823	9771.54
744.162	9748.26
744.502	9855.15
744.841	9780.8
745.181	9887.47
745.52	9892.89
745.86	10015.6
746.199	9949.84
746.538	9990.51
746.877	10077.52
747.216	10058.99
747.556	10055.37
747.895	10088.82
748.234	10153.22
748.573	10242.26
748.911	10279.09
749.25	10279.77
749.589	10313.44
749.928	10463.5
750.267	10451.29
750.605	10515.7
750.944	10651.74
751.283	10556.6
751.621	10730.16
751.96	10733.77
752.298	10877.5
752.636	10922.92
752.975	10929.02
753.313	11004.95
753.651	11144.83
753.989	11178.73
754.327	11288.11
754.666	11369.23
755.004	11502.56
755.342	11611.26
755.679	11743.46
756.017	11797.7
756.355	11964.7
756.693	12004.47
757.031	12168.31
757.368	12221.87
757.706	12346.38
758.044	12463.44
