Data from hue_28_FLMS001491_00002.txt Node
Date: Tue Feb 07 17:16:46 GMT 2017
User: dcchb
Spectrometer: FLMS00149
Trigger mode: 0
Integration Time (sec): 2.000000E-2
Scans to average: 10
Electric dark correction enabled: true
Nonlinearity correction enabled: false
Boxcar width: 0
XAxis mode: Wavelengths
Number of Pixels in Spectrum: 2048
>>>>>Begin Spectral Data<<<<<
341.393	0.78
341.776	0.78
342.16	0.78
342.543	-52.33
342.927	-60.69
343.31	-71.09
343.693	-71.09
344.077	-69.96
344.46	-63.63
344.843	-27.7
345.226	-64.98
345.61	-34.93
345.993	-24.76
346.376	-17.3
346.759	14.34
347.142	42.58
347.525	53.2
347.908	56.82
348.291	69.02
348.674	89.36
349.057	120.1
349.44	106.99
349.823	133.65
350.206	163.03
350.588	199.87
350.971	221.11
351.354	229.25
351.737	243.26
352.119	241.9
352.502	266.76
352.884	278.06
353.267	279.19
353.65	320.77
354.032	313.76
354.414	295.68
354.797	310.15
355.179	318.06
355.562	325.74
355.944	327.1
356.326	335.68
356.709	346.3
357.091	323.48
357.473	331.62
357.855	353.76
358.238	333.42
358.62	358.73
359.002	358.96
359.384	342.24
359.766	350.82
360.148	342.01
360.53	340.2
360.912	333.42
361.294	345.17
361.676	343.59
362.057	331.39
362.439	336.14
362.821	313.76
363.203	320.09
363.584	318.28
363.966	333.2
364.348	337.27
364.729	344.72
365.111	330.49
365.493	337.49
365.874	338.85
366.256	322.8
366.637	337.49
367.019	322.58
367.4	310.15
367.781	309.7
368.163	308.79
368.544	312.86
368.925	321.9
369.306	322.8
369.688	318.96
370.069	311.05
370.45	302.01
370.831	326.19
371.212	317.6
371.593	318.51
371.974	321.45
372.355	320.77
372.736	333.42
373.117	325.06
373.498	317.15
373.879	320.54
374.26	315.34
374.641	315.8
375.021	307.66
375.402	328.9
375.783	313.54
376.163	339.98
376.544	336.81
376.925	345.63
377.305	337.04
377.686	318.06
378.066	342.69
378.447	340.2
378.827	344.27
379.208	344.72
379.588	349.02
379.968	343.14
380.349	328.23
380.729	345.63
381.109	349.24
381.489	352.86
381.87	333.42
382.25	355.8
382.63	349.92
383.01	340.65
383.39	360.77
383.77	356.02
384.15	365.06
384.53	370.71
384.91	359.86
385.29	357.83
385.67	342.69
386.049	377.04
386.429	353.08
386.809	347.89
387.189	347.89
387.568	354.44
387.948	345.85
388.328	377.04
388.707	383.37
389.087	367.09
389.466	379.3
389.846	383.37
390.225	388.11
390.605	363.48
390.984	350.37
391.363	380.43
391.743	390.37
392.122	371.16
392.501	398.96
392.881	394.44
393.26	400.99
393.639	379.52
394.018	403.93
394.397	396.25
394.776	381.56
395.155	396.92
395.534	372.52
395.913	408
396.292	396.02
396.671	380.65
397.05	392.63
397.429	421.56
397.808	392.18
398.186	404.38
398.565	384.72
398.944	411.61
399.323	439.18
399.701	397.6
400.08	413.65
400.458	395.79
400.837	424.27
401.215	428.34
401.594	417.49
401.972	410.71
402.351	418.84
402.729	440.31
403.107	423.14
403.486	433.99
403.864	420.88
404.242	421.33
404.62	425.62
404.999	430.6
405.377	443.25
405.755	455.23
406.133	458.39
406.511	450.03
406.889	457.94
407.267	477.15
407.645	445.51
408.023	466.53
408.401	469.24
408.779	469.01
409.156	473.53
409.534	468.79
409.912	462.69
410.29	479.86
410.667	488
411.045	480.09
411.422	492.29
411.8	491.39
412.178	471.27
412.555	480.31
412.933	521.67
413.31	500.42
413.687	510.37
414.065	513.08
414.442	509.46
414.819	490.26
415.197	512.85
415.574	545.62
415.951	506.98
416.328	518.28
416.705	536.13
417.082	566.19
417.46	537.49
417.837	535.9
418.214	540.88
418.591	533.19
418.967	554.21
419.344	576.81
419.721	544.72
420.098	573.64
420.475	554.66
420.852	555.11
421.228	561.67
421.605	570.48
421.982	577.26
422.358	585.17
422.735	570.71
423.111	570.48
423.488	593.53
423.864	601.89
424.241	625.39
424.617	610.93
424.994	600.99
425.37	638.05
425.746	604.83
426.123	605.73
426.499	613.19
426.875	618.39
427.251	619.29
427.627	640.53
428.003	648.22
428.379	653.87
428.756	638.5
429.132	660.65
429.507	668.56
429.883	671.04
430.259	647.09
430.635	678.27
431.011	679.4
431.387	676.01
431.763	688.89
432.138	707.65
432.514	704.26
432.89	705.17
433.265	706.29
433.641	721.21
434.016	722.34
434.392	743.58
434.767	752.4
435.143	753.3
435.518	767.31
435.894	760.76
436.269	779.06
436.644	757.59
437.02	759.4
437.395	772.96
437.77	790.59
438.145	793.98
438.52	807.54
438.895	804.6
439.271	816.8
439.646	804.37
440.021	821.77
440.395	839.4
440.77	814.99
441.145	847.31
441.52	848.66
441.895	843.47
442.27	861.77
442.645	863.35
443.019	836.46
443.394	841.66
443.769	890.47
444.143	877.82
444.518	901.09
444.892	911.26
445.267	886.18
445.641	909
446.016	915.56
446.39	894.54
446.764	904.48
447.139	946.29
447.513	922.56
447.887	926.4
448.262	926.4
448.636	945.84
449.01	952.84
449.384	947.42
449.758	977.7
450.132	968.43
450.506	977.47
450.88	987.19
451.254	983.12
451.628	997.13
452.002	991.03
452.376	998.94
452.75	1032.39
453.123	1009.11
453.497	1060.86
453.871	1050.92
454.244	1082.56
454.618	1063.12
454.992	1085.95
455.365	1088.21
455.739	1102.22
456.112	1124.59
456.486	1092.73
456.859	1141.76
457.232	1138.6
457.606	1145.38
457.979	1143.12
458.352	1175.66
458.725	1158.49
459.099	1202.55
459.472	1220.86
459.845	1220.41
460.218	1259.73
460.591	1262.66
460.964	1293.4
461.337	1275.32
461.71	1305.15
462.083	1316.45
462.456	1337.92
462.829	1346.28
463.201	1331.14
463.574	1365.94
463.947	1363.68
464.32	1362.77
464.692	1393.73
465.065	1408.42
465.438	1433.06
465.81	1468.53
466.183	1451.59
466.555	1485.48
466.928	1491.36
467.3	1486.16
467.672	1543.34
468.045	1567.29
468.417	1574.75
468.789	1572.94
469.161	1630.34
469.534	1662.88
469.906	1671.24
470.278	1693.39
470.65	1693.61
471.022	1721.86
471.394	1763.22
471.766	1781.07
472.138	1802.54
472.51	1837.56
472.882	1871.69
473.253	1861.07
473.625	1921.4
473.997	1934.96
474.369	1972.93
474.74	2010.67
475.112	2054.28
475.484	2087.28
475.855	2096.99
476.227	2176.54
476.598	2202.3
476.97	2216.54
477.341	2275.29
477.713	2296.76
478.084	2301.51
478.455	2401.39
478.827	2398.45
479.198	2500.6
479.569	2517.55
479.94	2561.84
480.311	2613.82
480.682	2662.63
481.053	2720.48
481.424	2814.94
481.795	2821.27
482.166	2845
482.537	2905.33
482.908	2979.91
483.279	3017.65
483.65	3073.24
484.021	3154.14
484.391	3188.26
484.762	3256.51
485.133	3291.31
485.503	3308.49
485.874	3448.37
486.244	3441.59
486.615	3539.21
486.985	3556.84
487.356	3661.02
487.726	3695.59
488.097	3765.42
488.467	3796.61
488.837	3911.63
489.207	3918.41
489.578	3972.65
489.948	4060.78
490.318	4109.82
490.688	4135.81
491.058	4231.17
491.428	4265.98
491.798	4393.2
492.168	4431.17
492.538	4487.66
492.908	4531.51
493.278	4630.03
493.648	4610.83
494.017	4656.25
494.387	4711.84
494.757	4762.91
495.126	4853.53
495.496	4876.81
495.866	4925.39
496.235	5026.41
496.605	5020.76
496.974	5043.81
497.344	5133.07
497.713	5143.01
498.082	5219.17
498.452	5304.82
498.821	5273.41
499.19	5357.47
499.559	5329.22
499.928	5447.64
500.298	5476.57
500.667	5517.69
501.036	5477.24
501.405	5571.7
501.774	5596.34
502.143	5673.4
502.512	5679.72
502.88	5708.88
503.249	5736.9
503.618	5819.83
503.987	5839.95
504.356	5904.12
504.724	5899.6
505.093	5908.87
505.462	5924.69
505.83	6018.47
506.199	6067.06
506.567	6129.88
506.936	6138.69
507.304	6189.54
507.672	6209.43
508.041	6217.34
508.409	6286.49
508.777	6341.85
509.145	6398.57
509.514	6426.14
509.882	6479.25
510.25	6464.34
510.618	6495.97
510.986	6534.39
511.354	6576.65
511.722	6634.73
512.09	6709.3
512.458	6656.87
512.826	6746.59
513.193	6730.32
513.561	6784.55
513.929	6814.16
514.297	6889.18
514.664	6920.37
515.032	6911.78
515.4	6979.12
515.767	7008.95
516.135	7088.05
516.502	6957.66
516.869	7071.78
517.237	7143.19
517.604	7082.17
517.972	7159.01
518.339	7187.71
518.706	7266.35
519.073	7293.24
519.44	7298.44
519.808	7348.83
520.175	7355.61
520.542	7456.63
520.909	7417.76
521.276	7486
521.643	7561.93
522.009	7553.35
522.376	7622.05
522.743	7691.2
523.11	7727.58
523.477	7728.48
523.843	7783.62
524.21	7875.82
524.577	7904.07
524.943	7951.75
525.31	8046.67
525.676	8075.82
526.043	8133.44
526.409	8147.68
526.776	8196.49
527.142	8156.49
527.508	8276.72
527.874	8335.25
528.241	8327.79
528.607	8392.87
528.973	8450.05
529.339	8426.54
529.705	8603.49
530.071	8546.99
530.437	8617.95
530.803	8691.62
531.169	8716.71
531.535	8737.04
531.901	8719.42
532.267	8805.07
532.632	8857.72
532.998	8851.62
533.364	8901.79
533.73	9007.09
534.095	9032.86
534.461	9036.7
534.826	9093.42
535.192	9137.26
535.557	9249.12
535.923	9163.02
536.288	9262
536.653	9308.55
537.019	9271.04
537.384	9343.58
537.749	9421.09
538.114	9424.94
538.479	9450.7
538.845	9537.7
539.21	9466.06
539.575	9552.39
539.94	9565.5
540.305	9662.22
540.67	9588.77
541.034	9595.33
541.399	9697.25
541.764	9786.51
542.129	9820.63
542.494	9880.97
542.858	9884.81
543.223	9926.84
543.587	9935.43
543.952	9948.09
544.316	10059.72
544.681	10101.08
545.045	10073.73
545.41	10181.98
545.774	10200.28
546.138	10238.47
546.503	10238.25
546.867	10233.73
547.231	10392.82
547.595	10379.26
547.959	10427.85
548.324	10459.71
548.688	10436.43
549.052	10627.84
549.416	10536.77
549.779	10581.52
550.143	10595.53
550.507	10618.12
550.871	10680.5
551.235	10778.35
551.599	10852.69
551.962	10822.19
552.326	10782.41
552.689	10913.26
553.053	10924.78
553.417	10851.79
553.78	11047.49
554.143	10985.57
554.507	11043.88
554.87	11068.51
555.234	11183.53
555.597	11127.26
555.96	11181.73
556.323	11250.65
556.686	11188.05
557.05	11384.66
557.413	11308.28
557.776	11323.87
558.139	11396.86
558.502	11503.75
558.865	11483.41
559.228	11555.5
559.59	11562.51
559.953	11589.4
560.316	11759.56
560.679	11662.84
561.041	11791.65
561.404	11825.32
561.767	11822.84
562.129	11884.53
562.492	11920.01
562.854	11955.49
563.217	11979.22
563.579	11980.35
563.941	12052.21
564.304	12094.7
564.666	12164.75
565.028	12204.3
565.39	12220.34
565.753	12315.26
566.115	12395.93
566.477	12394.8
566.839	12358.42
567.201	12505.76
567.563	12520.67
567.925	12646.09
568.287	12631.18
568.648	12679.77
569.01	12759.99
569.372	12805.64
569.734	12813.1
570.095	12864.85
570.457	12924.96
570.819	13012.19
571.18	13009.93
571.542	13055.57
571.903	13099.19
572.265	13211.05
572.626	13204.05
572.987	13288.34
573.349	13320.2
573.71	13374.44
574.071	13439.97
574.432	13518.16
574.794	13669.8
575.155	13746.86
575.516	13726.74
575.877	13782.79
576.238	13933.29
576.599	14120.18
576.96	14025.72
577.32	14123.34
577.681	14212.83
578.042	14381.87
578.403	14417.12
578.763	14617.12
579.124	14700.05
579.485	14678.81
579.845	14988.18
580.206	15040.83
580.566	15151.79
580.927	15264.33
581.287	15487.15
581.648	15573.7
582.008	15806.69
582.368	15935.27
582.728	16154.25
583.089	16118.32
583.449	16324.64
583.809	16564.86
584.169	16862.03
584.529	16864.29
584.889	17214.11
585.249	17304.95
585.609	17557.83
585.969	17830.36
586.329	17939.74
586.688	18170.02
587.048	18427.86
587.408	18544.92
587.768	18899.71
588.127	19080.05
588.487	19271.46
588.846	19649.98
589.206	19854.04
589.565	20128.84
589.925	20468.04
590.284	20677.52
590.643	20856.5
591.003	21187.34
591.362	21480.66
591.721	21898.28
592.08	22140.08
592.44	22337.82
592.799	22701.42
593.158	22936.22
593.517	23112.26
593.876	23514.06
594.235	23768.06
594.593	24041.5
594.952	24483.3
595.311	24721.93
595.67	24969.39
596.029	25406.66
596.387	25685.3
596.746	26023.6
597.104	26144.5
597.463	26440.31
597.822	26706.06
598.18	27044.13
598.538	27266.05
598.897	27793.27
599.255	27905.58
599.613	28536.98
599.972	28705.56
600.33	29061.03
600.688	29192.78
601.046	29571.75
601.404	29898.07
601.762	30141.45
602.12	30590.03
602.478	30767.88
602.836	31033.86
603.194	31115.66
603.552	31571.02
603.91	31589.55
604.268	32146.6
604.625	32218.46
604.983	32507.27
605.341	32665
605.698	33124.88
606.056	33383.63
606.413	33674.47
606.771	33897.51
607.128	34059.54
607.485	34165.3
607.843	34436.26
608.2	34890.48
608.557	35125.73
608.914	35330.7
609.272	35706.96
609.629	35785.6
609.986	36096.1
610.343	36071.92
610.7	36642.3
611.057	36808.85
611.414	36882.07
611.771	37123.19
612.127	37442.5
612.484	37604.08
612.841	37788.03
613.198	37960.91
613.554	38077.74
613.911	38498.75
614.267	38603.83
614.624	38619.2
614.98	38787.33
615.337	39231.38
615.693	39203.36
616.05	39335.11
616.406	39797.24
616.762	39664.37
617.118	39934.42
617.475	39987.52
617.831	40204.69
618.187	40263.9
618.543	40568.98
618.899	40757.22
619.255	40751.57
619.611	40823.66
619.967	41096.65
620.323	41032.69
620.678	41180.26
621.034	41195.17
621.39	41336.64
621.746	41487.82
622.101	41965.1
622.457	41775.95
622.812	41913.12
623.168	42033.34
623.523	42053.68
623.879	42399.21
624.234	42114.47
624.589	42408.25
624.945	42499.09
625.3	42659.99
625.655	42671.07
626.01	42816.83
626.365	42864.51
626.72	42824.74
627.075	42910.83
627.43	42931.85
627.785	42961
628.14	43063.6
628.495	43010.27
628.85	43064.05
629.205	43053.43
629.559	43368
629.914	43375.68
630.269	43285.06
630.623	43210.49
630.978	43219.98
631.332	43605.28
631.687	43647.76
632.041	43399.18
632.396	43606.18
632.75	43443.7
633.104	43672.4
633.459	43412.74
633.813	43435.11
634.167	43495.9
634.521	43505.17
634.875	43456.81
635.229	43511.5
635.583	43359.41
635.937	43398.96
636.291	43407.32
636.645	43487.99
636.999	43456.58
637.352	43572.74
637.706	43386.98
638.06	43652.74
638.413	43576.35
638.767	43442.12
639.121	43570.03
639.474	43295.68
639.828	43489.12
640.181	43483.48
640.534	43390.6
640.888	43346.3
641.241	43139.53
641.594	43248.91
641.947	43420.43
642.301	43270.37
642.654	43379.52
643.007	43345.4
643.36	43398.28
643.713	43224.5
644.066	43338.62
644.419	43062.02
644.771	42992.87
645.124	42700.67
645.477	42531.41
645.83	42471.07
646.182	42311.98
646.535	42098.2
646.888	42197.18
647.24	42054.36
647.593	42207.58
647.945	42116.96
648.298	42097.3
648.65	41914.7
649.002	41897.98
649.355	42056.39
649.707	42082.38
650.059	42172.1
650.411	42608.92
650.763	42617.51
651.115	43039.19
651.467	42865.64
651.819	42944.73
652.171	42817.73
652.523	42740.22
652.875	42781.8
653.227	42520.79
653.578	42937.73
653.93	42879.65
654.282	42766.88
654.633	42593.56
654.985	42669.03
655.337	42758.97
655.688	42698.64
656.039	42874.68
656.391	42527.57
656.742	42610.5
657.094	42634.46
657.445	42710.61
657.796	42633.1
658.147	42640.79
658.498	42461.13
658.849	42616.83
659.2	42593.1
659.551	42517.17
659.902	42605.76
660.253	42532.77
660.604	42684.63
660.955	42357.18
661.306	42522.6
661.656	42554.01
662.007	42460.9
662.358	42476.72
662.708	42518.08
663.059	42548.13
663.409	42395.37
663.76	42559.21
664.11	42525.76
664.461	42538.42
664.811	42516.95
665.161	42430.4
665.511	42366.67
665.862	42496.38
666.212	42470.17
666.562	42372.09
666.912	42467.23
667.262	42451.64
667.612	42406.67
667.962	42436.05
668.312	42258.42
668.662	42630.16
669.011	42468.13
669.361	42481.47
669.711	42412.09
670.06	42405.31
670.41	42296.84
670.76	42272.66
671.109	42395.14
671.459	42247.8
671.808	42145.43
672.157	42302.72
672.507	42051.87
672.856	42054.81
673.205	42050.74
673.554	42173
673.904	42267.69
674.253	42366.67
674.602	42105.66
674.951	41619.12
675.3	41292.57
675.649	41988.37
675.998	42036.06
676.346	42001.71
676.695	42087.81
677.044	41834.03
677.393	42015.72
677.741	42020.91
678.09	41979.56
678.438	41741.37
678.787	41904.53
679.135	42077.64
679.484	41710.64
679.832	41882.39
680.181	41473.81
680.529	41721.94
680.877	41527.59
681.225	41642.17
681.573	41826.57
681.922	41494.38
682.27	41274.27
682.618	41411.21
682.966	41302.97
683.314	41354.94
683.661	41317.88
684.009	41125.57
684.357	40902.3
684.705	40986.37
685.053	40980.04
685.4	40959.25
685.748	40748.18
686.095	40710.67
686.443	40644.91
686.79	40657.79
687.138	40718.8
687.485	40760.38
687.832	40411.01
688.18	40615.75
688.527	40360.39
688.874	40356.1
689.221	40244.01
689.568	40105.71
689.915	39997.01
690.262	40023.23
690.609	39941.2
690.956	39857.13
691.303	39844.02
691.65	39694.42
691.997	39667.76
692.344	39424.15
692.69	39470.93
693.037	39348.89
693.383	39112.52
693.73	39242.68
694.077	38903.48
694.423	38946.65
694.769	38857.61
695.116	38819.87
695.462	38780.32
695.808	38585.07
696.155	38533.1
696.501	38432.99
696.847	38384.63
697.193	38034.35
697.539	38199.77
697.885	38080.91
698.231	37891.76
698.577	37823.74
698.923	37764.98
699.269	37690.18
699.614	37647.24
699.96	37475.5
700.306	37443.18
700.651	37355.05
700.997	37153.92
701.342	37190.76
701.688	37020.59
702.033	36880.26
702.379	36885.23
702.724	36761.84
703.069	36916.42
703.415	36494.28
703.76	36535.64
704.105	36542.41
704.45	36411.34
704.795	36256.77
705.14	36226.72
705.485	36248.41
705.83	36105.36
706.175	35991.69
706.52	35979.94
706.865	35764.81
707.209	35821.08
707.554	35654.3
707.899	35696.34
708.243	35482.1
708.588	35643.46
708.932	35222.68
709.277	35441.2
709.621	35292.73
709.966	34940.42
710.31	35074.43
710.654	34784.04
710.998	34819.3
711.342	34975
711.687	34745.85
712.031	34537.95
712.375	34478.06
712.719	34479.64
713.063	34550.15
713.407	34554.44
713.75	34407.1
714.094	34375.47
714.438	34225.19
714.782	34300.67
715.125	34090.5
715.469	34191.29
715.812	33918.08
716.156	33954.69
716.499	33880.56
716.843	33946.32
717.186	33639.67
717.53	33763.28
717.873	33728.93
718.216	33637.18
718.559	33587.24
718.902	33422.27
719.246	33341.14
719.589	33318.09
719.932	33196.06
720.275	33100.92
720.617	33195.38
720.96	33053.02
721.303	32886.47
721.646	33057.76
721.989	32699.35
722.331	33003.98
722.674	32829.97
723.016	32893.92
723.359	32741.84
723.701	32749.97
724.044	32635.62
724.386	32430.88
724.729	32577.1
725.071	32446.7
725.413	32532.35
725.755	32405.57
726.097	32246.03
726.439	32232.47
726.782	32227.73
727.124	32414.16
727.465	32064.34
727.807	32144.79
728.149	32015.08
728.491	31982.99
728.833	32114.06
729.175	31805.36
729.516	31785.03
729.858	31777.57
730.199	31767.17
730.541	31724.01
730.882	31729.21
731.224	31772.14
731.565	31525.6
731.906	31623.45
732.248	31546.39
732.589	31311.59
732.93	31340.74
733.271	31321.31
733.612	31378.93
733.953	31329.44
734.294	31194.76
734.635	31171.93
734.976	31241.54
735.317	31123.35
735.658	31037.7
735.999	31015.1
736.339	30770.59
736.68	30975.33
737.021	30891.26
737.361	30793.41
737.702	30821.44
738.042	30816.69
738.383	30814.43
738.723	30789.12
739.063	30615.57
739.404	30843.36
739.744	30665.51
740.084	30583.7
740.424	30535.79
740.764	30338.96
741.104	30528.34
741.444	30398.17
741.784	30196.59
742.124	30361.11
742.464	30222.58
742.804	30236.82
743.143	30159.98
743.483	30155.46
743.823	30039.54
744.162	29995.02
744.502	29944.4
744.841	29869.14
745.181	30072.98
745.52	29947.56
745.86	29964.96
746.199	29855.59
746.538	29843.61
746.877	29737.4
747.216	29746.66
747.556	29741.69
747.895	29702.37
748.234	29730.39
748.573	29467.8
748.911	29465.99
749.25	29603.61
749.589	29409.27
749.928	29277.07
750.267	29416.5
750.605	29374.92
750.944	29157.3
751.283	29223.74
751.621	29183.74
751.96	29164.76
752.298	29065.32
752.636	29115.27
752.975	28988.04
753.313	28823.07
753.651	28968.15
753.989	28916.17
754.327	28829.62
754.666	28666.69
755.004	28626.24
755.342	28674.15
755.679	28625.56
756.017	28436.64
756.355	28503.08
756.693	28369.07
757.031	28399.35
757.368	28268.96
757.706	28208.4
758.044	28236.87
758.381	28238.68
758.719	28063.99
759.056	28177.66
