Data from hue_70_FLMS001491_39.txt Node
Date: Mon Feb 06 15:20:47 GMT 2017
User: dcchb
Spectrometer: FLMS00149
Trigger mode: 0
Integration Time (sec): 2.000000E-2
Scans to average: 10
Electric dark correction enabled: true
Nonlinearity correction enabled: false
Boxcar width: 0
XAxis mode: Wavelengths
Number of Pixels in Spectrum: 2048
>>>>>Begin Spectral Data<<<<<
341.393	-8.91
341.776	-8.91
342.16	-8.91
342.543	-62.92
342.927	-59.76
343.31	-70.38
343.693	-82.81
344.077	-73.32
344.46	-50.94
344.843	-57.5
345.226	-55.01
345.61	-27.22
345.993	-10.04
346.376	-13.88
346.759	19.79
347.142	18.66
347.525	55.94
347.908	63.63
348.291	67.02
348.674	84.19
349.057	131.88
349.44	104.08
349.823	126.45
350.206	169.61
350.588	188.37
350.971	204.42
351.354	213.91
351.737	247.58
352.119	238.09
352.502	243.51
352.884	259.78
353.267	263.85
353.65	279.89
354.032	295.71
354.414	309.95
354.797	299.55
355.179	310.85
355.562	335.03
355.944	323.28
356.326	342.04
356.709	328.48
357.091	324.64
357.473	318.54
357.855	328.03
358.238	326.9
358.62	325.54
359.002	340.91
359.384	332.77
359.766	320.34
360.148	340.23
360.53	334.13
360.912	318.76
361.294	322.6
361.676	314.92
362.057	311.08
362.439	339.55
362.821	315.83
363.203	315.6
363.584	310.18
363.966	321.02
364.348	309.27
364.729	299.1
365.111	315.15
365.493	321.25
365.874	321.7
366.256	311.31
366.637	313.57
367.019	316.95
367.4	300.68
367.781	301.81
368.163	299.33
368.544	313.79
368.925	301.81
369.306	308.37
369.688	301.36
370.069	295.71
370.45	308.14
370.831	301.59
371.212	320.8
371.593	290.51
371.974	309.95
372.355	295.71
372.736	325.77
373.117	299.78
373.498	299.55
373.879	290.29
374.26	317.63
374.641	286.67
375.021	310.85
375.402	306.56
375.783	318.76
376.163	317.18
376.544	297.75
376.925	293.23
377.305	309.5
377.686	303.17
378.066	325.54
378.447	321.47
378.827	322.83
379.208	345.88
379.588	308.37
379.968	312.66
380.349	344.52
380.729	310.18
381.109	325.32
381.489	346.78
381.87	328.71
382.25	331.42
382.63	333.68
383.01	323.28
383.39	318.31
383.77	317.41
384.15	315.83
384.53	347.91
384.91	351.76
385.29	349.04
385.67	350.17
386.049	342.94
386.429	328.71
386.809	336.84
387.189	344.52
387.568	355.15
387.948	340.23
388.328	345.88
388.707	346.56
389.087	351.08
389.466	357.41
389.846	334.36
390.225	361.47
390.605	346.78
390.984	347.91
391.363	344.3
391.743	355.6
392.122	339.33
392.501	378.42
392.881	354.92
393.26	367.8
393.639	345.88
394.018	357.41
394.397	353.56
394.776	365.09
395.155	347.24
395.534	361.7
395.913	359.89
396.292	363.06
396.671	362.83
397.05	342.04
397.429	377.29
397.808	346.78
398.186	369.61
398.565	367.35
398.944	345.43
399.323	374.58
399.701	381.36
400.08	364.41
400.458	394.02
400.837	371.64
401.215	382.04
401.594	363.73
401.972	369.16
402.351	394.69
402.729	368.48
403.107	406.44
403.486	367.58
403.864	380
404.242	379.78
404.62	394.47
404.999	411.42
405.377	395.14
405.755	415.94
406.133	406.44
406.511	423.39
406.889	420.68
407.267	399.44
407.645	405.31
408.023	418.42
408.401	410.29
408.779	401.7
409.156	385.2
409.534	414.81
409.912	432.43
410.29	422.26
410.667	434.24
411.045	414.13
411.422	439.89
411.8	442.38
412.178	448.93
412.555	445.99
412.933	418.2
413.31	453
413.687	436.95
414.065	438.53
414.442	449.61
414.819	434.92
415.197	434.47
415.574	457.06
415.951	467.23
416.328	461.81
416.705	426.1
417.082	469.04
417.46	488.25
417.837	460
418.214	462.71
418.591	447.8
418.967	472.21
419.344	462.49
419.721	491.19
420.098	499.32
420.475	464.07
420.852	487.35
421.228	471.08
421.605	484.86
421.982	501.58
422.358	495.71
422.735	507.23
423.111	519.44
423.488	489.38
423.864	514.46
424.241	519.89
424.617	512.66
424.994	503.62
425.37	530.51
425.746	507.68
426.123	519.21
426.499	515.14
426.875	511.3
427.251	532.77
427.627	542.94
428.003	538.19
428.379	521.02
428.756	544.75
429.132	528.47
429.507	565.54
429.883	584.29
430.259	576.84
430.635	570.96
431.011	584.97
431.387	575.48
431.763	602.37
432.138	568.02
432.514	582.48
432.89	598.98
433.265	624.07
433.641	612.09
434.016	610.51
434.392	625.65
434.767	600.11
435.143	630.39
435.518	647.12
435.894	638.3
436.269	652.77
436.644	643.05
437.02	623.61
437.395	646.89
437.77	653.22
438.145	669.49
438.52	670.62
438.895	652.99
439.271	675.82
439.646	667.45
440.021	695.7
440.395	680.79
440.77	691.18
441.145	693.44
441.52	702.26
441.895	707.45
442.27	707.45
442.645	702.93
443.019	703.84
443.394	716.27
443.769	729.15
444.143	708.36
444.518	728.24
444.892	723.5
445.267	721.46
445.641	748.36
446.016	749.94
446.39	754.46
446.764	741.35
447.139	740.45
447.513	750.16
447.887	747
448.262	758.98
448.636	759.66
449.01	772.08
449.384	768.69
449.758	787.9
450.132	813.44
450.506	808.92
450.88	821.8
451.254	797.17
451.628	805.08
452.002	815.25
452.376	822.03
452.75	806.43
453.123	838.07
453.497	856.83
453.871	831.29
454.244	867
454.618	847.79
454.992	857.96
455.365	893.89
455.739	885.08
456.112	887.34
456.486	907.9
456.859	910.16
457.232	930.27
457.606	933.89
457.979	943.83
458.352	957.39
458.725	959.88
459.099	954
459.472	976.15
459.845	963.27
460.218	1013.43
460.591	1012.76
460.964	1000.55
461.337	1033.77
461.71	1078.74
462.083	1038.07
462.456	1055.69
462.829	1082.81
463.201	1070.16
463.574	1077.61
463.947	1091.62
464.32	1126.65
464.692	1157.84
465.065	1133.66
465.438	1167.78
465.81	1172.98
466.183	1181.56
466.555	1249.59
466.928	1234.44
467.3	1274.22
467.672	1287.32
468.045	1278.74
468.417	1307.21
468.789	1320.09
469.161	1365.97
469.534	1378.4
469.906	1378.85
470.278	1399.64
470.65	1450.48
471.022	1480.99
471.394	1491.84
471.766	1490.26
472.138	1532.74
472.51	1576.81
472.882	1616.81
473.253	1629.69
473.625	1667.65
473.997	1720.76
474.369	1739.52
474.74	1761.21
475.112	1834.88
475.484	1866.52
475.855	1865.39
476.227	1944.26
476.598	2010.7
476.97	2033.07
477.341	2068.1
477.713	2101.77
478.084	2173.4
478.455	2266.73
478.827	2289.33
479.198	2398.03
479.569	2429.67
479.94	2495.2
480.311	2548.31
480.682	2628.08
481.053	2718.93
481.424	2805.03
481.795	2822.88
482.166	2953.5
482.537	3051.57
482.908	3107.62
483.279	3197.33
483.65	3298.35
484.021	3430.09
484.391	3496.31
484.762	3564.55
485.133	3677.09
485.503	3731.78
485.874	3920.02
486.244	4001.38
486.615	4093.58
486.985	4229.85
487.356	4322.05
487.726	4427.13
488.097	4547.35
488.467	4659.89
488.837	4829.15
489.207	4928.13
489.578	5066.43
489.948	5194.34
490.318	5296.94
490.688	5430.94
491.058	5546.87
491.428	5742.35
491.798	5889.01
492.168	6024.83
492.538	6112.51
492.908	6281.77
493.278	6429.79
493.648	6459.84
494.017	6685.15
494.387	6801.3
494.757	6968.08
495.126	7057.12
495.496	7157
495.866	7326.26
496.235	7446.26
496.605	7679.02
496.974	7767.61
497.344	7938.9
497.713	8000.82
498.082	8162.85
498.452	8227.93
498.821	8478.1
499.19	8455.72
499.559	8695.04
499.928	8800.35
500.298	8944.98
500.667	9080.34
501.036	9097.97
501.405	9322.14
501.774	9311.07
502.143	9527.56
502.512	9623.6
502.88	9770.72
503.249	9923.26
503.618	10023.14
503.987	10120.54
504.356	10242.34
504.724	10367.09
505.093	10520.53
505.462	10534.31
505.83	10714.65
506.199	10786.28
506.567	11006.39
506.936	11000.74
507.304	11185.14
507.672	11341.3
508.041	11428.3
508.409	11498.13
508.777	11617.45
509.145	11731.8
509.514	11781.06
509.882	11958.23
510.25	12008.85
510.618	12191.67
510.986	12231.44
511.354	12390.76
511.722	12417.65
512.09	12653.13
512.458	12758.44
512.826	12756.18
513.193	12849.28
513.561	12941.03
513.929	13021.03
514.297	13205.43
514.664	13278.42
515.032	13366.78
515.4	13468.25
515.767	13497.85
516.135	13670.05
516.502	13551.86
516.869	13881.12
517.237	13997.05
517.604	13928.57
517.972	14059.64
518.339	14153.65
518.706	14257.38
519.073	14359.98
519.44	14417.6
519.808	14559.52
520.175	14555
520.542	14746.41
520.909	14824.82
521.276	14797.25
521.643	15030.47
522.009	15052.16
522.376	15200.86
522.743	15253.96
523.11	15508.19
523.477	15563.11
523.843	15727.17
524.21	15728.75
524.577	15827.73
524.943	15917.22
525.31	16062.08
525.676	16115.41
526.043	16178.91
526.409	16210.77
526.776	16482.41
527.142	16372.58
527.508	16517.88
527.874	16726.47
528.241	16724.21
528.607	16676.3
528.973	16907.93
529.339	16869.97
529.705	17051.43
530.071	17188.15
530.437	17267.7
530.803	17277.41
531.169	17367.58
531.535	17219.56
531.901	17313.34
532.267	17528.03
532.632	17470.85
532.998	17557.63
533.364	17605.54
533.73	17714.01
534.095	17775.25
534.461	17827.23
534.826	17936.6
535.192	17904.74
535.557	18065.19
535.923	17963.27
536.288	18139.09
536.653	18009.6
537.019	18033.55
537.384	18198.97
537.749	18243.49
538.114	18229.93
538.479	18283.26
538.845	18312.19
539.21	18261.12
539.575	18335.92
539.94	18350.83
540.305	18483.93
540.67	18488.45
541.034	18448.91
541.399	18533.43
541.764	18562.58
542.129	18640.09
542.494	18565.06
542.858	18565.51
543.223	18617.04
543.587	18652.74
543.952	18610.49
544.316	18678.05
544.681	18540.88
545.045	18690.26
545.41	18770.71
545.774	18833.08
546.138	18799.18
546.503	18726.87
546.867	18770.93
547.231	18950.36
547.595	18885.05
547.959	18981.77
548.324	18857.71
548.688	18968.22
549.052	18957.14
549.416	18974.09
549.779	19042.11
550.143	18964.37
550.507	19093.64
550.871	19146.29
551.235	19105.84
551.599	19287.98
551.962	19134.99
552.326	19155.1
552.689	19244.82
553.053	19173.86
553.417	19275.78
553.78	19435.55
554.143	19327.75
554.507	19451.14
554.87	19383.12
555.234	19538.14
555.597	19480.07
555.96	19577.92
556.323	19585.37
556.686	19605.26
557.05	19689.1
557.413	19690.91
557.776	19654.3
558.139	19761.19
558.502	19774.07
558.865	19857.23
559.228	19975.87
559.59	20002.54
559.953	19985.36
560.316	20160.27
560.679	20127.06
561.041	20266.03
561.404	20339.25
561.767	20288.63
562.129	20312.36
562.492	20527.27
562.854	20431.45
563.217	20383.77
563.579	20469.42
563.941	20611.79
564.304	20694.27
564.666	20743.76
565.028	20823.76
565.39	20851.1
565.753	20978.11
566.115	20974.94
566.477	21021.27
566.839	21090.42
567.201	21267.14
567.563	21170.64
567.925	21387.59
568.287	21410.86
568.648	21336.06
569.01	21518.43
569.372	21678.88
569.734	21558.88
570.095	21632.1
570.457	21712.78
570.819	21735.37
571.18	21789.61
571.542	21902.6
571.903	21912.09
572.265	21942.38
572.626	22058.08
572.987	21967.23
573.349	22044.52
573.71	22200.67
574.071	22129.26
574.432	22251.75
574.794	22303.72
575.155	22275.7
575.516	22237.73
575.877	22410.84
576.238	22362.7
576.599	22413.78
576.96	22415.36
577.32	22454.45
577.681	22565.64
578.042	22607.89
578.403	22596.37
578.763	22493.1
579.124	22669.81
579.485	22736.03
579.845	22747.78
580.206	22738.74
580.566	22780.32
580.927	22759.08
581.287	22657.84
581.648	22720.43
582.008	22873.65
582.368	22800.43
582.728	22897.83
583.089	22852.63
583.449	22828.68
583.809	22818.74
584.169	22828.45
584.529	22826.65
584.889	22881.56
585.249	22824.61
585.609	22790.71
585.969	22927.66
586.329	22778.96
586.688	22780.55
587.048	22897.83
587.408	22794.33
587.768	22843.82
588.127	22859.64
588.487	22767.66
588.846	22935.34
589.206	22821.45
589.565	22763.82
589.925	22916.59
590.284	22771.96
590.643	22885.4
591.003	22862.8
591.362	22992.97
591.721	22942.57
592.08	22901.67
592.44	22958.17
592.799	22844.95
593.158	22833.43
593.517	22860.54
593.876	22938.51
594.235	22948.9
594.593	22886.31
594.952	22897.38
595.311	22885.63
595.67	22952.97
596.029	23026.87
596.387	22993.19
596.746	23022.8
597.104	22997.94
597.463	22843.82
597.822	23023.25
598.18	23023.25
598.538	22888.79
598.897	23065.51
599.255	22868
599.613	23049.92
599.972	23036.58
600.33	23037.04
600.688	22902.8
601.046	23213.3
601.404	23160.87
601.762	23020.76
602.12	23199.97
602.478	23145.96
602.836	23269.35
603.194	23036.13
603.552	23159.29
603.91	23068.45
604.268	23307.76
604.625	23111.84
604.983	23306.86
605.341	23124.04
605.698	23336.24
606.056	23296.46
606.413	23253.75
606.771	23359.96
607.128	23385.27
607.485	23257.82
607.843	23281.55
608.2	23489
608.557	23538.49
608.914	23501.2
609.272	23562.67
609.629	23647.64
609.986	23759.5
610.343	23615.1
610.7	23812.61
611.057	23637.92
611.414	23752.72
611.771	23789.78
612.127	23825.72
612.484	23878.6
612.841	23792.95
613.198	23768.09
613.554	23863.91
613.911	23954.53
614.267	23964.02
614.624	23867.97
614.98	24048.31
615.337	24039.95
615.693	23957.46
616.05	24093.05
616.406	24257.79
616.762	24092.83
617.118	24176.89
617.475	24125.14
617.831	24277
618.187	24207.17
618.543	24305.25
618.899	24298.92
619.255	24305.93
619.611	24291.47
619.967	24502.99
620.323	24484
620.678	24387.51
621.034	24301.86
621.39	24396.77
621.746	24250.34
622.101	24638.58
622.457	24377.57
622.812	24326.72
623.168	24585.47
623.523	24542.98
623.879	24539.82
624.234	24401.07
624.589	24438.35
624.945	24572.14
625.3	24630.89
625.655	24530.56
626.01	24530.78
626.365	24580.27
626.72	24582.98
627.075	24540.5
627.43	24487.17
627.785	24469.09
628.14	24445.81
628.495	24584.79
628.85	24552.93
629.205	24513.15
629.559	24650.33
629.914	24612.14
630.269	24549.54
630.623	24428.19
630.978	24446.04
631.332	24477.45
631.687	24509.77
632.041	24576.88
632.396	24503.44
632.75	24361.07
633.104	24435.64
633.459	24304.35
633.813	24324.46
634.167	24308.87
634.521	24375.76
634.875	24227.74
635.229	24332.37
635.583	24162.43
635.937	24227.29
636.291	24192.26
636.645	24283.78
636.999	24194.07
637.352	24156.1
637.706	24103.22
638.06	24128.76
638.413	24125.14
638.767	24087.18
639.121	24133.73
639.474	24004.47
639.828	23951.14
640.181	23963.79
640.534	24053.05
640.888	24012.15
641.241	23840.86
641.594	23988.87
641.947	24074.07
642.301	23835.66
642.654	23918.37
643.007	23976.22
643.36	23790.91
643.713	23842.89
644.066	23866.39
644.419	23774.42
644.771	23597.7
645.124	23435.67
645.477	23379.4
645.83	23263.24
646.182	23146.64
646.535	23105.51
646.888	23143.25
647.24	23012.63
647.593	23227.31
647.945	23075.45
648.298	23006.98
648.65	23011.27
649.002	22783.48
649.355	23021.67
649.707	22886.08
650.059	22974.44
650.411	23243.58
650.763	23344.6
651.115	23540.07
651.467	23336.24
651.819	23390.02
652.171	23446.29
652.523	23409.23
652.875	23448.78
653.227	23257.14
653.578	23462.79
653.93	23454.43
654.282	23300.08
654.633	23270.02
654.985	23425.5
655.337	23522.22
655.688	23453.3
656.039	23466.18
656.391	23233.19
656.742	23366.52
657.094	23284.94
657.445	23360.64
657.796	23344.15
658.147	23292.85
658.498	23398.83
658.849	23392.51
659.2	23331.27
659.551	23229.35
659.902	23209.91
660.253	23259.18
660.604	23292.4
660.955	23230.25
661.306	23239.74
661.656	23395.67
662.007	23237.26
662.358	23248.33
662.708	23249.46
663.059	23306.18
663.409	23214.43
663.76	23300.08
664.11	23306.18
664.461	23279.74
664.811	23259.85
665.161	23295.56
665.511	23343.69
665.862	23235.67
666.212	23199.52
666.562	23375.56
666.912	23211.04
667.262	23189.8
667.612	23292.85
667.962	23290.36
668.312	23203.58
668.662	23410.81
669.011	23136.92
669.361	23179.63
669.711	23279.52
670.06	23252.17
670.41	23145.28
670.76	23213.53
671.109	23355.22
671.459	23240.87
671.808	23222.34
672.157	23185.05
672.507	22932.18
672.856	23088.79
673.205	23039.97
673.554	23232.06
673.904	22980.77
674.253	23094.66
674.602	23168.33
674.951	22751.17
675.3	22614.9
675.649	22972.18
675.998	22856.48
676.346	22984.61
676.695	23065.74
677.044	22825.97
677.393	23057.15
677.741	22950.71
678.09	22830.94
678.438	22896.02
678.787	22871.16
679.135	22842.01
679.484	22693.32
679.832	22766.08
680.181	22720.21
680.529	22772.41
680.877	22652.41
681.225	22735.35
681.573	22696.71
681.922	22593.66
682.27	22476.6
682.618	22526.77
682.966	22481.8
683.314	22510.04
683.661	22532.19
684.009	22452.64
684.357	22315.7
684.705	22239.99
685.053	22249.94
685.4	22140.56
685.748	22149.38
686.095	22183.5
686.443	22012.88
686.79	21961.58
687.138	22001.81
687.485	22018.08
687.832	21868.93
688.18	22013.79
688.527	21680.01
688.874	21707.13
689.221	21747.35
689.568	21639.11
689.915	21569.28
690.262	21608.82
690.609	21508.71
690.956	21510.75
691.303	21400.47
691.65	21333.35
691.997	21329.51
692.344	21114.15
692.69	21182.4
693.037	21132.68
693.383	20927.49
693.73	21019.91
694.077	20915.28
694.423	20941.05
694.769	20866.7
695.116	20850.2
695.462	20765.91
695.808	20653.6
696.155	20713.03
696.501	20553.48
696.847	20530.21
697.193	20399.14
697.539	20413.83
697.885	20252.25
698.231	20179.94
698.577	20228.3
698.923	20221.74
699.269	20012.48
699.614	19922.09
699.96	19853.16
700.306	19856.1
700.651	19697.24
700.997	19721.42
701.342	19672.38
701.688	19587.63
702.033	19567.3
702.379	19528.88
702.724	19509.9
703.069	19519.16
703.415	19207.31
703.76	19247.53
704.105	19292.5
704.45	19255.44
704.795	19047.31
705.14	19038.95
705.485	19013.64
705.83	18986.97
706.175	18929.8
706.52	18966.41
706.865	18816.36
707.209	18847.54
707.554	18787.88
707.899	18741.1
708.243	18691.16
708.588	18644.61
708.932	18468.34
709.277	18537.94
709.621	18375.46
709.966	18396.03
710.31	18367.78
710.654	18180.89
710.998	18203.04
711.342	18260.89
711.687	18186.77
712.031	18053.44
712.375	18061.8
712.719	18154.45
713.063	17950.16
713.407	18069.26
713.75	17980.22
714.094	17948.58
714.438	17934.57
714.782	17903.16
715.125	17750.85
715.469	17861.8
715.812	17714.69
716.156	17629.72
716.499	17685.09
716.843	17679.89
717.186	17534.13
717.53	17632.88
717.873	17528.25
718.216	17506.56
718.559	17483.28
718.902	17330.74
719.246	17373.91
719.589	17365.32
719.932	17280.12
720.275	17237.64
720.617	17381.82
720.96	17250.3
721.303	17269.28
721.646	17167.13
721.989	17116.74
722.331	17171.2
722.674	17130.52
723.016	17233.35
723.359	17005.56
723.701	17121.71
724.044	16967.14
724.386	16873.58
724.729	17026.57
725.071	16958.33
725.413	16928.95
725.755	16901.15
726.097	16852.79
726.439	16778.22
726.782	16761.72
727.124	16871.77
727.465	16743.87
727.807	16820.02
728.149	16766.69
728.491	16691.44
728.833	16684.21
729.175	16703.19
729.516	16739.57
729.858	16649.86
730.199	16655.28
730.541	16621.38
730.882	16583.65
731.224	16628.39
731.565	16699.12
731.906	16546.36
732.248	16499.58
732.589	16426.36
732.93	16519.47
733.271	16481.95
733.612	16514.5
733.953	16567.38
734.294	16503.2
734.635	16474.04
734.976	16587.49
735.317	16340.26
735.658	16407.83
735.999	16470.88
736.339	16339.13
736.68	16411
737.021	16345.01
737.361	16421.16
737.702	16558.11
738.042	16451.22
738.383	16336.42
738.723	16423.2
739.063	16310.43
739.404	16387.49
739.744	16223.66
740.084	16349.98
740.424	16309.3
740.764	16320.83
741.104	16357.44
741.444	16243.09
741.784	16239.02
742.124	16368.96
742.464	16231.56
742.804	16268.63
743.143	16335.06
743.483	16342.52
743.823	16316.99
744.162	16240.83
744.502	16343.2
744.841	16270.89
745.181	16367.61
745.52	16358.34
745.86	16490.99
746.199	16425.91
746.538	16412.8
746.877	16436.08
747.216	16405.57
747.556	16378.45
747.895	16548.62
748.234	16550.88
748.573	16500.03
748.911	16521.73
749.25	16648.95
749.589	16647.82
749.928	16676.75
750.267	16702.96
750.605	16760.59
750.944	16790.19
751.283	16836.07
751.621	16818.22
751.96	16829.52
752.298	16860.47
752.636	17003.52
752.975	16959.23
753.313	17042.62
753.651	17215.72
753.989	17121.94
754.327	17132.33
754.666	17223.86
755.004	17349.5
755.342	17336.85
755.679	17417.52
756.017	17576.84
756.355	17530.51
756.693	17535.71
757.031	17724.63
