Data from hue_320_FLMS001491_30.txt Node
Date: Mon Feb 06 15:46:59 GMT 2017
User: dcchb
Spectrometer: FLMS00149
Trigger mode: 0
Integration Time (sec): 2.000000E-2
Scans to average: 10
Electric dark correction enabled: true
Nonlinearity correction enabled: false
Boxcar width: 0
XAxis mode: Wavelengths
Number of Pixels in Spectrum: 2048
>>>>>Begin Spectral Data<<<<<
341.393	-18.39
341.776	-18.39
342.16	-18.39
342.543	-76.01
342.927	-77.14
343.31	-71.72
343.693	-61.55
344.077	-57.26
344.46	-73.76
344.843	-47.54
345.226	-43.02
345.61	-51.83
345.993	-15.9
346.376	-17.49
346.759	23.64
347.142	26.81
347.525	50.99
347.908	66.35
348.291	66.58
348.674	105
349.057	100.7
349.44	108.61
349.823	142.74
350.206	153.58
350.588	195.62
350.971	203.07
351.354	198.33
351.737	233.36
352.119	260.7
352.502	269.74
352.884	276.29
353.267	288.72
353.65	294.82
354.032	279
354.414	301.38
354.797	313.35
355.179	320.36
355.562	320.58
355.944	334.14
356.326	299.34
356.709	326.69
357.091	333.24
357.473	354.71
357.855	330.75
358.238	336.4
358.62	329.4
359.002	321.04
359.384	345.44
359.766	319.45
360.148	345.44
360.53	330.53
360.912	330.3
361.294	330.3
361.676	337.99
362.057	325.1
362.439	316.29
362.821	317.2
363.203	310.42
363.584	320.13
363.966	318.78
364.348	315.39
364.729	309.29
365.111	318.78
365.493	316.29
365.874	307.03
366.256	313.58
366.637	304.09
367.019	290.08
367.4	297.08
367.781	299.57
368.163	339.79
368.544	295.05
368.925	306.35
369.306	319
369.688	309.29
370.069	318.32
370.45	311.09
370.831	321.71
371.212	307.25
371.593	294.82
371.974	298.44
372.355	302.51
372.736	320.81
373.117	306.35
373.498	306.35
373.879	303.18
374.26	324.88
374.641	314.71
375.021	304.54
375.402	328.27
375.783	316.52
376.163	307.25
376.544	309.51
376.925	309.29
377.305	321.26
377.686	330.75
378.066	316.07
378.447	318.32
378.827	323.3
379.208	344.99
379.588	328.72
379.968	333.92
380.349	335.05
380.729	333.24
381.109	338.21
381.489	338.21
381.87	328.72
382.25	332.11
382.63	312.22
383.01	352.22
383.39	330.3
383.77	341.38
384.15	334.37
384.53	328.04
384.91	344.09
385.29	335.73
385.67	324.88
386.049	351.09
386.429	344.76
386.809	344.99
387.189	357.19
387.568	348.83
387.948	347.93
388.328	321.04
388.707	321.26
389.087	341.6
389.466	339.12
389.846	358.78
390.225	336.18
390.605	350.87
390.984	368.95
391.363	332.56
391.743	337.53
392.122	341.38
392.501	361.26
392.881	370.08
393.26	369.62
393.639	373.24
394.018	373.24
394.397	362.17
394.776	374.59
395.155	377.98
395.534	359.91
395.913	375.05
396.292	370.3
396.671	363.3
397.05	356.06
397.429	363.75
397.808	376.85
398.186	385.89
398.565	397.19
398.944	384.54
399.323	388.38
399.701	392.67
400.08	381.6
400.458	389.96
400.837	392.45
401.215	399.9
401.594	387.48
401.972	379.34
402.351	398.1
402.729	386.57
403.107	398.55
403.486	406.01
403.864	400.36
404.242	423.86
404.62	408.94
404.999	415.05
405.377	394.48
405.755	419.57
406.133	424.31
406.511	435.16
406.889	418.44
407.267	429.73
407.645	439.45
408.023	451.88
408.401	439.9
408.779	435.84
409.156	454.37
409.534	437.64
409.912	465.67
410.29	463.63
410.667	466.34
411.045	492.11
411.422	473.8
411.8	472.45
412.178	510.41
412.555	504.31
412.933	504.08
413.31	519.9
413.687	536.85
414.065	518.09
414.442	507.25
414.819	550.41
415.197	513.12
415.574	498.43
415.951	537.08
416.328	554.48
416.705	569.62
417.082	563.06
417.46	540.69
417.837	580.69
418.214	588.37
418.591	569.17
418.967	584.08
419.344	600.8
419.721	607.58
420.098	606.68
420.475	620.24
420.852	594.48
421.228	608.71
421.605	612.33
421.982	653.01
422.358	653.91
422.735	640.8
423.111	637.64
423.488	664.76
423.864	696.62
424.241	666.34
424.617	658.2
424.994	686.68
425.37	661.82
425.746	689.84
426.123	693.46
426.499	686.9
426.875	711.76
427.251	740.01
427.627	739.1
428.003	736.17
428.379	733
428.756	723.96
429.132	769.61
429.507	779.78
429.883	768.48
430.259	798.76
430.635	784.53
431.011	781.82
431.387	821.59
431.763	836.5
432.138	818.2
432.514	835.83
432.89	841.25
433.265	844.19
433.641	855.94
434.016	876.28
434.392	885.32
434.767	902.26
435.143	872.43
435.518	889.38
435.894	924.41
436.269	899.78
436.644	935.71
437.02	916.73
437.395	937.29
437.77	961.02
438.145	963.73
438.52	981.36
438.895	962.38
439.271	951.53
439.646	1000.34
440.021	992.88
440.395	1006.22
440.77	994.47
441.145	1006.22
441.52	1036.05
441.895	1014.35
442.27	1027.01
442.645	1029.49
443.019	1028.81
443.394	1017.97
443.769	1044.86
444.143	1028.14
444.518	1052.77
444.892	1067.68
445.267	1064.75
445.641	1079.66
446.016	1066.1
446.39	1088.25
446.764	1085.76
447.139	1084.63
447.513	1088.7
447.887	1092.77
448.262	1074.46
448.636	1089.6
449.01	1105.42
449.384	1121.02
449.758	1096.38
450.132	1106.33
450.506	1129.38
450.88	1115.59
451.254	1130.28
451.628	1133.9
452.002	1130.28
452.376	1122.82
452.75	1154.24
453.123	1177.96
453.497	1176.83
453.871	1165.31
454.244	1215.93
454.618	1191.75
454.992	1211.41
455.365	1204.86
455.739	1231.97
456.112	1197.85
456.486	1259.77
456.859	1264.51
457.232	1257.28
457.606	1254.12
457.979	1269.94
458.352	1291.63
458.725	1301.8
459.099	1275.59
459.472	1310.16
459.845	1322.82
460.218	1322.14
460.591	1331.63
460.964	1331.41
461.337	1388.58
461.71	1361.01
462.083	1370.95
462.456	1395.13
462.829	1392.87
463.201	1398.3
463.574	1417.51
463.947	1414.57
464.32	1462.48
464.692	1450.95
465.065	1436.71
465.438	1462.7
465.81	1488.92
466.183	1506.32
466.555	1521.68
466.928	1516.94
467.3	1528.24
467.672	1530.72
468.045	1549.03
468.417	1566.43
468.789	1544.06
469.161	1566.88
469.534	1615.69
469.906	1623.83
470.278	1628.57
470.65	1630.83
471.022	1667.89
471.394	1704.5
471.766	1685.07
472.138	1690.72
472.51	1739.53
472.882	1749.47
473.253	1775.24
473.625	1770.94
473.997	1830.38
474.369	1795.57
474.74	1833.77
475.112	1859.75
475.484	1867.21
475.855	1913.99
476.227	1928.45
476.598	1924.16
476.97	1954.44
477.341	2019.52
477.713	2031.95
478.084	2010.03
478.455	2058.39
478.827	2054.32
479.198	2098.17
479.569	2100.65
479.94	2143.14
480.311	2166.86
480.682	2178.62
481.053	2253.19
481.424	2254.77
481.795	2271.72
482.166	2301.78
482.537	2306.3
482.908	2347.88
483.279	2359.63
483.65	2378.84
484.021	2396.46
484.391	2439.63
484.762	2489.79
485.133	2475.1
485.503	2524.37
485.874	2574.08
486.244	2549
486.615	2596.91
486.985	2601.65
487.356	2651.14
487.726	2681.65
488.097	2705.61
488.467	2718.94
488.837	2768.88
489.207	2769.79
489.578	2802.78
489.948	2813.4
490.318	2865.15
490.688	2843.23
491.058	2898.14
491.428	2906.05
491.798	2944.7
492.168	3012.04
492.538	2963
492.908	3017.46
493.278	3041.19
493.648	3029.67
494.017	3055.43
494.387	3110.12
494.757	3107.86
495.126	3202.54
495.496	3167.74
495.866	3181.07
496.235	3180.85
496.605	3213.84
496.974	3231.02
497.344	3233.28
497.713	3297.23
498.082	3282.31
498.452	3312.37
498.821	3272.82
499.19	3323.44
499.559	3331.58
499.928	3361.41
500.298	3384.69
500.667	3418.13
501.036	3406.83
501.405	3430.11
501.774	3417.9
502.143	3421.75
502.512	3424.68
502.88	3487.28
503.249	3436.44
503.618	3514.17
503.987	3518.92
504.356	3502.65
504.724	3529.31
505.093	3555.3
505.462	3542.42
505.83	3552.59
506.199	3594.62
506.567	3586.26
506.936	3555.08
507.304	3661.29
507.672	3625.81
508.041	3659.03
508.409	3684.56
508.777	3672.36
509.145	3707.16
509.514	3680.95
509.882	3742.87
510.25	3770.66
510.618	3761.17
510.986	3741.51
511.354	3805.24
511.722	3787.39
512.09	3809.53
512.458	3798.91
512.826	3782.64
513.193	3811.57
513.561	3826.26
513.929	3824.67
514.297	3888.17
514.664	3871.45
515.032	3863.54
515.4	3899.7
515.767	3869.87
516.135	3912.58
516.502	3850.44
516.869	3957.33
517.237	3949.42
517.604	3932.92
517.972	3954.61
518.339	3948.06
518.706	3994.16
519.073	3964.1
519.44	3957.1
519.808	4018.79
520.175	3984.22
520.542	4039.58
520.909	4048.85
521.276	4026.25
521.643	4108.51
522.009	4081.16
522.376	4106.25
522.743	4101.95
523.11	4186.02
523.477	4164.55
523.843	4184.44
524.21	4185.79
524.577	4222.63
524.943	4221.05
525.31	4234.15
525.676	4251.78
526.043	4320.71
526.409	4304.43
526.776	4364.77
527.142	4305.34
527.508	4334.26
527.874	4406.35
528.241	4430.31
528.607	4413.58
528.973	4437.54
529.339	4477.09
529.705	4481.38
530.071	4504.88
530.437	4526.8
530.803	4566.35
531.169	4557.99
531.535	4545.78
531.901	4589.4
532.267	4598.44
532.632	4673.46
532.998	4665.1
533.364	4665.56
533.73	4693.35
534.095	4706.01
534.461	4710.53
534.826	4755.95
535.192	4778.55
535.557	4827.81
535.923	4793.01
536.288	4867.36
536.653	4853.8
537.019	4867.13
537.384	4859.67
537.749	4856.74
538.114	4956.62
538.479	4915.49
538.845	4970.63
539.21	4930.63
539.575	4989.16
539.94	4992.33
540.305	5034.59
540.67	5054.92
541.034	5066.67
541.399	5077.97
541.764	5103.06
542.129	5112.78
542.494	5115.94
542.858	5155.71
543.223	5210.4
543.587	5173.34
543.952	5197.52
544.316	5220.34
544.681	5251.08
545.045	5310.51
545.41	5361.13
545.774	5314.35
546.138	5339.44
546.503	5408.81
546.867	5314.13
547.231	5385.31
547.595	5425.76
547.959	5477.74
548.324	5424.41
548.688	5466.66
549.052	5428.25
549.416	5538.75
549.779	5503.73
550.143	5519.32
550.507	5572.2
550.871	5583.72
551.235	5636.83
551.599	5582.59
551.962	5558.87
552.326	5608.36
552.689	5609.71
553.053	5627.34
553.417	5678.64
553.78	5714.12
554.143	5711.86
554.507	5759.54
554.87	5734.68
555.234	5801.12
555.597	5766.32
555.96	5813.55
556.323	5843.6
556.686	5805.64
557.05	5836.37
557.413	5910.72
557.776	5900.33
558.139	5920.89
558.502	5924.73
558.865	6005.18
559.228	6008.8
559.59	5994.33
559.953	6044.95
560.316	6081.56
560.679	5985.29
561.041	6067.33
561.404	6155.46
561.767	6078.4
562.129	6113.2
562.492	6180.54
562.854	6166.31
563.217	6191.62
563.579	6221.22
563.941	6264.38
564.304	6227.55
564.666	6277.72
565.028	6277.04
565.39	6296.92
565.753	6317.26
566.115	6370.37
566.477	6396.13
566.839	6434.55
567.201	6376.92
567.563	6350.03
567.925	6492.4
568.287	6439.52
568.648	6505.96
569.01	6523.81
569.372	6607.88
569.734	6509.57
570.095	6620.98
570.457	6628.67
570.819	6730.36
571.18	6684.71
571.542	6705.28
571.903	6728.33
572.265	6770.13
572.626	6860.75
572.987	6870.7
573.349	6940.52
573.71	6885.84
574.071	7008.32
574.432	7032.27
574.794	7079.73
575.155	7124.02
575.516	7133.29
575.877	7195.66
576.238	7268.65
576.599	7320.85
576.96	7424.58
577.32	7497.35
577.681	7540.96
578.042	7658.47
578.403	7683.33
578.763	7794.29
579.124	7832.03
579.485	7949.31
579.845	8037.9
580.206	8157.44
580.566	8263.2
580.927	8337.78
581.287	8473.36
581.648	8541.39
582.008	8688.27
582.368	8801.04
582.728	8950.19
583.089	9106.12
583.449	9197.19
583.809	9374.81
584.169	9601.02
584.529	9631.75
584.889	9935.7
585.249	9991.06
585.609	10214.34
585.969	10422.47
586.329	10613.65
586.688	10917.82
587.048	11044.6
587.408	11196.23
587.768	11387.19
588.127	11718.03
588.487	11827.63
588.846	12149.43
589.206	12349.87
589.565	12595.52
589.925	12925.45
590.284	13114.6
590.643	13355.27
591.003	13647.24
591.362	13987.57
591.721	14110.05
592.08	14556.37
592.44	14720.66
592.799	14946.41
593.158	15254.66
593.517	15574.2
593.876	15829.1
594.235	16095.09
594.593	16429.99
594.952	16806.48
595.311	16950.88
595.67	17297.77
596.029	17632.45
596.387	17937.97
596.746	18225.2
597.104	18442.82
597.463	18748.35
597.822	19074.67
598.18	19358.95
598.538	19685.73
598.897	19983.12
599.255	20159.16
599.613	20738.8
599.972	20809.09
600.33	21229.19
600.688	21416.08
601.046	21583.53
601.404	22130.18
601.762	22312.1
602.12	22689.26
602.478	22971.74
602.836	23186.42
603.194	23275.91
603.552	23606.98
603.91	23783.02
604.268	24285.38
604.625	24340.97
604.983	24663.67
605.341	24851.69
605.698	25244.22
606.056	25524.67
606.413	25730.31
606.771	26076.07
607.128	26245.78
607.485	26433.57
607.843	26557.18
608.2	26950.85
608.557	27226.09
608.914	27407.33
609.272	27672.63
609.629	27992.17
609.986	28252.51
610.343	28409.11
610.7	28721.19
611.057	28736.79
611.414	29060.17
611.771	29276.89
612.127	29477.33
612.484	29621.74
612.841	29837.55
613.198	30034.83
613.554	30131.78
613.911	30463.3
614.267	30445.67
614.624	30731.54
614.98	30921.81
615.337	31268.7
615.693	31318.19
616.05	31454.46
616.406	31828.46
616.762	31740.1
617.118	31840.43
617.475	31963.37
617.831	32226.41
618.187	32249.24
618.543	32496.24
618.899	32715.21
619.255	32823.23
619.611	32999.05
619.967	33301.41
620.323	33357
620.678	33268.87
621.034	33450.11
621.39	33514.29
621.746	33639.93
622.101	33878.8
622.457	33702.53
622.812	34019.59
623.168	34265.23
623.523	34176.19
623.879	34390.65
624.234	34244.21
624.589	34391.55
624.945	34538.67
625.3	34719.23
625.655	34756.06
626.01	34857.53
626.365	35043.97
626.72	34943.86
627.075	35065.66
627.43	35022.5
627.785	35181.82
628.14	35333.22
628.495	35354.01
628.85	35317.86
629.205	35250.51
629.559	35607.57
629.914	35544.97
630.269	35591.97
630.623	35507.68
630.978	35458.42
631.332	35771.18
631.687	35836.26
632.041	35610.5
632.396	35783.16
632.75	35802.59
633.104	35778.41
633.459	35662.48
633.813	35724.85
634.167	35807.11
634.521	35723.95
634.875	35976.14
635.229	35844.62
635.583	35735.25
635.937	35769.82
636.291	35742.48
636.645	36012.53
636.999	35790.16
637.352	35930.72
637.706	35713.1
638.06	35912.42
638.413	35884.62
638.767	35746.09
639.121	35914.68
639.474	35768.92
639.828	35744.29
640.181	35908.8
640.534	35893.89
640.888	35770.05
641.241	35591.3
641.594	35774.79
641.947	35914.68
642.301	35674.91
642.654	35771.18
643.007	35859.31
643.36	35724.63
643.713	35769.14
644.066	35883.72
644.419	35695.47
644.771	35442.15
645.124	35140.91
645.477	35093.91
645.83	34787.93
646.182	34830.19
646.535	34712.22
646.888	34832.45
647.24	34626.8
647.593	34903.86
647.945	34780.92
648.298	34601.72
648.65	34504.32
649.002	34382.97
649.355	34643.75
649.707	34568.5
650.059	34742.5
650.411	35162.38
650.763	35229.05
651.115	35527.12
651.467	35472.65
651.819	35424.97
652.171	35410.28
652.523	35370.96
652.875	35379.1
653.227	35241.47
653.578	35378.65
653.93	35328.93
654.282	35262.49
654.633	35173.91
654.985	35092.78
655.337	35158.76
655.688	35323.28
656.039	35333
656.391	35105.88
656.742	35119.22
657.094	35159.67
657.445	35294.35
657.796	35250.29
658.147	35080.8
658.498	35014.81
658.849	35243.73
659.2	35111.53
659.551	35048.26
659.902	35271.98
660.253	35296.61
660.604	35150.4
660.955	35016.17
661.306	35282.6
661.656	34985.66
662.007	35147.24
662.358	35015.04
662.708	35087.13
663.059	35093
663.409	34841.26
663.76	35099.33
664.11	35076.06
664.461	35097.98
664.811	34981.82
665.161	35068.82
665.511	34964.42
665.862	35052.33
666.212	35019.33
666.562	35240.8
666.912	34927.36
667.262	34908.38
667.612	34966.91
667.962	35044.19
668.312	34864.54
668.662	35109.5
669.011	34988.37
669.361	34902.27
669.711	34966.68
670.06	34909.73
670.41	34814.59
670.76	34837.42
671.109	35014.36
671.459	34876.29
671.808	34872.44
672.157	34986.11
672.507	34713.58
672.856	34825.67
673.205	34914.48
673.554	34853.69
673.904	34754.48
674.253	34822.73
674.602	34922.16
674.951	34422.74
675.3	34160.37
675.649	34783.86
675.998	34655.28
676.346	34647.37
676.695	34618.89
677.044	34541.15
677.393	34593.81
677.741	34691.88
678.09	34551.32
678.438	34563.98
678.787	34542.06
679.135	34662.73
679.484	34266.81
679.832	34507.71
680.181	34346.13
680.529	34371.67
680.877	34283.08
681.225	34370.99
681.573	34484.66
681.922	34215.96
682.27	34137.55
682.618	34065.91
682.966	34026.82
683.314	34047.38
683.661	33949.53
684.009	33959.47
684.357	33735.98
684.705	33756.99
685.053	33739.82
685.4	33747.5
685.748	33589.31
686.095	33574.63
686.443	33447.85
686.79	33515.19
687.138	33567.17
687.485	33524.91
687.832	33432.93
688.18	33392.94
688.527	33260.96
688.874	33234.3
689.221	33110.46
689.568	33066.84
689.915	32920.86
690.262	33007.63
690.609	32956.11
690.956	32760.41
691.303	32866.17
691.65	32486.74
691.997	32582.11
692.344	32406.75
692.69	32364.26
693.037	32432.73
693.383	32149.58
693.73	32343.25
694.077	32016.7
694.423	32155
694.769	32064.38
695.116	31900.77
695.462	31882.92
695.808	31674.34
696.155	31900.55
696.501	31612.87
696.847	31682.7
697.193	31322.71
697.539	31449.71
697.885	31225.53
698.231	31156.61
698.577	31138.08
698.923	31085.65
699.269	30972.89
699.614	30813.34
699.96	30923.62
700.306	30839.78
700.651	30619.9
700.997	30615.61
701.342	30563.86
701.688	30487.48
702.033	30342.62
702.379	30321.38
702.724	30302.62
703.069	30257.65
703.415	29990.54
703.76	30208.16
704.105	30095.62
704.45	29939.69
704.795	29897.21
705.14	29897.43
705.485	29760.71
705.83	29608.4
706.175	29678
706.52	29535.64
706.865	29428.07
707.209	29403.21
707.554	29251.8
707.899	29360.27
708.243	29286.83
708.588	29334.51
708.932	28994.18
709.277	29007.97
709.621	29028.76
709.966	28747.41
710.31	29007.97
710.654	28564.14
710.998	28628.77
711.342	28683.45
711.687	28623.57
712.031	28414.31
712.375	28370.69
712.719	28470.35
713.063	28312.84
713.407	28417.25
713.75	28300.41
714.094	28263.13
714.438	27991.5
714.782	28212.05
715.125	27830.14
715.469	27982
715.812	27885.06
716.156	27735.23
716.499	27714.89
716.843	27778.62
717.186	27579.53
717.53	27735.23
717.873	27684.16
718.216	27656.59
718.559	27464.73
718.902	27440.55
719.246	27353.55
719.589	27324.17
719.932	27257.05
720.275	27284.62
720.617	27197.17
720.96	27163.49
721.303	27102.03
721.646	27077.17
721.989	26872.43
722.331	27040.33
722.674	26896.38
723.016	27038.75
723.359	26854.12
723.701	26886.44
724.044	26741.81
724.386	26558.09
724.729	26813.9
725.071	26621.59
725.413	26756.27
725.755	26608.26
726.097	26486.68
726.439	26364.42
726.782	26342.95
727.124	26502.27
727.465	26308.38
727.807	26321.71
728.149	26400.13
728.491	26171.88
728.833	26203.52
729.175	26127.36
729.516	26137.08
729.858	26065.44
730.199	26080.59
730.541	26052.56
730.882	25940.02
731.224	26073.35
731.565	25794.49
731.906	25910.19
732.248	25803.3
732.589	25790.42
732.93	25613.48
733.271	25743.42
733.612	25646.47
733.953	25703.19
734.294	25540.94
734.635	25448.96
734.976	25605.12
735.317	25356.54
735.658	25446.48
735.999	25411.68
736.339	25270.44
736.68	25515.4
737.021	25221.4
737.361	25265.01
737.702	25366.25
738.042	25258.46
738.383	25161.51
738.723	25159.48
739.063	25202.42
739.404	25104.79
739.744	25053.49
740.084	24959.26
740.424	25048.52
740.764	24879.49
741.104	25052.14
741.444	24919.71
741.784	24880.62
742.124	24806.95
742.464	24808.75
742.804	24677.68
743.143	24607.86
743.483	24655.09
743.823	24488.99
744.162	24623.67
744.502	24585.03
744.841	24497.8
745.181	24494.64
745.52	24447.18
745.86	24441.31
746.199	24460.06
746.538	24233.4
746.877	24370.12
747.216	24359.27
747.556	24181.43
747.895	24172.16
748.234	24177.81
748.573	24028.44
748.911	24051.26
749.25	24083.12
749.589	23987.76
749.928	23950.7
750.267	23992.05
750.605	23973.75
750.944	23867.76
751.283	23860.76
751.621	23866.86
751.96	23716.35
752.298	23675
752.636	23624.38
752.975	23623.25
753.313	23456.47
753.651	23548
753.989	23433.42
754.327	23482.46
754.666	23322.69
755.004	23258.51
755.342	23341.67
755.679	23312.07
756.017	23176.93
756.355	23148.01
756.693	23041.34
757.031	23105.3
757.368	22963.61
757.706	22931.06
758.044	22823.27
758.381	22903.95
758.719	22693.78
759.056	22679.32
759.394	22570.17
759.731	22639.77
760.068	22583.05
