Data from hue_80_FLMS001491_20.txt Node
Date: Mon Feb 06 15:22:34 GMT 2017
User: dcchb
Spectrometer: FLMS00149
Trigger mode: 0
Integration Time (sec): 2.000000E-2
Scans to average: 10
Electric dark correction enabled: true
Nonlinearity correction enabled: false
Boxcar width: 0
XAxis mode: Wavelengths
Number of Pixels in Spectrum: 2048
>>>>>Begin Spectral Data<<<<<
341.393	-10.72
341.776	-10.72
342.16	-10.72
342.543	-59.76
342.927	-64.5
343.31	-69.48
343.693	-74.22
344.077	-52.3
344.46	-67.22
344.843	-42.36
345.226	-52.98
345.61	-46.65
345.993	2.61
346.376	3.06
346.759	7.36
347.142	37.41
347.525	25.66
347.908	69.73
348.291	66.34
348.674	90.75
349.057	102.27
349.44	118.54
349.823	155.15
350.206	167.13
350.588	199.44
350.971	212.78
351.354	209.84
351.737	217.97
352.119	238.31
352.502	257.75
352.884	261.36
353.267	286.9
353.65	291.42
354.032	306.79
354.414	303.62
354.797	307.46
355.179	303.62
355.562	309.27
355.944	316.5
356.326	340.46
356.709	321.02
357.091	338.2
357.473	356.73
357.855	345.65
358.238	340.23
358.62	332.55
359.002	342.72
359.384	338.42
359.766	334.81
360.148	335.03
360.53	342.49
360.912	332.77
361.294	328.71
361.676	328.03
362.057	342.49
362.439	322.6
362.821	308.37
363.203	320.8
363.584	307.46
363.966	317.18
364.348	312.44
364.729	319.89
365.111	302.04
365.493	293
365.874	328.71
366.256	318.99
366.637	316.73
367.019	299.1
367.4	290.97
367.781	297.52
368.163	308.82
368.544	298.42
368.925	293.9
369.306	288.71
369.688	311.08
370.069	289.84
370.45	298.2
370.831	296.39
371.212	298.65
371.593	305.2
371.974	280.57
372.355	299.1
372.736	305.88
373.117	313.11
373.498	291.87
373.879	318.76
374.26	299.55
374.641	313.57
375.021	314.92
375.402	300.91
375.783	313.34
376.163	324.41
376.544	326.22
376.925	309.95
377.305	321.93
377.686	308.59
378.066	319.21
378.447	338.2
378.827	343.17
379.208	326.22
379.588	327.12
379.968	314.47
380.349	320.57
380.729	304.75
381.109	318.08
381.489	331.42
381.87	323.28
382.25	328.93
382.63	332.77
383.01	321.47
383.39	331.19
383.77	354.02
384.15	337.52
384.53	329.61
384.91	338.65
385.29	307.69
385.67	312.21
386.049	331.87
386.429	350.63
386.809	336.84
387.189	340.23
387.568	327.58
387.948	336.62
388.328	340.68
388.707	349.72
389.087	352.43
389.466	353.56
389.846	330.51
390.225	338.2
390.605	345.43
390.984	342.72
391.363	340.01
391.743	364.41
392.122	342.27
392.501	354.69
392.881	364.19
393.26	365.77
393.639	355.82
394.018	356.95
394.397	350.4
394.776	357.18
395.155	358.31
395.534	344.3
395.913	355.82
396.292	378.65
396.671	364.86
397.05	367.58
397.429	376.61
397.808	371.87
398.186	380.46
398.565	383.17
398.944	384.3
399.323	381.13
399.701	400.12
400.08	353.56
400.458	392.89
400.837	376.84
401.215	385.88
401.594	378.42
401.972	377.74
402.351	390.17
402.729	401.47
403.107	367.58
403.486	390.63
403.864	390.4
404.242	405.99
404.62	386.56
404.999	397.63
405.377	400.57
405.755	410.29
406.133	395.37
406.511	398.08
406.889	413.45
407.267	417.52
407.645	417.52
408.023	416.16
408.401	403.73
408.779	411.42
409.156	427.91
409.534	443.73
409.912	407.8
410.29	432.66
410.667	412.09
411.045	430.85
411.422	440.57
411.8	441.7
412.178	444.18
412.555	454.8
412.933	453.45
413.31	457.97
413.687	429.04
414.065	452.77
414.442	451.19
414.819	463.17
415.197	471.53
415.574	476.95
415.951	461.58
416.328	476.95
416.705	461.81
417.082	458.19
417.46	472.88
417.837	473.11
418.214	472.88
418.591	452.32
418.967	500.45
419.344	497.29
419.721	477.63
420.098	484.41
420.475	481.7
420.852	485.31
421.228	509.49
421.605	500.23
421.982	500
422.358	497.52
422.735	518.08
423.111	532.77
423.488	511.07
423.864	528.02
424.241	525.99
424.617	524.41
424.994	515.59
425.37	537.74
425.746	527.12
426.123	552.88
426.499	558.53
426.875	534.58
427.251	548.14
427.627	552.88
428.003	552.43
428.379	568.47
428.756	568.93
429.132	559.66
429.507	564.86
429.883	560.56
430.259	588.81
430.635	562.6
431.011	610.51
431.387	617.29
431.763	605.76
432.138	623.84
432.514	599.89
432.89	615.93
433.265	639.43
433.641	628.81
434.016	621.13
434.392	625.42
434.767	640.56
435.143	655.25
435.518	638.53
435.894	667.91
436.269	676.49
436.644	671.75
437.02	656.61
437.395	661.35
437.77	689.83
438.145	688.7
438.52	688.7
438.895	696.15
439.271	693.67
439.646	721.92
440.021	721.69
440.395	696.83
440.77	716.27
441.145	724.4
441.52	715.36
441.895	710.16
442.27	728.02
442.645	756.27
443.019	740.9
443.394	737.96
443.769	745.87
444.143	731.18
444.518	753.1
444.892	723.95
445.267	773.44
445.641	772.76
446.016	787.45
446.39	776.15
446.764	786.32
447.139	784.29
447.513	769.82
447.887	780.9
448.262	791.74
448.636	808.24
449.01	779.09
449.384	791.07
449.758	807.34
450.132	816.15
450.506	834.46
450.88	818.41
451.254	819.99
451.628	861.12
452.002	835.81
452.376	853.21
452.75	856.38
453.123	864.51
453.497	903.38
453.871	890.73
454.244	883.49
454.618	917.62
454.992	917.17
455.365	932.98
455.739	937.05
456.112	939.76
456.486	937.73
456.859	959.2
457.232	974.56
457.606	970.27
457.979	975.92
458.352	989.03
458.725	1000.78
459.099	1020.44
459.472	1039.42
459.845	1029.25
460.218	1027.67
460.591	1060.66
460.964	1066.09
461.337	1102.7
461.71	1118.29
462.083	1102.47
462.456	1110.61
462.829	1149.7
463.201	1159.64
463.574	1196.25
463.947	1146.31
464.32	1193.32
464.692	1210.72
465.065	1205.52
465.438	1248.91
465.81	1277.83
466.183	1238.51
466.555	1306.31
466.928	1298.85
467.3	1296.59
467.672	1358.06
468.045	1379.07
468.417	1384.95
468.789	1414.33
469.161	1420.43
469.534	1417.49
469.906	1476.92
470.278	1501.33
470.65	1522.57
471.022	1537.94
471.394	1580.42
471.766	1588.11
472.138	1614.32
472.51	1661.78
472.882	1691.83
473.253	1745.17
473.625	1736.13
473.997	1799.63
474.369	1816.58
474.74	1839.63
475.112	1914.88
475.484	1946.06
475.855	1987.19
476.227	2038.27
476.598	2091.6
476.97	2139.96
477.341	2198.26
477.713	2247.3
478.084	2272.38
478.455	2386.05
478.827	2404.36
479.198	2493.62
479.569	2508.54
479.94	2635.99
480.311	2658.59
480.682	2744.46
481.053	2842.31
481.424	2934.06
481.795	2976.55
482.166	3045.7
482.537	3119.59
482.908	3259.25
483.279	3316.2
483.65	3392.81
484.021	3527.04
484.391	3580.15
484.762	3653.36
485.133	3776.3
485.503	3861.27
485.874	3974.94
486.244	4083.64
486.615	4205.44
486.985	4279.56
487.356	4453.57
487.726	4502.16
488.097	4638.88
488.467	4727.23
488.837	4887.23
489.207	5018.98
489.578	5109.37
489.948	5231.4
490.318	5388.01
490.688	5472.75
491.058	5624.61
491.428	5757.04
491.798	5891.72
492.168	6071.15
492.538	6157.71
492.908	6313.41
493.278	6382.11
493.648	6561.31
494.017	6731.02
494.387	6797.69
494.757	6861.19
495.126	7093.27
495.496	7141.41
495.866	7311.8
496.235	7401.06
496.605	7559.02
496.974	7671.79
497.344	7829.98
497.713	7950.43
498.082	8049.86
498.452	8209.85
498.821	8291.43
499.19	8388.61
499.559	8509.06
499.928	8628.6
500.298	8748.82
500.667	8913.57
501.036	8937.29
501.405	9144.75
501.774	9180.9
502.143	9219.77
502.512	9342.93
502.88	9521.91
503.249	9599.65
503.618	9736.14
503.987	9859.3
504.356	9916.25
504.724	10067.66
505.093	10151.5
505.462	10170.26
505.83	10315.79
506.199	10425.39
506.567	10546.97
506.936	10547.87
507.304	10773.4
507.672	10792.61
508.041	10854.08
508.409	10993.28
508.777	11089.1
509.145	11183.56
509.514	11250.45
509.882	11347.85
510.25	11380.62
510.618	11364.57
510.986	11507.4
511.354	11657
511.722	11767.5
512.09	11872.13
512.458	11829.65
512.826	11960.72
513.193	12052.47
513.561	12090.66
513.929	12155.74
514.297	12365
514.664	12396.86
515.032	12415.39
515.4	12570.19
515.767	12604.77
516.135	12616.07
516.502	12624.2
516.869	12840.02
517.237	12898.77
517.604	12817.42
517.972	12957.75
518.339	13009.05
518.706	13084.3
519.073	13159.1
519.44	13200.91
519.808	13293.11
520.175	13249.95
520.542	13415.37
520.909	13563.84
521.276	13458.3
521.643	13647.45
522.009	13758.64
522.376	13723.38
522.743	13796.15
523.11	13914.11
523.477	14025.97
523.843	14104.16
524.21	14191.84
524.577	14207.89
524.943	14353.42
525.31	14376.02
525.676	14456.92
526.043	14432.06
526.409	14575.11
526.776	14609.69
527.142	14552.74
527.508	14708.67
527.874	14755.9
528.241	14797.93
528.607	14810.36
528.973	14881.54
529.339	14788.44
529.705	14978.94
530.071	15009
530.437	15031.37
530.803	15188.88
531.169	15189.33
531.535	15106.85
531.901	15113.63
532.267	15165.15
532.632	15228.88
532.998	15248.77
533.364	15313.85
533.73	15322.66
534.095	15388.65
534.461	15447.18
534.826	15466.84
535.192	15450.57
535.557	15470.68
535.923	15510.45
536.288	15387.97
536.653	15508.87
537.019	15418.93
537.384	15436.11
537.749	15453.73
538.114	15492.15
538.479	15486.5
538.845	15500.06
539.21	15471.81
539.575	15554.97
539.94	15528.08
540.305	15568.76
540.67	15415.32
541.034	15468.65
541.399	15539.61
541.764	15520.4
542.129	15539.83
542.494	15449.66
542.858	15544.58
543.223	15450.57
543.587	15513.84
543.952	15527.63
544.316	15511.36
544.681	15416.44
545.045	15547.06
545.41	15578.25
545.774	15609.21
546.138	15422.55
546.503	15505.48
546.867	15404.24
547.231	15553.16
547.595	15503.22
547.959	15566.72
548.324	15501.41
548.688	15435.2
549.052	15440.4
549.416	15555.65
549.779	15455.31
550.143	15402.43
550.507	15521.98
550.871	15495.99
551.235	15434.98
551.599	15455.99
551.962	15477.01
552.326	15524.46
552.689	15532.6
553.053	15437.46
553.417	15495.76
553.78	15707.96
554.143	15459.38
554.507	15473.62
554.87	15467.52
555.234	15485.82
555.597	15511.58
555.96	15556.55
556.323	15570.11
556.686	15535.31
557.05	15592.71
557.413	15578.47
557.776	15536.22
558.139	15687.85
558.502	15551.58
558.865	15608.76
559.228	15678.81
559.59	15674.74
559.953	15765.14
560.316	15910.67
560.679	15674.97
561.041	15873.83
561.404	15867.05
561.767	15914.28
562.129	15836.77
562.492	15999.71
562.854	15853.27
563.217	15876.55
563.579	16018.24
563.941	15931.46
564.304	16063.21
564.666	16105.24
565.028	16101.4
565.39	16137.78
565.753	16124.9
566.115	16118.8
566.477	16170.78
566.839	16160.83
567.201	16302.52
567.563	16230.43
567.925	16432.69
568.287	16360.83
568.648	16360.6
569.01	16437.44
569.372	16498.45
569.734	16389.53
570.095	16517.21
570.457	16587.94
570.819	16588.17
571.18	16572.35
571.542	16606.24
571.903	16651.44
572.265	16716.07
572.626	16711.78
572.987	16686.69
573.349	16716.98
573.71	16760.59
574.071	16819.35
574.432	16854.37
574.794	16918.78
575.155	16892.11
575.516	16859.34
575.877	16897.99
576.238	16855.28
576.599	17002.17
576.96	16930.53
577.32	16885.33
577.681	16966.01
578.042	17049.4
578.403	16953.35
578.763	17024.09
579.124	17055.5
579.485	17054.37
579.845	17112.45
580.206	17092.56
580.566	17044.88
580.927	17059.57
581.287	17125.55
581.648	17043.29
582.008	17117.19
582.368	17063.63
582.728	17024.76
583.089	17200.13
583.449	17053.24
583.809	17105.67
584.169	16956.74
584.529	16986.8
584.889	17125.1
585.249	17120.81
585.609	17012.11
585.969	17109.73
586.329	17022.28
586.688	16987.03
587.048	17014.59
587.408	17008.72
587.768	16963.52
588.127	16996.74
588.487	16966.91
588.846	17067.25
589.206	16876.07
589.565	16955.39
589.925	17035.84
590.284	16934.37
590.643	17017.98
591.003	16936.86
591.362	16929.4
591.721	16972.79
592.08	16966.23
592.44	16948.83
592.799	16985.9
593.158	16988.16
593.517	16885.56
593.876	16956.07
594.235	16970.53
594.593	16955.84
594.952	16937.76
595.311	16892.79
595.67	16905.9
596.029	16925.56
596.387	17079.68
596.746	16957.65
597.104	17027.93
597.463	16842.85
597.822	17040.81
598.18	16953.81
598.538	16856.41
598.897	17046.46
599.255	16850.31
599.613	17006.23
599.972	16855.28
600.33	17028.38
600.688	16923.07
601.046	16941.38
601.404	16987.25
601.762	16932.11
602.12	16957.42
602.478	17087.36
602.836	17073.8
603.194	16997.19
603.552	16952.22
603.91	16947.48
604.268	17100.47
604.625	16962.62
604.983	16982.51
605.341	16911.32
605.698	16954.26
606.056	17138.21
606.413	17087.59
606.771	17092.33
607.128	17117.42
607.485	17000.13
607.843	17001.71
608.2	17024.31
608.557	17146.79
608.914	16958.1
609.272	17158.55
609.629	17226.34
609.986	17315.6
610.343	17176.4
610.7	17266.34
611.057	17148.15
611.414	17290.52
611.771	17303.4
612.127	17317.41
612.484	17296.85
612.841	17302.95
613.198	17258.66
613.554	17282.16
613.911	17390.18
614.267	17391.76
614.624	17354.02
614.98	17446.9
615.337	17456.62
615.693	17496.39
616.05	17418.43
616.406	17474.24
616.762	17438.54
617.118	17544.98
617.475	17509.72
617.831	17587.91
618.187	17579.1
618.543	17549.27
618.899	17626.56
619.255	17576.39
619.611	17506.11
619.967	17593.11
620.323	17732.99
620.678	17631.75
621.034	17560.34
621.39	17596.73
621.746	17581.59
622.101	17795.59
622.457	17603.73
622.812	17690.28
623.168	17693.45
623.523	17667.01
623.879	17759.66
624.234	17638.08
624.589	17753.78
624.945	17708.59
625.3	17736.38
625.655	17715.59
626.01	17781.13
626.365	17746.33
626.72	17712.43
627.075	17748.81
627.43	17669.94
627.785	17694.58
628.14	17740
628.495	17671.07
628.85	17708.36
629.205	17660.45
629.559	17701.36
629.914	17683.05
630.269	17699.77
630.623	17539.78
630.978	17549.95
631.332	17668.82
631.687	17619.78
632.041	17601.7
632.396	17681.92
632.75	17496.62
633.104	17627.91
633.459	17556.05
633.813	17453.45
634.167	17423.85
634.521	17482.15
634.875	17468.37
635.229	17394.02
635.583	17373.91
635.937	17364.87
636.291	17328.26
636.645	17399.67
636.999	17314.02
637.352	17375.49
637.706	17222.73
638.06	17296.85
638.413	17218.43
638.767	17165.1
639.121	17252.78
639.474	17155.38
639.828	17136.17
640.181	17140.02
640.534	17141.6
640.888	17155.38
641.241	17078.32
641.594	17045.78
641.947	17175.95
642.301	17113.58
642.654	17106.12
643.007	17114.71
643.36	17119.9
643.713	17029.74
644.066	17143.86
644.419	17078.55
644.771	16991.54
645.124	16752
645.477	16769.18
645.83	16661.84
646.182	16526.47
646.535	16506.13
646.888	16557.66
647.24	16376.87
647.593	16547.94
647.945	16521.5
648.298	16386.36
648.65	16380.04
649.002	16364.22
649.355	16465.23
649.707	16441.05
650.059	16501.84
650.411	16656.64
650.763	16596.98
651.115	16816.41
651.467	16840.81
651.819	16894.82
652.171	16896.18
652.523	16812.11
652.875	16838.1
653.227	16716.75
653.578	16840.59
653.93	16809.18
654.282	16698.9
654.633	16710.87
654.985	16760.36
655.337	16811.21
655.688	16777.09
656.039	16809.18
656.391	16697.77
656.742	16746.35
657.094	16775.96
657.445	16806.92
657.796	16647.6
658.147	16723.98
658.498	16654.15
658.849	16837.65
659.2	16751.55
659.551	16759.46
659.902	16737.99
660.253	16773.25
660.604	16869.51
660.955	16738.67
661.306	16861.15
661.656	16671.78
662.007	16794.04
662.358	16707.94
662.708	16853.02
663.059	16890.3
663.409	16722.17
663.76	16874.26
664.11	16933.47
664.461	16914.03
664.811	16925.56
665.161	16794.04
665.511	16808.5
665.862	16863.86
666.212	16889.17
666.562	16982.05
666.912	16943.86
667.262	16860.7
667.612	16895.28
667.962	16848.05
668.312	16784.09
668.662	16954.03
669.011	16785
669.361	16793.58
669.711	16761.95
670.06	16786.13
670.41	16814.15
670.76	16803.3
671.109	16795.84
671.459	16824.54
671.808	16756.07
672.157	16833.36
672.507	16717.65
672.856	16691.89
673.205	16710.87
673.554	16710.87
673.904	16601.5
674.253	16693.93
674.602	16679.46
674.951	16463.88
675.3	16343.2
675.649	16651.44
675.998	16549.52
676.346	16569.18
676.695	16653.93
677.044	16525.34
677.393	16603.98
677.741	16599.69
678.09	16514.72
678.438	16511.56
678.787	16490.77
679.135	16555.17
679.484	16366.48
679.832	16500.48
680.181	16312.24
680.529	16545.68
680.877	16410.54
681.225	16344.56
681.573	16439.47
681.922	16320.38
682.27	16265.24
682.618	16209.19
682.966	16164.22
683.314	16232.47
683.661	16178.46
684.009	16083.77
684.357	16039.25
684.705	15974.17
685.053	15959.03
685.4	16078.35
685.748	15877
686.095	15826.83
686.443	15932.36
686.79	15843.55
687.138	15832.48
687.485	15793.38
687.832	15695.31
688.18	15716.55
688.527	15641.3
688.874	15645.14
689.221	15616.44
689.568	15426.39
689.915	15546.16
690.262	15477.01
690.609	15356.33
690.956	15398.82
691.303	15366.05
691.65	15321.76
691.997	15310.68
692.344	15138.71
692.69	15134.19
693.037	15199.95
693.383	15064.59
693.73	15072.95
694.077	15023.01
694.423	14937.14
694.769	14917.02
695.116	14838.38
695.462	14845.84
695.808	14740.3
696.155	14793.18
696.501	14625.28
696.847	14631.38
697.193	14479.07
697.539	14547.54
697.885	14472.74
698.231	14394.32
698.577	14353.2
698.923	14293.31
699.269	14267.1
699.614	14251.05
699.96	14171.05
700.306	14142.13
700.651	14091.96
700.997	13953.21
701.342	13983.71
701.688	13953.88
702.033	13834.79
702.379	13944.17
702.724	13892.42
703.069	13786.88
703.415	13672.99
703.76	13685.19
704.105	13677.51
704.45	13696.49
704.795	13624.63
705.14	13475.93
705.485	13437.97
705.83	13451.75
706.175	13405.42
706.52	13380.57
706.865	13328.36
707.209	13279.78
707.554	13213.11
707.899	13298.08
708.243	13261.25
708.588	13152.78
708.932	13076.17
709.277	13062.61
709.621	13121.14
709.966	12942.39
710.31	12975.61
710.654	12831.43
710.998	12894.25
711.342	12852.44
711.687	12791.66
712.031	12764.54
712.375	12702.62
712.719	12699
713.063	12684.09
713.407	12734.93
713.75	12661.49
714.094	12594.15
714.438	12578.33
714.782	12652
715.125	12500.82
715.469	12570.19
715.812	12539.46
716.156	12474.6
716.499	12422.4
716.843	12515.73
717.186	12402.96
717.53	12399.35
717.873	12361.61
718.216	12405.68
718.559	12376.52
718.902	12245
719.246	12334.27
719.589	12216.3
719.932	12216.08
720.275	12181.95
720.617	12172.01
720.96	12238.22
721.303	12185.12
721.646	12189.19
721.989	12127.04
722.331	12139.47
722.674	12139.24
723.016	12160.26
723.359	12080.71
723.701	12104.67
724.044	12044.56
724.386	11966.14
724.729	12040.71
725.071	11969.08
725.413	12026.48
725.755	11930.66
726.097	11878.46
726.439	11877.33
726.782	11904.45
727.124	11917.78
727.465	11885.01
727.807	11847.95
728.149	11851.57
728.491	11834.84
728.833	11806.37
729.175	11847.95
729.516	11840.72
729.858	11835.75
730.199	11815.18
730.541	11792.13
730.882	11889.08
731.224	11792.13
731.565	11773.83
731.906	11820.61
732.248	11740.16
732.589	11812.7
732.93	11703.1
733.271	11760.5
733.612	11725.24
733.953	11791
734.294	11718.24
734.635	11692.02
734.976	11684.79
735.317	11664
735.658	11716.2
735.999	11718.69
736.339	11674.4
736.68	11734.06
737.021	11680.27
737.361	11705.13
737.702	11824.67
738.042	11720.27
738.383	11805.47
738.723	11761.17
739.063	11758.24
739.404	11823.77
739.744	11753.49
740.084	11761.17
740.424	11792.81
740.764	11790.55
741.104	11811.12
741.444	11762.3
741.784	11795.3
742.124	11882.98
742.464	11794.62
742.804	11885.46
743.143	11859.02
743.483	11932.47
743.823	11827.16
744.162	11863.09
744.502	11961.39
744.841	11912.13
745.181	12060.15
745.52	11999.59
745.86	12114.61
746.199	12078.23
746.538	12063.99
746.877	12209.3
747.216	12162.52
747.556	12216.53
747.895	12360.25
748.234	12228.05
748.573	12328.16
748.911	12344.89
749.25	12401.38
749.589	12452.23
749.928	12550.53
750.267	12579.46
750.605	12681.38
750.944	12677.31
751.283	12742.39
751.621	12854.48
751.96	12826.91
752.298	12991.88
752.636	13086.79
752.975	13104.19
753.313	13122.04
753.651	13302.83
753.989	13326.56
754.327	13373.56
754.666	13555.7
755.004	13628.92
755.342	13767
755.679	13831.63
756.017	13874.56
756.355	13973.09
756.693	14093.99
757.031	14173.99
