Data from hue_320_FLMS001491_13.txt Node
Date: Mon Feb 06 15:46:47 GMT 2017
User: dcchb
Spectrometer: FLMS00149
Trigger mode: 0
Integration Time (sec): 2.000000E-2
Scans to average: 10
Electric dark correction enabled: true
Nonlinearity correction enabled: false
Boxcar width: 0
XAxis mode: Wavelengths
Number of Pixels in Spectrum: 2048
>>>>>Begin Spectral Data<<<<<
341.393	-11.04
341.776	-11.04
342.16	-11.04
342.543	-57.6
342.927	-65.28
343.31	-69.8
343.693	-82
344.077	-52.17
344.46	-68.9
344.843	-46.98
345.226	-53.98
345.61	-38.39
345.993	-32.06
346.376	1.38
346.759	10.65
347.142	20.37
347.525	58.11
347.908	62.4
348.291	76.41
348.674	93.13
349.057	121.83
349.44	125
349.823	137.43
350.206	139.46
350.588	193.7
350.971	216.52
351.354	217.65
351.737	244.32
352.119	235.95
352.502	255.84
352.884	270.76
353.267	275.5
353.65	294.26
354.032	301.72
354.414	308.27
354.797	301.72
355.179	322.51
355.562	306.01
355.944	314.37
356.326	316.63
356.709	306.46
357.091	336.06
357.473	336.52
357.855	319.34
358.238	320.47
358.62	355.27
359.002	342.17
359.384	326.35
359.766	317.76
360.148	329.51
360.53	318.66
360.912	318.44
361.294	294.03
361.676	344.2
362.057	335.39
362.439	322.05
362.821	312.56
363.203	325.67
363.584	310.08
363.966	317.76
364.348	322.28
364.729	316.4
365.111	313.24
365.493	306.91
365.874	311.43
366.256	313.01
366.637	308.95
367.019	287.7
367.4	302.17
367.781	311.88
368.163	306.46
368.544	295.61
368.925	284.77
369.306	307.14
369.688	314.37
370.069	310.3
370.45	304.88
370.831	310.98
371.212	307.82
371.593	308.04
371.974	309.4
372.355	314.82
372.736	320.25
373.117	321.83
373.498	298.33
373.879	311.88
374.26	319.12
374.641	299.46
375.021	310.75
375.402	313.01
375.783	310.98
376.163	310.75
376.544	299.91
376.925	335.16
377.305	311.43
377.686	317.53
378.066	315.27
378.447	307.14
378.827	324.99
379.208	332.45
379.588	314.82
379.968	331.32
380.349	302.62
380.729	340.58
381.109	334.93
381.489	326.12
381.87	314.82
382.25	325.22
382.63	346.23
383.01	343.3
383.39	317.53
383.77	333.35
384.15	342.39
384.53	331.32
384.91	346.69
385.29	336.06
385.67	329.29
386.049	348.49
386.429	319.57
386.809	354.14
387.189	330.19
387.568	331.77
387.948	332.67
388.328	360.24
388.707	342.17
389.087	353.47
389.466	353.47
389.846	345.33
390.225	359.79
390.605	379.91
390.984	360.92
391.363	362.5
391.743	356.63
392.122	370.87
392.501	357.08
392.881	383.07
393.26	364.09
393.639	350.3
394.018	366.35
394.397	367.02
394.776	381.26
395.155	363.86
395.534	378.1
395.913	403.63
396.292	381.26
396.671	381.71
397.05	389.62
397.429	370.19
397.808	370.19
398.186	375.61
398.565	384.65
398.944	382.62
399.323	393.46
399.701	401.83
400.08	381.71
400.458	436.63
400.837	385.55
401.215	407.93
401.594	406.35
401.972	409.51
402.351	410.41
402.729	411.09
403.107	425.1
403.486	411.54
403.864	412.9
404.242	421.94
404.62	430.07
404.999	420.81
405.377	419.9
405.755	446.34
406.133	428.72
406.511	420.81
406.889	448.83
407.267	432.79
407.645	455.38
408.023	462.39
408.401	463.74
408.779	462.61
409.156	454.71
409.534	468.26
409.912	468.26
410.29	486.34
410.667	483.86
411.045	472.56
411.422	473.46
411.8	485.67
412.178	497.64
412.555	512.11
412.933	527.02
413.31	506
413.687	506
414.065	533.35
414.442	553.46
414.819	526.12
415.197	546.23
415.574	532.9
415.951	548.49
416.328	596.17
416.705	567.47
417.082	590.75
417.46	583.06
417.837	604.31
418.214	574.7
418.591	620.12
418.967	578.32
419.344	623.97
419.721	635.72
420.098	634.59
420.475	632.55
420.852	639.79
421.228	645.21
421.605	658.77
421.982	653.8
422.358	637.75
422.735	658.99
423.111	658.32
423.488	677.75
423.864	692.67
424.241	681.82
424.617	700.35
424.994	683.17
425.37	723.4
425.746	742.16
426.123	730.63
426.499	747.35
426.875	753
427.251	755.49
427.627	766.56
428.003	777.63
428.379	777.63
428.756	791.87
429.132	777.41
429.507	794.36
429.883	819.89
430.259	823.06
430.635	808.37
431.011	820.57
431.387	856.5
431.763	848.14
432.138	835.94
432.514	896.28
432.89	890.85
433.265	923.85
433.641	926.56
434.016	932.66
434.392	903.06
434.767	922.04
435.143	916.16
435.518	935.14
435.894	957.97
436.269	968.36
436.644	982.6
437.02	988.93
437.395	982.83
437.77	1005.65
438.145	1015.59
438.52	1045.42
438.895	1003.39
439.271	1053.33
439.646	1049.49
440.021	1020.57
440.395	1087.46
440.77	1061.7
441.145	1057.85
441.52	1084.97
441.895	1056.27
442.27	1086.78
442.645	1077.06
443.019	1091.07
443.394	1113.45
443.769	1105.54
444.143	1107.12
444.518	1115.71
444.892	1139.89
445.267	1131.07
445.641	1146.66
446.016	1143.95
446.39	1164.74
446.764	1142.37
447.139	1163.39
447.513	1142.37
447.887	1181.47
448.262	1159.77
448.636	1169.94
449.01	1185.99
449.384	1168.59
449.758	1196.61
450.132	1195.48
450.506	1202.26
450.88	1211.07
451.254	1209.94
451.628	1214.01
452.002	1220.34
452.376	1237.74
452.75	1212.65
453.123	1246.1
453.497	1232.54
453.871	1277.06
454.244	1283.61
454.618	1298.3
454.992	1329.94
455.365	1295.81
455.739	1303.72
456.112	1334
456.486	1327
456.859	1374
457.232	1343.72
457.606	1355.7
457.979	1354.12
458.352	1383.49
458.725	1404.06
459.099	1425.98
459.472	1422.82
459.845	1427.34
460.218	1437.05
460.591	1454.68
460.964	1457.62
461.337	1479.31
461.71	1468.69
462.083	1478.18
462.456	1492.87
462.829	1468.24
463.201	1501.91
463.574	1505.53
463.947	1536.71
464.32	1557.95
464.692	1576.03
465.065	1594.34
465.438	1635.01
465.81	1634.56
466.183	1639.31
466.555	1652.87
466.928	1669.14
467.3	1628.46
467.672	1663.71
468.045	1702.36
468.417	1693.32
468.789	1714.11
469.161	1763.6
469.534	1743.94
469.906	1783.48
470.278	1804.95
470.65	1797.5
471.022	1827.32
471.394	1853.76
471.766	1830.49
472.138	1888.11
472.51	1884.72
472.882	1943.03
473.253	1977.15
473.625	1969.92
473.997	1996.13
474.369	1996.13
474.74	1987.09
475.112	2050.37
475.484	2054.66
475.855	2113.87
476.227	2095.11
476.598	2133.08
476.97	2177.37
477.341	2201.33
477.713	2212.4
478.084	2233.42
478.455	2232.96
478.827	2298.05
479.198	2338.95
479.569	2354.77
479.94	2388.67
480.311	2387.99
480.682	2439.06
481.053	2463.24
481.424	2514.31
481.795	2519.06
482.166	2540.75
482.537	2576.68
482.908	2632.73
483.279	2611.03
483.65	2674.53
484.021	2725.15
484.391	2752.5
484.762	2747.3
485.133	2741.43
485.503	2772.38
485.874	2822.33
486.244	2881.31
486.615	2891.25
486.985	2954.3
487.356	2985.03
487.726	3024.36
488.097	3062.32
488.467	3049.67
488.837	3063.68
489.207	3109.55
489.578	3145.03
489.948	3180.96
490.318	3213.28
490.688	3234.29
491.058	3224.58
491.428	3261.64
491.798	3327.62
492.168	3376.89
492.538	3335.08
492.908	3395.19
493.278	3446.72
493.648	3439.94
494.017	3496.89
494.387	3491.69
494.757	3544.34
495.126	3535.75
495.496	3543.21
495.866	3581.18
496.235	3606.71
496.605	3622.53
496.974	3665.92
497.344	3687.39
497.713	3682.19
498.082	3698.69
498.452	3758.8
498.821	3753.83
499.19	3758.8
499.559	3798.35
499.928	3792.24
500.298	3843.99
500.667	3868.63
501.036	3826.59
501.405	3857.33
501.774	3874.73
502.143	3890.1
502.512	3867.72
502.88	3930.77
503.249	3942.07
503.618	3961.51
503.987	3975.29
504.356	4025.69
504.724	3977.55
505.093	4007.83
505.462	4044.89
505.83	4050.09
506.199	4058.9
506.567	4108.39
506.936	4117.66
507.304	4102.97
507.672	4119.47
508.041	4127.83
508.409	4182.74
508.777	4197.66
509.145	4233.14
509.514	4204.89
509.882	4227.49
510.25	4208.96
510.618	4298.22
510.986	4215.51
511.354	4282.4
511.722	4296.64
512.09	4305.68
512.458	4309.52
512.826	4328.28
513.193	4342.51
513.561	4396.52
513.929	4364.43
514.297	4397.2
514.664	4451.21
515.032	4416.86
515.4	4474.71
515.767	4423.19
516.135	4481.49
516.502	4445.79
516.869	4503.41
517.237	4509.74
517.604	4528.72
517.972	4544.54
518.339	4557.42
518.706	4561.49
519.073	4545.67
519.44	4565.56
519.808	4646.01
520.175	4631.54
520.542	4674.71
520.909	4691.88
521.276	4615.73
521.643	4690.75
522.009	4729.4
522.376	4710.86
522.743	4748.38
523.11	4737.98
523.477	4809.62
523.843	4839.68
524.21	4818.43
524.577	4825.21
524.943	4870.18
525.31	4903.18
525.676	4966.45
526.043	4973.91
526.409	4982.72
526.776	5003.06
527.142	5029.27
527.508	5012.33
527.874	5075.15
528.241	5088.26
528.607	5097.52
528.973	5111.53
529.339	5108.14
529.705	5199.21
530.071	5237.4
530.437	5237.18
530.803	5243.05
531.169	5269.95
531.535	5257.07
531.901	5282.6
532.267	5339.1
532.632	5322.6
532.998	5409.38
533.364	5411.64
533.73	5443.27
534.095	5420.68
534.461	5472.43
534.826	5522.14
535.192	5533.67
535.557	5535.93
535.923	5561.24
536.288	5572.99
536.653	5603.27
537.019	5588.81
537.384	5660.44
537.749	5680.78
538.114	5685.53
538.479	5732.08
538.845	5717.39
539.21	5713.78
539.575	5757.62
539.94	5787.22
540.305	5827.67
540.67	5824.96
541.034	5888.01
541.399	5905.64
541.764	5893.66
542.129	5942.47
542.494	5972.07
542.858	5964.84
543.223	5994.45
543.587	6034.9
543.952	6005.07
544.316	6097.95
544.681	6120.09
545.045	6111.96
545.41	6170.04
545.774	6204.38
546.138	6236.7
546.503	6150.6
546.867	6248.9
547.231	6263.59
547.595	6269.02
547.959	6314.21
548.324	6304.95
548.688	6363.7
549.052	6382.23
549.416	6410.93
549.779	6423.36
550.143	6382.01
550.507	6483.93
550.871	6504.49
551.235	6489.8
551.599	6522.34
551.962	6536.81
552.326	6559.4
552.689	6597.14
553.053	6617.03
553.417	6599.4
553.78	6640.53
554.143	6600.53
554.507	6694.99
554.87	6704.71
555.234	6763.92
555.597	6731.6
555.96	6763.01
556.323	6760.75
556.686	6825.84
557.05	6866.06
557.413	6798.27
557.776	6927.76
558.139	6881.88
558.502	6916.23
558.865	6900.86
559.228	6989
559.59	6965.72
559.953	6977.7
560.316	7031.26
560.679	6981.31
561.041	7025.61
561.404	7120.07
561.767	7125.26
562.129	7140.86
562.492	7177.01
562.854	7198.94
563.217	7139.05
563.579	7191.7
563.941	7262.21
564.304	7275.32
564.666	7278.71
565.028	7390.12
565.39	7353.51
565.753	7397.12
566.115	7432.6
566.477	7459.72
566.839	7420.17
567.201	7483.67
567.563	7540.39
567.925	7548.3
568.287	7515.08
568.648	7580.62
569.01	7614.74
569.372	7622.65
569.734	7710.79
570.095	7650.9
570.457	7775.64
570.819	7814.51
571.18	7783.33
571.542	7797.11
571.903	7895.41
572.265	7952.14
572.626	7931.8
572.987	8063.09
573.349	8040.95
573.71	8161.17
574.071	8148.51
574.432	8244.33
574.794	8318
575.155	8341.5
575.516	8348.51
575.877	8377.89
576.238	8433.93
576.599	8559.35
576.96	8623.53
577.32	8726.13
577.681	8730.65
578.042	8904.2
578.403	8859.23
578.763	8952.34
579.124	9102.16
579.485	9220.35
579.845	9295.15
580.206	9414.24
580.566	9532.88
580.927	9723.16
581.287	9741.02
581.648	9877.96
582.008	10069.82
582.368	10148.91
582.728	10350.94
583.089	10464.39
583.449	10633.19
583.809	10795.9
584.169	10998.38
584.529	11129.91
584.889	11435.43
585.249	11485.15
585.609	11749.78
585.969	11964.01
586.329	12167.62
586.688	12459.59
587.048	12579.13
587.408	12759.01
587.768	13082.4
588.127	13316.51
588.487	13562.38
588.846	13928.7
589.206	13996.5
589.565	14278.75
589.925	14658.63
590.284	14846.42
590.643	15164.15
591.003	15407.08
591.362	15763.46
591.721	15961.42
592.08	16134.52
592.44	16583.1
592.799	16960.94
593.158	17165.23
593.517	17366.13
593.876	17750.3
594.235	17994.58
594.593	18301.24
594.952	18641.35
595.311	18910.94
595.67	19224.38
596.029	19680.64
596.387	19994.76
596.746	20139.84
597.104	20402.43
597.463	20710.9
597.822	21087.38
598.18	21239.02
598.538	21519.46
598.897	22003.52
599.255	22205.09
599.613	22732.54
599.972	22836.72
600.33	23286.87
600.688	23499.75
601.046	23805.28
601.404	24105.38
601.762	24376.11
602.12	24768.19
602.478	25084.11
602.836	25283.66
603.194	25459.02
603.552	25740.14
603.91	25922.74
604.268	26294.03
604.625	26400.46
604.983	26955.7
605.341	27088.36
605.698	27408.8
606.056	27751.61
606.413	27938.73
606.771	28198.16
607.128	28475.89
607.485	28557.47
607.843	28829.78
608.2	29204.01
608.557	29503.21
608.914	29525.58
609.272	29851.9
609.629	30234.26
609.986	30405.33
610.343	30560.35
610.7	31034.24
611.057	31045.31
611.414	31332.76
611.771	31548.13
612.127	31773.88
612.484	31935.01
612.841	32215
613.198	32176.58
613.554	32382.91
613.911	32819.96
614.267	32868.54
614.624	33016.79
614.98	33243.22
615.337	33502.42
615.693	33693.83
616.05	33710.33
616.406	34142.63
616.762	34049.98
617.118	34199.58
617.475	34282.29
617.831	34534.49
618.187	34830.98
618.543	35048.6
618.899	35206.79
619.255	35320.23
619.611	35390.28
619.967	35611.75
620.323	35898.52
620.678	35557.74
621.034	35816.94
621.39	35956.6
621.746	35869.14
622.101	36493.08
622.457	36195.01
622.812	36439.07
623.168	36498.73
623.523	36744.82
623.879	36850.36
624.234	36684.94
624.589	36940.98
624.945	37011.71
625.3	37281.31
625.655	37213.51
626.01	37170.58
626.365	37332.61
626.72	37317.69
627.075	37362.89
627.43	37390.68
627.785	37393.4
628.14	37603.33
628.495	37784.57
628.85	37604.01
629.205	37641.3
629.559	37872.48
629.914	37769.88
630.269	37802.65
630.623	37882.87
630.978	37898.47
631.332	38096.43
631.687	38243.99
632.041	37932.59
632.396	38188.85
632.75	37998.58
633.104	38058.01
633.459	38052.36
633.813	38070.67
634.167	38017.33
634.521	38104.56
634.875	38238.34
635.229	38114.05
635.583	38072.93
635.937	38098.91
636.291	38148.86
636.645	38163.09
636.999	38111.12
637.352	38178.69
637.706	38042.87
638.06	38263.43
638.413	38207.84
638.767	38176.88
639.121	38127.84
639.474	37976.88
639.828	38150.66
640.181	38020.95
640.534	38102.08
640.888	38039.48
641.241	37929.43
641.594	37966.26
641.947	38173.49
642.301	38063.89
642.654	38025.7
643.007	38040.16
643.36	38112.47
643.713	37988.41
644.066	38117.44
644.419	37935.98
644.771	37783.44
645.124	37375.77
645.477	37368.99
645.83	37212.61
646.182	37160.86
646.535	36951.6
646.888	37058.04
647.24	36831.6
647.593	37128.09
647.945	36940.3
648.298	36738.5
648.65	36776.91
649.002	36815.11
649.355	36915.89
649.707	36834.99
650.059	37063.69
650.411	37520.17
650.763	37416.45
651.115	37788.19
651.467	37729.43
651.819	37667.29
652.171	37600.17
652.523	37782.76
652.875	37617.57
653.227	37480.85
653.578	37701.64
653.93	37531.92
654.282	37511.13
654.633	37524.01
654.985	37492.15
655.337	37556.78
655.688	37569.89
656.039	37633.84
656.391	37258.71
656.742	37338.26
657.094	37441.98
657.445	37521.53
657.796	37387.07
658.147	37296.22
658.498	37365.6
658.849	37438.14
659.2	37401.53
659.551	37270.91
659.902	37576.44
660.253	37311.14
660.604	37356.33
660.955	37279.95
661.306	37452.38
661.656	37228.2
662.007	37301.65
662.358	37361.31
662.708	37269.56
663.059	37319.72
663.409	37140.97
663.76	37243.12
664.11	37333.96
664.461	37182.55
664.811	37404.47
665.161	37319.95
665.511	37157.02
665.862	37286.96
666.212	37274.53
666.562	37338.71
666.912	37267.3
667.262	37206.06
667.612	37227.98
667.962	37260.07
668.312	37246.96
668.662	37263.23
669.011	37199.73
669.361	37093.97
669.711	37166.06
670.06	37027.98
670.41	37093.52
670.76	36980.3
671.109	37195.66
671.459	37038.38
671.808	36910.92
672.157	37176.9
672.507	36883.58
672.856	36890.36
673.205	37013.07
673.554	37161.54
673.904	36914.54
674.253	37220.74
674.602	37099.39
674.951	36436.81
675.3	36366.98
675.649	36929.23
675.998	36935.33
676.346	36837.93
676.695	36954.31
677.044	36700.31
677.393	36799.51
677.741	36818.04
678.09	36698.27
678.438	36659.4
678.787	36772.85
679.135	36726.29
679.484	36526.3
679.832	36663.7
680.181	36378.51
680.529	36698.5
680.877	36439.07
681.225	36416.25
681.573	36479.3
681.922	36306.64
682.27	36238.4
682.618	36446.53
682.966	36242.69
683.314	36324.72
683.661	36089.02
684.009	36002.7
684.357	35950.04
684.705	35954.34
685.053	36005.41
685.4	35955.02
685.748	35717.73
686.095	35629.37
686.443	35559.77
686.79	35556.16
687.138	35679.32
687.485	35616.94
687.832	35525.2
688.18	35562.03
688.527	35326.56
688.874	35272.1
689.221	35271.87
689.568	35137.64
689.915	35063.74
690.262	35088.6
690.609	34929.05
690.956	34863.29
691.303	34809.51
691.65	34682.96
691.997	34604.32
692.344	34420.37
692.69	34595.73
693.037	34356.64
693.383	34049.98
693.73	34413.59
694.077	34140.37
694.423	34081.62
694.769	34002.98
695.116	33946.48
695.462	33731.8
695.808	33813.6
696.155	33858.8
696.501	33501.52
696.847	33637.56
697.193	33324.8
697.539	33441.41
697.885	33203.45
698.231	33126.16
698.577	33226.5
698.923	32955.77
699.269	33061.98
699.614	32831.26
699.96	32774.31
700.306	32736.34
700.651	32645.5
700.997	32586.06
701.342	32514.43
701.688	32485.28
702.033	32332.74
702.379	32384.04
702.724	32324.15
703.069	32390.14
703.415	31917.38
703.76	31995.57
704.105	32012.07
704.45	31871.05
704.795	31631.96
705.14	31638.52
705.485	31682.13
705.83	31536.15
706.175	31625.19
706.52	31512.87
706.865	31316.72
707.209	31382.48
707.554	31215.25
707.899	31147.01
708.243	31112.43
708.588	31088.25
708.932	30796.05
709.277	30879.44
709.621	30945.43
709.966	30642.16
710.31	30685.55
710.654	30468.38
710.998	30408.04
711.342	30492.79
711.687	30428.38
712.031	30279.68
712.375	30172.12
712.719	30181.16
713.063	30100.48
713.407	30232.45
713.75	30131.44
714.094	30081.27
714.438	29963.76
714.782	29895.29
715.125	29709.3
715.469	29722.41
715.812	29646.93
716.156	29561.74
716.499	29622.53
716.843	29611.23
717.186	29366.94
717.53	29427.73
717.873	29490.33
718.216	29307.05
718.559	29341.63
718.902	29037.68
719.246	29220.73
719.589	29119.71
719.932	28942.77
720.275	29019.83
720.617	28920.17
720.96	28898.03
721.303	28874.3
721.646	28917.01
721.989	28699.61
722.331	28765.6
722.674	28650.12
723.016	28645.6
723.359	28654.87
723.701	28612.84
724.044	28463.46
724.386	28306.63
724.729	28545.27
725.071	28393.86
725.413	28332.62
725.755	28358.38
726.097	28112.06
726.439	28083.13
726.782	28007.43
727.124	28085.17
727.465	28093.75
727.807	27994.09
728.149	27907.32
728.491	27877.71
728.833	27863.25
729.175	27762.01
729.516	27688.79
729.858	27712.97
730.199	27699.41
730.541	27670.04
730.882	27608.79
731.224	27729.69
731.565	27506.2
731.906	27499.64
732.248	27433.21
732.589	27407.67
732.93	27472.98
733.271	27259.65
733.612	27255.13
733.953	27370.16
734.294	27162.03
734.635	27187.79
734.976	27265.98
735.317	27113.67
735.658	27016.04
735.999	27076.83
736.339	27073.89
736.68	27057.17
737.021	26977.4
737.361	26811.3
737.702	26898.08
738.042	26899.43
738.383	26740.34
738.723	26757.29
739.063	26614.7
739.404	26709.16
739.744	26609.05
740.084	26482.04
740.424	26473
740.764	26432.78
741.104	26606.56
741.444	26409.05
741.784	26344.19
742.124	26441.37
742.464	26339.9
742.804	26205.89
743.143	26261.94
743.483	26243.63
743.823	26123.18
744.162	26044.54
744.502	26116.86
744.841	26016.52
745.181	26170.64
745.52	25988.27
745.86	26097.42
746.199	25883.87
746.538	25969.06
746.877	25847.48
747.216	25855.62
747.556	25720.71
747.895	25854.49
748.234	25679.35
748.573	25608.17
748.911	25563.88
749.25	25626.02
749.589	25458.57
749.928	25443.43
750.267	25442.98
750.605	25424.9
750.944	25366.14
751.283	25377.89
751.621	25293.83
751.96	25107.39
752.298	25089.09
752.636	25085.92
752.975	24998.02
753.313	24879.37
753.651	25026.94
753.989	24815.87
754.327	24818.36
754.666	24590.34
755.004	24739.94
755.342	24710.56
755.679	24724.35
756.017	24409.78
756.355	24630.34
756.693	24459.95
757.031	24405.26
757.368	24407.3
757.706	24289.11
758.044	24204.36
758.381	24214.08
758.719	24043.69
759.056	24076.23
759.394	24076.91
759.731	23862.9
760.068	23849.8
