Data from hue_40_FLMS001491_24.txt Node
Date: Mon Feb 06 15:07:39 GMT 2017
User: dcchb
Spectrometer: FLMS00149
Trigger mode: 0
Integration Time (sec): 2.000000E-2
Scans to average: 10
Electric dark correction enabled: true
Nonlinearity correction enabled: false
Boxcar width: 0
XAxis mode: Wavelengths
Number of Pixels in Spectrum: 2048
>>>>>Begin Spectral Data<<<<<
341.393	-8.15
341.776	-8.15
342.16	-8.15
342.543	-66.68
342.927	-54.48
343.31	-77.07
343.693	-78.66
344.077	-63.29
344.46	-52.44
344.843	-52.44
345.226	-37.75
345.61	-32.1
345.993	-7.7
346.376	-12.9
346.759	4.96
347.142	23.26
347.525	33.21
347.908	61
348.291	66.88
348.674	96.48
349.057	128.57
349.44	125.41
349.823	136.03
350.206	157.5
350.588	199.08
350.971	228
351.354	256.48
351.737	236.82
352.119	238.85
352.502	244.73
352.884	279.98
353.267	292.41
353.65	296.7
354.032	286.98
354.414	315.46
354.797	302.8
355.179	338.96
355.562	333.31
355.944	319.53
356.326	357.94
356.709	339.64
357.091	349.81
357.473	323.37
357.855	327.43
358.238	345.51
358.62	348.45
359.002	358.39
359.384	362.69
359.766	337.6
360.148	340.54
360.53	349.81
360.912	350.26
361.294	326.98
361.676	345.06
362.057	333.99
362.439	349.58
362.821	343.03
363.203	341.9
363.584	319.98
363.966	317.94
364.348	346.64
364.729	337.15
365.111	311.39
365.493	305.97
365.874	319.75
366.256	320.88
366.637	330.15
367.019	323.82
367.4	312.97
367.781	327.21
368.163	311.39
368.544	340.54
368.925	322.92
369.306	322.69
369.688	338.96
370.069	309.81
370.45	311.39
370.831	328.56
371.212	329.24
371.593	330.6
371.974	334.21
372.355	318.4
372.736	321.11
373.117	321.79
373.498	350.49
373.879	332.63
374.26	330.15
374.641	303.25
375.021	326.08
375.402	328.11
375.783	340.99
376.163	346.42
376.544	345.06
376.925	341.22
377.305	329.69
377.686	315.46
378.066	345.06
378.447	332.18
378.827	357.94
379.208	339.41
379.588	324.05
379.968	335.57
380.349	337.38
380.729	343.03
381.109	330.37
381.489	335.57
381.87	370.6
382.25	326.08
382.63	375.34
383.01	359.98
383.39	370.37
383.77	357.72
384.15	382.57
384.53	356.59
384.91	365.85
385.29	368.11
385.67	365.17
386.049	345.06
386.429	368.11
386.809	373.54
387.189	353.42
387.568	365.85
387.948	353.87
388.328	360.43
388.707	354.1
389.087	383.7
389.466	370.37
389.846	389.13
390.225	349.81
390.605	377.15
390.984	367.89
391.363	360.43
391.743	380.54
392.122	357.94
392.501	397.26
392.881	378.06
393.26	384.16
393.639	387.32
394.018	376.93
394.397	385.51
394.776	393.2
395.155	392.52
395.534	416.92
395.913	386.42
396.292	406.53
396.671	404.27
397.05	393.65
397.429	410.37
397.808	391.39
398.186	367.66
398.565	422.12
398.944	395.46
399.323	418.05
399.701	400.2
400.08	402.91
400.458	409.92
400.837	409.24
401.215	411.5
401.594	388.22
401.972	403.14
402.351	425.51
402.729	439.75
403.107	418.51
403.486	435.91
403.864	418.28
404.242	428.45
404.62	431.61
404.999	412.18
405.377	424.83
405.755	445.4
406.133	433.65
406.511	429.13
406.889	432.06
407.267	450.14
407.645	466.64
408.023	467.09
408.401	463.93
408.779	462.35
409.156	450.14
409.534	451.5
409.912	446.98
410.29	468.45
410.667	484.94
411.045	478.62
411.422	452.4
411.8	476.81
412.178	480.2
412.555	477.26
412.933	474.78
413.31	485.17
413.687	479.52
414.065	510.03
414.442	501.44
414.819	510.93
415.197	497.83
415.574	517.26
415.951	531.5
416.328	515
416.705	521.78
417.082	513.19
417.46	489.69
417.837	511.84
418.214	514.77
418.591	536.24
418.967	533.76
419.344	526.98
419.721	551.61
420.098	547.77
420.475	544.38
420.852	536.47
421.228	549.8
421.605	567.65
421.982	567.2
422.358	543.25
422.735	552.29
423.111	576.02
423.488	570.37
423.864	574.89
424.241	593.19
424.617	592.51
424.994	583.02
425.37	578.28
425.746	595.68
426.123	605.17
426.499	588.67
426.875	608.78
427.251	619.86
427.627	619.63
428.003	625.96
428.379	612.4
428.756	638.39
429.132	627.09
429.507	621.66
429.883	651.95
430.259	641.32
430.635	657.37
431.011	646.75
431.387	671.83
431.763	649.01
432.138	669.8
432.514	662.57
432.89	672.96
433.265	672.51
433.641	702.34
434.016	724.94
434.392	719.97
434.767	731.72
435.143	703.7
435.518	710.7
435.894	735.11
436.269	734.88
436.644	727.42
437.02	732.4
437.395	779.4
437.77	747.31
438.145	764.26
438.52	759.97
438.895	762.9
439.271	778.04
439.646	778.04
440.021	800.19
440.395	770.59
440.77	798.83
441.145	804.94
441.52	811.72
441.895	804.48
442.27	803.13
442.645	827.53
443.019	842.45
443.394	817.14
443.769	830.47
444.143	841.77
444.518	851.04
444.892	851.04
445.267	872.28
445.641	844.94
446.016	867.76
446.39	843.13
446.764	896.23
447.139	850.81
447.513	877.48
447.887	860.98
448.262	895.56
448.636	889.23
449.01	906.63
449.384	900.98
449.758	881.32
450.132	909.11
450.506	921.54
450.88	924.71
451.254	920.19
451.628	959.06
452.002	946.63
452.376	974.2
452.75	993.41
453.123	968.77
453.497	990.02
453.871	973.29
454.244	1015.55
454.618	995.89
454.992	1010.35
455.365	1029.79
455.739	1037.7
456.112	1045.38
456.486	1064.82
456.859	1049.9
457.232	1063.01
457.606	1091.48
457.979	1083.12
458.352	1118.83
458.725	1118.37
459.099	1131.71
459.472	1131.03
459.845	1159.28
460.218	1193.4
460.591	1178.03
460.964	1186.85
461.337	1188.2
461.71	1227.98
462.083	1235.89
462.456	1232.27
462.829	1232.5
463.201	1239.28
463.574	1297.8
463.947	1301.87
464.32	1318.14
464.692	1348.88
465.065	1360.4
465.438	1378.93
465.81	1371.25
466.183	1391.36
466.555	1417.12
466.928	1462.32
467.3	1440.17
467.672	1485.6
468.045	1501.19
468.417	1499.83
468.789	1545.26
469.161	1571.47
469.534	1580.28
469.906	1599.72
470.278	1624.12
470.65	1695.08
471.022	1669.55
471.394	1730.34
471.766	1762.65
472.138	1770.11
472.51	1804.91
472.882	1827.28
473.253	1877.22
473.625	1900.73
473.997	1932.36
474.369	1992.93
474.74	2021.4
475.112	2053.04
475.484	2098.01
475.855	2124.9
476.227	2177.56
476.598	2217.33
476.97	2265.24
477.341	2336.87
477.713	2385.01
478.084	2428.62
478.455	2504.1
478.827	2526.02
479.198	2639.24
479.569	2676.53
479.94	2725.11
480.311	2851.21
480.682	2912.45
481.053	2970.76
481.424	3040.36
481.795	3114.48
482.166	3171.2
482.537	3259.11
482.908	3375.26
483.279	3412.78
483.65	3531.87
484.021	3637.86
484.391	3696.84
484.762	3746.78
485.133	3832.88
485.503	3931.41
485.874	4035.13
486.244	4109.03
486.615	4234.45
486.985	4339.76
487.356	4460.89
487.726	4567.32
488.097	4664.95
488.467	4777.26
488.837	4859.52
489.207	4983.13
489.578	5065.39
489.948	5158.72
490.318	5311.26
490.688	5369.79
491.058	5513.06
491.428	5612.72
491.798	5757.35
492.168	5937
492.538	5994.63
492.908	6068.3
493.278	6187.62
493.648	6280.05
494.017	6381.74
494.387	6530.44
494.757	6634.61
495.126	6745.57
495.496	6800.49
495.866	6877.32
496.235	6988.95
496.605	7161.38
496.974	7200.02
497.344	7349.4
497.713	7479.79
498.082	7523.4
498.452	7729.95
498.821	7778.99
499.19	7843.4
499.559	7948.25
499.928	8053.79
500.298	8150.73
500.667	8189.6
501.036	8270.95
501.405	8423.49
501.774	8367.45
502.143	8628.23
502.512	8634.56
502.88	8776.48
503.249	8828.23
503.618	8884.95
503.987	8970.15
504.356	9070.71
504.724	9170.59
505.093	9150.93
505.462	9308.44
505.83	9402.45
506.199	9510.92
506.567	9594.31
506.936	9612.84
507.304	9766.51
507.672	9883.12
508.041	9942.78
508.409	9954.07
508.777	10075.65
509.145	10184.35
509.514	10285.59
509.882	10359.71
510.25	10347.06
510.618	10455.76
510.986	10543.44
511.354	10656.65
511.722	10790.66
512.09	10804
512.458	10896.65
512.826	10919.47
513.193	10968.74
513.561	11006.25
513.929	11172.12
514.297	11293.47
514.664	11343.64
515.032	11367.6
515.4	11448.05
515.767	11600.58
516.135	11665.67
516.502	11613.24
516.869	11873.57
517.237	11809.62
517.604	11843.06
517.972	12047.35
518.339	12044.41
518.706	12032.44
519.073	12221.36
519.44	12231.08
519.808	12452.54
520.175	12353.79
520.542	12586.32
520.909	12607.56
521.276	12600.56
521.643	12733.89
522.009	12772.98
522.376	12870.83
522.743	13013.2
523.11	13175.91
523.477	13193.76
523.843	13217.04
524.21	13312.86
524.577	13430.37
524.943	13509.24
525.31	13523.92
525.676	13720.53
526.043	13742.22
526.409	13964.59
526.776	14004.59
527.142	14056.11
527.508	14172.27
527.874	14243
528.241	14317.8
528.607	14344.92
528.973	14527.51
529.339	14478.7
529.705	14633.95
530.071	14746.72
530.437	14806.83
530.803	14968.18
531.169	14920.5
531.535	14994.17
531.901	14988.07
532.267	15065.35
532.632	15269.87
532.998	15406.36
533.364	15370.43
533.73	15418.34
534.095	15530.2
534.461	15746.46
534.826	15682.06
535.192	15735.39
535.557	15886.35
535.923	15879.12
536.288	15876.18
536.653	16045.21
537.019	15997.08
537.384	16072.33
537.749	16177.41
538.114	16139.67
538.479	16125.66
538.845	16363.62
539.21	16393.91
539.575	16435.49
539.94	16487.24
540.305	16559.32
540.67	16528.36
541.034	16665.99
541.399	16701.02
541.764	16749.6
542.129	16844.29
542.494	16881.8
542.858	16956.6
543.223	16970.39
543.587	17168.57
543.952	17207.22
544.316	17258.97
544.681	17235.01
545.045	17345.07
545.41	17472.52
545.774	17395.01
546.138	17556.36
546.503	17550.26
546.867	17582.8
547.231	17817.6
547.595	17807.65
547.959	17785.51
548.324	17863.02
548.688	17856.92
549.052	18023.69
549.416	18067.08
549.779	18109.11
550.143	18147.53
550.507	18264.36
550.871	18271.14
551.235	18361.09
551.599	18410.12
551.962	18501.87
552.326	18561.08
552.689	18568.54
553.053	18587.07
553.417	18761.75
553.78	18924.69
554.143	18765.82
554.507	19009.66
554.87	18989.54
555.234	19198.58
555.597	19042.42
555.96	19195.64
556.323	19278.8
556.686	19332.81
557.05	19469.76
557.413	19418.01
557.776	19594.95
558.139	19683.99
558.502	19621.84
558.865	19783.19
559.228	19892.12
559.59	19883.98
559.953	19985.68
560.316	20143.41
560.679	20123.52
561.041	20314.25
561.404	20320.81
561.767	20493.46
562.129	20352.22
562.492	20608.03
562.854	20576.39
563.217	20624.3
563.579	20642.38
563.941	20871.75
564.304	20832.21
564.666	21005.76
565.028	21060
565.39	21118.98
565.753	21273.55
566.115	21297.5
566.477	21446.65
566.839	21433.32
567.201	21553.09
567.563	21532.53
567.925	21737.27
568.287	21804.61
568.648	21831.73
569.01	22043.7
569.372	22099.52
569.734	22016.36
570.095	22122.79
570.457	22297.48
570.819	22444.37
571.18	22372.28
571.542	22536.34
571.903	22665.38
572.265	22736.11
572.626	22822.44
572.987	22881.87
573.349	22846.62
573.71	22969.55
574.071	23205.48
574.432	23331.35
574.794	23397.56
575.155	23497.45
575.516	23498.58
575.877	23612.25
576.238	23670.1
576.599	23845.23
576.96	24020.15
577.32	24066.92
577.681	24304.66
578.042	24378.55
578.403	24392.11
578.763	24534.93
579.124	24656.96
579.485	24940.12
579.845	24987.35
580.206	25188.93
580.566	25121.13
580.927	25221.02
581.287	25628.46
581.648	25670.5
582.008	25827.1
582.368	25878.85
582.728	26120.88
583.089	26159.3
583.449	26421.89
583.809	26519.97
584.169	26807.87
584.529	26731.49
584.889	27214.41
585.249	27232.72
585.609	27259.61
585.969	27522.43
586.329	27666.83
586.688	27874.73
587.048	28084.67
587.408	28187.95
587.768	28423.65
588.127	28577.31
588.487	28679.68
588.846	29092.1
589.206	29167.35
589.565	29245.09
589.925	29674.23
590.284	29723.95
590.643	29964.17
591.003	30213.43
591.362	30414.33
591.721	30610.71
592.08	30803.7
592.44	31001.66
592.799	31047.08
593.158	31246.17
593.517	31493.17
593.876	31697.91
594.235	31927.51
594.593	31915.98
594.952	32264.45
595.311	32341.73
595.67	32707.15
596.029	32897.65
596.387	33140.81
596.746	33268.72
597.104	33226.91
597.463	33435.94
597.822	33717.07
598.18	33850.17
598.538	34017.62
598.897	34230.95
599.255	34197.73
599.613	34696.7
599.972	34641.33
600.33	34891.5
600.688	34983.7
601.046	35219.85
601.404	35402.67
601.762	35563.8
602.12	35747.07
602.478	36006.04
602.836	36053.95
603.194	36025.03
603.552	36256.89
603.91	36168.53
604.268	36579.36
604.625	36484.68
604.983	36838.11
605.341	36750.66
605.698	37043.08
606.056	37339.12
606.413	37336.86
606.771	37482.39
607.128	37769.84
607.485	37626.34
607.843	37894.58
608.2	38134.58
608.557	38090.28
608.914	38090.74
609.272	38408.47
609.629	38596.71
609.986	38645.07
610.343	38607.78
610.7	39049.58
611.057	38992.41
611.414	38907.44
611.771	39248.45
612.127	39436.92
612.484	39479.17
612.841	39639.85
613.198	39523.01
613.554	39566.63
613.911	39847.75
614.267	39900.86
614.624	40060.85
614.98	40075.77
615.337	40333.16
615.693	40321.19
616.05	40380.85
616.406	40546.04
616.762	40575.19
617.118	40770.44
617.475	40727.73
617.831	41007.04
618.187	41061.51
618.543	40936.76
618.899	41384.89
619.255	41304.66
619.611	41338.56
619.967	41343.76
620.323	41557.76
620.678	41468.73
621.034	41370.42
621.39	41447.26
621.746	41650.42
622.101	42016.96
622.457	41905.55
622.812	41758.21
623.168	41945.78
623.523	41933.8
623.879	42116.39
624.234	41869.17
624.589	42024.19
624.945	41955.94
625.3	42116.39
625.655	42225.09
626.01	42365.88
626.365	42280.23
626.72	42321.58
627.075	42274.13
627.43	42290.85
627.785	42159.78
628.14	42381.24
628.495	42372.66
628.85	42369.04
629.205	42378.76
629.559	42610.84
629.914	42334.01
630.269	42543.95
630.623	42371.08
630.978	42336.27
631.332	42530.62
631.687	42581.69
632.041	42450.62
632.396	42572.88
632.75	42418.31
633.104	42550.28
633.459	42362.49
633.813	42363.62
634.167	42516.16
634.521	42255.37
634.875	42412.43
635.229	42334.92
635.583	42105.55
635.937	42281.81
636.291	42283.62
636.645	42309.38
636.999	42119.78
637.352	42404.75
637.706	41999.11
638.06	42216.5
638.413	42132.44
638.767	42158.88
639.121	42122.04
639.474	42008.82
639.828	41905.32
640.181	42041.14
640.534	42058.32
640.888	41890.64
641.241	41818.32
641.594	41819
641.947	42018.09
642.301	41774.71
642.654	41878.21
643.007	41974.02
643.36	41795.27
643.713	41755.27
644.066	42030.75
644.419	41580.81
644.771	41404.77
645.124	41032.13
645.477	40983.09
645.83	40827.84
646.182	40641.86
646.535	40490.9
646.888	40650.67
647.24	40333.16
647.593	40690.44
647.945	40585.59
648.298	40373.84
648.65	40405.03
649.002	40200.96
649.355	40391.92
649.707	40295.42
650.059	40546.94
650.411	41014.95
650.763	40825.81
651.115	41447.26
651.467	41378.33
651.819	41170.65
652.171	41159.81
652.523	41149.41
652.875	41140.37
653.227	40943.77
653.578	41262.4
653.93	40996.65
654.282	40910.55
654.633	40855.41
654.985	40929.08
655.337	40934.73
655.688	40969.76
656.039	41119.36
656.391	40677.11
656.742	40793.49
657.094	40867.16
657.445	40981.73
657.796	40871.91
658.147	40799.59
658.498	40692.93
658.849	40798.46
659.2	40754.62
659.551	40710.33
659.902	40766.82
660.253	40718.24
660.604	40843.21
660.955	40650.67
661.306	40774.96
661.656	40665.13
662.007	40826.26
662.358	40774.73
662.708	40614.29
663.059	40738.58
663.409	40305.82
663.76	40672.36
664.11	40688.63
664.461	40548.52
664.811	40664.68
665.161	40686.37
665.511	40524.34
665.862	40578.13
666.212	40752.81
666.562	40588.98
666.912	40667.62
667.262	40515.76
667.612	40456.32
667.962	40702.87
668.312	40462.65
668.662	40696.32
669.011	40551.46
669.361	40467.17
669.711	40599.82
670.06	40349.43
670.41	40463.78
670.76	40254.75
671.109	40447.96
671.459	40442.99
671.808	40297.01
672.157	40355.53
672.507	40144.92
672.856	40274.63
673.205	40104.92
673.554	40336.33
673.904	40138.59
674.253	40203.22
674.602	40154.86
674.951	39605.95
675.3	39379.52
675.649	40156.22
675.998	40070.12
676.346	40054.98
676.695	40163.45
677.044	39956
677.393	40041.64
677.741	40020.18
678.09	39805.27
678.438	39814.76
678.787	40004.36
679.135	40070.34
679.484	39636.23
679.832	39804.36
680.181	39618.61
680.529	39758.26
680.877	39595.55
681.225	39591.94
681.573	39822.22
681.922	39516.46
682.27	39379.97
682.618	39355.56
682.966	39326.18
683.314	39310.14
683.661	39396.92
684.009	39040.54
684.357	39038.96
684.705	39032.86
685.053	39130.93
685.4	38917.83
685.748	38795.12
686.095	38763.26
686.443	38706.76
686.79	38501.8
687.138	38662.47
687.485	38615.24
687.832	38424.51
688.18	38505.19
688.527	38300.9
688.874	38335.7
689.221	38191.3
689.568	38149.49
689.915	38008.93
690.262	38020.46
690.609	38005.31
690.956	37842.38
691.303	37796.28
691.65	37634.7
691.997	37821.82
692.344	37515.16
692.69	37413.24
693.037	37415.95
693.383	37052.57
693.73	37213.24
694.077	37008.28
694.423	37027.71
694.769	36955.85
695.116	36796.53
695.462	36752.01
695.808	36589.31
696.155	36820.94
696.501	36457.56
696.847	36415.07
697.193	36169.88
697.539	36223.21
697.885	36119.71
698.231	36031.13
698.577	35908.42
698.923	35941.19
699.269	35756.79
699.614	35686.05
699.96	35528.54
700.306	35543.46
700.651	35393.86
700.997	35296.01
701.342	35333.97
701.688	35233.41
702.033	35205.84
702.379	35140.53
702.724	34921.78
703.069	35105.96
703.415	34718.17
703.76	34511.17
704.105	34715.23
704.45	34515.01
704.795	34295.81
705.14	34266.88
705.485	34369.93
705.83	34039.77
706.175	34198.18
706.52	34026.21
706.865	33952.09
707.209	33911.86
707.554	33787.12
707.899	33870.73
708.243	33736.73
708.588	33616.96
708.932	33452.44
709.277	33304.87
709.621	33321.82
709.966	33228.94
710.31	33404.98
710.654	33038.67
710.998	33014.03
711.342	32960.25
711.687	33016.29
712.031	32717.09
712.375	32644.33
712.719	32793.7
713.063	32695.62
713.407	32767.71
713.75	32509.87
714.094	32463.99
714.438	32435.74
714.782	32369.98
715.125	32186.71
715.469	32280.27
715.812	32104.23
716.156	32166.15
716.499	31929.32
716.843	31952.37
717.186	31843.67
717.53	31947.39
717.873	31909.88
718.216	31917.11
718.559	31731.81
718.902	31559.38
719.246	31667.63
719.589	31481.64
719.932	31340.63
720.275	31339.05
720.617	31346.73
720.96	31389.44
721.303	31333.85
721.646	31344.92
721.989	31152.39
722.331	31174.08
722.674	31134.76
723.016	31139.51
723.359	30993.07
723.701	30900.64
724.044	30775.45
724.386	30792.4
724.729	30875.78
725.071	30758.05
725.413	30651.38
725.755	30711.27
726.097	30530.71
726.439	30450.03
726.782	30426.76
727.124	30497.04
727.465	30279.87
727.807	30171.85
728.149	30251.62
728.491	30203.94
728.833	30181.11
729.175	29980.21
729.516	29985.86
729.858	30078.07
730.199	30019.54
730.541	29821.35
730.882	29810.05
731.224	29946.77
731.565	29770.28
731.906	29753.33
732.248	29751.07
732.589	29648.25
732.93	29557.63
733.271	29549.94
733.612	29633.11
733.953	29538.87
734.294	29323.28
734.635	29414.13
734.976	29436.27
735.317	29246.22
735.658	29297.75
735.999	29256.62
736.339	29148.82
736.68	29219.33
737.021	29103.63
737.361	28949.28
737.702	29220.01
738.042	29038.32
738.383	29085.77
738.723	28890.07
739.063	28783.86
739.404	28956.29
739.744	28862.05
740.084	28643.3
740.424	28869.74
740.764	28622.06
741.104	28765.11
741.444	28654.83
741.784	28450.54
742.124	28435.62
742.464	28472.46
742.804	28344.33
743.143	28304.1
743.483	28404.89
743.823	28190.21
744.162	28140.04
744.502	28271.11
744.841	28168.96
745.181	28249.86
745.52	28137.78
745.86	28115.4
746.199	27992.92
746.538	27951.79
746.877	28025.24
747.216	27917.44
747.556	27957.67
747.895	28024.33
748.234	27799.48
748.573	27843.1
748.911	27769.88
749.25	27694.85
749.589	27503.44
749.928	27552.48
750.267	27573.5
750.605	27515.19
750.944	27532.14
751.283	27371.02
751.621	27382.32
751.96	27288.31
752.298	27295.09
752.636	27297.8
752.975	27038.82
753.313	27020.52
753.651	27067.07
753.989	26894.87
754.327	26893.52
754.666	26844.93
755.004	26722
755.342	26842.22
755.679	26722.9
756.017	26520.64
756.355	26600.87
756.693	26572.17
