Data from hue_120_FLMS001491_00006.txt Node
Date: Tue Feb 07 16:58:51 GMT 2017
User: dcchb
Spectrometer: FLMS00149
Trigger mode: 0
Integration Time (sec): 2.000000E-2
Scans to average: 10
Electric dark correction enabled: true
Nonlinearity correction enabled: false
Boxcar width: 0
XAxis mode: Wavelengths
Number of Pixels in Spectrum: 2048
>>>>>Begin Spectral Data<<<<<
341.393	1.29
341.776	1.29
342.16	1.29
342.543	-85.94
342.927	-69.22
343.31	-64.93
343.693	-56.11
344.077	-73.74
344.46	-58.15
344.843	-59.28
345.226	-50.69
345.61	-26.51
345.993	-24.25
346.376	-4.59
346.759	0.61
347.142	31.79
347.525	65.92
347.908	57.33
348.291	58.68
348.674	99.36
349.057	104.56
349.44	131.23
349.823	142.3
350.206	167.38
350.588	181.85
350.971	223.43
351.354	224.1
351.737	267.04
352.119	251.45
352.502	268.17
352.884	280.37
353.267	283.54
353.65	303.42
354.032	301.62
354.414	316.31
354.797	299.36
355.179	306.59
355.562	310.66
355.944	306.59
356.326	348.85
356.709	338
357.091	326.93
357.473	342.97
357.855	333.03
358.238	339.13
358.62	326.93
359.002	349.98
359.384	332.58
359.766	340.26
360.148	357.43
360.53	328.73
360.912	347.94
361.294	342.52
361.676	327.38
362.057	332.8
362.439	335.51
362.821	341.16
363.203	344.55
363.584	335.51
363.966	317.21
364.348	340.03
364.729	339.36
365.111	301.84
365.493	322.41
365.874	333.25
366.256	336.87
366.637	316.08
367.019	295.97
367.4	303.2
367.781	297.77
368.163	336.19
368.544	309.53
368.925	304.55
369.306	340.94
369.688	304.33
370.069	297.1
370.45	301.84
370.831	321.73
371.212	317.66
371.593	317.44
371.974	321.95
372.355	323.31
372.736	312.92
373.117	308.17
373.498	323.76
373.879	338.23
374.26	311.33
374.641	323.99
375.021	325.57
375.402	334.84
375.783	333.03
376.163	365.12
376.544	330.54
376.925	325.57
377.305	321.05
377.686	345.23
378.066	307.27
378.447	324.44
378.827	344.78
379.208	352.46
379.588	347.49
379.968	338
380.349	344.78
380.729	319.02
381.109	326.93
381.489	348.85
381.87	345.01
382.25	363.99
382.63	338.68
383.01	341.62
383.39	334.61
383.77	350.88
384.15	340.03
384.53	348.85
384.91	347.04
385.29	329.86
385.67	357.43
386.049	369.19
386.429	353.37
386.809	348.85
387.189	356.76
387.568	357.21
387.948	365.34
388.328	363.54
388.707	357.21
389.087	349.52
389.466	375.06
389.846	388.85
390.225	362.86
390.605	378.45
390.984	375.96
391.363	388.17
391.743	387.04
392.122	367.15
392.501	366.47
392.881	374.16
393.26	405.34
393.639	388.17
394.018	374.38
394.397	365.8
394.776	370.77
395.155	395.63
395.534	380.94
395.913	389.52
396.292	410.31
396.671	398.79
397.05	410.54
397.429	397.89
397.808	396.3
398.186	389.3
398.565	387.26
398.944	382.74
399.323	396.76
399.701	432.23
400.08	406.02
400.458	388.62
400.837	427.26
401.215	408.96
401.594	433.36
401.972	415.06
402.351	429.75
402.729	431.56
403.107	428.84
403.486	424.55
403.864	424.33
404.242	436.98
404.62	440.14
404.999	457.77
405.377	443.76
405.755	414.83
406.133	431.1
406.511	454.38
406.889	447.38
407.267	452.12
407.645	455.96
408.023	457.32
408.401	463.65
408.779	483.31
409.156	464.32
409.534	456.41
409.912	476.08
410.29	472.91
410.667	477.43
411.045	478.79
411.422	488.5
411.8	479.46
412.178	483.76
412.555	491.89
412.933	482.18
413.31	493.7
413.687	485.11
414.065	519.46
414.442	526.7
414.819	501.61
415.197	501.84
415.574	495.74
415.951	498
416.328	526.24
416.705	542.29
417.082	527.83
417.46	505.68
417.837	539.8
418.214	545.23
418.591	545.23
418.967	553.14
419.344	547.03
419.721	564.43
420.098	558.11
420.475	541.61
420.852	570.31
421.228	580.03
421.605	556.98
421.982	570.08
422.358	556.75
422.735	578.67
423.111	555.4
423.488	602.63
423.864	599.69
424.241	594.49
424.617	592.68
424.994	593.59
425.37	606.69
425.746	602.4
426.123	596.52
426.499	597.88
426.875	608.73
427.251	606.47
427.627	636.52
428.003	653.47
428.379	636.97
428.756	642.85
429.132	657.77
429.507	661.61
429.883	650.08
430.259	657.99
430.635	668.84
431.011	664.54
431.387	695.96
431.763	713.58
432.138	691.89
432.514	694.6
432.89	718.33
433.265	690.98
433.641	730.98
434.016	728.05
434.392	756.07
434.767	740.25
435.143	756.29
435.518	765.78
435.894	754.26
436.269	767.14
436.644	762.4
437.02	790.19
437.395	783.19
437.77	783.19
438.145	807.82
438.52	805.78
438.895	808.27
439.271	809.17
439.646	822.73
440.021	838.1
440.395	827.93
440.77	817.76
441.145	820.25
441.52	859.79
441.895	835.16
442.27	851.88
442.645	851.66
443.019	875.39
443.394	874.93
443.769	888.95
444.143	860.7
444.518	873.8
444.892	912
445.267	910.19
445.641	909.28
446.016	898.66
446.39	904.99
446.764	892.79
447.139	955.84
447.513	947.48
447.887	918.78
448.262	941.6
448.636	951.77
449.01	968.27
449.384	970.3
449.758	970.3
450.132	984.31
450.506	999.45
450.88	1014.82
451.254	981.37
451.628	1010.75
452.002	1012.33
452.376	1011.88
452.75	1035.83
453.123	1036.96
453.497	1043.07
453.871	1066.57
454.244	1070.18
454.618	1096.4
454.992	1068.83
455.365	1099.56
455.739	1135.94
456.112	1133.01
456.486	1121.26
456.859	1150.63
457.232	1196.28
457.606	1203.06
457.979	1207.81
458.352	1202.61
458.725	1237.41
459.099	1234.7
459.472	1259.56
459.845	1292.32
460.218	1264.53
460.591	1326.45
460.964	1304.75
461.337	1331.42
461.71	1331.19
462.083	1378.65
462.456	1368.93
462.829	1395.37
463.201	1408.03
463.574	1400.34
463.947	1443.51
464.32	1494.35
464.692	1460
465.065	1500.91
465.438	1504.3
465.81	1532.32
466.183	1571.41
466.555	1593.79
466.928	1594.24
467.3	1612.09
467.672	1630.85
468.045	1682.6
468.417	1715.36
468.789	1718.08
469.161	1735.93
469.534	1773.22
469.906	1850.28
470.278	1896.38
470.65	1910.61
471.022	1909.71
471.394	1976.15
471.766	2003.94
472.138	2004.4
472.51	2088.69
472.882	2158.74
473.253	2165.07
473.625	2186.31
473.997	2256.37
474.369	2291.17
474.74	2377.95
475.112	2414.1
475.484	2473.31
475.855	2524.83
476.227	2630.82
476.598	2679.18
476.97	2706.07
477.341	2814.09
477.713	2871.94
478.084	2912.85
478.455	2968.21
478.827	3059.96
479.198	3181.31
479.569	3236.91
479.94	3334.98
480.311	3394.19
480.682	3528.65
481.053	3575.43
481.424	3702.88
481.795	3824.24
482.166	3938.58
482.537	4006.38
482.908	4075.98
483.279	4207.95
483.65	4325.92
484.021	4452.02
484.391	4586.48
484.762	4643.88
485.133	4774.27
485.503	4892.46
485.874	5092.22
486.244	5180.81
486.615	5319.34
486.985	5403.4
487.356	5625.77
487.726	5664.87
488.097	5924.29
488.467	5980.11
488.837	6138.98
489.207	6322.25
489.578	6489.02
489.948	6543.26
490.318	6763.59
490.688	6871.16
491.058	7032.74
491.428	7182.34
491.798	7350.02
492.168	7604.48
492.538	7640.86
492.908	7797.24
493.278	7992.71
493.648	8095.31
494.017	8279.26
494.387	8341.4
494.757	8524.9
495.126	8732.81
495.496	8747.72
495.866	9002.63
496.235	9129.18
496.605	9265.9
496.974	9382.06
497.344	9561.71
497.713	9646.46
498.082	9748.37
498.452	9949.95
498.821	10071.53
499.19	10107.01
499.559	10294.35
499.928	10421.35
500.298	10521.91
500.667	10640.55
501.036	10730.95
501.405	10862.69
501.774	10990.83
502.143	11074.44
502.512	11091.62
502.88	11323.93
503.249	11350.14
503.618	11382.91
503.987	11562.34
504.356	11611.6
504.724	11742.9
505.093	11852.73
505.462	11913.97
505.83	12067.63
506.199	12199.83
506.567	12277.8
506.936	12303.33
507.304	12513.05
507.672	12533.61
508.041	12596.89
508.409	12719.37
508.777	12833.26
509.145	12965.69
509.514	12818.8
509.882	13005.01
510.25	13045.69
510.618	13190.09
510.986	13102.64
511.354	13308.73
511.722	13340.6
512.09	13517.31
512.458	13431.44
512.826	13600.93
513.193	13652
513.561	13700.13
513.929	13783.97
514.297	13813.58
514.664	13799.11
515.032	13949.85
515.4	14034.14
515.767	14035.49
516.135	14094.02
516.502	13935.83
516.869	14278.2
517.237	14270.51
517.604	14143.96
517.972	14275.49
518.339	14390.29
518.706	14349.38
519.073	14359.1
519.44	14481.58
519.808	14560.22
520.175	14464.18
520.542	14645.42
520.909	14643.84
521.276	14597.74
521.643	14768.81
522.009	14751.86
522.376	14888.58
522.743	14825.53
523.11	14968.8
523.477	15028.46
523.843	14983.72
524.21	15121.57
524.577	15164.28
524.943	15104.39
525.31	15129.02
525.676	15296.25
526.043	15268.91
526.409	15270.26
526.776	15413.76
527.142	15321.33
527.508	15408.56
527.874	15456.25
528.241	15422.8
528.607	15453.08
528.973	15484.95
529.339	15408.79
529.705	15591.61
530.071	15514.78
530.437	15565.17
530.803	15538.96
531.169	15592.97
531.535	15476.58
531.901	15522.46
532.267	15543.7
532.632	15519.97
532.998	15514.78
533.364	15499.63
533.73	15507.54
534.095	15547.77
534.461	15509.58
534.826	15527.88
535.192	15456.02
535.557	15600.2
535.923	15410.82
536.288	15436.81
536.653	15418.28
537.019	15336.93
537.384	15415.8
537.749	15344.16
538.114	15341.22
538.479	15265.74
538.845	15262.8
539.21	15101.68
539.575	15200.66
539.94	15059.42
540.305	15173.99
540.67	15102.58
541.034	15079.98
541.399	15059.42
541.764	15054.45
542.129	15018.97
542.494	14992.3
542.858	14934.45
543.223	14884.74
543.587	14862.36
543.952	14857.17
544.316	14793.66
544.681	14719.99
545.045	14743.5
545.41	14772.42
545.774	14714.8
546.138	14679.77
546.503	14599.55
546.867	14573.78
547.231	14591.86
547.595	14524.97
547.959	14504.18
548.324	14440
548.688	14350.96
549.052	14338.08
549.416	14365.2
549.779	14318.65
550.143	14247.92
550.507	14346.67
550.871	14211.53
551.235	14163.4
551.599	14214.24
551.962	14074.81
552.326	14178.99
552.689	14110.07
553.053	13934.03
553.417	13930.64
553.78	14106.68
554.143	13916.63
554.507	13972.9
554.87	13887.7
555.234	13961.14
555.597	13870.07
555.96	13969.05
556.323	13906.23
556.686	13835.72
557.05	13901.48
557.413	13890.19
557.776	13778.55
558.139	13907.36
558.502	13818.1
558.865	13762.05
559.228	13790.08
559.59	13771.54
559.953	13816.06
560.316	13849.06
560.679	13866.68
561.041	13861.26
561.404	13820.13
561.767	13806.12
562.129	13736.07
562.492	13782.62
562.854	13717.53
563.217	13817.87
563.579	13732.9
563.941	13857.87
564.304	13804.76
564.666	13933.8
565.028	13790.3
565.39	13922.73
565.753	13925.89
566.115	13942.84
566.477	13981.48
566.839	13877.53
567.201	13946.68
567.563	13897.64
567.925	14068.26
568.287	14039.79
568.648	13943.97
569.01	13995.72
569.372	14087.47
569.734	13945.1
570.095	14102.84
570.457	14023.74
570.819	14082.5
571.18	14110.52
571.542	14068.03
571.903	14187.58
572.265	14215.37
572.626	14165.43
572.987	14133.8
573.349	14194.13
573.71	14212.44
574.071	14222.38
574.432	14219.89
574.794	14316.16
575.155	14273.9
575.516	14230.97
575.877	14290.85
576.238	14261.48
576.599	14253.57
576.96	14191.65
577.32	14242.27
577.681	14371.98
578.042	14273.23
578.403	14309.38
578.763	14260.57
579.124	14337.86
579.485	14364.98
579.845	14309.16
580.206	14380.79
580.566	14284.3
580.927	14331.98
581.287	14402.04
581.648	14284.07
582.008	14289.05
582.368	14360.91
582.728	14319.55
583.089	14327.01
583.449	14199.33
583.809	14242.04
584.169	14332.21
584.529	14199.1
584.889	14344.41
585.249	14276.62
585.609	14200.91
585.969	14256.28
586.329	14223.74
586.688	14223.28
587.048	14262.38
587.408	14133.57
587.768	14202.04
588.127	14065.77
588.487	14150.52
588.846	14199.78
589.206	14130.86
589.565	14096.28
589.925	14204.08
590.284	14043.63
590.643	14102.61
591.003	14094.25
591.362	14112.1
591.721	13981.03
592.08	14089.95
592.44	14108.48
592.799	14079.11
593.158	14104.64
593.517	14058.99
593.876	14055.83
594.235	13987.13
594.593	14006.79
594.952	14081.82
595.311	13938.55
595.67	13946.91
596.029	14121.82
596.387	14081.82
596.746	14114.59
597.104	13937.87
597.463	13969.96
597.822	14108.48
598.18	13923.86
598.538	13948.26
598.897	14091.54
599.255	13959.34
599.613	14170.18
599.972	14080.01
600.33	14004.76
600.688	13982.61
601.046	13983.29
601.404	14135.15
601.762	13995.04
602.12	14015.15
602.478	14070.07
602.836	14020.8
603.194	13972.44
603.552	13963.4
603.91	13830.53
604.268	13935.16
604.625	13918.89
604.983	14021.03
605.341	13938.09
605.698	14035.27
606.056	14026.91
606.413	14039.11
606.771	14107.58
607.128	14068.26
607.485	14035.49
607.843	13952.56
608.2	14080.46
608.557	14091.54
608.914	14038.2
609.272	14088.6
609.629	14164.53
609.986	14161.36
610.343	14076.62
610.7	14138.99
611.057	14077.75
611.414	14053.12
611.771	14100.58
612.127	14257.63
612.484	14168.6
612.841	14198.43
613.198	14211.08
613.554	14159.11
613.911	14188.26
614.267	14245.88
614.624	14195.49
614.98	14222.83
615.337	14197.75
615.693	14278.2
616.05	14229.84
616.406	14374.92
616.762	14279.78
617.118	14337.41
617.475	14363.39
617.831	14344.86
618.187	14318.2
618.543	14329.95
618.899	14336.05
619.255	14402.94
619.611	14401.13
619.967	14475.71
620.323	14440.68
620.678	14363.85
621.034	14432.32
621.39	14311.19
621.746	14314.58
622.101	14441.36
622.457	14428.93
622.812	14361.13
623.168	14417.63
623.523	14427.8
623.879	14387.8
624.234	14342.83
624.589	14404.97
624.945	14440
625.3	14387.35
625.655	14444.97
626.01	14395.03
626.365	14430.51
626.72	14432.54
627.075	14465.99
627.43	14381.47
627.785	14362.26
628.14	14396.39
628.495	14379.21
628.85	14408.36
629.205	14328.59
629.559	14364.07
629.914	14345.09
630.269	14376.95
630.623	14375.37
630.978	14323.62
631.332	14310.97
631.687	14313.9
632.041	14266.67
632.396	14301.93
632.75	14273.9
633.104	14216.05
633.459	14176.73
633.813	14185.77
634.167	14187.58
634.521	14147.81
634.875	14181.93
635.229	14161.36
635.583	14105.32
635.937	14111.42
636.291	14122.72
636.645	14050.41
636.999	14070.75
637.352	14058.77
637.706	14006.11
638.06	14003.85
638.413	14022.84
638.767	13944.87
639.121	13949.62
639.474	13940.58
639.828	13893.12
640.181	13924.76
640.534	13958.88
640.888	13842.05
641.241	13888.6
641.594	13815.84
641.947	13903.07
642.301	13859.68
642.654	13796.18
643.007	13800.02
643.36	13856.06
643.713	13779.23
644.066	13834.59
644.419	13685.45
644.771	13623.75
645.124	13569.29
645.477	13578.1
645.83	13508.95
646.182	13386.7
646.535	13304.44
646.888	13447.03
647.24	13305.57
647.593	13440.03
647.945	13344.89
648.298	13303.53
648.65	13230.54
649.002	13272.57
649.355	13398
649.707	13353.48
650.059	13383.31
650.411	13517.31
650.763	13588.05
651.115	13700.59
651.467	13640.7
651.819	13637.08
652.171	13613.13
652.523	13642.28
652.875	13724.99
653.227	13605.9
653.578	13682.96
653.93	13654.49
654.282	13533.13
654.633	13563.19
654.985	13653.36
655.337	13689.74
655.688	13596.63
656.039	13597.76
656.391	13515.96
656.742	13602.96
657.094	13604.32
657.445	13629.63
657.796	13544.21
658.147	13638.21
658.498	13663.52
658.849	13656.75
659.2	13566.35
659.551	13677.76
659.902	13627.59
660.253	13619.46
660.604	13620.36
660.955	13588.05
661.306	13675.28
661.656	13666.69
662.007	13649.97
662.358	13632.79
662.708	13646.58
663.059	13685.45
663.409	13591.66
663.76	13626.46
664.11	13668.27
664.461	13650.42
664.811	13729.29
665.161	13714.37
665.511	13687.48
665.862	13676.63
666.212	13686.58
666.562	13683.86
666.912	13749.85
667.262	13664.65
667.612	13696.74
667.962	13743.75
668.312	13640.02
668.662	13675.05
669.011	13655.62
669.361	13567.48
669.711	13679.34
670.06	13587.59
670.41	13614.94
670.76	13486.58
671.109	13656.75
671.459	13621.27
671.808	13538.78
672.157	13697.42
672.507	13606.8
672.856	13550.08
673.205	13548.73
673.554	13658.33
673.904	13561.15
674.253	13606.13
674.602	13584.43
674.951	13348.73
675.3	13307.15
675.649	13499.24
675.998	13487.03
676.346	13419.01
676.695	13510.76
677.044	13399.8
677.393	13460.82
677.741	13467.15
678.09	13406.36
678.438	13392.57
678.787	13439.35
679.135	13392.8
679.484	13326.58
679.832	13357.09
680.181	13268.51
680.529	13331.33
680.877	13298.34
681.225	13250.88
681.573	13287.72
681.922	13132.47
682.27	13152.58
682.618	13157.32
682.966	13152.58
683.314	13104.67
683.661	13109.87
684.009	13094.27
684.357	13038.23
684.705	13037.1
685.053	13046.37
685.4	12968.18
685.748	12849.76
686.095	12925.92
686.443	12698.8
686.79	12780.38
687.138	12888.86
687.485	12823.77
687.832	12744.68
688.18	12697.9
688.527	12661.07
688.874	12638.92
689.221	12702.42
689.568	12533.61
689.915	12566.38
690.262	12593.95
690.609	12558.7
690.956	12468.08
691.303	12474.4
691.65	12422.88
691.997	12342.43
692.344	12256.1
692.69	12261.08
693.037	12255.65
693.383	12160.97
693.73	12235.99
694.077	12099.27
694.423	12109.89
694.769	11966.85
695.116	12007.3
695.462	11977.69
695.808	11888.43
696.155	11887.75
696.501	11835.32
696.847	11848.88
697.193	11716.46
697.539	11782.67
697.885	11685.72
698.231	11692.73
698.577	11638.04
698.923	11591.04
699.269	11575.22
699.614	11456.58
699.96	11450.25
700.306	11424.04
700.651	11295.68
700.997	11291.84
701.342	11292.74
701.688	11211.61
702.033	11175.45
702.379	11157.6
702.724	11123.7
703.069	11201.44
703.415	11031.5
703.76	11068.56
704.105	10974.33
704.45	10977.72
704.795	10904.73
705.14	10857.5
705.485	10864.95
705.83	10897.72
706.175	10787.67
706.52	10780.66
706.865	10740.21
707.209	10730.04
707.554	10648.24
707.899	10705.18
708.243	10594.23
708.588	10591.74
708.932	10531.18
709.277	10537.73
709.621	10537.96
709.966	10426.55
710.31	10427.68
710.654	10463.84
710.998	10307.68
711.342	10390.39
711.687	10329.6
712.031	10264.74
712.375	10255.93
712.719	10300.22
713.063	10255.03
713.407	10285.31
713.75	10168.7
714.094	10224.29
714.438	10136.61
714.782	10201.7
715.125	10125.09
715.469	10187.23
715.812	10091.42
716.156	10032.43
716.499	10082.15
716.843	10064.52
717.186	9991.76
717.53	10046.22
717.873	10032.21
718.216	10000.34
718.559	9928.03
718.902	9850.52
719.246	9938.88
719.589	9896.39
719.932	9855.94
720.275	9829.95
720.617	9854.59
720.96	9874.25
721.303	9810.52
721.646	9810.07
721.989	9815.49
722.331	9799.22
722.674	9792.21
723.016	9726.45
723.359	9777.98
723.701	9782.5
724.044	9705.89
724.386	9631.77
724.729	9708.83
725.071	9668.83
725.413	9667.47
725.755	9669.05
726.097	9642.16
726.439	9624.31
726.782	9632.9
727.124	9628.83
727.465	9613.01
727.807	9627.92
728.149	9568.94
728.491	9621.37
728.833	9603.07
729.175	9516.97
729.516	9526.23
729.858	9582.28
730.199	9622.28
730.541	9599
730.882	9612.56
731.224	9602.84
731.565	9588.83
731.906	9605.1
732.248	9543.86
732.589	9458.89
732.93	9513.58
733.271	9523.97
733.612	9508.15
733.953	9597.42
734.294	9575.95
734.635	9519.23
734.976	9534.82
735.317	9490.53
735.658	9447.36
735.999	9488.04
736.339	9549.28
736.68	9578.21
737.021	9517.87
737.361	9493.69
737.702	9592.22
738.042	9550.64
738.383	9571.88
738.723	9552.45
739.063	9599.68
739.404	9659.79
739.744	9600.58
740.084	9582.5
740.424	9560.36
740.764	9671.77
741.104	9705.21
741.444	9713.12
741.784	9710.63
742.124	9699.11
742.464	9721.71
742.804	9691.2
743.143	9718.32
743.483	9819.33
743.823	9769.39
744.162	9758.32
744.502	9861.59
744.841	9966.45
745.181	9914.47
745.52	9883.51
745.86	9997.63
746.199	9994.92
746.538	10017.29
746.877	10065.65
747.216	10102.26
747.556	10241.24
747.895	10217.29
748.234	10248.7
748.573	10340
748.911	10355.59
749.25	10459.54
749.589	10467
749.928	10626.32
750.267	10595.58
750.605	10641.46
750.944	10804.39
751.283	10836.03
751.621	10974.56
751.96	11088.45
752.298	11179.52
752.636	11352.85
752.975	11336.13
753.313	11415.45
753.651	11536.12
753.989	11700.19
754.327	11738.83
754.666	11867.19
755.004	11985.15
755.342	12181.3
755.679	12388.98
756.017	12441.18
756.355	12632.14
756.693	12708.3
757.031	12905.13
757.368	13076.42
757.706	13195.74
758.044	13290.65
