Data from hue_70_FLMS001491_89.txt Node
Date: Mon Feb 06 15:21:34 GMT 2017
User: dcchb
Spectrometer: FLMS00149
Trigger mode: 0
Integration Time (sec): 2.000000E-2
Scans to average: 10
Electric dark correction enabled: true
Nonlinearity correction enabled: false
Boxcar width: 0
XAxis mode: Wavelengths
Number of Pixels in Spectrum: 2048
>>>>>Begin Spectral Data<<<<<
341.393	-33.3
341.776	-33.3
342.16	-33.3
342.543	-67.65
342.927	-74.43
343.31	-73.53
343.693	-60.2
344.077	-70.59
344.46	-57.71
344.843	-61.78
345.226	-42.12
345.61	-21.1
345.993	-20.2
346.376	-14.77
346.759	1.72
347.142	39.91
347.525	40.37
347.908	65.68
348.291	67.26
348.674	80.37
349.057	126.69
349.44	126.47
349.823	159.91
350.206	155.84
350.588	188.16
350.971	199.91
351.354	205.56
351.737	249.17
352.119	245.33
352.502	263.86
352.884	267.7
353.267	300.47
353.65	290.3
354.032	297.53
354.414	306.12
354.797	317.65
355.179	322.62
355.562	318.78
355.944	332.34
356.326	305.44
356.709	356.97
357.091	328.49
357.473	366.69
357.855	336.4
358.238	336.4
358.62	355.16
359.002	343.41
359.384	331.66
359.766	345.44
360.148	344.09
360.53	322.62
360.912	338.66
361.294	335.95
361.676	312.9
362.057	318.55
362.439	334.6
362.821	323.07
363.203	304.99
363.584	317.65
363.966	331.88
364.348	333.01
364.729	316.52
365.111	333.01
365.493	306.8
365.874	313.58
366.256	313.58
366.637	344.31
367.019	309.51
367.4	325.78
367.781	288.72
368.163	298.21
368.544	312.68
368.925	305.67
369.306	302.05
369.688	314.71
370.069	314.94
370.45	293.24
370.831	307.03
371.212	314.03
371.593	307.93
371.974	319
372.355	317.65
372.736	301.6
373.117	323.07
373.498	323.07
373.879	303.86
374.26	303.18
374.641	317.87
375.021	321.49
375.402	317.87
375.783	309.29
376.163	307.03
376.544	313.35
376.925	323.75
377.305	334.37
377.686	331.66
378.066	305.44
378.447	327.14
378.827	327.14
379.208	321.04
379.588	339.57
379.968	342.96
380.349	305.9
380.729	335.95
381.109	327.36
381.489	333.24
381.87	318.78
382.25	326.91
382.63	312.9
383.01	337.99
383.39	335.95
383.77	337.08
384.15	338.66
384.53	324.65
384.91	338.66
385.29	357.19
385.67	350.19
386.049	345.67
386.429	335.73
386.809	339.57
387.189	340.02
387.568	343.86
387.948	366.46
388.328	342.28
388.707	362.84
389.087	359.91
389.466	356.06
389.846	348.38
390.225	362.62
390.605	344.99
390.984	370.3
391.363	344.31
391.743	343.64
392.122	347.48
392.501	375.95
392.881	368.95
393.26	368.27
393.639	380.24
394.018	359.68
394.397	373.69
394.776	342.51
395.155	347.48
395.534	376.85
395.913	353.58
396.292	389.51
396.671	402.39
397.05	375.72
397.429	377.31
397.808	388.15
398.186	391.54
398.565	372.11
398.944	399
399.323	364.2
399.701	369.62
400.08	411.88
400.458	403.52
400.837	392.9
401.215	428.15
401.594	369.4
401.972	379.11
402.351	396.29
402.729	390.19
403.107	408.49
403.486	392.45
403.864	404.2
404.242	404.88
404.62	371.66
404.999	404.42
405.377	405.55
405.755	415.05
406.133	418.89
406.511	438.1
406.889	409.4
407.267	410.98
407.645	406.23
408.023	420.24
408.401	414.37
408.779	418.66
409.156	428.38
409.534	426.8
409.912	431.99
410.29	430.64
410.667	452.78
411.045	434.48
411.422	439.45
411.8	436.97
412.178	464.31
412.555	461.6
412.933	449.85
413.31	451.43
413.687	452.33
414.065	447.14
414.442	448.94
414.819	445.78
415.197	472.67
415.574	469.96
415.951	458.21
416.328	480.13
416.705	481.26
417.082	491.65
417.46	492.33
417.837	470.86
418.214	473.12
418.591	490.07
418.967	491.65
419.344	468.15
419.721	509.28
420.098	487.81
420.475	503.18
420.852	512.67
421.228	516.96
421.605	517.87
421.982	527.36
422.358	510.86
422.735	500.24
423.111	534.59
423.488	536.4
423.864	523.74
424.241	533.23
424.617	526
424.994	533.01
425.37	553.8
425.746	532.56
426.123	552.9
426.499	542.95
426.875	542.05
427.251	548.38
427.627	546.12
428.003	542.27
428.379	560.35
428.756	567.58
429.132	549.51
429.507	576.62
429.883	575.27
430.259	602.84
430.635	597.87
431.011	600.35
431.387	604.87
431.763	597.41
432.138	620.69
432.514	604.42
432.89	625.21
433.265	637.19
433.641	623.63
434.016	639.9
434.392	645.55
434.767	649.16
435.143	627.47
435.518	636.51
435.894	658.2
436.269	655.27
436.644	658.88
437.02	679.22
437.395	682.16
437.77	702.04
438.145	685.77
438.52	701.14
438.895	695.72
439.271	695.49
439.646	706.79
440.021	725.55
440.395	720.12
440.77	694.36
441.145	701.37
441.52	756.96
441.895	734.36
442.27	744.3
442.645	733.91
443.019	758.77
443.394	761.48
443.769	746.34
444.143	745.43
444.518	768.26
444.892	761.93
445.267	785.88
445.641	778.65
446.016	779.1
446.39	771.42
446.764	771.19
447.139	790.18
447.513	809.84
447.887	773.68
448.262	806.9
448.636	803.51
449.01	818.42
449.384	802.61
449.758	802.15
450.132	824.3
450.506	821.36
450.88	822.27
451.254	828.59
451.628	815.94
452.002	839.67
452.376	866.33
452.75	854.36
453.123	869.04
453.497	870.4
453.871	875.6
454.244	901.36
454.618	904.98
454.992	911.98
455.365	906.11
455.739	943.85
456.112	932.32
456.486	955.14
456.859	945.65
457.232	962.38
457.606	978.87
457.979	996.27
458.352	1011.64
458.725	1000.11
459.099	1034.92
459.472	1043.05
459.845	1050.96
460.218	1047.12
460.591	1071.53
460.964	1076.27
461.337	1070.4
461.71	1088.93
462.083	1158.53
462.456	1146.55
462.829	1119.43
463.201	1152.88
463.574	1149.72
463.947	1177.06
464.32	1187.91
464.692	1211.63
465.065	1209.15
465.438	1244.18
465.81	1254.57
466.183	1290.05
466.555	1287.79
466.928	1309.49
467.3	1339.54
467.672	1340.44
468.045	1385.64
468.417	1381.8
468.789	1368.69
469.161	1431.52
469.534	1416.38
469.906	1484.17
470.278	1502.93
470.65	1547.45
471.022	1556.48
471.394	1588.12
471.766	1624.05
472.138	1643.26
472.51	1700.21
472.882	1714.45
473.253	1739.3
473.625	1797.83
473.997	1834.67
474.369	1857.27
474.74	1875.12
475.112	1977.26
475.484	1996.25
475.855	2037.38
476.227	2082.57
476.598	2115.11
476.97	2163.47
477.341	2218.16
477.713	2311.72
478.084	2354.2
478.455	2435.33
478.827	2473.3
479.198	2533.86
479.569	2622.22
479.94	2712.16
480.311	2767.98
480.682	2866.96
481.053	2931.14
481.424	3025.82
481.795	3090.23
482.166	3207.29
482.537	3289.55
482.908	3388.53
483.279	3485.02
483.65	3579.48
484.021	3688.18
484.391	3767.73
484.762	3917.78
485.133	3942.64
485.503	4110.32
485.874	4192.12
486.244	4305.11
486.615	4422.85
486.985	4605.44
487.356	4689.51
487.726	4809.73
488.097	5009.05
488.467	5082.95
488.837	5202.49
489.207	5327.68
489.578	5531.52
489.948	5605.42
490.318	5767.22
490.688	5867.33
491.058	6029.36
491.428	6190.94
491.798	6336.47
492.168	6556.8
492.538	6619.85
492.908	6757.7
493.278	6929.68
493.648	7037.7
494.017	7232.04
494.387	7398.82
494.757	7501.19
495.126	7742.08
495.496	7815.3
495.866	7963.77
496.235	8132.81
496.605	8277.21
496.974	8384.1
497.344	8553.59
497.713	8706.58
498.082	8848.5
498.452	9008.04
498.821	9139.34
499.19	9244.19
499.559	9465.88
499.928	9504.52
500.298	9676.72
500.667	9824.52
501.036	9927.56
501.405	10065.87
501.774	10215.69
502.143	10284.39
502.512	10430.6
502.88	10587.21
503.249	10745.85
503.618	10824.49
503.987	10923.02
504.356	11092.05
504.724	11240.98
505.093	11245.04
505.462	11385.6
505.83	11550.12
506.199	11689.1
506.567	11918.25
506.936	11895.2
507.304	12136.09
507.672	12241.18
508.041	12417.44
508.409	12458.12
508.777	12607.04
509.145	12761.84
509.514	12771.78
509.882	12979.91
510.25	12992.57
510.618	13148.72
510.986	13241.37
511.354	13419.45
511.722	13564.3
512.09	13654.02
512.458	13689.27
512.826	13837.74
513.193	13811.98
513.561	13978.3
513.929	14140.79
514.297	14296.94
514.664	14414.9
515.032	14513.43
515.4	14563.37
515.767	14595.24
516.135	14804.5
516.502	14745.74
516.869	14958.62
517.237	15173.08
517.604	14980.54
517.972	15269.8
518.339	15298.5
518.706	15392.73
519.073	15498.72
519.44	15613.97
519.808	15760.4
520.175	15758.82
520.542	15996.1
520.909	16041.3
521.276	16051.02
521.643	16240.39
522.009	16242.2
522.376	16417.34
522.743	16554.28
523.11	16609.65
523.477	16746.14
523.843	16907.27
524.21	17005.34
524.577	17155.17
524.943	17177.09
525.31	17185.9
525.676	17337.76
526.043	17523.07
526.409	17645.1
526.776	17761.03
527.142	17778.43
527.508	17914.7
527.874	18035.15
528.241	17992.21
528.607	18111.98
528.973	18329.38
529.339	18205.09
529.705	18327.57
530.071	18465.87
530.437	18505.19
530.803	18700.89
531.169	18774.34
531.535	18689.14
531.901	18699.76
532.267	18759.2
532.632	18953.32
532.998	18973.2
533.364	19058.4
533.73	19124.16
534.095	19207.09
534.461	19182.91
534.826	19209.81
535.192	19358.28
535.557	19425.85
535.923	19377.48
536.288	19459.97
536.653	19452.51
537.019	19549.01
537.384	19511.94
537.749	19550.81
538.114	19640.75
538.479	19608.21
538.845	19621.77
539.21	19501.78
539.575	19616.35
539.94	19691.6
540.305	19782.45
540.67	19677.14
541.034	19783.58
541.399	19892.5
541.764	19944.48
542.129	19856.57
542.494	19974.53
542.858	19942.44
543.223	19923.46
543.587	20097.47
543.952	20034.87
544.316	20079.61
544.681	19976.57
545.045	20141.76
545.41	20117.58
545.774	20166.16
546.138	20139.27
546.503	20198.03
546.867	20223.34
547.231	20283.68
547.595	20354.41
547.959	20281.42
548.324	20325.48
548.688	20337.01
549.052	20341.53
549.416	20364.13
549.779	20294.97
550.143	20480.73
550.507	20534.97
550.871	20572.93
551.235	20383.79
551.599	20556.44
551.962	20611.35
552.326	20672.37
552.689	20705.36
553.053	20581.97
553.417	20568.64
553.78	20805.24
554.143	20793.94
554.507	20828.52
554.87	20807.5
555.234	20942.64
555.597	20814.51
555.96	20941.29
556.323	20905.13
556.686	20959.82
557.05	21074.39
557.413	21269.41
557.776	21079.36
558.139	21143.54
558.502	21285.91
558.865	21341.05
559.228	21310.99
559.59	21499.01
559.953	21463.08
560.316	21532
560.679	21589.86
561.041	21666.92
561.404	21711.89
561.767	21851.77
562.129	21799.79
562.492	21918.21
562.854	21931.77
563.217	21952.11
563.579	21989.17
563.941	22056.06
564.304	22051.09
564.666	22222.16
565.028	22285.43
565.39	22385.99
565.753	22317.07
566.115	22468.25
566.477	22445.43
566.839	22564.07
567.201	22731.07
567.563	22710.73
567.925	22812.2
568.287	22903.04
568.648	22841.57
569.01	22932.87
569.372	23152.53
569.734	23036.6
570.095	23151.62
570.457	23146.43
570.819	23247.89
571.18	23189.14
571.542	23303.94
571.903	23401.11
572.265	23443.59
572.626	23511.16
572.987	23503.03
573.349	23576.02
573.71	23593.19
574.071	23672.97
574.432	23700.54
574.794	23912.05
575.155	23807.2
575.516	23802.91
575.877	23924.48
576.238	23951.83
576.599	24003.8
576.96	24013.97
577.32	23950.7
577.681	24140.75
578.042	24034.76
578.403	24050.81
578.763	24104.14
579.124	24079.51
579.485	24196.34
579.845	24315.43
580.206	24253.97
580.566	24271.37
580.927	24239.28
581.287	24355.66
581.648	24173.74
582.008	24311.82
582.368	24332.83
582.728	24294.42
583.089	24339.84
583.449	24336
583.809	24331.48
584.169	24362.44
584.529	24294.87
584.889	24469.1
585.249	24282.21
585.609	24291.03
585.969	24320.41
586.329	24344.59
586.688	24363.34
587.048	24404.47
587.408	24326.28
587.768	24340.52
588.127	24405.83
588.487	24286.96
588.846	24433.62
589.206	24287.86
589.565	24261.2
589.925	24425.04
590.284	24254.64
590.643	24361.99
591.003	24389.1
591.362	24439.72
591.721	24328.54
592.08	24358.37
592.44	24520.63
592.799	24498.71
593.158	24353.63
593.517	24364.02
593.876	24335.32
594.235	24394.53
594.593	24321.31
594.952	24381.87
595.311	24382.1
595.67	24369.44
596.029	24607.4
596.387	24616.44
596.746	24638.14
597.104	24467.29
597.463	24349.33
597.822	24427.07
598.18	24404.25
598.538	24332.61
598.897	24453.96
599.255	24401.53
599.613	24704.12
599.972	24528.31
600.33	24633.62
600.688	24502.77
601.046	24565.6
601.404	24624.8
601.762	24740.51
602.12	24671.36
602.478	24721.98
602.836	24733.95
603.194	24622.54
603.552	24612.15
603.91	24614.64
604.268	24631.13
604.625	24686.72
604.983	24780.96
605.341	24681.53
605.698	24779.6
606.056	24889.2
606.413	24753.84
606.771	24801.97
607.128	24888.98
607.485	24829.32
607.843	24818.25
608.2	24914.97
608.557	24960.61
608.914	24902.31
609.272	25063.66
609.629	25091.01
609.986	25202.64
610.343	25062.08
610.7	25258.91
611.057	25215.3
611.414	25154.28
611.771	25133.49
612.127	25316.99
612.484	25260.95
612.841	25411.9
613.198	25251.23
613.554	25282.41
613.911	25480.38
614.267	25502.75
614.624	25521.96
614.98	25469.08
615.337	25682.63
615.693	25559.24
616.05	25554.5
616.406	25612.8
616.762	25662.74
617.118	25546.59
617.475	25702.29
617.831	25827.48
618.187	25811.67
618.543	25858.22
618.899	25969.18
619.255	25971.44
619.611	25846.92
619.967	25972.79
620.323	26082.17
620.678	26045.11
621.034	25842.4
621.39	25977.54
621.746	25842.4
622.101	26179.57
622.457	26066.35
622.812	26060.02
623.168	26137.76
623.523	26023.64
623.879	26196.97
624.234	25933.24
624.589	26091.21
624.945	26139.79
625.3	26105.22
625.655	26138.44
626.01	26180.92
626.365	26262.05
626.72	26072.9
627.075	26161.04
627.43	26140.02
627.785	26134.14
628.14	26109.29
628.495	26177.76
628.85	26146.12
629.205	26042.17
629.559	26217.08
629.914	26105.22
630.269	26209.85
630.623	25988.84
630.978	26010.08
631.332	26208.94
631.687	26159.91
632.041	26030.42
632.396	26023.19
632.75	26010.53
633.104	26024.54
633.459	25874.04
633.813	25856.64
634.167	25918.1
634.521	25947.48
634.875	25946.58
635.229	25844.43
635.583	25832.46
635.937	25775.06
636.291	25719.92
636.645	25803.08
636.999	25733.02
637.352	25734.61
637.706	25584.33
638.06	25667.71
638.413	25700.26
638.767	25575.29
639.121	25644.21
639.474	25474.5
639.828	25522.18
640.181	25525.35
640.534	25565.8
640.888	25448.96
641.241	25437.21
641.594	25351.57
641.947	25545.01
642.301	25438.34
642.654	25406.93
643.007	25457.1
643.36	25427.5
643.713	25371
644.066	25371.45
644.419	25294.84
644.771	24966.26
645.124	24908.19
645.477	24851.47
645.83	24673.16
646.182	24612.38
646.535	24583.45
646.888	24592.94
647.24	24408.76
647.593	24648.31
647.945	24548.2
648.298	24429.33
648.65	24423
649.002	24418.48
649.355	24422.1
649.707	24448.54
650.059	24594.07
650.411	24798.81
650.763	24809.21
651.115	25125.36
651.467	24937.11
651.819	24977.79
652.171	24976.43
652.523	24938.92
652.875	24930.56
653.227	24845.59
653.578	24999.03
653.93	24898.7
654.282	24754.29
654.633	24750.45
654.985	24810.11
655.337	24835.42
655.688	24837.45
656.039	24979.15
656.391	24709.77
656.742	24772.82
657.094	24876.32
657.445	24905.48
657.796	24947.51
658.147	24818.25
658.498	24733.5
658.849	24958.81
659.2	24962.2
659.551	24789.55
659.902	24820.96
660.253	24786.83
660.604	24883.33
660.955	24732.82
661.306	24978.47
661.656	24867.96
662.007	24838.36
662.358	24836.1
662.708	24931.01
663.059	24864.35
663.409	24618.48
663.76	24953.61
664.11	24831.58
664.461	24929.66
664.811	24833.61
665.161	24874.06
665.511	24861.18
665.862	24786.16
666.212	24955.64
666.562	24990.67
666.912	24856.66
667.262	24833.39
667.612	24877.68
667.962	24929.2
668.312	24816.89
668.662	24925.59
669.011	24801.3
669.361	24781.41
669.711	24754.97
670.06	24697.34
670.41	24697.57
670.76	24730.11
671.109	24802.43
671.459	24808.98
671.808	24656.89
672.157	24765.37
672.507	24624.8
672.856	24545.94
673.205	24755.87
673.554	24626.39
673.904	24491.47
674.253	24750.45
674.602	24558.59
674.951	24253.74
675.3	24109.34
675.649	24498.71
675.998	24500.51
676.346	24578.03
676.695	24492.6
677.044	24388.43
677.393	24532.6
677.741	24437.92
678.09	24450.8
678.438	24277.92
678.787	24613.05
679.135	24439.5
679.484	24183.91
679.832	24379.16
680.181	24078.83
680.529	24209.45
680.877	24246.28
681.225	24175.55
681.573	24224.82
681.922	24184.36
682.27	24073.63
682.618	23987.76
682.966	23937.36
683.314	23969
683.661	23863.47
684.009	23685.39
684.357	23659.41
684.705	23816.01
685.053	23736.24
685.4	23729.23
685.748	23567.43
686.095	23703.25
686.443	23516.13
686.79	23506.42
687.138	23479.75
687.485	23439.75
687.832	23400.66
688.18	23475
688.527	23308.91
688.874	23319.3
689.221	23213.09
689.568	23136.26
689.915	23087.67
690.262	23145.97
690.609	23013.55
690.956	22885.64
691.303	22784.63
691.65	22829.15
691.997	22746.21
692.344	22663.5
692.69	22627.12
693.037	22635.25
693.383	22408.59
693.73	22428.48
694.077	22394.35
694.423	22336.28
694.769	22208.6
695.116	22237.3
695.462	22107.13
695.808	22139.9
696.155	22012.44
696.501	21779.91
696.847	21923.41
697.193	21699.46
697.539	21840.24
697.885	21589.4
698.231	21558.22
698.577	21533.13
698.923	21438.45
699.269	21336.98
699.614	21266.7
699.96	21172.92
700.306	21186.48
700.651	21160.94
700.997	21119.13
701.342	21031.68
701.688	20980.83
702.033	20930.66
702.379	20918.24
702.724	20787.62
703.069	20800.5
703.415	20614.74
703.76	20548.08
704.105	20579.49
704.45	20504.91
704.795	20398.02
705.14	20408.87
705.485	20297.46
705.83	20133.17
706.175	20206.39
706.52	20160.97
706.865	20086.62
707.209	19942.44
707.554	19987.19
707.899	20047.07
708.243	19903.8
708.588	19803.01
708.932	19825.83
709.277	19688.44
709.621	19732.5
709.966	19685.5
710.31	19663.58
710.654	19466.3
710.998	19481.89
711.342	19580.19
711.687	19346.98
712.031	19309.01
712.375	19291.39
712.719	19415.45
713.063	19226.3
713.407	19313.08
713.75	19148.56
714.094	19059.98
714.438	19165.29
714.782	19029.7
715.125	19047.55
715.469	18979.3
715.812	18874.45
716.156	18841.91
716.499	18804.39
716.843	18831.96
717.186	18728.24
717.53	18822.92
717.873	18841.68
718.216	18666.77
718.559	18678.29
718.902	18518.3
719.246	18594
719.589	18591.52
719.932	18469.71
720.275	18432.42
720.617	18406.89
720.96	18469.71
721.303	18388.13
721.646	18357.17
721.989	18250.96
722.331	18400.11
722.674	18263.84
723.016	18325.31
723.359	18296.38
723.701	18278.08
724.044	18094.58
724.386	18028.59
724.729	18134.58
725.071	18158.31
725.413	18058.2
725.755	18118.53
726.097	17945.43
726.439	17944.3
726.782	18029.5
727.124	17934.13
727.465	17973.23
727.807	17986.79
728.149	18008.93
728.491	17921.03
728.833	17890.29
729.175	17764.19
729.516	17878.99
729.858	17752.67
730.199	17793.35
730.541	17701.6
730.882	17731.88
731.224	17850.75
731.565	17632.45
731.906	17665.89
732.248	17741.37
732.589	17580.24
732.93	17584.99
733.271	17679
733.612	17615.5
733.953	17636.29
734.294	17589.28
734.635	17570.3
734.976	17570.3
735.317	17562.84
735.658	17534.82
735.999	17564.65
736.339	17536.63
736.68	17522.62
737.021	17488.49
737.361	17492.79
737.702	17517.65
738.042	17476.97
738.383	17432.9
738.723	17413.47
739.063	17445.11
739.404	17527.36
739.744	17506.12
740.084	17426.8
740.424	17470.42
740.764	17371.44
741.104	17505.22
741.444	17407.37
741.784	17459.8
742.124	17456.41
742.464	17481.72
742.804	17500.92
743.143	17413.69
743.483	17456.18
743.823	17325.34
744.162	17441.49
744.502	17415.95
744.841	17560.36
745.181	17541.83
745.52	17531.21
745.86	17539.79
746.199	17615.27
746.538	17588.61
746.877	17732.1
747.216	17688.72
747.556	17594.93
747.895	17816.17
748.234	17644.88
748.573	17749.96
748.911	17809.62
749.25	17879.67
749.589	17870.41
749.928	17881.03
750.267	17911.53
750.605	17974.58
750.944	17968.71
751.283	18007.13
751.621	18128.7
751.96	18028.59
752.298	18165.99
752.636	18252.32
752.975	18250.06
753.313	18262.94
753.651	18409.37
753.989	18343.16
754.327	18460.9
754.666	18516.49
755.004	18615.7
755.342	18601.69
755.679	18736.82
756.017	18678.97
756.355	18762.81
756.693	18929.14
757.031	18866.31
757.368	18937.04
