Data from hue_150_FLMS001491_00066.txt Node
Date: Tue Feb 07 16:54:22 GMT 2017
User: dcchb
Spectrometer: FLMS00149
Trigger mode: 0
Integration Time (sec): 2.000000E-2
Scans to average: 10
Electric dark correction enabled: true
Nonlinearity correction enabled: false
Boxcar width: 0
XAxis mode: Wavelengths
Number of Pixels in Spectrum: 2048
>>>>>Begin Spectral Data<<<<<
341.393	-7.1
341.776	-7.1
342.16	-7.1
342.543	-75.8
342.927	-52.3
343.31	-70.38
343.693	-69.93
344.077	-62.7
344.46	-58.4
344.843	-45.52
345.226	-57.72
345.61	-33.32
345.993	-3.71
346.376	-12.98
346.759	-0.1
347.142	17.3
347.525	52.1
347.908	56.62
348.291	85.1
348.674	90.97
349.057	112.67
349.44	134.36
349.823	147.24
350.206	172.55
350.588	210.74
350.971	222.27
351.354	236.51
351.737	248.71
352.119	257.07
352.502	281.93
352.884	277.18
353.267	293.23
353.65	303.62
354.032	299.78
354.414	308.37
354.797	309.5
355.179	326.45
355.562	321.93
355.944	329.84
356.326	338.65
356.709	346.11
357.091	343.39
357.473	349.72
357.855	342.04
358.238	331.87
358.62	342.27
359.002	354.24
359.384	338.42
359.766	344.07
360.148	343.85
360.53	339.33
360.912	325.09
361.294	338.88
361.676	336.16
362.057	337.52
362.439	353.79
362.821	315.15
363.203	313.57
363.584	324.41
363.966	338.88
364.348	311.31
364.729	327.12
365.111	322.38
365.493	330.74
365.874	324.19
366.256	305.88
366.637	315.6
367.019	311.08
367.4	320.34
367.781	322.38
368.163	325.77
368.544	333.9
368.925	312.21
369.306	345.2
369.688	315.37
370.069	333.45
370.45	321.02
370.831	319.89
371.212	331.87
371.593	305.43
371.974	322.15
372.355	322.38
372.736	326.22
373.117	324.86
373.498	330.06
373.879	334.81
374.26	321.47
374.641	340.91
375.021	318.76
375.402	323.06
375.783	332.55
376.163	337.97
376.544	353.56
376.925	358.31
377.305	297.97
377.686	331.19
378.066	320.8
378.447	334.81
378.827	343.17
379.208	328.48
379.588	338.2
379.968	354.02
380.349	350.17
380.729	330.29
381.109	332.55
381.489	337.52
381.87	375.94
382.25	338.88
382.63	358.08
383.01	356.95
383.39	361.7
383.77	350.85
384.15	359.44
384.53	341.36
384.91	347.24
385.29	350.63
385.67	344.07
386.049	366.67
386.429	366.45
386.809	363.96
387.189	352.21
387.568	367.35
387.948	358.54
388.328	383.62
388.707	361.02
389.087	370.29
389.466	359.44
389.846	371.42
390.225	360.57
390.605	363.73
390.984	383.85
391.363	370.96
391.743	355.82
392.122	378.65
392.501	391.53
392.881	427.91
393.26	397.18
393.639	377.97
394.018	387.24
394.397	412.09
394.776	407.57
395.155	410.74
395.534	419.78
395.913	392.21
396.292	404.41
396.671	401.92
397.05	385.43
397.429	400.34
397.808	409.16
398.186	415.71
398.565	410.51
398.944	410.51
399.323	411.42
399.701	395.82
400.08	408.7
400.458	404.18
400.837	440.34
401.215	431.75
401.594	422.04
401.972	441.02
402.351	434.24
402.729	430.17
403.107	410.06
403.486	443.28
403.864	430.62
404.242	452.77
404.62	426.1
404.999	426.33
405.377	466.78
405.755	450.96
406.133	445.99
406.511	459.55
406.889	457.52
407.267	464.52
407.645	477.85
408.023	467.01
408.401	464.52
408.779	473.56
409.156	460.23
409.534	475.82
409.912	499.1
410.29	489.15
410.667	493.22
411.045	488.93
411.422	494.13
411.8	481.7
412.178	504.75
412.555	498.19
412.933	507.01
413.31	517.63
413.687	533.67
414.065	545.88
414.442	521.24
414.819	522.83
415.197	519.44
415.574	540.45
415.951	535.71
416.328	544.97
416.705	551.75
417.082	542.49
417.46	564.41
417.837	535.03
418.214	554.24
418.591	563.95
418.967	571.41
419.344	599.89
419.721	563.5
420.098	559.66
420.475	576.16
420.852	582.94
421.228	576.61
421.605	579.09
421.982	589.49
422.358	576.16
422.735	622.71
423.111	613.67
423.488	628.36
423.864	627
424.241	609.83
424.617	616.16
424.994	618.64
425.37	644.86
425.746	629.49
426.123	671.07
426.499	672.88
426.875	667.45
427.251	653.67
427.627	658.41
428.003	687.34
428.379	678.75
428.756	689.37
429.132	665.65
429.507	692.54
429.883	712.42
430.259	705.19
430.635	701.8
431.011	706.1
431.387	740.45
431.763	755.36
432.138	742.25
432.514	750.39
432.89	770.95
433.265	746.32
433.641	749.03
434.016	766.66
434.392	785.87
434.767	800.78
435.143	790.39
435.518	814.57
435.894	815.7
436.269	831.07
436.644	824.51
437.02	844.4
437.395	863.61
437.77	857.05
438.145	829.71
438.52	863.38
438.895	876.49
439.271	875.36
439.646	883.04
440.021	904.96
440.395	894.34
440.77	904.74
441.145	896.83
441.52	901.12
441.895	910.16
442.27	927.56
442.645	938.41
443.019	956.94
443.394	959.2
443.769	950.61
444.143	967.56
444.518	972.08
444.892	946.77
445.267	1001.68
445.641	991.51
446.016	960.78
446.39	986.32
446.764	1017.5
447.139	983.38
447.513	1014.11
447.887	999.42
448.262	1042.13
448.636	1028.12
449.01	1043.49
449.384	1059.76
449.758	1065.64
450.132	1088.23
450.506	1073.77
450.88	1083.49
451.254	1076.71
451.628	1099.08
452.002	1127.1
452.376	1125.97
452.75	1125.52
453.123	1102.47
453.497	1163.03
453.871	1146.09
454.244	1175.46
454.618	1170.04
454.992	1200.1
455.365	1214.33
455.739	1215.01
456.112	1248.68
456.486	1267.66
456.859	1247.78
457.232	1307.66
457.606	1312.41
457.979	1335.01
458.352	1315.12
458.725	1334.56
459.099	1364.16
459.472	1389.02
459.845	1393.76
460.218	1423.37
460.591	1426.3
460.964	1427.89
461.337	1447.77
461.71	1467.89
462.083	1491.61
462.456	1493.42
462.829	1507.43
463.201	1550.82
463.574	1586.3
463.947	1576.13
464.32	1645.28
464.692	1660.87
465.065	1639.86
465.438	1722.12
465.81	1726.86
466.183	1722.34
466.555	1777.26
466.928	1784.26
467.3	1813.86
467.672	1800.76
468.045	1861.1
468.417	1879.17
468.789	1917.82
469.161	1935.9
469.534	1968.21
469.906	1991.26
470.278	2043.24
470.65	2091.6
471.022	2100.86
471.394	2140.41
471.766	2199.39
472.138	2195.1
472.51	2260.63
472.882	2313.51
473.253	2356.45
473.625	2440.97
473.997	2458.14
474.369	2508.08
474.74	2531.36
475.112	2589.21
475.484	2620.62
475.855	2752.37
476.227	2804.35
476.598	2872.82
476.97	2911.91
477.341	2981.29
477.713	3033.04
478.084	3072.59
478.455	3233.04
478.827	3281.62
479.198	3343.32
479.569	3404.11
479.94	3515.06
480.311	3588.73
480.682	3692.46
481.053	3839.12
481.424	3940.14
481.795	4021.94
482.166	4071.66
482.537	4162.28
482.908	4352.33
483.279	4411.99
483.65	4550.74
484.021	4667.8
484.391	4787.12
484.762	4869.38
485.133	4915.48
485.503	5081.58
485.874	5223.94
486.244	5383.49
486.615	5444.28
486.985	5534.67
487.356	5761.56
487.726	5839.97
488.097	6034.77
488.467	6145.73
488.837	6334.2
489.207	6392.95
489.578	6535.55
489.948	6670.01
490.318	6808.99
490.688	6818.93
491.058	7120.62
491.428	7200.62
491.798	7436.32
492.168	7575.3
492.538	7643.54
492.908	7774.61
493.278	7955.85
493.648	8050.08
494.017	8192.45
494.387	8365.56
494.757	8457.76
495.126	8591.99
495.496	8693.23
495.866	8838.76
496.235	8973.9
496.605	9105.65
496.974	9178.64
497.344	9322.82
497.713	9439.43
498.082	9579.31
498.452	9742.24
498.821	9774.11
499.19	9880.77
499.559	10000.77
499.928	10132.97
500.298	10240.99
500.667	10313.3
501.036	10419.29
501.405	10567.76
501.774	10591.49
502.143	10675.1
502.512	10798.49
502.88	10956.9
503.249	10959.16
503.618	11054.07
503.987	11113.28
504.356	11162.09
504.724	11314.63
505.093	11382.2
505.462	11431.01
505.83	11583.1
506.199	11617.9
506.567	11784
506.936	11781.51
507.304	11978.8
507.672	12027.16
508.041	12050.66
508.409	12084.56
508.777	12146.25
509.145	12303.53
509.514	12303.31
509.882	12388.5
510.25	12455.17
510.618	12538.55
510.986	12463.98
511.354	12685.9
511.722	12750.53
512.09	12812.67
512.458	12814.93
512.826	12965.21
513.193	13044.53
513.561	12966.79
513.929	13132.66
514.297	13220.57
514.664	13206.79
515.032	13257.41
515.4	13299.66
515.767	13356.84
516.135	13476.83
516.502	13320.68
516.869	13577.62
517.237	13620.11
517.604	13487.46
517.972	13693.55
518.339	13780.1
518.706	13658.98
519.073	13731.07
519.44	13787.34
519.808	13936.71
520.175	13826.66
520.542	13978.06
520.909	13962.02
521.276	14034.33
521.643	14065.97
522.009	14230.26
522.376	14172.86
522.743	14285.63
523.11	14371.5
523.477	14415.34
523.843	14438.39
524.21	14453.53
524.577	14575.11
524.943	14569.69
525.31	14554.09
525.676	14659.85
526.043	14675.45
526.409	14775.11
526.776	14801.55
527.142	14856.91
527.508	14867.76
527.874	14802.45
528.241	14952.5
528.607	14941.43
528.973	14971.71
529.339	14909.11
529.705	15048.77
530.071	14985.95
530.437	14999.51
530.803	15115.44
531.169	15000.86
531.535	15013.52
531.901	15054.87
532.267	15033.4
532.632	15065.95
532.998	15030.24
533.364	15054.19
533.73	15023.01
534.095	15183.23
534.461	14997.47
534.826	15097.58
535.192	15105.27
535.557	15132.61
535.923	15024.14
536.288	15033.86
536.653	15093.74
537.019	15031.6
537.384	15083.8
537.749	15028.43
538.114	15015.33
538.479	15044.03
538.845	14880.19
539.21	14881.32
539.575	14781.89
539.94	14892.16
540.305	14863.69
540.67	14803.13
541.034	14839.06
541.399	14823.01
541.764	14753.41
542.129	14727.88
542.494	14733.75
542.858	14748.44
543.223	14621.66
543.587	14658.05
543.952	14565.62
544.316	14611.04
544.681	14622.34
545.045	14600.87
545.41	14520.42
545.774	14447.66
546.138	14504.83
546.503	14449.24
546.867	14277.49
547.231	14463.48
547.595	14374.66
547.959	14436.81
548.324	14341.22
548.688	14333.99
549.052	14352.74
549.416	14248.57
549.779	14305.51
550.143	14219.19
550.507	14241.56
550.871	14303.25
551.235	14180.32
551.599	14284.95
551.962	14172.41
552.326	14105.07
552.689	14127.44
553.053	14033.43
553.417	14092.86
553.78	14174.67
554.143	14082.92
554.507	14014.22
554.87	14048.57
555.234	14091.51
555.597	14046.09
555.96	14077.5
556.323	14049.02
556.686	13981.45
557.05	14000.44
557.413	14057.38
557.776	14103.03
558.139	14078.85
558.502	14044.96
558.865	13954.34
559.228	14005.41
559.59	14075.46
559.953	14115.91
560.316	14110.49
560.679	14025.07
561.041	14154.33
561.404	14115.24
561.767	14157.04
562.129	14097.84
562.492	14213.31
562.854	14134.67
563.217	14097.16
563.579	14031.4
563.941	14148.23
564.304	14137.38
564.666	14235.91
565.028	14246.98
565.39	14277.27
565.753	14226.42
566.115	14224.39
566.477	14376.25
566.839	14290.6
567.201	14331.95
567.563	14386.64
567.925	14411.05
568.287	14372.18
568.648	14395.68
569.01	14427.54
569.372	14516.81
569.734	14424.38
570.095	14478.16
570.457	14479.07
570.819	14569.69
571.18	14494.21
571.542	14657.82
571.903	14568.56
572.265	14675.67
572.626	14628.9
572.987	14761.77
573.349	14692.62
573.71	14683.81
574.071	14630.02
574.432	14713.19
574.794	14748.44
575.155	14713.64
575.516	14813.07
575.877	14721.55
576.238	14766.97
576.599	14801.32
576.96	14785.28
577.32	14809.91
577.681	14847.65
578.042	14880.87
578.403	14817.82
578.763	14773.52
579.124	14833.64
579.485	14916.8
579.845	14899.62
580.206	14913.63
580.566	14948.66
580.927	14830.47
581.287	14853.97
581.648	14847.65
582.008	14937.59
582.368	14907.31
582.728	14875.44
583.089	14815.78
583.449	14799.51
583.809	14820.98
584.169	14828.44
584.529	14750.25
584.889	14875.44
585.249	14796.8
585.609	14785.28
585.969	14749.12
586.329	14780.76
586.688	14731.72
587.048	14698.95
587.408	14761.55
587.768	14711.83
588.127	14678.39
588.487	14719.74
588.846	14791.83
589.206	14657.59
589.565	14658.72
589.925	14726.29
590.284	14707.31
590.643	14651.49
591.003	14747.76
591.362	14757.71
591.721	14712.96
592.08	14719.06
592.44	14714.09
592.799	14680.87
593.158	14633.19
593.517	14707.99
593.876	14697.59
594.235	14571.95
594.593	14687.2
594.952	14662.11
595.311	14595.45
595.67	14630.93
596.029	14670.93
596.387	14694.43
596.746	14732.17
597.104	14622.79
597.463	14635
597.822	14627.77
598.18	14589.8
598.538	14551.83
598.897	14609.91
599.255	14538.05
599.613	14737.14
599.972	14625.28
600.33	14679.06
600.688	14603.81
601.046	14646.75
601.404	14766.74
601.762	14688.33
602.12	14645.62
602.478	14725.84
602.836	14727.88
603.194	14641.32
603.552	14647.43
603.91	14549.8
604.268	14678.39
604.625	14632.74
604.983	14737.82
605.341	14587.31
605.698	14703.24
606.056	14731.72
606.413	14699.18
606.771	14790.7
607.128	14787.53
607.485	14638.16
607.843	14639.06
608.2	14809.46
608.557	14796.8
608.914	14805.16
609.272	14763.81
609.629	14801.77
609.986	14861.21
610.343	14748.67
610.7	14868.44
611.057	14844.93
611.414	14783.92
611.771	14823.47
612.127	14918.38
612.484	14805.16
612.841	14916.57
613.198	14862.11
613.554	14807.2
613.911	14888.32
614.267	14887.42
614.624	14879.28
614.98	14831.83
615.337	14975.33
615.693	14914.54
616.05	14947.53
616.406	15043.57
616.762	15015.78
617.118	14904.37
617.475	14913.41
617.831	15041.31
618.187	15034.76
618.543	14965.16
618.899	15085.61
619.255	15078.83
619.611	15040.64
619.967	15109.79
620.323	15163.34
620.678	15128.99
621.034	15028.43
621.39	15068.66
621.746	14986.4
622.101	15127.64
622.457	15023.91
622.812	15084.25
623.168	15074.98
623.523	15085.61
623.879	15124.48
624.234	15048.54
624.589	15100.07
624.945	15140.97
625.3	15113.18
625.655	15048.32
626.01	15102.1
626.365	15121.99
626.72	15132.16
627.075	15207.86
627.43	15070.69
627.785	15065.95
628.14	15100.52
628.495	15150.46
628.85	15129.9
629.205	15097.58
629.559	15094.42
629.914	15051.03
630.269	15070.24
630.623	15026.62
630.978	15009.9
631.332	15052.39
631.687	15042.67
632.041	14983.24
632.396	15011.48
632.75	14973.29
633.104	15030.92
633.459	14867.53
633.813	14898.04
634.167	14882.45
634.521	14896.01
634.875	14921.09
635.229	14891.94
635.583	14769.91
635.937	14854.88
636.291	14660.08
636.645	14707.54
636.999	14611.27
637.352	14734.88
637.706	14709.8
638.06	14773.52
638.413	14595.22
638.767	14573.08
639.121	14552.96
639.474	14496.02
639.828	14483.14
640.181	14538.5
640.534	14614.43
640.888	14444.04
641.241	14440.43
641.594	14426.87
641.947	14463.93
642.301	14539.63
642.654	14517.94
643.007	14470.48
643.36	14482.23
643.713	14407.88
644.066	14480.42
644.419	14384.16
644.771	14394.1
645.124	14188.23
645.477	14206.08
645.83	14040.21
646.182	14094.9
646.535	13972.64
646.888	14042.47
647.24	13907.56
647.593	13959.31
647.945	13928.57
648.298	13884.73
648.65	13904.85
649.002	13875.69
649.355	13994.56
649.707	13946.2
650.059	13986.2
650.411	14202.24
650.763	14124.5
651.115	14252.18
651.467	14283.59
651.819	14313.65
652.171	14160.43
652.523	14214.44
652.875	14199.53
653.227	14089.93
653.578	14240.88
653.93	14204.5
654.282	14081.11
654.633	14083.6
654.985	14152.52
655.337	14137.61
655.688	14207.44
656.039	14227.55
656.391	14130.38
656.742	14205.63
657.094	14154.11
657.445	14240.2
657.796	14193.2
658.147	14207.21
658.498	14184.61
658.849	14277.27
659.2	14137.38
659.551	14138.96
659.902	14141.45
660.253	14182.58
660.604	14173.31
660.955	14191.17
661.306	14209.92
661.656	14188.91
662.007	14254.22
662.358	14175.8
662.708	14164.5
663.059	14218.74
663.409	14115.69
663.76	14235.01
664.11	14276.59
664.461	14252.63
664.811	14225.29
665.161	14216.93
665.511	14163.37
665.862	14177.38
666.212	14286.08
666.562	14254.89
666.912	14275.46
667.262	14264.38
667.612	14153.43
667.962	14238.17
668.312	14209.7
668.662	14321.33
669.011	14211.28
669.361	14190.49
669.711	14128.12
670.06	14148
670.41	14199.3
670.76	14127.67
671.109	14202.47
671.459	14126.99
671.808	14132.41
672.157	14132.41
672.507	14004.28
672.856	14079.98
673.205	13979.87
673.554	14108.46
673.904	14048.8
674.253	14094.67
674.602	14059.64
674.951	13950.27
675.3	13776.94
675.649	14143.03
675.998	14053.32
676.346	14051.74
676.695	14049.48
677.044	13867.33
677.393	13956.82
677.741	14020.32
678.09	13950.95
678.438	13806.09
678.787	13908.01
679.135	13916.37
679.484	13833.89
679.832	13788.47
680.181	13708.24
680.529	13825.53
680.877	13751.18
681.225	13746.66
681.573	13764.51
681.922	13625.31
682.27	13616.27
682.618	13625.76
682.966	13655.59
683.314	13640.9
683.661	13533.56
684.009	13566.1
684.357	13591.86
684.705	13444.75
685.053	13428.7
685.4	13483.61
685.748	13382.6
686.095	13454.24
686.443	13315.48
686.79	13325.88
687.138	13335.37
687.485	13324.07
687.832	13284.3
688.18	13340.34
688.527	13132.89
688.874	13157.97
689.221	13235.71
689.568	13077.75
689.915	13117.52
690.262	13041.37
690.609	12967.7
690.956	12956.62
691.303	12898.09
691.65	12823.52
691.997	12903.74
692.344	12748.72
692.69	12704.65
693.037	12734.71
693.383	12677.31
693.73	12627.59
694.077	12579.01
694.423	12522.28
694.769	12476.41
695.116	12488.61
695.462	12506.69
695.808	12324.55
696.155	12478.67
696.501	12367.71
696.847	12376.3
697.193	12204.78
697.539	12290.43
697.885	12132.01
698.231	12182.41
698.577	12053.37
698.923	12086.81
699.269	11992.35
699.614	11976.54
699.96	11940.6
700.306	11870.78
700.651	11819.7
700.997	11785.35
701.342	11714.62
701.688	11697.45
702.033	11688.18
702.379	11708.75
702.724	11684.57
703.069	11618.8
703.415	11492.93
703.76	11493.38
704.105	11449.32
704.45	11426.27
704.795	11357.79
705.14	11337.91
705.485	11329.09
705.83	11254.07
706.175	11316.44
706.52	11184.24
706.865	11193.96
707.209	11121.87
707.554	11128.87
707.899	11080.29
708.243	11075.32
708.588	11088.65
708.932	10964.81
709.277	10924.59
709.621	10939.27
709.966	10847.53
710.31	10876.23
710.654	10818.83
710.998	10836
711.342	10779.28
711.687	10805.94
712.031	10678.72
712.375	10727.75
712.719	10712.61
713.063	10747.64
713.407	10741.54
713.75	10636.23
714.094	10582
714.438	10588.55
714.782	10591.49
715.125	10569.34
715.469	10557.14
715.812	10492.73
716.156	10483.24
716.499	10463.58
716.843	10470.81
717.186	10387.65
717.53	10410.7
717.873	10469.68
718.216	10394.43
718.559	10358.72
718.902	10320.31
719.246	10295.9
719.589	10264.04
719.932	10202.57
720.275	10297.71
720.617	10186.98
720.96	10195.11
721.303	10232.4
721.646	10224.04
721.989	10154.89
722.331	10198.95
722.674	10172.29
723.016	10180.2
723.359	10174.77
723.701	10163.93
724.044	10057.49
724.386	10073.99
724.729	10097.94
725.071	10048.45
725.413	10051.84
725.755	10029.47
726.097	10032.18
726.439	9975.01
726.782	9969.81
727.124	10019.75
727.465	10023.82
727.807	10017.72
728.149	9927.55
728.491	9993.08
728.833	9897.27
729.175	9981.56
729.516	9993.31
729.858	9978.85
730.199	10012.52
730.541	9951.73
730.882	9891.39
731.224	9961.45
731.565	9952.41
731.906	9896.14
732.248	9914.22
732.589	9788.57
732.93	9864.95
733.271	9850.26
733.612	9880.77
733.953	9911.05
734.294	9817.5
734.635	9772.53
734.976	9847.33
735.317	9860.43
735.658	9848.23
735.999	9804.39
736.339	9832.64
736.68	9925.74
737.021	9833.09
737.361	9763.94
737.702	9822.24
738.042	9836.48
738.383	9768.91
738.723	9853.65
739.063	9869.7
739.404	9874.67
739.744	9866.53
740.084	9875.57
740.424	9919.19
740.764	9845.29
741.104	9933.2
741.444	9922.35
741.784	9936.14
742.124	9966.87
742.464	9866.76
742.804	9907.44
743.143	10034.67
743.483	10044.83
743.823	9977.72
744.162	10015.23
744.502	10028.34
744.841	10048.9
745.181	10151.5
745.52	10080.31
745.86	10147.43
746.199	10127.32
746.538	10264.72
746.877	10311.04
747.216	10380.87
747.556	10312.4
747.895	10397.59
748.234	10489.12
748.573	10564.82
748.911	10525.27
749.25	10563.69
749.589	10605.95
749.928	10682.11
750.267	10739.73
750.605	10818.15
750.944	10837.13
751.283	10891.59
751.621	11058.14
751.96	11024.02
752.298	11146.05
752.636	11283.45
752.975	11365.48
753.313	11370.9
753.651	11540.16
753.989	11574.29
754.327	11712.14
754.666	11790.78
755.004	11904.9
755.342	12049.08
755.679	12113.71
756.017	12191.9
756.355	12450.87
756.693	12471.44
