Data from hue_290_FLMS001491_00098.txt Node
Date: Tue Feb 07 15:53:45 GMT 2017
User: dcchb
Spectrometer: FLMS00149
Trigger mode: 0
Integration Time (sec): 2.000000E-2
Scans to average: 10
Electric dark correction enabled: true
Nonlinearity correction enabled: false
Boxcar width: 0
XAxis mode: Wavelengths
Number of Pixels in Spectrum: 2048
>>>>>Begin Spectral Data<<<<<
341.393	7.91
341.776	7.91
342.16	7.91
342.543	-71.18
342.927	-80
343.31	-71.41
343.693	-72.77
344.077	-63.73
344.46	-54.91
344.843	-43.39
345.226	-31.41
345.61	-31.64
345.993	-35.48
346.376	-7.01
346.759	-15.59
347.142	9.04
347.525	50.85
347.908	76.38
348.291	84.07
348.674	90.62
349.057	116.38
349.44	124.06
349.823	154.57
350.206	167
350.588	206.32
350.971	214.23
351.354	222.59
351.737	244.06
352.119	270.05
352.502	256.72
352.884	273.67
353.267	278.86
353.65	272.31
354.032	308.92
354.414	327
354.797	295.13
355.179	330.16
355.562	326.55
355.944	333.1
356.326	327
356.709	342.14
357.091	332.65
357.473	342.36
357.855	349.14
358.238	329.71
358.62	342.59
359.002	339.43
359.384	348.47
359.766	350.27
360.148	348.24
360.53	334.68
360.912	318.86
361.294	332.87
361.676	336.94
362.057	344.17
362.439	319.54
362.821	341.91
363.203	319.31
363.584	328.58
363.966	316.83
364.348	323.16
364.729	308.69
365.111	298.52
365.493	322.7
365.874	334.45
366.256	327
366.637	319.31
367.019	292.65
367.4	320.67
367.781	317.51
368.163	298.3
368.544	317.51
368.925	313.89
369.306	321.12
369.688	307.79
370.069	311.86
370.45	308.69
370.831	322.93
371.212	328.58
371.593	320.9
371.974	333.1
372.355	325.64
372.736	319.31
373.117	308.69
373.498	329.71
373.879	310.95
374.26	308.24
374.641	307.79
375.021	316.15
375.402	315.25
375.783	322.7
376.163	334.91
376.544	320.22
376.925	302.82
377.305	322.25
377.686	327.45
378.066	326.09
378.447	331.52
378.827	333.78
379.208	327.45
379.588	309.14
379.968	338.52
380.349	328.35
380.729	345.98
381.109	322.03
381.489	349.82
381.87	343.95
382.25	330.16
382.63	345.3
383.01	335.58
383.39	340.1
383.77	348.69
384.15	361.12
384.53	342.82
384.91	354.34
385.29	341.69
385.67	348.92
386.049	343.04
386.429	356.37
386.809	355.02
387.189	341.69
387.568	348.47
387.948	369.48
388.328	355.02
388.707	355.24
389.087	373.55
389.466	369.93
389.846	339.2
390.225	363.15
390.605	378.3
390.984	369.71
391.363	351.86
391.743	380.55
392.122	377.17
392.501	371.29
392.881	383.27
393.26	371.74
393.639	393.66
394.018	398.86
394.397	360.22
394.776	397.5
395.155	395.24
395.534	371.52
395.913	398.41
396.292	414
396.671	406.09
397.05	427.56
397.429	418.07
397.808	385.53
398.186	406.99
398.565	385.07
398.944	412.42
399.323	408.8
399.701	423.04
400.08	425.3
400.458	402.48
400.837	434.79
401.215	432.08
401.594	446.54
401.972	434.11
402.351	434.56
402.729	444.06
403.107	454.9
403.486	443.38
403.864	450.61
404.242	430.72
404.62	435.47
404.999	465.75
405.377	447.22
405.755	455.58
406.133	483.83
406.511	461.23
406.889	481.8
407.267	482.47
407.645	458.74
408.023	477.73
408.401	505.07
408.779	481.34
409.156	515.24
409.534	535.58
409.912	520.44
410.29	530.38
410.667	519.99
411.045	538.52
411.422	538.29
411.8	553.43
412.178	556.6
412.555	578.74
412.933	561.12
413.31	603.6
413.687	594.56
414.065	571.96
414.442	603.83
414.819	619.64
415.197	622.36
415.574	597.95
415.951	622.13
416.328	654.9
416.705	643.15
417.082	669.36
417.46	640.89
417.837	671.85
418.214	670.94
418.591	687.21
418.967	680.89
419.344	709.59
419.721	717.5
420.098	728.57
420.475	734.44
420.852	727.89
421.228	720.43
421.605	759.3
421.982	753.88
422.358	764.27
422.735	764.5
423.111	769.92
423.488	783.93
423.864	786.87
424.241	798.85
424.617	799.08
424.994	861.45
425.37	856.7
425.746	855.12
426.123	867.1
426.499	871.62
426.875	872.07
427.251	877.72
427.627	936.25
428.003	917.94
428.379	921.33
428.756	922.01
429.132	961.78
429.507	971.27
429.883	954.1
430.259	980.09
430.635	968.56
431.011	981.9
431.387	1017.15
431.763	1046.53
432.138	1023.93
432.514	1040.42
432.89	1044.72
433.265	1049.92
433.641	1080.65
434.016	1090.59
434.392	1122.91
434.767	1103.25
435.143	1131.95
435.518	1133.3
435.894	1176.47
436.269	1182.57
436.644	1193.87
437.02	1233.64
437.395	1211.27
437.77	1212.4
438.145	1260.08
438.52	1252.62
438.895	1258.27
439.271	1273.41
439.646	1279.51
440.021	1297.82
440.395	1323.81
440.77	1299.63
441.145	1327.42
441.52	1347.08
441.895	1325.61
442.27	1362
442.645	1369.23
443.019	1357.25
443.394	1371.49
443.769	1392.51
444.143	1378.49
444.518	1416.46
444.892	1409.68
445.267	1432.05
445.641	1420.3
446.016	1408.32
446.39	1446.06
446.764	1437.02
447.139	1435.22
447.513	1449.68
447.887	1439.74
448.262	1454.2
448.636	1474.09
449.01	1484.48
449.384	1484.93
449.758	1492.62
450.132	1507.98
450.506	1502.56
450.88	1505.5
451.254	1530.36
451.628	1524.48
452.002	1567.64
452.376	1547.98
452.75	1554.99
453.123	1592.73
453.497	1583.91
453.871	1618.71
454.244	1641.09
454.618	1655.55
454.992	1662.78
455.365	1668.88
455.739	1685.83
456.112	1690.8
456.486	1683.57
456.859	1727.86
457.232	1718.82
457.606	1754.98
457.979	1740.97
458.352	1756.79
458.725	1807.86
459.099	1806.28
459.472	1818.94
459.845	1841.99
460.218	1815.32
460.591	1900.51
460.964	1865.04
461.337	1949.1
461.71	1923.79
462.083	1912.72
462.456	1947.97
462.829	1945.94
463.201	1991.13
463.574	1964.02
463.947	2004.47
464.32	2009.89
464.692	2037.23
465.065	2041.98
465.438	2074.52
465.81	2101.19
466.183	2111.58
466.555	2135.99
466.928	2145.48
467.3	2129.89
467.672	2171.47
468.045	2238.81
468.417	2238.59
468.789	2239.26
469.161	2246.27
469.534	2314.97
469.906	2309.77
470.278	2361.75
470.65	2330.11
471.022	2404.91
471.394	2397
471.766	2427.73
472.138	2454.85
472.51	2471.57
472.882	2521.06
473.253	2531.91
473.625	2526.94
473.997	2591.8
474.369	2596.09
474.74	2614.62
475.112	2683.32
475.484	2694.39
475.855	2743.2
476.227	2761.28
476.598	2819.13
476.97	2781.85
477.341	2843.99
477.713	2851
478.084	2901.17
478.455	2950.2
478.827	2961.5
479.198	3028.85
479.569	3035.85
479.94	3117.21
480.311	3156.75
480.682	3185.45
481.053	3185.68
481.424	3291.89
481.795	3281.5
482.166	3319.01
482.537	3347.71
482.908	3391.1
483.279	3419.35
483.65	3475.84
484.021	3519.23
484.391	3535.5
484.762	3576.4
485.133	3578.44
485.503	3618.89
485.874	3713.12
486.244	3742.27
486.615	3793.35
486.985	3799
487.356	3823.4
487.726	3873.12
488.097	3919.67
488.467	3919.44
488.837	3971.87
489.207	4012.78
489.578	4061.36
489.948	4093.23
490.318	4132.77
490.688	4126.67
491.058	4221.58
491.428	4253
491.798	4334.12
492.168	4362.15
492.538	4345.65
492.908	4396.49
493.278	4472.65
493.648	4448.47
494.017	4499.99
494.387	4518.07
494.757	4568.47
495.126	4560.78
495.496	4559.65
495.866	4598.07
496.235	4662.48
496.605	4642.82
496.974	4726.88
497.344	4774.56
497.713	4781.34
498.082	4757.62
498.452	4816.82
498.821	4833.09
499.19	4886.2
499.559	4844.62
499.928	4903.37
500.298	4887.56
500.667	4948.12
501.036	4924.62
501.405	5008.46
501.774	4963.71
502.143	5013.2
502.512	5021.11
502.88	5066.76
503.249	5062.24
503.618	5075.12
503.987	5084.84
504.356	5116.25
504.724	5156.93
505.093	5142.46
505.462	5173.2
505.83	5202.35
506.199	5258.62
506.567	5299.07
506.936	5260.2
507.304	5339.29
507.672	5289.58
508.041	5313.98
508.409	5368.45
508.777	5355.34
509.145	5451.61
509.514	5417.48
509.882	5408.45
510.25	5464.72
510.618	5441.21
510.986	5502.23
511.354	5538.61
511.722	5555.33
512.09	5577.25
512.458	5577.93
512.826	5665.84
513.193	5654.77
513.561	5623.35
513.929	5694.09
514.297	5668.1
514.664	5711.71
515.032	5784.25
515.4	5786.74
515.767	5747.19
516.135	5810.02
516.502	5742.9
516.869	5827.42
517.237	5823.8
517.604	5817.93
517.972	5838.72
518.339	5866.06
518.706	5902.44
519.073	5920.07
519.44	5906.06
519.808	5947.19
520.175	5976.34
520.542	6017.47
520.909	6006.4
521.276	5975.21
521.643	6066.06
522.009	6104.92
522.376	6094.08
522.743	6156
523.11	6178.59
523.477	6214.3
523.843	6234.64
524.21	6239.84
524.577	6330.23
524.943	6288.42
525.31	6331.36
525.676	6392.15
526.043	6396.67
526.409	6428.53
526.776	6476.21
527.142	6469.89
527.508	6494.07
527.874	6553.95
528.241	6607.96
528.607	6649.99
528.973	6633.5
529.339	6608.87
529.705	6664.46
530.071	6679.6
530.437	6739.26
530.803	6770.9
531.169	6814.74
531.535	6788.52
531.901	6866.71
532.267	6845.24
532.632	6921.17
532.998	6971.12
533.364	6919.37
533.73	6992.81
534.095	7038.23
534.461	6999.14
534.826	7038.46
535.192	7041.62
535.557	7113.94
535.923	7115.75
536.288	7083.43
536.653	7168.63
537.019	7098.12
537.384	7171.34
537.749	7212.01
538.114	7234.16
538.479	7160.72
538.845	7252.92
539.21	7258.11
539.575	7239.13
539.94	7242.3
540.305	7360.48
540.67	7291.33
541.034	7334.04
541.399	7394.61
541.764	7410.65
542.129	7469.41
542.494	7469.41
542.858	7503.53
543.223	7487.49
543.587	7545.56
543.952	7530.2
544.316	7562.96
544.681	7597.54
545.045	7623.3
545.41	7631.21
545.774	7661.72
546.138	7631.44
546.503	7657.43
546.867	7621.27
547.231	7745.79
547.595	7705.79
547.959	7755.05
548.324	7763.64
548.688	7771.32
549.052	7804.99
549.416	7887.48
549.779	7917.53
550.143	7819.68
550.507	7870.75
550.871	7947.59
551.235	7892.67
551.599	7977.42
551.962	7926.57
552.326	7983.97
552.689	8022.39
553.053	7949.62
553.417	8013.35
553.78	8086.12
554.143	8040.47
554.507	8070.3
554.87	8065.55
555.234	8162.5
555.597	8182.38
555.96	8190.97
556.323	8125.21
556.686	8156.62
557.05	8252.21
557.413	8258.31
557.776	8289.73
558.139	8282.49
558.502	8289.5
558.865	8259.9
559.228	8343.51
559.59	8309.84
559.953	8394.58
560.316	8490.62
560.679	8470.96
561.041	8515.48
561.404	8548.48
561.767	8584.63
562.129	8480.68
562.492	8613.11
562.854	8624.18
563.217	8578.76
563.579	8623.5
563.941	8649.94
564.304	8710.51
564.666	8770.39
565.028	8786.44
565.39	8788.24
565.753	8814.91
566.115	8787.11
566.477	8917.28
566.839	8824.63
567.201	8995.47
567.563	8943.95
567.925	9002.25
568.287	8974
568.648	9035.92
569.01	9116.82
569.372	9164.5
569.734	9095.13
570.095	9174.9
570.457	9215.12
570.819	9311.62
571.18	9284.28
571.542	9333.99
571.903	9338.96
572.265	9389.36
572.626	9440.66
572.987	9424.38
573.349	9495.8
573.71	9552.97
574.071	9557.04
574.432	9561.56
574.794	9670.93
575.155	9675.68
575.516	9751.16
575.877	9805.84
576.238	9791.61
576.599	9911.38
576.96	9962.45
577.32	9990.47
577.681	10000.64
578.042	10080.41
578.403	10074.76
578.763	10138.94
579.124	10261.88
579.485	10333.29
579.845	10380.52
580.206	10476.33
580.566	10520.85
580.927	10610.79
581.287	10705.03
581.648	10712.26
582.008	10902.54
582.368	10884.91
582.728	11032.48
583.089	11046.26
583.449	11205.36
583.809	11195.86
584.169	11396.08
584.529	11452.58
584.889	11641.5
585.249	11726.7
585.609	11770.76
585.969	11922.4
586.329	11961.04
586.688	12143.86
587.048	12159
587.408	12327.36
587.768	12421.14
588.127	12597.41
588.487	12687.12
588.846	12874.01
589.206	13006.21
589.565	13021.35
589.925	13239.2
590.284	13315.36
590.643	13477.84
591.003	13597.38
591.362	13798.96
591.721	13867.43
592.08	14104.49
592.44	14132.06
592.799	14274.88
593.158	14427.42
593.517	14538.37
593.876	14685.49
594.235	14799.84
594.593	14929.55
594.952	15184.91
595.311	15183.56
595.67	15373.83
596.029	15654.28
596.387	15765.46
596.746	15878.45
597.104	15974.95
597.463	16025.57
597.822	16244.54
598.18	16279.35
598.538	16413.13
598.897	16648.83
599.255	16597.08
599.613	16958.65
599.972	16905.77
600.33	17114.13
600.688	17160.9
601.046	17268.92
601.404	17454.91
601.762	17564.96
602.12	17749.14
602.478	17754.34
602.836	17904.61
603.194	17949.81
603.552	18042.01
603.91	18193.19
604.268	18319.74
604.625	18368.1
604.983	18545.28
605.341	18584.14
605.698	18682.9
606.056	18747.3
606.413	18878.83
606.771	19002.21
607.128	19013.29
607.485	19004.25
607.843	19109.33
608.2	19332.37
608.557	19357.01
608.914	19500.28
609.272	19641.07
609.629	19657.79
609.986	19727.62
610.343	19724.45
610.7	19926.93
611.057	19924.9
611.414	20079.7
611.771	20136.19
612.127	20170.54
612.484	20207.15
612.841	20412.57
613.198	20328.96
613.554	20445.34
613.911	20675.61
614.267	20577.09
614.624	20538.89
614.98	20669.06
615.337	20859.34
615.693	20889.39
616.05	20879.9
616.406	21096.17
616.762	21119.9
617.118	21014.59
617.475	21088.94
617.831	21154.7
618.187	21262.49
618.543	21343.39
618.899	21375.48
619.255	21487.8
619.611	21425.88
619.967	21580.22
620.323	21616.15
620.678	21648.92
621.034	21530.06
621.39	21495.93
621.746	21527.57
622.101	21928.46
622.457	21703.84
622.812	21766.89
623.168	21949.03
623.523	21780.44
623.879	21974.34
624.234	21864.28
624.589	21872.42
624.945	21844.4
625.3	21951.51
625.655	21951.51
626.01	22018.63
626.365	22120.1
626.72	22041.23
627.075	21973.43
627.43	22077.84
627.785	22081.68
628.14	22126.42
628.495	22121.68
628.85	22128.68
629.205	22117.84
629.559	22282.58
629.914	22081.45
630.269	22168.46
630.623	22179.08
630.978	21993.32
631.332	22182.69
631.687	22128.68
632.041	22060.21
632.396	22079.65
632.75	22032.64
633.104	22166.65
633.459	22028.35
633.813	21980.66
634.167	22003.94
634.521	22000.55
634.875	22068.57
635.229	22022.25
635.583	21899.31
635.937	21885.75
636.291	21801.01
636.645	21995.81
636.999	21883.72
637.352	21922.14
637.706	21933.66
638.06	21946.99
638.413	21890.05
638.767	21781.57
639.121	21953.1
639.474	21787.68
639.828	21715.14
640.181	21823.16
640.534	21897.96
640.888	21727.11
641.241	21741.58
641.594	21836.26
641.947	21860.22
642.301	21671.97
642.654	21811.63
643.007	21742.03
643.36	21706.55
643.713	21658.41
644.066	21865.41
644.419	21638.53
644.771	21536.83
645.124	21319.21
645.477	21275.15
645.83	21168.71
646.182	21083.74
646.535	21055.49
646.888	21158.54
647.24	21046.45
647.593	21091.42
647.945	21049.62
648.298	20952.22
648.65	21046.9
649.002	20973.69
649.355	21151.31
649.707	21108.37
650.059	21151.08
650.411	21384.97
650.763	21402.15
651.115	21684.63
651.467	21594.91
651.819	21562.82
652.171	21530.06
652.523	21532.09
652.875	21522.37
653.227	21558.3
653.578	21615.93
653.93	21672.65
654.282	21434.01
654.633	21471.3
654.985	21621.8
655.337	21588.81
655.688	21596.72
656.039	21614.57
656.391	21358.31
656.742	21495.93
657.094	21528.25
657.445	21589.94
657.796	21495.71
658.147	21504.52
658.498	21578.19
658.849	21570.73
659.2	21598.75
659.551	21536.38
659.902	21641.01
660.253	21625.19
660.604	21566.21
660.955	21629.49
661.306	21540.45
661.656	21603.27
662.007	21665.42
662.358	21561.92
662.708	21641.69
663.059	21574.8
663.409	21441.02
663.76	21721.46
664.11	21644.18
664.461	21699.32
664.811	21737.73
665.161	21533.67
665.511	21600.56
665.862	21664.29
666.212	21668.13
666.562	21699.32
666.912	21735.25
667.262	21630.39
667.612	21571.18
667.962	21707.23
668.312	21514.01
668.662	21822.48
669.011	21558.53
669.361	21687.57
669.711	21646.66
670.06	21582.94
670.41	21562.37
670.76	21511.98
671.109	21633.1
671.459	21555.82
671.808	21554.01
672.157	21483.95
672.507	21370.74
672.856	21358.31
673.205	21496.61
673.554	21567.57
673.904	21459.1
674.253	21586.1
674.602	21514.91
674.951	21201.93
675.3	21036.96
675.649	21429.49
675.998	21341.13
676.346	21357.63
676.695	21453
677.044	21212.1
677.393	21311.98
677.741	21296.16
678.09	21315.6
678.438	21286.67
678.787	21275.37
679.135	21299.55
679.484	21169.16
679.832	21163.74
680.181	21079.45
680.529	21130.74
680.877	20995.61
681.225	20934.36
681.573	21048.03
681.922	20963.97
682.27	20881.03
682.618	20933.69
682.966	20752
683.314	20853.69
683.661	20746.12
684.009	20665.45
684.357	20737.53
684.705	20785.22
685.053	20662.06
685.4	20602.85
685.748	20550.87
686.095	20572.57
686.443	20482.17
686.79	20376.64
687.138	20429.29
687.485	20536.86
687.832	20385
688.18	20410.76
688.527	20264.78
688.874	20204.67
689.221	20068.17
689.568	20000.38
689.915	19918.57
690.262	20008.97
690.609	19904.11
690.956	19815.3
691.303	19771.23
691.65	19711.8
691.997	19722.42
692.344	19597.9
692.69	19536.44
693.037	19465.7
693.383	19466.38
693.73	19486.49
694.077	19439.49
694.423	19396.33
694.769	19263.22
695.116	19170.57
695.462	19057.8
695.808	19194.07
696.155	19190.91
696.501	18987.52
696.847	18916.56
697.193	18740.75
697.539	18812.16
697.885	18717.7
698.231	18678.38
698.577	18652.39
698.923	18569
699.269	18359.97
699.614	18421.89
699.96	18298.05
700.306	18351.16
700.651	18253.98
700.997	18181.67
701.342	18233.87
701.688	18080.88
702.033	18013.99
702.379	18043.37
702.724	17967.89
703.069	18080.43
703.415	17753.21
703.76	17763.6
704.105	17802.24
704.45	17700.33
704.795	17578.29
705.14	17494.23
705.485	17600.89
705.83	17405.19
706.175	17481.35
706.52	17395.25
706.865	17253.11
707.209	17277.29
707.554	17198.42
707.899	17168.59
708.243	17091.75
708.588	17142.37
708.932	16835.49
709.277	16955.03
709.621	16954.58
709.966	16803.4
710.31	16850.63
710.654	16749.84
710.998	16734.02
711.342	16743.97
711.687	16672.33
712.031	16514.37
712.375	16484.99
712.719	16506.01
713.063	16460.58
713.407	16589.85
713.75	16430.08
714.094	16450.19
714.438	16277.76
714.782	16382.62
715.125	16303.07
715.469	16281.61
715.812	16270.08
716.156	16081.84
716.499	16177.2
716.843	16125.45
717.186	16002.52
717.53	16171.33
717.873	16121.16
718.216	16139.69
718.559	16054.49
718.902	15935.85
719.246	15958.22
719.589	16011.78
719.932	15887.49
720.275	15885.68
720.617	15889.3
720.96	15871.67
721.303	15849.53
721.646	15797.1
721.989	15780.6
722.331	15772.24
722.674	15723.65
723.016	15760.26
723.359	15708.51
723.701	15792.81
724.044	15623.09
724.386	15536.77
724.729	15614.28
725.071	15654.73
725.413	15593.94
725.755	15591.23
726.097	15480.04
726.439	15492.47
726.782	15471.01
727.124	15525.24
727.465	15443.66
727.807	15433.04
728.149	15419.26
728.491	15369.99
728.833	15460.84
729.175	15422.42
729.516	15400.05
729.858	15331.12
730.199	15338.58
730.541	15363.21
730.882	15271.91
731.224	15387.17
731.565	15328.18
731.906	15271.46
732.248	15296.77
732.589	15307.17
732.93	15254.97
733.271	15275.08
733.612	15253.16
733.953	15204.8
734.294	15262.88
734.635	15224.01
734.976	15201.86
735.317	15142.2
735.658	15229.2
735.999	15276.89
736.339	15143.78
736.68	15272.82
737.021	15162.31
737.361	15208.19
737.702	15239.6
738.042	15237.34
738.383	15222.2
738.723	15346.72
739.063	15286.15
739.404	15232.59
739.744	15289.09
740.084	15260.39
740.424	15345.36
740.764	15296.77
741.104	15341.29
741.444	15218.58
741.784	15197.34
742.124	15293.84
742.464	15311.91
742.804	15333.83
743.143	15360.27
743.483	15355.08
743.823	15258.58
744.162	15416.32
744.502	15412.7
744.841	15428.07
745.181	15472.81
745.52	15452.7
745.86	15596.43
746.199	15597.78
746.538	15598.23
746.877	15707.61
747.216	15675.29
747.556	15675.97
747.895	15748.51
748.234	15799.36
748.573	15761.39
748.911	15862.86
749.25	15978.79
749.589	16008.62
749.928	16161.61
750.267	16079.13
750.605	16229.63
750.944	16299.46
751.283	16319.34
751.621	16472.79
751.96	16558.89
752.298	16536.97
752.636	16655.83
752.975	16666
753.313	16707.58
753.651	16934.02
753.989	16883.62
754.327	17021.93
754.666	17074.13
755.004	17223.05
755.342	17250.85
755.679	17354.35
756.017	17428.24
756.355	17534.45
756.693	17682.7
757.031	17930.83
757.368	17799.31
757.706	18007.66
758.044	18056.02
758.381	18196.58
758.719	18273.64
759.056	18399.06
759.394	18392.28
759.731	18444.94
