Data from hue_330_FLMS001491_93.txt Node
Date: Mon Feb 06 15:46:10 GMT 2017
User: dcchb
Spectrometer: FLMS00149
Trigger mode: 0
Integration Time (sec): 2.000000E-2
Scans to average: 10
Electric dark correction enabled: true
Nonlinearity correction enabled: false
Boxcar width: 0
XAxis mode: Wavelengths
Number of Pixels in Spectrum: 2048
>>>>>Begin Spectral Data<<<<<
341.393	33.61
341.776	33.61
342.16	33.61
342.543	-53.39
342.927	-68.08
343.31	-74.86
343.693	-62.88
344.077	-54.29
344.46	-54.07
344.843	-66.72
345.226	-58.59
345.61	-32.37
345.993	-21.98
346.376	17.12
346.759	22.99
347.142	32.94
347.525	22.77
347.908	74.07
348.291	76.55
348.674	89.43
349.057	89.88
349.44	115.87
349.823	142.54
350.206	171.92
350.588	200.39
350.971	202.2
351.354	213.5
351.737	239.49
352.119	253.95
352.502	273.16
352.884	285.13
353.267	272.25
353.65	284.91
354.032	301.86
354.414	312.7
354.797	293.95
355.179	324.23
355.562	331.91
355.944	336.88
356.326	333.04
356.709	336.43
357.091	342.31
357.473	350.67
357.855	345.25
358.238	336.88
358.62	323.78
359.002	335.3
359.384	337.11
359.766	330.78
360.148	345.47
360.53	364
360.912	332.14
361.294	340.27
361.676	328.3
362.057	318.58
362.439	336.66
362.821	333.72
363.203	325.81
363.584	342.31
363.966	332.36
364.348	309.99
364.729	325.58
365.111	329.88
365.493	316.77
365.874	327.62
366.256	327.84
366.637	313.61
367.019	346.38
367.4	324.45
367.781	320.16
368.163	310.22
368.544	312.93
368.925	324.68
369.306	326.26
369.688	322.42
370.069	311.8
370.45	330.78
370.831	301.4
371.212	335.75
371.593	329.88
371.974	297.56
372.355	314.06
372.736	286.49
373.117	312.25
373.498	322.42
373.879	314.51
374.26	318.35
374.641	319.71
375.021	319.03
375.402	317.45
375.783	317
376.163	321.97
376.544	324.45
376.925	343.66
377.305	336.21
377.686	325.13
378.066	326.26
378.447	340.95
378.827	322.19
379.208	337.34
379.588	322.65
379.968	340.27
380.349	345.02
380.729	305.47
381.109	352.93
381.489	351.35
381.87	332.82
382.25	336.66
382.63	333.72
383.01	333.95
383.39	333.95
383.77	354.28
384.15	334.85
384.53	358.13
384.91	343.21
385.29	331.23
385.67	345.02
386.049	349.54
386.429	341.86
386.809	359.03
387.189	371.23
387.568	360.84
387.948	349.54
388.328	347.5
388.707	361.06
389.087	354.28
389.466	354.74
389.846	369.2
390.225	367.17
390.605	336.66
390.984	353.38
391.363	365.36
391.743	364.68
392.122	377.56
392.501	380.5
392.881	372.59
393.26	382.98
393.639	388.63
394.018	376.43
394.397	373.72
394.776	364.45
395.155	377.33
395.534	391.35
395.913	372.82
396.292	401.74
396.671	388.41
397.05	394.74
397.429	402.42
397.808	399.03
398.186	420.72
398.565	387.96
398.944	397.22
399.323	383.66
399.701	385.47
400.08	408.07
400.458	386.15
400.837	394.74
401.215	417.79
401.594	371.01
401.972	404.9
402.351	399.26
402.729	387.96
403.107	397
403.486	420.27
403.864	419.37
404.242	431.34
404.62	427.5
404.999	434.96
405.377	415.98
405.755	410.1
406.133	453.94
406.511	440.38
406.889	429.31
407.267	423.89
407.645	445.58
408.023	446.71
408.401	439.71
408.779	467.05
409.156	474.73
409.534	448.52
409.912	486.48
410.29	491.46
410.667	476.77
411.045	481.06
411.422	480.16
411.8	514.51
412.178	479.25
412.555	490.33
412.933	491.23
413.31	495.07
413.687	519.7
414.065	522.19
414.442	519.25
414.819	545.92
415.197	529.87
415.574	538.91
415.951	538.46
416.328	542.98
416.705	565.35
417.082	586.82
417.46	578.91
417.837	561.96
418.214	606.03
418.591	600.61
418.967	581.4
419.344	576.2
419.721	622.75
420.098	606.71
420.475	619.59
420.852	635.63
421.228	632.92
421.605	628.18
421.982	627.27
422.358	650.1
422.735	667.27
423.111	646.71
423.488	660.27
423.864	643.32
424.241	667.72
424.617	702.75
424.994	693.48
425.37	702.75
425.746	721.96
426.123	709.3
426.499	728.29
426.875	701.85
427.251	740.71
427.627	715.86
428.003	736.65
428.379	755.63
428.756	749.75
429.132	746.36
429.507	771.45
429.883	768.28
430.259	779.36
430.635	791.79
431.011	788.4
431.387	801.73
431.763	814.16
432.138	845.57
432.514	843.99
432.89	833.82
433.265	836.53
433.641	872.46
434.016	881.95
434.392	874.5
434.767	882.86
435.143	896.42
435.518	913.59
435.894	927.15
436.269	899.81
436.644	895.29
437.02	940.94
437.395	934.38
437.77	945.91
438.145	967.15
438.52	949.98
438.895	964.44
439.271	973.25
439.646	1001.27
440.021	997.66
440.395	981.39
440.77	991.33
441.145	985
441.52	1033.59
441.895	1017.77
442.27	1032.46
442.645	1037.2
443.019	1025.91
443.394	1047.6
443.769	1057.77
444.143	1028.62
444.518	1041.05
444.892	1059.12
445.267	1058.22
445.641	1072.23
446.016	1077.88
446.39	1060.25
446.764	1062.74
447.139	1068.39
447.513	1073.14
447.887	1100.71
448.262	1115.62
448.636	1100.03
449.01	1110.42
449.384	1106.81
449.758	1106.13
450.132	1122.85
450.506	1137.54
450.88	1156.98
451.254	1115.85
451.628	1168.05
452.002	1152.23
452.376	1164.66
452.75	1163.98
453.123	1162.85
453.497	1195.17
453.871	1195.39
454.244	1187.93
454.618	1200.59
454.992	1247.82
455.365	1221.15
455.739	1243.98
456.112	1250.53
456.486	1257.54
456.859	1263.87
457.232	1276.52
457.606	1265.67
457.979	1286.46
458.352	1336.63
458.725	1321.04
459.099	1338.44
459.472	1334.82
459.845	1344.31
460.218	1337.54
460.591	1350.42
460.964	1390.64
461.337	1401.26
461.71	1441.49
462.083	1432.45
462.456	1450.53
462.829	1420.47
463.201	1427.7
463.574	1455.05
463.947	1430.87
464.32	1484.65
464.692	1483.07
465.065	1498.21
465.438	1507.02
465.81	1528.49
466.183	1536.17
466.555	1549.28
466.928	1572.56
467.3	1576.85
467.672	1584.08
468.045	1627.25
468.417	1644.19
468.789	1676.96
469.161	1689.62
469.534	1697.98
469.906	1707.7
470.278	1719.45
470.65	1677.64
471.022	1746.56
471.394	1784.98
471.766	1769.39
472.138	1833.12
472.51	1814.59
472.882	1849.39
473.253	1840.35
473.625	1866.34
473.997	1921.47
474.369	1925.32
474.74	1929.61
475.112	1994.24
475.484	1994.02
475.855	1977.74
476.227	2021.59
476.598	2079.89
476.97	2109.94
477.341	2109.27
477.713	2144.07
478.084	2146.78
478.455	2216.38
478.827	2215.93
479.198	2265.19
479.569	2267.91
479.94	2329.37
480.311	2324.63
480.682	2349.49
481.053	2401.24
481.424	2440.11
481.795	2463.83
482.166	2504.96
482.537	2514.68
482.908	2570.72
483.279	2611.4
483.65	2615.92
484.021	2659.99
484.391	2653.66
484.762	2670.61
485.133	2747.67
485.503	2736.14
485.874	2788.57
486.244	2835.35
486.615	2892.52
486.985	2877.16
487.356	2916.93
487.726	2974.33
488.097	3071.5
488.467	3013.88
488.837	3068.56
489.207	3097.26
489.578	3128.67
489.948	3180.42
490.318	3155.79
490.688	3242.34
491.058	3217.71
491.428	3308.11
491.798	3309.69
492.168	3370.02
492.538	3366.41
492.908	3392.85
493.278	3415.9
493.648	3421.55
494.017	3477.82
494.387	3492.28
494.757	3561.43
495.126	3578.15
495.496	3567.99
495.866	3573.18
496.235	3599.85
496.605	3691.82
496.974	3674.65
497.344	3706.96
497.713	3747.64
498.082	3709
498.452	3771.37
498.821	3754.65
499.19	3807.53
499.559	3793.29
499.928	3871.93
500.298	3886.39
500.667	3881.42
501.036	3843.91
501.405	3919.61
501.774	3894.08
502.143	3937.02
502.512	3905.83
502.88	3977.92
503.249	3995.32
503.618	3977.47
503.987	4017.01
504.356	4069.89
504.724	4104.69
505.093	4057.92
505.462	4069.44
505.83	4088.2
506.199	4103.79
506.567	4160.96
506.936	4137.46
507.304	4170.68
507.672	4175.43
508.041	4203.45
508.409	4216.56
508.777	4249.78
509.145	4259.72
509.514	4290.68
509.882	4302.2
510.25	4322.09
510.618	4293.39
510.986	4351.69
511.354	4386.27
511.722	4395.99
512.09	4418.58
512.458	4422.88
512.826	4424.01
513.193	4366.16
513.561	4393.95
513.929	4457
514.297	4505.36
514.664	4480.05
515.032	4478.02
515.4	4505.14
515.767	4541.29
516.135	4548.07
516.502	4514.85
516.869	4536.55
517.237	4569.09
517.604	4540.84
517.972	4613.61
518.339	4581.97
518.706	4611.35
519.073	4620.16
519.44	4671.01
519.808	4689.09
520.175	4627.17
520.542	4702.64
520.909	4722.08
521.276	4747.39
521.643	4723.89
522.009	4784.9
522.376	4766.82
522.743	4793.26
523.11	4840.27
523.477	4895.86
523.843	4870.55
524.21	4922.75
524.577	4935.63
524.943	4958.68
525.31	4920.27
525.676	4990.77
526.043	5025.57
526.409	4995.29
526.776	5068.28
527.142	5075.74
527.508	5077.78
527.874	5154.16
528.241	5180.15
528.607	5179.47
528.973	5236.87
529.339	5201.61
529.705	5252.23
530.071	5283.42
530.437	5267.6
530.803	5327.94
531.169	5358.67
531.535	5330.2
531.901	5357.09
532.267	5367.26
532.632	5445.68
532.998	5463.3
533.364	5469.86
533.73	5479.12
534.095	5541.49
534.461	5584.43
534.826	5578.33
535.192	5569.97
535.557	5635.73
535.923	5673.92
536.288	5682.96
536.653	5724.54
537.019	5613.81
537.384	5693.13
537.749	5744.43
538.114	5766.57
538.479	5792.33
538.845	5804.31
539.21	5812.9
539.575	5813.8
539.94	5915.95
540.305	5826.23
540.67	5888.38
541.034	5955.49
541.399	5950.52
541.764	5986.68
542.129	5962.27
542.494	5992.78
542.858	6029.39
543.223	6070.29
543.587	6089.05
543.952	6131.53
544.316	6093.34
544.681	6182.15
545.045	6138.99
545.41	6228.25
545.774	6217.18
546.138	6329.72
546.503	6315.48
546.867	6314.13
547.231	6363.84
547.595	6363.84
547.959	6353.22
548.324	6376.95
548.688	6404.75
549.052	6429.38
549.416	6461.24
549.779	6463.73
550.143	6477.06
550.507	6563.61
550.871	6518.42
551.235	6547.57
551.599	6625.76
551.962	6596.38
552.326	6633.44
552.689	6624.4
553.053	6626.89
553.417	6663.05
553.78	6737.62
554.143	6695.36
554.507	6706.21
554.87	6785.98
555.234	6779.65
555.597	6771.74
555.96	6801.35
556.323	6839.54
556.686	6912.08
557.05	6944.62
557.413	6916.15
557.776	6854.68
558.139	7021.91
558.502	6929.25
558.865	6977.84
559.228	7013.54
559.59	7066.2
559.953	7056.71
560.316	7180.77
560.679	7096.25
561.041	7160.66
561.404	7131.28
561.767	7174.22
562.129	7163.82
562.492	7265.97
562.854	7229.13
563.217	7272.29
563.579	7277.49
563.941	7305.97
564.304	7326.53
564.666	7378.05
565.028	7411.27
565.39	7459.41
565.753	7418.51
566.115	7517.03
566.477	7530.14
566.839	7487.43
567.201	7560.2
567.563	7587.09
567.925	7610.82
568.287	7584.83
568.648	7679.06
569.01	7696.46
569.372	7733.75
569.734	7713.41
570.095	7787.31
570.457	7771.04
570.819	7857.59
571.18	7796.35
571.542	7881.09
571.903	7993.41
572.265	8006.96
572.626	7994.08
572.987	8134.42
573.349	8079.28
573.71	8168.54
574.071	8158.37
574.432	8257.58
574.794	8347.07
575.155	8365.15
575.516	8376.22
575.877	8474.75
576.238	8568.08
576.599	8591.13
576.96	8728.98
577.32	8773.27
577.681	8830.9
578.042	8924.45
578.403	8961.74
578.763	9115.18
579.124	9145.47
579.485	9302.52
579.845	9395.63
580.206	9497.09
580.566	9608.73
580.927	9701.84
581.287	9904.77
581.648	9930.08
582.008	10075.16
582.368	10224.99
582.728	10406.9
583.089	10516.05
583.449	10735.71
583.809	10865.42
584.169	11091.63
584.529	11241
584.889	11443.03
585.249	11658.85
585.609	11732.74
585.969	12082.11
586.329	12228.77
586.688	12482.78
587.048	12684.36
587.408	12895.88
587.768	13138.81
588.127	13354.62
588.487	13587.61
588.846	13936.53
589.206	14095.84
589.565	14293.35
589.925	14584.42
590.284	14825.09
590.643	15110.05
591.003	15415.36
591.362	15756.82
591.721	15919.75
592.08	16264.15
592.44	16599.73
592.799	16875.88
593.158	17147.52
593.517	17468.86
593.876	17751.34
594.235	18053.25
594.593	18377.99
594.952	18659.11
595.311	18958.09
595.67	19263.39
596.029	19637.85
596.387	19838.29
596.746	20243.93
597.104	20472.63
597.463	20714.2
597.822	21097.92
598.18	21304.47
598.538	21670.33
598.897	22166.37
599.255	22119.81
599.613	22786.01
599.972	22980.13
600.33	23112.1
600.688	23307.58
601.046	23758.19
601.404	24218.52
601.762	24456.25
602.12	24653.31
602.478	25033.18
602.836	25229.34
603.194	25353.85
603.552	25825.71
603.91	25817.34
604.268	26270.21
604.625	26527.83
604.983	26718.34
605.341	26938.44
605.698	27416.4
606.056	27596.73
606.413	27754.47
606.771	28151.97
607.128	28366.2
607.485	28361.46
607.843	28682.35
608.2	29118.05
608.557	29334.77
608.914	29530.69
609.272	29827.86
609.629	30031.92
609.986	30374.96
610.343	30377.68
610.7	30794.84
611.057	30904.89
611.414	31114.38
611.771	31294.04
612.127	31622.84
612.484	31743.97
612.841	32143.05
613.198	32041.36
613.554	32239.1
613.911	32621.23
614.267	32677.28
614.624	32843.6
614.98	32971.96
615.337	33443.58
615.693	33484.94
616.05	33584.82
616.406	33904.81
616.762	33850.35
617.118	34009.67
617.475	34233.85
617.831	34419.38
618.187	34605.36
618.543	34671.12
618.899	35099.36
619.255	35000.15
619.611	35000.38
619.967	35309.07
620.323	35396.07
620.678	35372.35
621.034	35521.72
621.39	35625.45
621.746	35755.84
622.101	36249.84
622.457	35977.98
622.812	36235.37
623.168	36305.2
623.523	36411.64
623.879	36608.25
624.234	36430.85
624.589	36804.17
624.945	36807.11
625.3	36892.53
625.655	36847.34
626.01	37048.46
626.365	37014.34
626.72	37054.11
627.075	37228.12
627.43	37260.66
627.785	37264.5
628.14	37316.48
628.495	37374.33
628.85	37393.54
629.205	37480.77
629.559	37686.41
629.914	37518.05
630.269	37650.93
630.623	37602.57
630.978	37546.75
631.332	37874.88
631.687	37757.59
632.041	37823.58
632.396	37882.11
632.75	37760.31
633.104	37889.34
633.459	37676.92
633.813	37787.42
634.167	37867.65
634.521	37901.55
634.875	37965.27
635.229	37876.46
635.583	37757.37
635.937	37805.28
636.291	37828.78
636.645	37770.48
636.999	37868.1
637.352	38003.24
637.706	37744.71
638.06	37952.17
638.413	37944.48
638.767	37802.11
639.121	37986.06
639.474	37761.66
639.828	37897.03
640.181	37905.39
640.534	37811.83
640.888	37779.06
641.241	37607.99
641.594	37711.95
641.947	37763.92
642.301	37921.66
642.654	37761.44
643.007	37831.94
643.36	37737.71
643.713	37735.45
644.066	37822.9
644.419	37568.22
644.771	37405.51
645.124	37170.49
645.477	37017.28
645.83	36869.93
646.182	36768.24
646.535	36748.81
646.888	36751.52
647.24	36534.35
647.593	36740.67
647.945	36724.63
648.298	36508.81
648.65	36506.1
649.002	36437.86
649.355	36582.94
649.707	36522.15
650.059	36663.39
650.411	37162.13
650.763	37152.19
651.115	37378.85
651.467	37361.45
651.819	37452.52
652.171	37222.92
652.523	37335.91
652.875	37210.94
653.227	37109.48
653.578	37381.56
653.93	37333.65
654.282	37108.12
654.633	37012.3
654.985	37143.6
655.337	37141.11
655.688	37219.53
656.039	37293.65
656.391	37026.31
656.742	37133.2
657.094	36991.51
657.445	37235.35
657.796	37135.24
658.147	37070.38
658.498	36930.05
658.849	37072.87
659.2	37088.23
659.551	36966.43
659.902	37052.53
660.253	37064.96
660.604	36932.53
660.955	36795.36
661.306	36993.77
661.656	36809.15
662.007	36825.64
662.358	36859.09
662.708	36841.69
663.059	36892.53
663.409	36805.53
663.76	37069.7
664.11	36991.51
664.461	36892.98
664.811	36904.06
665.161	37013.89
665.511	36946.09
665.862	36831.74
666.212	36857.51
666.562	36954
666.912	36842.14
667.262	36923.04
667.612	36817.51
667.962	36879.2
668.312	36752.42
668.662	36929.59
669.011	36897.73
669.361	36789.48
669.711	36706.32
670.06	36729.37
670.41	36710.84
670.76	36689.6
671.109	36937.05
671.459	36859.31
671.808	36739.32
672.157	36845.75
672.507	36720.56
672.856	36625.65
673.205	36650.05
673.554	36809.82
673.904	36671.52
674.253	36986.32
674.602	36839.65
674.951	36322.6
675.3	36059.11
675.649	36538.64
675.998	36539.32
676.346	36508.81
676.695	36539.1
677.044	36313.11
677.393	36422.49
677.741	36444.41
678.09	36325.32
678.438	36312.66
678.787	36284.87
679.135	36335.49
679.484	36221.82
679.832	36378.65
680.181	36108.82
680.529	36213.45
680.877	36111.54
681.225	35952.67
681.573	36261.81
681.922	35993.12
682.27	35744.54
682.618	35858.89
682.966	35736.18
683.314	35884.2
683.661	35812.56
684.009	35594.04
684.357	35489.18
684.705	35530.99
685.053	35526.69
685.4	35336.64
685.748	35519.91
686.095	35400.59
686.443	35317.88
686.79	35058.68
687.138	35265.91
687.485	35284.21
687.832	35019.81
688.18	34975.07
688.527	35104.11
688.874	34973.26
689.221	34806.71
689.568	34836.54
689.915	34728.75
690.262	34561.07
690.609	34629.32
690.956	34494.86
691.303	34365.82
691.65	34259.16
691.997	34340.74
692.344	34134.64
692.69	34107.07
693.037	34138.93
693.383	33926.96
693.73	34073.17
694.077	33768.77
694.423	33685.61
694.769	33674.54
695.116	33599.29
695.462	33618.04
695.808	33449.23
696.155	33489.91
696.501	33202.23
696.847	33195.23
697.193	32981.68
697.539	33128.11
697.885	32949.81
698.231	32838.63
698.577	32782.58
698.923	32764.28
699.269	32712.76
699.614	32372.43
699.96	32465.3
700.306	32376.27
700.651	32318.87
700.997	32210.4
701.342	32204.29
701.688	32096.27
702.033	32004.98
702.379	32043.85
702.724	32001.81
703.069	31925.21
703.415	31587.59
703.76	31584.65
704.105	31429.63
704.45	31487.48
704.795	31293.81
705.14	31156.19
705.485	31306.69
705.83	31158.22
706.175	31186.69
706.52	31142.4
706.865	31035.74
707.209	30831
707.554	30743.77
707.899	30973.82
708.243	30689.53
708.588	30736.76
708.932	30519.14
709.277	30461.29
709.621	30449.99
709.966	30258.13
710.31	30298.81
710.654	30144.91
710.998	30116.89
711.342	30181.75
711.687	30093.39
712.031	29989.89
712.375	29882.77
712.719	29840.06
713.063	29777.24
713.407	29822.44
713.75	29602.1
714.094	29729.11
714.438	29460.86
714.782	29611.82
715.125	29373.18
715.469	29405.27
715.812	29246.18
716.156	29056.13
716.499	29084.38
716.843	29194.66
717.186	29106.3
717.53	29154.66
717.873	29065.17
718.216	29094.77
718.559	28881.22
718.902	28700.66
719.246	28795.12
719.589	28673.99
719.932	28661.56
720.275	28643.94
720.617	28558.06
720.96	28543.6
721.303	28538.63
721.646	28545.86
721.989	28325.98
722.331	28409.82
722.674	28329.82
723.016	28366.66
723.359	28231.52
723.701	28301.35
724.044	28155.14
724.386	27869.95
724.729	28116.27
725.071	27996.72
725.413	27970.06
725.755	27999.43
726.097	27856.84
726.439	27773
726.782	27850.06
727.124	27760.34
727.465	27620.69
727.807	27684.41
728.149	27654.58
728.491	27521.93
728.833	27624.08
729.175	27552.21
729.516	27409.62
729.858	27474.93
730.199	27457.75
730.541	27275.61
730.882	27316.06
731.224	27371.43
731.565	27192.9
731.906	27199.23
732.248	27203.97
732.589	27038.55
732.93	26878.56
733.271	27043.07
733.612	27091.89
733.953	26943.42
734.294	26838.33
734.635	26817.54
734.976	26939.35
735.317	26753.82
735.658	26734.61
735.999	26761.5
736.339	26674.72
736.68	26738.9
737.021	26659.81
737.361	26423.66
737.702	26653.71
738.042	26474.5
738.383	26451
738.723	26412.36
739.063	26352.24
739.404	26434.73
739.744	26287.84
740.084	26221.4
740.424	26272.02
740.764	26194.06
741.104	26228.41
741.444	26004.01
741.784	25972.14
742.124	26051.69
742.464	26047.17
742.804	25950.45
743.143	25841.75
743.483	25940.28
743.823	25745.26
744.162	25739.15
744.502	25756.1
744.841	25734.63
745.181	25781.19
745.52	25732.6
745.86	25613.06
746.199	25553.62
746.538	25566.95
746.877	25440.63
747.216	25481.08
747.556	25468.88
747.895	25401.31
748.234	25263.23
748.573	25229.34
748.911	25211.03
749.25	25224.59
749.589	25050.58
749.928	25165.16
750.267	25186.17
750.605	25005.61
750.944	25053.52
751.283	24920.87
751.621	25090.81
751.96	24762.46
752.298	24820.76
752.636	24819.18
752.975	24769.46
753.313	24595.45
753.651	24820.76
753.989	24562.24
754.327	24493.08
754.666	24374.22
755.004	24361.79
755.342	24469.36
755.679	24473.88
756.017	24191.85
756.355	24303.03
756.693	24151.4
757.031	24223.71
757.368	24017.62
757.706	24035.47
758.044	24034.79
758.381	23969.48
758.719	23801.35
759.056	23895.13
759.394	23757.06
