Data from hue_38_FLMS001491_00076.txt Node
Date: Tue Feb 07 17:31:58 GMT 2017
User: dcchb
Spectrometer: FLMS00149
Trigger mode: 0
Integration Time (sec): 2.000000E-2
Scans to average: 10
Electric dark correction enabled: true
Nonlinearity correction enabled: false
Boxcar width: 0
XAxis mode: Wavelengths
Number of Pixels in Spectrum: 2048
>>>>>Begin Spectral Data<<<<<
341.393	-13.22
341.776	-13.22
342.16	-13.22
342.543	-70.62
342.927	-53.22
343.31	-66.55
343.693	-70.39
344.077	-72.88
344.46	-68.36
344.843	-59.77
345.226	-21.13
345.61	-27.68
345.993	-24.52
346.376	3.5
346.759	-0.56
347.142	39.66
347.525	35.59
347.908	57.06
348.291	86.66
348.674	85.99
349.057	103.39
349.44	122.82
349.823	150.17
350.206	161.01
350.588	209.37
350.971	207.57
351.354	221.12
351.737	239.65
352.119	254.8
352.502	258.41
352.884	288.92
353.267	274.68
353.65	314.46
354.032	289.82
354.414	290.27
354.797	304.51
355.179	335.92
355.562	311.07
355.944	321.91
356.326	332.08
356.709	330.5
357.091	342.02
357.473	350.61
357.855	337.73
358.238	349.03
358.62	340.67
359.002	353.78
359.384	354.45
359.766	354.45
360.148	314.23
360.53	323.49
360.912	333.89
361.294	324.17
361.676	330.05
362.057	355.81
362.439	349.48
362.821	321.69
363.203	335.47
363.584	342.7
363.966	329.14
364.348	340.67
364.729	323.95
365.111	323.72
365.493	313.1
365.874	327.34
366.256	310.16
366.637	323.49
367.019	326.43
367.4	314.91
367.781	313.78
368.163	318.97
368.544	344.28
368.925	318.07
369.306	318.52
369.688	295.25
370.069	307.68
370.45	318.97
370.831	325.08
371.212	318.97
371.593	308.81
371.974	319.2
372.355	326.66
372.736	342.93
373.117	339.31
373.498	281.69
373.879	326.43
374.26	305.42
374.641	321.91
375.021	310.61
375.402	338.18
375.783	341.57
376.163	341.12
376.544	328.01
376.925	343.15
377.305	324.4
377.686	338.64
378.066	343.38
378.447	337.73
378.827	339.99
379.208	324.17
379.588	341.35
379.968	340.22
380.349	341.8
380.729	334.12
381.109	347
381.489	319.43
381.87	354.23
382.25	332.08
382.63	351.74
383.01	350.84
383.39	340.89
383.77	341.12
384.15	352.42
384.53	363.27
384.91	360.56
385.29	347
385.67	357.17
386.049	365.53
386.429	344.28
386.809	351.06
387.189	351.74
387.568	375.47
387.948	381.57
388.328	367.33
388.707	360.78
389.087	360.33
389.466	373.44
389.846	382.25
390.225	366.88
390.605	357.62
390.984	374.11
391.363	370.05
391.743	373.21
392.122	361.01
392.501	375.92
392.881	392.19
393.26	371.63
393.639	380.22
394.018	417.5
394.397	381.12
394.776	374.79
395.155	405.3
395.534	374.11
395.913	390.16
396.292	403.94
396.671	393.1
397.05	396.71
397.429	405.98
397.808	393.1
398.186	396.26
398.565	389.48
398.944	397.39
399.323	407.33
399.701	387.45
400.08	394.45
400.458	404.62
400.837	395.58
401.215	437.62
401.594	408.01
401.972	403.94
402.351	377.05
402.729	402.81
403.107	417.28
403.486	419.09
403.864	407.56
404.242	406.43
404.62	417.73
404.999	424.96
405.377	434.68
405.755	445.07
406.133	418.63
406.511	430.84
406.889	422.93
407.267	433.32
407.645	441.91
408.023	445.53
408.401	417.5
408.779	437.62
409.156	462.02
409.534	448.69
409.912	466.32
410.29	449.14
410.667	471.06
411.045	466.77
411.422	476.71
411.8	474.68
412.178	460.44
412.555	473.77
412.933	488.69
413.31	488.01
413.687	471.29
414.065	485.3
414.442	488.24
414.819	477.61
415.197	505.86
415.574	492.08
415.951	489.82
416.328	476.94
416.705	504.51
417.082	509.7
417.46	502.92
417.837	498.18
418.214	511.96
418.591	525.07
418.967	516.94
419.344	524.39
419.721	529.36
420.098	521.68
420.475	525.75
420.852	556.71
421.228	532.98
421.605	537.5
421.982	542.7
422.358	538.18
422.735	525.97
423.111	545.64
423.488	543.15
423.864	553.54
424.241	574.56
424.617	580.89
424.994	555.35
425.37	567.78
425.746	579.31
426.123	582.7
426.499	589.93
426.875	572.3
427.251	602.81
427.627	594.67
428.003	604.62
428.379	607.33
428.756	593.54
429.132	623.15
429.507	622.02
429.883	630.15
430.259	594.9
430.635	635.35
431.011	629.02
431.387	644.39
431.763	659.53
432.138	650.49
432.514	661.79
432.89	671.51
433.265	659.53
433.641	672.64
434.016	701.34
434.392	694.56
434.767	703.82
435.143	698.63
435.518	705.41
435.894	705.41
436.269	711.73
436.644	727.33
437.02	706.31
437.395	768.91
437.77	737.95
438.145	734.56
438.52	751.05
438.895	750.6
439.271	765.52
439.646	789.92
440.021	773.65
440.395	779.98
440.77	753.31
441.145	777.27
441.52	794.22
441.895	805.52
442.27	807.78
442.645	786.31
443.019	786.53
443.394	776.59
443.769	818.17
444.143	829.24
444.518	809.13
444.892	836.48
445.267	828.11
445.641	842.35
446.016	840.99
446.39	822.46
446.764	816.14
447.139	837.61
447.513	870.82
447.887	843.48
448.262	856.59
448.636	847.1
449.01	862.46
449.384	862.01
449.758	889.81
450.132	916.47
450.506	908.79
450.88	912.86
451.254	924.38
451.628	916.25
452.002	920.09
452.376	930.03
452.75	940.2
453.123	966.64
453.497	939.98
453.871	948.11
454.244	961.9
454.618	1001.44
454.992	995.34
455.365	990.14
455.739	1020.65
456.112	1015.45
456.486	1026.07
456.859	1052.06
457.232	1048.22
457.606	1058.16
457.979	1052.97
458.352	1057.49
458.725	1106.75
459.099	1110.59
459.472	1104.94
459.845	1139.29
460.218	1113.3
460.591	1143.81
460.964	1158.5
461.337	1145.85
461.71	1155.79
462.083	1222
462.456	1209.8
462.829	1209.57
463.201	1246.41
463.574	1230.14
463.947	1228.33
464.32	1269.01
464.692	1283.02
465.065	1310.14
465.438	1335.9
465.81	1331.15
466.183	1351.04
466.555	1365.73
466.928	1382
467.3	1375.22
467.672	1456.35
468.045	1477.59
468.417	1465.39
468.789	1469.9
469.161	1506.29
469.534	1519.17
469.906	1583.57
470.278	1569.56
470.65	1597.59
471.022	1629
471.394	1660.18
471.766	1704.93
472.138	1701.54
472.51	1713.97
472.882	1773.63
473.253	1806.17
473.625	1816.11
473.997	1866.96
474.369	1919.84
474.74	1950.8
475.112	1989.89
475.484	2020.62
475.855	2066.27
476.227	2086.61
476.598	2139.49
476.97	2184.91
477.341	2271.47
477.713	2291.13
478.084	2316.66
478.455	2408.64
478.827	2446.38
479.198	2538.58
479.569	2534.96
479.94	2642.98
480.311	2703.54
480.682	2764.33
481.053	2823.09
481.424	2933.6
481.795	3005.68
482.166	3039.81
482.537	3102.18
482.908	3229.86
483.279	3299.91
483.65	3377.2
484.021	3461.49
484.391	3516.86
484.762	3600.02
485.133	3652.67
485.503	3774.93
485.874	3870.97
486.244	3966.79
486.615	4073.9
486.985	4120
487.356	4237.74
487.726	4312.54
488.097	4464.18
488.467	4499.43
488.837	4643.83
489.207	4758.18
489.578	4844.73
489.948	4936.93
490.318	5042.47
490.688	5164.72
491.058	5231.61
491.428	5408.11
491.798	5489.46
492.168	5619.63
492.538	5707.99
492.908	5778.94
493.278	5938.94
493.648	5946.62
494.017	6121.76
494.387	6195.2
494.757	6298.48
495.126	6446.95
495.496	6530.34
495.866	6596.1
496.235	6721.97
496.605	6808.52
496.974	6819.37
497.344	6954.28
497.713	7052.58
498.082	7208.74
498.452	7288.51
498.821	7377.55
499.19	7455.28
499.559	7584.09
499.928	7615.05
500.298	7719.46
500.667	7813.01
501.036	7920.13
501.405	8024.53
501.774	8053.69
502.143	8160.12
502.512	8216.39
502.88	8339.1
503.249	8410.97
503.618	8430.4
503.987	8532.54
504.356	8594.46
504.724	8735.93
505.093	8774.12
505.462	8831.07
505.83	8942.25
506.199	9007.56
506.567	9203.26
506.936	9177.72
507.304	9315.35
507.672	9367.1
508.041	9376.36
508.409	9533.65
508.777	9590.6
509.145	9705.62
509.514	9786.97
509.882	9850.02
510.25	9890.47
510.618	9996.01
510.986	10035.33
511.354	10167.53
511.722	10252.27
512.09	10275.55
512.458	10332.5
512.826	10497.01
513.193	10451.59
513.561	10486.84
513.929	10610.23
514.297	10687.97
514.664	10839.83
515.032	10839.15
515.4	10955.76
515.767	10977.68
516.135	11064.91
516.502	10995.53
516.869	11241.63
517.237	11255.18
517.604	11244.34
517.972	11355.29
518.339	11481.39
518.706	11452.24
519.073	11539.24
519.44	11581.28
519.808	11726.81
520.175	11787.15
520.542	11884.09
520.909	11938.56
521.276	11948.95
521.643	12098.1
522.009	12184.88
522.376	12281.37
522.743	12261.94
523.11	12417.19
523.477	12479.11
523.843	12588.26
524.21	12655.37
524.577	12799.32
524.943	12799.32
525.31	12945.76
525.676	13082.48
526.043	13126.32
526.409	13156.15
526.776	13255.36
527.142	13328.12
527.508	13352.98
527.874	13510.49
528.241	13603.15
528.607	13576.71
528.973	13724.72
529.339	13832.97
529.705	13943.48
530.071	13971.72
530.437	14119.29
530.803	14112.96
531.169	14298.95
531.535	14265.27
531.901	14312.51
532.267	14380.3
532.632	14456.46
532.998	14410.58
533.364	14655.77
533.73	14676.56
534.095	14718.14
534.461	14793.62
534.826	14825.71
535.192	14860.06
535.557	15063.9
535.923	15036.78
536.288	15208.98
536.653	15094.41
537.019	15138.7
537.384	15254.18
537.749	15308.86
538.114	15281.75
538.479	15451.68
538.845	15486.71
539.21	15455.53
539.575	15521.06
539.94	15548.4
540.305	15716.76
540.67	15696.42
541.034	15859.13
541.399	15962.41
541.764	15875.85
542.129	16027.04
542.494	16104.55
542.858	16130.31
543.223	16116.3
543.587	16309.74
543.952	16301.15
544.316	16393.81
544.681	16436.07
545.045	16491.66
545.41	16575.5
545.774	16550.86
546.138	16627.7
546.503	16750.86
546.867	16728.94
547.231	16930.97
547.595	16910.63
547.959	16978.88
548.324	16967.8
548.688	17059.1
549.052	17222.03
549.416	17213.9
549.779	17163.05
550.143	17255.03
550.507	17378.87
550.871	17397.62
551.235	17436.26
551.599	17491.63
551.962	17522.82
552.326	17608.24
552.689	17725.97
553.053	17619.31
553.417	17722.13
553.78	17952.64
554.143	17896.14
554.507	17923.26
554.87	18029.02
555.234	18164.16
555.597	18160.31
555.96	18246.41
556.323	18332.96
556.686	18230.37
557.05	18445.73
557.413	18390.36
557.776	18553.75
558.139	18632.84
558.502	18739.96
558.865	18718.72
559.228	18833.06
559.59	18880.75
559.953	18985.38
560.316	19047.97
560.679	19074.64
561.041	19215.2
561.404	19341.53
561.767	19492.26
562.129	19410
562.492	19624.46
562.854	19497.91
563.217	19476.66
563.579	19606.6
563.941	19630.33
564.304	19706.04
564.666	19966.59
565.028	19876.65
565.39	20003.2
565.753	20161.62
566.115	20182.63
566.477	20229.41
566.839	20390.54
567.201	20417.66
567.563	20419.69
567.925	20624.66
568.287	20730.19
568.648	20668.04
569.01	20859.45
569.372	20846.8
569.734	20892.22
570.095	21063.97
570.457	21176.96
570.819	21209.72
571.18	21207.46
571.542	21361.13
571.903	21502.37
572.265	21587.57
572.626	21536.04
572.987	21708.92
573.349	21767.45
573.71	21906.2
574.071	21952.08
574.432	22063.04
574.794	22267.32
575.155	22322.24
575.516	22302.35
575.877	22528.33
576.238	22637.48
576.599	22708.89
576.96	22803.81
577.32	22873.18
577.681	23139.39
578.042	23152.72
578.403	23267.07
578.763	23450.57
579.124	23488.53
579.485	23849.66
579.845	23879.49
580.206	23991.8
580.566	24159.93
580.927	24313.6
581.287	24382.75
581.648	24589.3
582.008	24677.88
582.368	24871.32
582.728	25040.36
583.089	25197.19
583.449	25491.65
583.809	25453.23
584.169	25755.59
584.529	25864.52
584.889	26257.73
585.249	26284.39
585.609	26410.49
585.969	26806.19
586.329	26813.65
586.688	27042.79
587.048	27273.52
587.408	27452.95
587.768	27633.74
588.127	27805.26
588.487	28017.23
588.846	28319.14
589.206	28337.9
589.565	28643.88
589.925	28906.02
590.284	28998.67
590.643	29168.61
591.003	29603.85
591.362	29746.45
591.721	30056.5
592.08	30249.94
592.44	30307.56
592.799	30488.8
593.158	30791.17
593.517	30954.33
593.876	31149.35
594.235	31336.24
594.593	31534.2
594.952	31872.27
595.311	31915.43
595.67	32243.56
596.029	32379.6
596.387	32796.76
596.746	33016.87
597.104	32996.53
597.463	33138.45
597.822	33457.09
598.18	33643.07
598.538	33716.29
598.897	34084.19
599.255	33947.02
599.613	34401.69
599.972	34463.16
600.33	34740.67
600.688	34844.17
601.046	35235.12
601.404	35394.44
601.762	35513.98
602.12	35733.86
602.478	35776.8
602.836	36036.91
603.194	35948.32
603.552	36227.18
603.91	36229.89
604.268	36687.96
604.625	36655.87
604.983	36913.04
605.341	36822.65
605.698	37236.65
606.056	37429.41
606.413	37420.82
606.771	37597.54
607.128	37645
607.485	37720.48
607.843	37659.01
608.2	38152.78
608.557	38328.6
608.914	38313.23
609.272	38588.25
609.629	38611.08
609.986	38935.81
610.343	38750.73
610.7	39197.73
611.057	39209.7
611.414	39314.56
611.771	39402.92
612.127	39637.71
612.484	39654.44
612.841	40000.19
613.198	39870.25
613.554	40151.83
613.911	40221.65
614.267	40345.49
614.624	40347.3
614.98	40478.6
615.337	40658.03
615.693	40726.73
616.05	40720.17
616.406	41031.12
616.762	40957.45
617.118	41031.12
617.475	41084.68
617.831	41269.31
618.187	41411.68
618.543	41354.05
618.899	41680.82
619.255	41629.07
619.611	41731.45
619.967	41858
620.323	41876.53
620.678	41769.64
621.034	41789.97
621.39	41957.65
621.746	41923.53
622.101	42433.12
622.457	42017.77
622.812	42292.56
623.168	42322.39
623.523	42493.23
623.879	42616.17
624.234	42309.73
624.589	42467.47
624.945	42695.94
625.3	42740.01
625.655	42629.5
626.01	42746.56
626.365	42789.04
626.72	42682.15
627.075	42846.44
627.43	42781.36
627.785	42860.45
628.14	42937.52
628.495	42880.57
628.85	42853.45
629.205	42850.74
629.559	42983.16
629.914	42800.8
630.269	42841.02
630.623	42769.38
630.978	42883.05
631.332	43070.62
631.687	43079.21
632.041	42924.18
632.396	43106.32
632.75	42836.73
633.104	42976.16
633.459	42768.93
633.813	42833.79
634.167	42846.67
634.521	42940.23
634.875	43122.59
635.229	42808.48
635.583	42857.97
635.937	42778.42
636.291	42763.51
636.645	42809.16
636.999	42686.9
637.352	42926.44
637.706	42660.91
638.06	42723.28
638.413	42595.6
638.767	42562.16
639.121	42662.49
639.474	42331.88
639.828	42383.18
640.181	42512.44
640.534	42547.02
640.888	42484.87
641.241	42315.16
641.594	42386.12
641.947	42672.66
642.301	42370.07
642.654	42558.09
643.007	42390.18
643.36	42570.29
643.713	42265.89
644.066	42421.82
644.419	42236.74
644.771	42006.47
645.124	41639.02
645.477	41631.11
645.83	41347.95
646.182	41206.71
646.535	41110.22
646.888	41158.13
647.24	41057.79
647.593	41284
647.945	41135.75
648.298	41025.93
648.65	40930.11
649.002	40842.65
649.355	40987.06
649.707	40938.92
650.059	41161.29
650.411	41528.74
650.763	41539.36
651.115	41918.56
651.467	41789.07
651.819	41829.07
652.171	41691.67
652.523	41769.41
652.875	41777.55
653.227	41521.28
653.578	41951.1
653.93	41777.32
654.282	41561.28
654.633	41629.75
654.985	41613.71
655.337	41553.14
655.688	41598.79
656.039	41883.08
656.391	41420.49
656.742	41449.64
657.094	41474.73
657.445	41543.2
657.796	41536.2
658.147	41451
658.498	41554.05
658.849	41429.31
659.2	41468.4
659.551	41265.47
659.902	41538
660.253	41371.45
660.604	41376.65
660.955	41161.06
661.306	41320.61
661.656	41248.07
662.007	41124.23
662.358	41317.44
662.708	41195.87
663.059	41203.55
663.409	41018.02
663.76	41392.92
664.11	41196.54
664.461	41346.82
664.811	41314.96
665.161	41187.05
665.511	41213.72
665.862	41117.45
666.212	41192.7
666.562	41250.33
666.912	41135.53
667.262	41210.1
667.612	41278.35
667.962	41270.21
668.312	41287.16
668.662	41341.85
669.011	41201.52
669.361	41245.36
669.711	41086.72
670.06	40986.61
670.41	41016.21
670.76	41032.03
671.109	41071.35
671.459	41033.16
671.808	40817.8
672.157	41048.75
672.507	40829.55
672.856	40926.04
673.205	40854.41
673.554	41007.85
673.904	40884.69
674.253	41063.89
674.602	40880.39
674.951	40416
675.3	40155.89
675.649	40775.54
675.998	40851.24
676.346	40842.65
676.695	40911.58
677.044	40549.78
677.393	40749.1
677.741	40845.82
678.09	40553.17
678.438	40518.37
678.787	40657.35
679.135	40633.39
679.484	40455.55
679.832	40414.42
680.181	40308.88
680.529	40483.79
680.877	40393.63
681.225	40237.93
681.573	40403.34
681.922	40125.84
682.27	40126.52
682.618	40117.02
682.966	39982.34
683.314	40132.39
683.661	39808.33
684.009	39743.02
684.357	39837.26
684.705	39787.09
685.053	39811.04
685.4	39545.51
685.748	39420.32
686.095	39572.18
686.443	39255.13
686.79	39272.98
687.138	39416.03
687.485	39309.59
687.832	39264.17
688.18	39226.88
688.527	39009.71
688.874	38921.58
689.221	38843.39
689.568	38901.01
689.915	38649.72
690.262	38683.16
690.609	38541.25
690.956	38455.6
691.303	38611.08
691.65	38149.39
691.997	38409.05
692.344	38110.3
692.69	38177.41
693.037	38079.79
693.383	37809.06
693.73	37869.63
694.077	37819.91
694.423	37658.33
694.769	37540.59
695.116	37494.49
695.462	37429.41
695.808	37337.66
696.155	37367.04
696.501	37144.9
696.847	37054.28
697.193	36835.53
697.539	37067.39
697.885	36819.26
698.231	36648.64
698.577	36675.98
698.923	36533.16
699.269	36348.99
699.614	36093.18
699.96	36133.85
700.306	36198.94
700.651	36118.26
700.997	35994.42
701.342	35962.56
701.688	35771.38
702.033	35769.34
702.379	35729.79
702.724	35539.07
703.069	35805.5
703.415	35381.78
703.76	35346.53
704.105	35280.32
704.45	35261.56
704.795	35019.31
705.14	35072.41
705.485	34935.24
705.83	34642.14
706.175	34805.53
706.52	34687.56
706.865	34486.89
707.209	34623.61
707.554	34392.2
707.899	34412.77
708.243	34294.13
708.588	34229.04
708.932	33999.22
709.277	34029.73
709.621	34001.48
709.966	33737.98
710.31	33824.76
710.654	33585.67
710.998	33646.23
711.342	33683.75
711.687	33540.93
712.031	33457.31
712.375	33243.08
712.719	33404.88
713.063	33234.04
713.407	33279.46
713.75	33163.31
714.094	33160.82
714.438	33015.06
714.782	33079.24
715.125	32818.91
715.469	32952.01
715.812	32784.34
716.156	32484.23
716.499	32568.3
716.843	32777.56
717.186	32394.06
717.53	32664.56
717.873	32531.46
718.216	32414.18
718.559	32328.75
718.902	32019.16
719.246	32247.85
719.589	31990.68
719.932	32081.08
720.275	32004.24
720.617	31984.81
720.96	31885.6
721.303	31928.99
721.646	31881.76
721.989	31677.92
722.331	31655.78
722.674	31631.6
723.016	31745.94
723.359	31516.35
723.701	31694.87
724.044	31445.16
724.386	31337.59
724.729	31510.47
725.071	31252.17
725.413	31295.79
725.755	31249.23
726.097	31248.56
726.439	30975.8
726.782	31023.93
727.124	31173.98
727.465	31012.63
727.807	30797.04
728.149	30817.83
728.491	30733.99
728.833	30841.11
729.175	30743.26
729.516	30693.77
729.858	30657.61
730.199	30599.31
730.541	30519.31
730.882	30449.71
731.224	30507.33
731.565	30265.31
731.906	30381.46
732.248	30387.11
732.589	30253.33
732.93	29973.79
733.271	30219.88
733.612	30186.89
733.953	30175.14
734.294	30027.57
734.635	30081.13
734.976	29962.49
735.317	29932.43
735.658	29882.72
735.999	29797.52
736.339	29835.49
736.68	29927.46
737.021	29706
737.361	29569.5
737.702	29773.12
738.042	29714.13
738.383	29633.68
738.723	29608.6
739.063	29524.76
739.404	29667.13
739.744	29533.8
740.084	29368.61
740.424	29339.45
740.764	29312.34
741.104	29411.32
741.444	29286.35
741.784	29275.5
742.124	29234.6
742.464	29185.11
742.804	29189.18
743.143	29009.52
743.483	28989.63
743.823	28847.49
744.162	28835.51
744.502	28896.3
744.841	28769.75
745.181	28890.88
745.52	28777.66
745.86	28859.47
746.199	28757.77
746.538	28644.78
746.877	28705.8
747.216	28523.88
747.556	28458.35
747.895	28582.86
748.234	28326.6
748.573	28378.35
748.911	28318.69
749.25	28334.06
749.589	28082.99
749.928	28192.37
750.267	28233.95
750.605	28178.36
750.944	28051.13
751.283	27920.28
751.621	28006.16
751.96	27880.74
752.298	27873.28
752.636	27920.06
752.975	27802.09
753.313	27506.06
753.651	27685.49
753.989	27682.55
754.327	27667.18
754.666	27420.18
755.004	27409.34
755.342	27445.27
755.679	27354.65
756.017	27249.11
756.355	27284.59
756.693	27068.1
757.031	27136.35
