Data from hue_32_FLMS001491_00087.txt Node
Date: Tue Feb 07 17:24:02 GMT 2017
User: dcchb
Spectrometer: FLMS00149
Trigger mode: 0
Integration Time (sec): 2.000000E-2
Scans to average: 10
Electric dark correction enabled: true
Nonlinearity correction enabled: false
Boxcar width: 0
XAxis mode: Wavelengths
Number of Pixels in Spectrum: 2048
>>>>>Begin Spectral Data<<<<<
341.393	-5.1
341.776	-5.1
342.16	-5.1
342.543	-57.75
342.927	-79.22
343.31	-57.75
343.693	-77.19
344.077	-62.95
344.46	-74.02
344.843	-50.52
345.226	-28.37
345.61	-32.22
345.993	-22.95
346.376	-12.33
346.759	14.79
347.142	19.31
347.525	30.15
347.908	68.8
348.291	76.93
348.674	97.5
349.057	110.83
349.44	113.32
349.823	138.85
350.206	159.87
350.588	201
350.971	224.27
351.354	223.6
351.737	224.05
352.119	266.98
352.502	271.96
352.884	285.06
353.267	269.24
353.65	292.52
354.032	308.79
354.414	313.54
354.797	309.24
355.179	313.99
355.562	332.29
355.944	318.06
356.326	339.52
356.709	349.02
357.091	373.65
357.473	376.36
357.855	347.21
358.238	342.24
358.62	349.02
359.002	331.62
359.384	355.12
359.766	373.2
360.148	353.76
360.53	337.72
360.912	350.6
361.294	344.72
361.676	353.31
362.057	315.12
362.439	335.91
362.821	318.06
363.203	343.82
363.584	319.19
363.966	335.91
364.348	321.45
364.729	323.71
365.111	315.34
365.493	329.36
365.874	326.87
366.256	315.34
366.637	311.5
367.019	312.86
367.4	329.58
367.781	322.35
368.163	331.39
368.544	321.22
368.925	302.92
369.306	332.97
369.688	316.7
370.069	317.38
370.45	335.91
370.831	301.56
371.212	327.55
371.593	335.01
371.974	313.54
372.355	329.13
372.736	320.09
373.117	323.48
373.498	319.19
373.879	335.91
374.26	317.6
374.641	316.25
375.021	323.71
375.402	330.26
375.783	311.05
376.163	331.62
376.544	339.75
376.925	347.66
377.305	330.71
377.686	330.94
378.066	332.97
378.447	346.53
378.827	339.52
379.208	323.71
379.588	339.07
379.968	327.55
380.349	336.36
380.729	329.58
381.109	342.91
381.489	330.71
381.87	346.53
382.25	349.69
382.63	351.5
383.01	362.58
383.39	364.16
383.77	359.64
384.15	343.14
384.53	385.17
384.91	342.91
385.29	336.59
385.67	346.98
386.049	342.69
386.429	368
386.809	349.24
387.189	353.76
387.568	355.34
387.948	342.69
388.328	364.38
388.707	346.08
389.087	365.06
389.466	372.29
389.846	368
390.225	380.65
390.605	382.69
390.984	361.9
391.363	383.37
391.743	369.58
392.122	385.4
392.501	374.55
392.881	378.39
393.26	392.63
393.639	407.32
394.018	400.54
394.397	395.57
394.776	389.69
395.155	375
395.534	372.97
395.913	383.14
396.292	400.54
396.671	380.2
397.05	415
397.429	394.66
397.808	407.77
398.186	395.57
398.565	430.37
398.944	383.59
399.323	405.96
399.701	401.67
400.08	412.07
400.458	406.19
400.837	412.74
401.215	407.32
401.594	403.03
401.972	403.25
402.351	417.49
402.729	421.78
403.107	424.72
403.486	415.46
403.864	394.44
404.242	428.56
404.62	435.79
404.999	409.35
405.377	433.53
405.755	452.29
406.133	429.24
406.511	431.5
406.889	447.32
407.267	451.16
407.645	471.27
408.023	446.64
408.401	441.44
408.779	446.64
409.156	451.16
409.534	469.24
409.912	468.56
410.29	467.21
410.667	501.33
411.045	455.23
411.422	461.56
411.8	459.75
412.178	499.97
412.555	474.66
412.933	485.74
413.31	478.5
413.687	475.34
414.065	505.4
414.442	491.16
414.819	493.19
415.197	499.75
415.574	494.1
415.951	514.66
416.328	515.79
416.705	513.08
417.082	511.27
417.46	521.44
417.837	530.25
418.214	523.02
418.591	523.02
418.967	531.84
419.344	548.33
419.721	536.13
420.098	543.14
420.475	553.98
420.852	582
421.228	562.8
421.605	559.63
421.982	565.06
422.358	554.66
422.735	548.11
423.111	575.45
423.488	585.39
423.864	554.21
424.241	600.31
424.617	596.69
424.994	601.44
425.37	581.33
425.746	573.19
426.123	591.5
426.499	585.17
426.875	606.64
427.251	585.85
427.627	622.23
428.003	621.33
428.379	641.21
428.756	611.16
429.132	630.14
429.507	634.66
429.883	636.01
430.259	647.77
430.635	640.76
431.011	640.08
431.387	662.91
431.763	656.58
432.138	664.94
432.514	684.15
432.89	676.92
433.265	699.29
433.641	690.93
434.016	689.12
434.392	702.68
434.767	702
435.143	714.43
435.518	729.12
435.894	729.8
436.269	742.23
436.644	745.39
437.02	741.77
437.395	743.13
437.77	763.92
438.145	772.73
438.52	753.75
438.895	778.84
439.271	765.5
439.646	794.2
440.021	762.34
440.395	783.13
440.77	802.11
441.145	813.86
441.52	802.11
441.895	793.98
442.27	815.67
442.645	809.57
443.019	822.68
443.394	807.54
443.769	814.99
444.143	821.77
444.518	807.31
444.892	829.23
445.267	844.37
445.641	853.18
446.016	844.6
446.39	867.87
446.764	867.87
447.139	873.52
447.513	878.04
447.887	894.54
448.262	844.82
448.636	884.82
449.01	873.3
449.384	900.19
449.758	887.53
450.132	944.48
450.506	918.27
450.88	939.74
451.254	917.14
451.628	926.4
452.002	947.19
452.376	948.1
452.75	960.07
453.123	977.25
453.497	978.38
453.871	993.97
454.244	1021.77
454.618	998.72
454.992	1022.44
455.365	1013.63
455.739	1023.35
456.112	1051.14
456.486	1082.56
456.859	1054.76
457.232	1071.03
457.606	1080.75
457.979	1104.48
458.352	1132.72
458.725	1134.76
459.099	1149.45
459.472	1153.97
459.845	1175.44
460.218	1169.79
460.591	1192.38
460.964	1155.32
461.337	1200.97
461.71	1228.77
462.083	1212.5
462.456	1262.89
462.829	1261.31
463.201	1300.63
463.574	1274.87
463.947	1267.41
464.32	1319.39
464.692	1364.58
465.065	1313.96
465.438	1359.84
465.81	1397.35
466.183	1412.27
466.555	1439.16
466.928	1448.2
467.3	1475.31
467.672	1469.66
468.045	1492.26
468.417	1480.06
468.789	1524.35
469.161	1543.11
469.534	1589.89
469.906	1612.71
470.278	1634.41
470.65	1639.6
471.022	1676.21
471.394	1715.99
471.766	1706.72
472.138	1741.97
472.51	1758.24
472.882	1783.1
473.253	1833.95
473.625	1861.29
473.997	1902.42
474.369	1940.84
474.74	1948.52
475.112	2033.04
475.484	2032.14
475.855	2072.36
476.227	2115.3
476.598	2180.83
476.97	2180.61
477.341	2258.57
477.713	2339.7
478.084	2328.17
478.455	2393.03
478.827	2459.02
479.198	2544.21
479.569	2563.65
479.94	2661.72
480.311	2695.62
480.682	2713.7
481.053	2806.58
481.424	2891.77
481.795	2946.24
482.166	3005.44
482.537	3082.05
482.908	3151.43
483.279	3195.27
483.65	3292.44
484.021	3378.77
484.391	3444.3
484.762	3516.16
485.133	3534.02
485.503	3615.15
485.874	3741.02
486.244	3802.03
486.615	3848.59
486.985	3976.27
487.356	4110.95
487.726	4134.68
488.097	4231.4
488.467	4289.03
488.837	4409.7
489.207	4527.89
489.578	4528.57
489.948	4682.46
490.318	4688.11
490.688	4794.32
491.058	4914.09
491.428	5015.79
491.798	5083.81
492.168	5187.99
492.538	5290.13
492.908	5338.04
493.278	5467.53
493.648	5510.69
494.017	5615.32
494.387	5684.7
494.757	5749.55
495.126	5872.94
495.496	5894.63
495.866	5978.47
496.235	6074.97
496.605	6148.41
496.974	6165.36
497.344	6321.97
497.713	6392.93
498.082	6398.12
498.452	6533.26
498.821	6580.49
499.19	6661.17
499.559	6768.51
499.928	6781.39
500.298	6916.3
500.667	6916.3
501.036	6987.49
501.405	7081.49
501.774	7092.57
502.143	7164.2
502.512	7229.29
502.88	7341.37
503.249	7300.47
503.618	7405.55
503.987	7528.49
504.356	7564.42
504.724	7593.57
505.093	7592.22
505.462	7761.7
505.83	7812.1
506.199	7822.94
506.567	7964.18
506.936	7911.53
507.304	8097.74
507.672	8126.44
508.041	8162.14
508.409	8284.17
508.777	8309.71
509.145	8368.47
509.514	8409.37
509.882	8387
510.25	8455.24
510.618	8599.87
510.986	8563.04
511.354	8642.58
511.722	8658.18
512.09	8778.85
512.458	8768
512.826	8887.77
513.193	8963.7
513.561	8937.72
513.929	9032.63
514.297	9095
514.664	9163.93
515.032	9218.61
515.4	9263.36
515.767	9346.07
516.135	9320.53
516.502	9329.57
516.869	9461.09
517.237	9405.05
517.604	9481.66
517.972	9579.73
518.339	9644.37
518.706	9656.79
519.073	9746.74
519.44	9809.11
519.808	9863.12
520.175	9853.4
520.542	9987.63
520.909	10004.58
521.276	10063.79
521.643	10084.81
522.009	10169.77
522.376	10225.82
522.743	10296.33
523.11	10426.49
523.477	10469.43
523.843	10532.93
524.21	10632.59
524.577	10722.98
524.943	10708.97
525.31	10727.73
525.676	10871.68
526.043	10925.46
526.409	10981.05
526.776	11063.76
527.142	11114.83
527.508	11174.95
527.874	11249.07
528.241	11247.03
528.607	11283.19
528.973	11432.79
529.339	11433.92
529.705	11492.9
530.071	11630.98
530.437	11682.05
530.803	11746.91
531.169	11819.22
531.535	11739.23
531.901	11790.07
532.267	11891.99
532.632	11957.52
532.998	12072.1
533.364	12061.7
533.73	12101.7
534.095	12266.67
534.461	12220.34
534.826	12306.44
535.192	12348.93
535.557	12415.37
535.923	12473.22
536.288	12478.87
536.653	12590.5
537.019	12544.4
537.384	12662.36
537.749	12671.63
538.114	12612.2
538.479	12681.12
538.845	12751.63
539.21	12720.67
539.575	12915.92
539.94	12947.1
540.305	13018.74
540.67	12929.7
541.034	13036.82
541.399	13168.11
541.764	13220.32
542.129	13203.82
542.494	13294.89
542.858	13392.97
543.223	13412.85
543.587	13441.1
543.952	13564.26
544.316	13504.83
544.681	13483.13
545.045	13711.38
545.41	13736.91
545.774	13807.19
546.138	13790.7
546.503	13884.93
546.867	13846.74
547.231	14010.35
547.595	14063.91
547.959	14076.11
548.324	14185.49
548.688	14143
549.052	14235.66
549.416	14269.55
549.779	14281.53
550.143	14293.06
550.507	14382.55
550.871	14380.96
551.235	14420.06
551.599	14516.33
551.962	14552.71
552.326	14631.58
552.689	14669.32
553.053	14666.83
553.417	14754.51
553.78	14934.62
554.143	14760.84
554.507	14890.55
554.87	14999.48
555.234	15095.07
555.597	15001.51
555.96	15118.8
556.323	15122.41
556.686	15145.69
557.05	15243.77
557.413	15265.01
557.776	15252.58
558.139	15418.22
558.502	15495.06
558.865	15505
559.228	15533.02
559.59	15637.43
559.953	15657.31
560.316	15782.96
560.679	15879.46
561.041	15890.3
561.404	15959.68
561.767	16014.37
562.129	15991.77
562.492	16108.38
562.854	16138.88
563.217	16143.86
563.579	16189.5
563.941	16302.27
564.304	16330.97
564.666	16468.59
565.028	16462.94
565.39	16569.15
565.753	16667.68
566.115	16665.2
566.477	16780.9
566.839	16775.7
567.201	16784.97
567.563	16867.68
567.925	16983.38
568.287	17001.91
568.648	17049.14
569.01	17103.83
569.372	17290.27
569.734	17284.62
570.095	17337.5
570.457	17457.04
570.819	17506.98
571.18	17577.04
571.542	17542.24
571.903	17642.57
572.265	17793.3
572.626	17930.02
572.987	17865.39
573.349	17959.17
573.71	18035.78
574.071	18086.4
574.432	18212.95
574.794	18365.49
575.155	18431.03
575.516	18501.08
575.877	18641.42
576.238	18759.15
576.599	18956.44
576.96	18945.14
577.32	19025.81
577.681	19234.62
578.042	19336.77
578.403	19492.24
578.763	19518
579.124	19709.64
579.485	19938.11
579.845	20017.43
580.206	20058.78
580.566	20309.85
580.927	20383.97
581.287	20623.06
581.648	20748.71
582.008	21021.69
582.368	21049.04
582.728	21274.57
583.089	21474.34
583.449	21679.53
583.809	21869.81
584.169	22037.71
584.529	22219.18
584.889	22534.87
585.249	22683.57
585.609	22824.36
585.969	23158.81
586.329	23353.38
586.688	23477.22
587.048	23795.86
587.408	23933.03
587.768	24277.2
588.127	24344.32
588.487	24653.91
588.846	24903.17
589.206	25056.62
589.565	25357.85
589.925	25593.78
590.284	25819.98
590.643	26121.9
591.003	26450.93
591.362	26760.75
591.721	26952.84
592.08	27217.01
592.44	27461.75
592.799	27675.3
593.158	27804.34
593.517	28289.3
593.876	28464.89
594.235	28665.79
594.593	28967.47
594.952	29371.53
595.311	29450.62
595.67	29821.91
596.029	30200.89
596.387	30277.95
596.746	30604.27
597.104	30728.1
597.463	31018.49
597.822	31361.31
598.18	31401.08
598.538	31746.16
598.897	32174.17
599.255	32059.37
599.613	32668.62
599.972	32630.88
600.33	32973.92
600.688	33038.33
601.046	33310.86
601.404	33834.01
601.762	33863.39
602.12	34160.33
602.478	34488.23
602.836	34578.85
603.194	34535.69
603.552	34933.42
603.91	35027.2
604.268	35316.68
604.625	35408.66
604.983	35760.97
605.341	35840.51
605.698	36027.4
606.056	36383.1
606.413	36416.54
606.771	36837.55
607.128	36911.22
607.485	36827.38
607.843	37183.3
608.2	37426.01
608.557	37633.23
608.914	37694.47
609.272	38035.03
609.629	38077.74
609.986	38244.07
610.343	38312.31
610.7	38706.2
611.057	38792.75
611.414	38967.89
611.771	39044.72
612.127	39219.18
612.484	39402
612.841	39599.06
613.198	39671.6
613.554	39733.52
613.911	40104.81
614.267	40151.81
614.624	40105.71
614.98	40224.58
615.337	40575.53
615.693	40681.74
616.05	40611.69
616.406	41105.68
616.762	40922.19
617.118	41065.69
617.475	41016.42
617.831	41255.29
618.187	41428.61
618.543	41513.58
618.899	41820.69
619.255	41849.85
619.611	41732.11
619.967	41957.87
620.323	42245.32
620.678	42190.63
621.034	42141.59
621.39	42133.68
621.746	42227.01
622.101	42641.24
622.457	42510.17
622.812	42585.42
623.168	42844.62
623.523	42789.48
623.879	42903.38
624.234	42768.47
624.589	42942.02
624.945	43001.91
625.3	43088.68
625.655	43217.27
626.01	43197.38
626.365	43245.29
626.72	43235.8
627.075	43261.11
627.43	43291.16
627.785	43265.85
628.14	43436.92
628.495	43359.41
628.85	43343.59
629.205	43248.45
629.559	43702
629.914	43456.58
630.269	43543.59
630.623	43378.17
630.978	43332.97
631.332	43634.43
631.687	43779.29
632.041	43638.73
632.396	43715.11
632.75	43507.88
633.104	43620.19
633.459	43388.56
633.813	43572.74
634.167	43497.71
634.521	43632.17
634.875	43543.59
635.229	43480.99
635.583	43343.14
635.937	43400.31
636.291	43416.13
636.645	43458.62
636.999	43409.35
637.352	43588.33
637.706	43319.86
638.06	43434.21
638.413	43407.32
638.767	43322.8
639.121	43314.89
639.474	43161
639.828	43114.9
640.181	43254.55
640.534	43264.95
640.888	43197.83
641.241	42957.61
641.594	43112.19
641.947	43198.74
642.301	43191.51
642.654	43134.78
643.007	43215.91
643.36	43175.91
643.713	43168
644.066	43369.81
644.419	43077.84
644.771	42783.38
645.124	42405.54
645.477	42408.7
645.83	42007.81
646.182	42145.43
646.535	41909.51
646.888	41930.07
647.24	41744.31
647.593	41988.37
647.945	41944.31
648.298	41949.5
648.65	41662.73
649.002	41560.36
649.355	41786.8
649.707	41690.08
650.059	41938.88
650.411	42381.58
650.763	42459.32
651.115	42722.14
651.467	42736.6
651.819	42556.27
652.171	42601.69
652.523	42567.34
652.875	42540
653.227	42401.24
653.578	42743.16
653.93	42521.47
654.282	42362.83
654.633	42244.19
654.985	42417.06
655.337	42384.52
655.688	42379.1
656.039	42499.55
656.391	42264.75
656.742	42382.26
657.094	42353.11
657.445	42535.03
657.796	42422.49
658.147	42308.82
658.498	42140.23
658.849	42434.01
659.2	42264.75
659.551	42193.34
659.902	42179.33
660.253	42124.19
660.604	42356.27
660.955	42196.05
661.306	42273.11
661.656	42165.54
662.007	42288.48
662.358	42163.28
662.708	42225.66
663.059	42086
663.409	41900.47
663.76	42256.61
664.11	42126.67
664.461	42201.7
664.811	42126.67
665.161	42101.36
665.511	41992.44
665.862	41965.78
666.212	42176.62
666.562	42082.61
666.912	42027.47
667.262	41992.67
667.612	41917.19
667.962	42000.58
668.312	41886
668.662	42128.93
669.011	42008.94
669.361	41915.15
669.711	41981.82
670.06	41936.85
670.41	41816.17
670.76	41801.71
671.109	41942.5
671.459	41891.88
671.808	41879.9
672.157	41829.06
672.507	41584.54
672.856	41867.7
673.205	41687.36
673.554	41850.98
673.904	41670.42
674.253	41904.53
674.602	41684.88
674.951	41182.52
675.3	41003.09
675.649	41675.39
675.998	41573.02
676.346	41567.82
676.695	41826.8
677.044	41296.19
677.393	41548.84
677.741	41516.3
678.09	41495.73
678.438	41368.95
678.787	41500.02
679.135	41427.71
679.484	41218.22
679.832	41431.1
680.181	41150.43
680.529	41123.31
680.877	41100.49
681.225	41077.89
681.573	41349.07
681.922	40986.59
682.27	40946.82
682.618	40973.03
682.966	40782.76
683.314	41049.64
683.661	40853.49
684.009	40629.09
684.357	40414.18
684.705	40489.88
685.053	40470.67
685.4	40572.37
685.748	40371.92
686.095	40372.14
686.443	40288.08
686.79	40037.46
687.138	40257.57
687.485	40231.36
687.832	39939.84
688.18	40030.91
688.527	39830.01
688.874	39858.49
689.221	39740.97
689.568	39701.43
689.915	39599.74
690.262	39706.4
690.609	39564.48
690.956	39271.83
691.303	39256.02
691.65	39087.66
691.997	39151.39
692.344	38861.45
692.69	38902.58
693.037	38855.35
693.383	38604.51
693.73	38711.17
694.077	38448.13
694.423	38545.3
694.769	38407.68
695.116	38299.66
695.462	38408.81
695.808	38178.98
696.155	38202.26
696.501	37970.85
696.847	37927.24
697.193	37769.05
697.539	37877.97
697.885	37647.92
698.231	37581.71
698.577	37534.48
698.923	37510.53
699.269	37262.17
699.614	37143.53
699.96	37079.12
700.306	36987.15
700.651	36800.26
700.997	36722.3
701.342	36628.29
701.688	36642.07
702.033	36515.97
702.379	36498.57
702.724	36374.74
703.069	36399.82
703.415	35991.24
703.76	36082.77
704.105	36133.61
704.45	35950.11
704.795	35825.6
705.14	35749.67
705.485	35705.6
705.83	35550.8
706.175	35628.31
706.52	35488.66
706.865	35436.68
707.209	35280.75
707.554	35055
707.899	35188.33
708.243	35001.21
708.588	34961.89
708.932	34831.5
709.277	34817.04
709.621	34814.55
709.966	34717.15
710.31	34726.87
710.654	34355.58
710.998	34423.15
711.342	34487.55
711.687	34260.67
712.031	34307.67
712.375	34089.37
712.719	34124.85
713.063	33998.98
713.407	34143.16
713.75	33851.86
714.094	33967.79
714.438	33690.51
714.782	33726.9
715.125	33556.73
715.469	33693.22
715.812	33498.43
716.156	33356.74
716.499	33373.68
716.843	33276.96
717.186	33058.89
717.53	33379.79
717.873	33288.72
718.216	33087.14
718.559	33049.17
718.902	32748.62
719.246	32942.28
719.589	32806.47
719.932	32648.05
720.275	32676.75
720.617	32728.96
720.96	32514.72
721.303	32554.95
721.646	32530.54
721.989	32428.17
722.331	32494.16
722.674	32322.41
723.016	32381.39
723.359	32426.82
723.701	32322.41
724.044	32132.81
724.386	32024.79
724.729	32139.59
725.071	32077.9
725.413	32059.14
725.755	31992.48
726.097	31905.7
726.439	31653.28
726.782	31788.64
727.124	31935.76
727.465	31635.88
727.807	31625.48
728.149	31652.15
728.491	31626.61
728.833	31725.82
729.175	31487.41
729.516	31397.24
729.858	31358.82
730.199	31281.99
730.541	31154.99
730.882	31224.36
731.224	31285.83
731.565	30961.77
731.906	31139.62
732.248	31079.06
732.589	30898.27
732.93	30858.27
733.271	30939.4
733.612	30921.09
733.953	30880.87
734.294	30635.45
734.635	30763.13
734.976	30713.42
735.317	30608.79
735.658	30645.17
735.999	30473.87
736.339	30466.42
736.68	30566.98
737.021	30381.22
737.361	30205.18
737.702	30456.25
738.042	30331.28
738.383	30272.3
738.723	30321.11
739.063	30190.49
739.404	30255.57
739.744	30171.96
740.084	30012.42
740.424	29986.2
740.764	30059.2
741.104	30049.48
741.444	29772.2
741.784	29730.39
742.124	29787.79
742.464	29782.82
742.804	29618.53
743.143	29612.65
743.483	29686.78
743.823	29543.95
744.162	29603.61
744.502	29668.25
744.841	29440
745.181	29444.52
745.52	29402.72
745.86	29384.64
746.199	29377.63
746.538	29521.58
746.877	29491.98
747.216	29337.86
747.556	29348.71
747.895	29198.2
748.234	29153.68
748.573	29003.86
748.911	29068.26
749.25	28973.8
749.589	29016.51
749.928	29180.35
750.267	28895.16
750.605	28932.22
750.944	28785.33
751.283	28753.92
751.621	28674.83
751.96	28724.54
752.298	28560.48
752.636	28609.29
752.975	28500.14
753.313	28446.81
753.651	28405.91
753.989	28393.25
754.327	28186.02
754.666	28229.64
755.004	28268.73
755.342	28184.89
755.679	28056.31
756.017	27948.97
756.355	28127.72
756.693	27980.15
757.031	27966.6
757.368	27781.29
757.706	27783.55
758.044	27674.85
