Data from hue_200_FLMS001491_00057.txt Node
Date: Tue Feb 07 16:43:38 GMT 2017
User: dcchb
Spectrometer: FLMS00149
Trigger mode: 0
Integration Time (sec): 2.000000E-2
Scans to average: 10
Electric dark correction enabled: true
Nonlinearity correction enabled: false
Boxcar width: 0
XAxis mode: Wavelengths
Number of Pixels in Spectrum: 2048
>>>>>Begin Spectral Data<<<<<
341.393	-10.58
341.776	-10.58
342.16	-10.58
342.543	-59.39
342.927	-68.66
343.31	-68.66
343.693	-77.24
344.077	-54.87
344.46	-60.3
344.843	-40.41
345.226	-46.96
345.61	-30.01
345.993	-13.06
346.376	-14.87
346.759	-6.06
347.142	31
347.525	37.1
347.908	49.08
348.291	74.84
348.674	101.73
349.057	118.68
349.44	124.33
349.823	154.16
350.206	159.59
350.588	189.19
350.971	210.21
351.354	221.05
351.737	236.19
352.119	238.91
352.502	261.5
352.884	270.09
353.267	287.27
353.65	293.59
354.032	293.82
354.414	307.15
354.797	288.4
355.179	306.02
355.562	312.12
355.944	319.13
356.326	328.17
356.709	360.26
357.091	335.4
357.473	323.2
357.855	369.52
358.238	343.54
358.62	343.31
359.002	340.15
359.384	347.15
359.766	336.3
360.148	338.56
360.53	341.05
360.912	328.85
361.294	318.23
361.676	323.2
362.057	339.47
362.439	341.05
362.821	317.32
363.203	328.4
363.584	323.65
363.966	327.72
364.348	331.33
364.729	315.51
365.111	335.17
365.493	325.01
365.874	333.14
366.256	316.19
366.637	311.9
367.019	309.86
367.4	310.54
367.781	297.44
368.163	318.9
368.544	323.42
368.925	312.58
369.306	335.17
369.688	312.35
370.069	311.22
370.45	321.62
370.831	312.12
371.212	299.7
371.593	328.85
371.974	308.06
372.355	320.03
372.736	284.1
373.117	307.38
373.498	302.18
373.879	301.05
374.26	312.35
374.641	325.01
375.021	302.86
375.402	338.34
375.783	327.04
376.163	325.91
376.544	326.81
376.925	322.97
377.305	350.54
377.686	320.49
378.066	324.33
378.447	328.62
378.827	310.54
379.208	337.43
379.588	319.81
379.968	336.76
380.349	322.29
380.729	346.7
381.109	344.44
381.489	360.94
381.87	318
382.25	340.6
382.63	325.91
383.01	354.16
383.39	339.47
383.77	359.58
384.15	347.38
384.53	331.33
384.91	341.5
385.29	356.19
385.67	339.24
386.049	367.94
386.429	347.15
386.809	359.58
387.189	366.59
387.568	359.35
387.948	364.55
388.328	362.07
388.707	367.72
389.087	364.55
389.466	391.44
389.846	368.62
390.225	359.13
390.605	370.43
390.984	386.7
391.363	362.52
391.743	364.55
392.122	376.3
392.501	372.01
392.881	368.85
393.26	375.63
393.639	369.07
394.018	371.78
394.397	375.85
394.776	381.05
395.155	400.03
395.534	409.98
395.913	414.04
396.292	390.99
396.671	389.64
397.05	385.34
397.429	377.43
397.808	407.72
398.186	410.88
398.565	427.6
398.944	398.9
399.323	399.58
399.701	396.64
400.08	401.39
400.458	415.85
400.837	426.7
401.215	441.39
401.594	426.47
401.972	419.24
402.351	418.34
402.729	434.61
403.107	448.17
403.486	442.74
403.864	442.29
404.242	448.84
404.62	445.23
404.999	444.32
405.377	474.83
405.755	453.36
406.133	476.41
406.511	464.44
406.889	470.09
407.267	470.76
407.645	472.8
408.023	494.72
408.401	482.52
408.779	475.96
409.156	506.02
409.534	534.94
409.912	531.78
410.29	518.67
410.667	524.32
411.045	539.24
411.422	543.76
411.8	579.46
412.178	605.22
412.555	582.4
412.933	576.07
413.31	595.51
413.687	615.39
414.065	605.68
414.442	621.04
414.819	644.55
415.197	639.57
415.574	633.92
415.951	638.9
416.328	652.91
416.705	655.39
417.082	675.73
417.46	688.84
417.837	696.97
418.214	727.03
418.591	725
418.967	711.21
419.344	727.48
419.721	736.52
420.098	761.15
420.475	798.67
420.852	764.99
421.228	788.04
421.605	780.81
421.982	805.9
422.358	835.5
422.735	840.02
423.111	848.61
423.488	880.92
423.864	890.64
424.241	912.33
424.617	937.19
424.994	947.14
425.37	936.29
425.746	949.85
426.123	957.76
426.499	979.23
426.875	1016.96
427.251	1022.16
427.627	1035.95
428.003	1046.57
428.379	1063.74
428.756	1092.67
429.132	1065.78
429.507	1072.33
429.883	1114.36
430.259	1131.99
430.635	1133.57
431.011	1150.75
431.387	1175.83
431.763	1204.76
432.138	1185.1
432.514	1218.99
432.89	1234.59
433.265	1282.72
433.641	1283.62
434.016	1294.47
434.392	1344.41
434.767	1331.98
435.143	1371.53
435.518	1382.38
435.894	1406.33
436.269	1475.48
436.644	1482.49
437.02	1507.12
437.395	1515.71
437.77	1561.58
438.145	1596.84
438.52	1577.63
438.895	1641.36
439.271	1655.82
439.646	1689.04
440.021	1715.03
440.395	1734.23
440.77	1739.43
441.145	1756.83
441.52	1819.2
441.895	1824.63
442.27	1832.08
442.645	1831.18
443.019	1900.56
443.394	1885.87
443.769	1882.03
444.143	1917.96
444.518	1956.6
444.892	1973.55
445.267	2021.68
445.641	2009.93
446.016	2011.29
446.39	2051.29
446.764	2050.16
447.139	2063.94
447.513	2095.58
447.887	2098.74
448.262	2106.2
448.636	2143.49
449.01	2202.24
449.384	2215.8
449.758	2217.39
450.132	2199.98
450.506	2216.26
450.88	2279.08
451.254	2262.13
451.628	2311.39
452.002	2317.04
452.376	2373.54
452.75	2372.64
453.123	2387.55
453.497	2447.66
453.871	2444.72
454.244	2501.45
454.618	2513.65
454.992	2549.58
455.365	2524.5
455.739	2605.17
456.112	2641.55
456.486	2707.99
456.859	2687.43
457.232	2722.68
457.606	2746.41
457.979	2750.48
458.352	2852.4
458.725	2856.01
459.099	2884.26
459.472	2948.44
459.845	2932.62
460.218	3000.64
460.591	2985.95
460.964	3048.32
461.337	3103.24
461.71	3107.31
462.083	3192.5
462.456	3124.93
462.829	3185.5
463.201	3240.18
463.574	3247.87
463.947	3314.98
464.32	3396.79
464.692	3361.31
465.065	3414.64
465.438	3490.8
465.81	3534.86
466.183	3518.82
466.555	3629.78
466.928	3658.93
467.3	3641.08
467.672	3688.31
468.045	3803.11
468.417	3796.33
468.789	3799.26
469.161	3914.97
469.534	3902.76
469.906	4003.33
470.278	4031.12
470.65	4111.12
471.022	4160.84
471.394	4214.85
471.766	4245.35
472.138	4325.58
472.51	4346.82
472.882	4451
473.253	4477.89
473.625	4530.09
473.997	4629.53
474.369	4640.15
474.74	4711.56
475.112	4801.05
475.484	4828.16
475.855	4987.71
476.227	4972.12
476.598	5079
476.97	5107.03
477.341	5234.93
477.713	5283.75
478.084	5303.18
478.455	5477.86
478.827	5478.77
479.198	5661.59
479.569	5643.96
479.94	5777.07
480.311	5856.84
480.682	5976.38
481.053	6002.14
481.424	6158.52
481.795	6200.33
482.166	6298.63
482.537	6358.75
482.908	6516.71
483.279	6564.16
483.65	6699.98
484.021	6752.86
484.391	6844.38
484.762	6928.22
485.133	6958.96
485.503	7002.12
485.874	7148.78
486.244	7175.9
486.615	7273.3
486.985	7414.31
487.356	7500.86
487.726	7543.57
488.097	7701.99
488.467	7730.46
488.837	7826.05
489.207	7908.08
489.578	8054.29
489.948	8156.89
490.318	8174.74
490.688	8218.58
491.058	8281.86
491.428	8424.91
491.798	8532.7
492.168	8574.05
492.538	8647.5
492.908	8713.49
493.278	8862.18
493.648	8797.55
494.017	8959.35
494.387	9002.29
494.757	9074.61
495.126	9127.71
495.496	9063.31
495.866	9172.23
496.235	9268.27
496.605	9270.76
496.974	9339.46
497.344	9478.66
497.713	9465.78
498.082	9513.46
498.452	9568.6
498.821	9616.74
499.19	9570.64
499.559	9647.47
499.928	9767.92
500.298	9732.89
500.667	9856.73
501.036	9790.52
501.405	9866.68
501.774	9898.99
502.143	9879.1
502.512	10007.01
502.88	10040.46
503.249	9960.23
503.618	10017.86
503.987	10068.48
504.356	10091.98
504.724	10079.78
505.093	10186.89
505.462	10209.27
505.83	10127.91
506.199	10313.44
506.567	10388.47
506.936	10264.18
507.304	10384.18
507.672	10437.96
508.041	10481.8
508.409	10458.52
508.777	10550.73
509.145	10566.54
509.514	10491.97
509.882	10546.88
510.25	10593.66
510.618	10551.86
510.986	10544.85
511.354	10655.81
511.722	10665.07
512.09	10709.37
512.458	10693.32
512.826	10705.75
513.193	10758.18
513.561	10785.97
513.929	10710.5
514.297	10853.99
514.664	10848.34
515.032	10841.57
515.4	10917.04
515.767	10969.92
516.135	10936.03
516.502	10842.92
516.869	11029.13
517.237	10920.21
517.604	10864.84
517.972	11006.08
518.339	10958.85
518.706	10911.17
519.073	10982.13
519.44	10939.19
519.808	11087.43
520.175	11035.68
520.542	11093.08
520.909	11089.02
521.276	11061.45
521.643	11112.52
522.009	11184.16
522.376	11096.25
522.743	11100.77
523.11	11169.47
523.477	11232.52
523.843	11223.25
524.21	11318.16
524.577	11215.57
524.943	11253.53
525.31	11285.62
525.676	11336.92
526.043	11320.87
526.409	11274.1
526.776	11385.73
527.142	11273.42
527.508	11287.2
527.874	11375.56
528.241	11284.94
528.607	11324.26
528.973	11293.08
529.339	11259.86
529.705	11364.72
530.071	11343.7
530.437	11304.6
530.803	11275.68
531.169	11293.53
531.535	11261.89
531.901	11150.94
532.267	11223.7
532.632	11200.88
532.998	11205.17
533.364	11172.18
533.73	11123.59
534.095	11186.19
534.461	11089.69
534.826	11131.5
535.192	11059.19
535.557	11057.38
535.923	10999.3
536.288	11002.92
536.653	10970.15
537.019	10887.21
537.384	10878.17
537.749	10827.55
538.114	10783.49
538.479	10759.99
538.845	10808.35
539.21	10690.38
539.575	10658.07
539.94	10633.44
540.305	10573.1
540.67	10509.6
541.034	10549.82
541.399	10506.88
541.764	10474.34
542.129	10441.35
542.494	10409.94
542.858	10365.65
543.223	10303.5
543.587	10280.68
543.952	10287
544.316	10221.92
544.681	10074.35
545.045	10088.36
545.41	10129.95
545.774	10108.48
546.138	10056.95
546.503	9899.67
546.867	9962.94
547.231	9916.17
547.595	9881.14
547.959	9883.17
548.324	9801.59
548.688	9751.42
549.052	9718.2
549.416	9681.37
549.779	9623.74
550.143	9598.43
550.507	9593.24
550.871	9560.24
551.235	9499
551.599	9557.31
551.962	9539.68
552.326	9506.91
552.689	9383.07
553.053	9339.23
553.417	9335.62
553.78	9391.21
554.143	9270.53
554.507	9328.38
554.87	9283.87
555.234	9242.96
555.597	9176.75
555.96	9130.88
556.323	9121.38
556.686	9165.45
557.05	9055.17
557.413	9160.48
557.776	9110.54
558.139	9091.33
558.502	9038.9
558.865	9042.29
559.228	9022.63
559.59	9017.88
559.953	8935.63
560.316	9045.45
560.679	9010.65
561.041	9016.98
561.404	8956.19
561.767	8980.15
562.129	8973.37
562.492	9023.53
562.854	9004.78
563.217	8928.17
563.579	8984.89
563.941	8970.88
564.304	8943.54
564.666	9018.11
565.028	8939.24
565.39	8946.47
565.753	8902.18
566.115	8959.35
566.477	8920.94
566.839	8948.96
567.201	8999.13
567.563	8953.71
567.925	8973.37
568.287	9008.39
568.648	8940.82
569.01	9012.23
569.372	9007.49
569.734	8961.39
570.095	8961.39
570.457	8972.91
570.819	8959.58
571.18	9014.04
571.542	9010.65
571.903	9006.81
572.265	8978.79
572.626	9081.16
572.987	8981.05
573.349	9086.58
573.71	8983.08
574.071	9035.06
574.432	9026.02
574.794	9104.66
575.155	9091.33
575.516	9041.84
575.877	9084.1
576.238	8999.81
576.599	9103.31
576.96	9059.24
577.32	9067.37
577.681	9138.11
578.042	9125.9
578.403	9054.49
578.763	9077.32
579.124	9055.4
579.485	9096.07
579.845	9140.37
580.206	9075.96
580.566	9067.37
580.927	9117.54
581.287	9119.12
581.648	9085.45
582.008	9110.09
582.368	9106.7
582.728	9023.08
583.089	9059.01
583.449	9075.51
583.809	9092.01
584.169	8993.03
584.529	9025.34
584.889	9070.99
585.249	9042.74
585.609	8966.59
585.969	9042.74
586.329	8998.45
586.688	8973.14
587.048	9020.37
587.408	8978.34
587.768	8991.67
588.127	9000.71
588.487	8916.19
588.846	9000.71
589.206	8951.45
589.565	8945.34
589.925	9054.04
590.284	8995.29
590.643	8959.81
591.003	9016.3
591.362	8974.72
591.721	8972.24
592.08	8957.09
592.44	8929.07
592.799	9013.82
593.158	8923.2
593.517	8946.25
593.876	8950.54
594.235	8925.91
594.593	8935.17
594.952	8924.78
595.311	8899.92
595.67	8905.12
596.029	8969.98
596.387	8916.19
596.746	8906.47
597.104	8940.37
597.463	8865.12
597.822	8957.55
598.18	8892.92
598.538	8804.78
598.897	8907.15
599.255	8818.57
599.613	8958.22
599.972	8934.5
600.33	8923.65
600.688	8874.84
601.046	8840.49
601.404	8840.04
601.762	8872.13
602.12	8901.05
602.478	8899.02
602.836	8912.35
603.194	8889.98
603.552	8946.93
603.91	8858.57
604.268	8840.04
604.625	8802.52
604.983	8913.48
605.341	8811.11
605.698	8910.99
606.056	8908.73
606.413	8867.83
606.771	8857.89
607.128	8897.21
607.485	8894.95
607.843	8892.24
608.2	8899.02
608.557	8902.63
608.914	8906.93
609.272	8913.25
609.629	8979.69
609.986	8987.38
610.343	8915.74
610.7	8921.84
611.057	8918.45
611.414	8914.61
611.771	8939.02
612.127	9003.87
612.484	8941.5
612.841	8990.31
613.198	8994.16
613.554	8960.71
613.911	8995.74
614.267	8953.25
614.624	8992.57
614.98	8982.18
615.337	9042.52
615.693	8918.23
616.05	8941.28
616.406	9084.1
616.762	9046.36
617.118	9044.1
617.475	9002.97
617.831	9048.84
618.187	9037.32
618.543	9080.93
618.899	9140.82
619.255	9118.22
619.611	9034.38
619.967	9090.42
620.323	9033.7
620.678	9097.88
621.034	8978.56
621.39	9008.85
621.746	9078.22
622.101	9122.29
622.457	9068.96
622.812	9078.22
623.168	9088.84
623.523	9087.94
623.879	9098.79
624.234	9056.08
624.589	9049.97
624.945	9059.47
625.3	9039.58
625.655	9119.12
626.01	9047.04
626.365	9098.33
626.72	9109.18
627.075	9076.41
627.43	9006.81
627.785	8941.05
628.14	9078.67
628.495	9076.64
628.85	8996.19
629.205	9026.25
629.559	9051.33
629.914	8971.56
630.269	8994.16
630.623	8921.39
630.978	8950.77
631.332	8986.02
631.687	8888.17
632.041	8941.5
632.396	8954.38
632.75	8872.58
633.104	8936.53
633.459	8918.23
633.813	8888.17
634.167	8892.01
634.521	8848.17
634.875	8887.49
635.229	8835.74
635.583	8843.2
635.937	8808.4
636.291	8806.36
636.645	8809.75
636.999	8785.8
637.352	8819.7
637.706	8677.55
638.06	8730.66
638.413	8738.57
638.767	8794.39
639.121	8688.18
639.474	8747.61
639.828	8771.11
640.181	8703.54
640.534	8728.63
640.888	8651.57
641.241	8644.33
641.594	8663.09
641.947	8723.2
642.301	8726.14
642.654	8692.47
643.007	8675.75
643.36	8678.23
643.713	8640.27
644.066	8653.83
644.419	8650.66
644.771	8556.2
645.124	8511.23
645.477	8497.67
645.83	8446.83
646.182	8371.57
646.535	8320.05
646.888	8388.07
647.24	8348.75
647.593	8311.01
647.945	8341.07
648.298	8281.86
648.65	8315.53
649.002	8302.65
649.355	8373.61
649.707	8335.42
650.059	8406.6
650.411	8426.49
650.763	8478.01
651.115	8561.17
651.467	8579.03
651.819	8569.08
652.171	8511.46
652.523	8487.5
652.875	8524.79
653.227	8447.05
653.578	8533.6
653.93	8452.7
654.282	8463.55
654.633	8426.94
654.985	8522.08
655.337	8554.85
655.688	8502.42
656.039	8550.78
656.391	8491.12
656.742	8501.97
657.094	8516.88
657.445	8552.59
657.796	8519.59
658.147	8517.33
658.498	8507.62
658.849	8511.46
659.2	8551
659.551	8491.8
659.902	8547.16
660.253	8498.12
660.604	8494.28
660.955	8447.96
661.306	8540.38
661.656	8530.67
662.007	8524.34
662.358	8504.68
662.708	8604.79
663.059	8495.64
663.409	8489.31
663.76	8495.41
664.11	8511.46
664.461	8588.74
664.811	8536.32
665.161	8562.98
665.511	8519.14
665.862	8560.27
666.212	8592.13
666.562	8543.09
666.912	8535.64
667.262	8517.78
667.612	8535.86
667.962	8572.02
668.312	8536.54
668.662	8536.99
669.011	8540.16
669.361	8506.71
669.711	8497.45
670.06	8538.12
670.41	8507.39
670.76	8454.28
671.109	8506.94
671.459	8498.35
671.808	8587.84
672.157	8487.05
672.507	8423.55
672.856	8463.1
673.205	8466.26
673.554	8467.62
673.904	8476.88
674.253	8517.78
674.602	8421.29
674.951	8374.74
675.3	8309.43
675.649	8447.05
675.998	8425.36
676.346	8384.68
676.695	8445.7
677.044	8332.03
677.393	8388.3
677.741	8364.79
678.09	8369.77
678.438	8363.89
678.787	8328.86
679.135	8361.4
679.484	8222.88
679.832	8279.6
680.181	8267.62
680.529	8269.66
680.877	8296.32
681.225	8284.8
681.573	8270.33
681.922	8219.04
682.27	8137
682.618	8226.27
682.966	8135.42
683.314	8151.24
683.661	8144.91
684.009	8100.85
684.357	8101.52
684.705	8065.59
685.053	8077.12
685.4	8082.09
685.748	7999.15
686.095	8041.86
686.443	7991.47
686.79	7965.26
687.138	7984.47
687.485	7952.83
687.832	7948.99
688.18	7925.03
688.527	7908.08
688.874	7843
689.221	7833.73
689.568	7799.16
689.915	7788.76
690.262	7785.83
690.609	7725.49
690.956	7772.27
691.303	7754.87
691.65	7726.62
691.997	7675.32
692.344	7655.66
692.69	7687.3
693.037	7554.65
693.383	7519.39
693.73	7538.83
694.077	7498.83
694.423	7494.99
694.769	7417.25
695.116	7431.49
695.462	7428.55
695.808	7360.07
696.155	7423.12
696.501	7306.74
696.847	7347.19
697.193	7274.88
697.539	7309.23
697.885	7249.12
698.231	7236.91
698.577	7189.23
698.923	7244.37
699.269	7151.72
699.614	7102.91
699.96	7102
700.306	7050.7
700.651	7023.13
700.997	7007.09
701.342	7019.74
701.688	6965.06
702.033	6978.84
702.379	6944.94
702.724	6914.21
703.069	6918.73
703.415	6866.53
703.76	6834.89
704.105	6804.61
704.45	6768.45
704.795	6754.67
705.14	6753.09
705.485	6720.32
705.83	6635.8
706.175	6710.6
706.52	6626.08
706.865	6629.7
707.209	6611.85
707.554	6674.22
707.899	6626.53
708.243	6542.02
708.588	6543.6
708.932	6491.85
709.277	6528.46
709.621	6463.83
709.966	6428.57
710.31	6442.13
710.654	6428.35
710.998	6443.49
711.342	6401.91
711.687	6368.91
712.031	6331.63
712.375	6348.12
712.719	6347.9
713.063	6365.3
713.407	6325.3
713.75	6300.89
714.094	6287.56
714.438	6291.18
714.782	6290.72
715.125	6234.68
715.469	6308.58
715.812	6245.98
716.156	6139.99
716.499	6242.59
716.843	6231.29
717.186	6153.33
717.53	6232.65
717.873	6196.49
718.216	6157.39
718.559	6235.36
718.902	6152.65
719.246	6147
719.589	6176.38
719.932	6065.87
720.275	6076.04
720.617	6082.82
720.96	6050.73
721.303	6118.3
721.646	6092.99
721.989	6035.82
722.331	6110.84
722.674	6040.56
723.016	6060.22
723.359	6041.01
723.701	6074.68
724.044	6032.43
724.386	6019.55
724.729	5991.52
725.071	5969.6
725.413	6014.8
725.755	6034.23
726.097	5987.68
726.439	5984.97
726.782	5915.82
727.124	5984.74
727.465	5982.71
727.807	5985.87
728.149	5937.06
728.491	5930.06
728.833	5991.07
729.175	5991.98
729.516	5929.83
729.858	5964.86
730.199	5934.35
730.541	5989.04
730.882	5946.78
731.224	5919.66
731.565	5878.98
731.906	6005.53
732.248	5942.94
732.589	5890.51
732.93	5902.94
733.271	5925.08
733.612	5951.07
733.953	5984.07
734.294	5908.14
734.635	5921.47
734.976	5914.01
735.317	5967.34
735.658	5926.89
735.999	5946.78
736.339	5977.51
736.68	5949.04
737.021	5944.97
737.361	5983.16
737.702	5982.48
738.042	5968.7
738.383	5963.28
738.723	5918.76
739.063	5940
739.404	6022.93
739.744	6005.53
740.084	5966.67
740.424	6017.96
740.764	6030.84
741.104	6055.02
741.444	6080.11
741.784	6085.53
742.124	6099.09
742.464	6103.84
742.804	6094.35
743.143	6115.59
743.483	6126.21
743.823	6119.88
744.162	6143.61
744.502	6238.07
744.841	6253.21
745.181	6268.35
745.52	6292.08
745.86	6329.82
746.199	6335.69
746.538	6315.58
746.877	6406.2
747.216	6467.22
747.556	6498.85
747.895	6560.32
748.234	6534.56
748.573	6600.77
748.911	6690.26
749.25	6696.82
749.589	6786.53
749.928	6852.07
750.267	6870.14
750.605	6969.58
750.944	7001.67
751.283	7095.22
751.621	7150.14
751.96	7228.1
752.298	7310.58
752.636	7406.85
752.975	7416.12
753.313	7569.33
753.651	7616.11
753.989	7744.47
754.327	7860.17
754.666	7960.96
755.004	8114.86
755.342	8187.4
755.679	8302.2
756.017	8444.79
756.355	8591.68
756.693	8730.66
757.031	8888.4
757.368	8938.11
757.706	9105.57
758.044	9248.16
758.381	9395.95
758.719	9511.66
759.056	9614.03
759.394	9863.74
759.731	9895.15
760.068	10132.21
760.405	10244.74
760.743	10421.24
761.08	10644.28
761.417	10748.01
761.754	10916.14
762.091	11109.35
762.428	11247.43
762.765	11347.09
763.102	11661.2
763.438	11713.18
763.775	11850.8
764.112	12071.14
764.449	12319.04
764.785	12419.83
765.122	12551.35
765.458	12740.5
765.795	12947.05
766.131	13056.2
766.467	13229.75
766.804	13413.93
