Data from hue_24_FLMS001491_00011.txt Node
Date: Tue Feb 07 17:11:50 GMT 2017
User: dcchb
Spectrometer: FLMS00149
Trigger mode: 0
Integration Time (sec): 2.000000E-2
Scans to average: 10
Electric dark correction enabled: true
Nonlinearity correction enabled: false
Boxcar width: 0
XAxis mode: Wavelengths
Number of Pixels in Spectrum: 2048
>>>>>Begin Spectral Data<<<<<
341.393	-31.91
341.776	-31.91
342.16	-31.91
342.543	-75.75
342.927	-64
343.31	-81.17
343.693	-86.14
344.077	-72.81
344.46	-52.92
344.843	-50.66
345.226	-47.27
345.61	-23.09
345.993	-27.61
346.376	-17.22
346.759	4.03
347.142	29.56
347.525	25.27
347.908	73.4
348.291	85.15
348.674	118.37
349.057	123.12
349.44	112.95
349.823	126.96
350.206	169.9
350.588	193.17
350.971	204.92
351.354	208.09
351.737	241.99
352.119	252.83
352.502	257.58
352.884	281.53
353.267	281.53
353.65	314.07
354.032	304.36
354.414	315.66
354.797	304.13
355.179	329.67
355.562	297.35
355.944	322.44
356.326	332.6
356.709	334.19
357.091	315.2
357.473	336.45
357.855	331.25
358.238	338.25
358.62	316.79
359.002	338.93
359.384	347.07
359.766	331.25
360.148	343.68
360.53	348.2
360.912	332.15
361.294	310.46
361.676	343.45
362.057	318.37
362.439	349.33
362.821	352.94
363.203	333.73
363.584	337.8
363.966	304.13
364.348	314.53
364.729	321.31
365.111	321.31
365.493	334.64
365.874	316.33
366.256	304.13
366.637	321.53
367.019	316.33
367.4	301.19
367.781	315.88
368.163	301.64
368.544	304.13
368.925	301.42
369.306	332.83
369.688	295.09
370.069	293.28
370.45	304.13
370.831	331.02
371.212	300.74
371.593	309.33
371.974	317.24
372.355	307.97
372.736	317.24
373.117	321.31
373.498	296.67
373.879	297.8
374.26	324.24
374.641	316.11
375.021	307.97
375.402	343.68
375.783	311.36
376.163	296.9
376.544	315.43
376.925	329.89
377.305	342.77
377.686	333.28
378.066	349.55
378.447	335.99
378.827	338.03
379.208	315.88
379.588	334.86
379.968	327.63
380.349	341.19
380.729	330.57
381.109	324.92
381.489	342.77
381.87	345.49
382.25	343.68
382.63	337.12
383.01	369.44
383.39	331.25
383.77	337.35
384.15	349.78
384.53	360.63
384.91	353.39
385.29	328.31
385.67	345.26
386.049	355.2
386.429	355.65
386.809	333.73
387.189	356.56
387.568	347.52
387.948	366.5
388.328	354.07
388.707	368.99
389.087	356.56
389.466	362.21
389.846	365.6
390.225	373.51
390.605	381.42
390.984	382.32
391.363	397.91
391.743	373.28
392.122	346.62
392.501	393.17
392.881	370.34
393.26	387.29
393.639	373.28
394.018	385.71
394.397	391.13
394.776	383.68
395.155	393.17
395.534	386.61
395.913	396.11
396.292	412.6
396.671	418.93
397.05	392.72
397.429	369.44
397.808	387.97
398.186	387.74
398.565	384.13
398.944	396.33
399.323	406.95
399.701	423.22
400.08	395.2
400.458	402.43
400.837	405.82
401.215	409.44
401.594	415.09
401.972	406.05
402.351	420.96
402.729	409.44
403.107	411.92
403.486	406.73
403.864	411.47
404.242	416.67
404.62	423.68
404.999	427.52
405.377	419.38
405.755	429.78
406.133	425.26
406.511	448.53
406.889	424.81
407.267	446.5
407.645	468.65
408.023	454.18
408.401	455.54
408.779	442.21
409.156	441.98
409.534	448.31
409.912	465.71
410.29	458.25
410.667	470.91
411.045	451.92
411.422	481.98
411.8	481.3
412.178	489.89
412.555	472.26
412.933	487.18
413.31	484.92
413.687	482.88
414.065	489.89
414.442	502.32
414.819	515.65
415.197	495.09
415.574	497.35
415.951	534.63
416.328	517.68
416.705	519.04
417.082	519.72
417.46	548.87
417.837	541.19
418.214	529.44
418.591	553.84
418.967	530.79
419.344	536.89
419.721	532.37
420.098	545.71
420.475	542.09
420.852	545.48
421.228	562.88
421.605	557.91
421.982	540.96
422.358	549.77
422.735	575.76
423.111	567.17
423.488	554.97
423.864	584.12
424.241	570.11
424.617	566.04
424.994	596.78
425.37	588.64
425.746	612.6
426.123	616.21
426.499	586.61
426.875	608.98
427.251	599.94
427.627	621.41
428.003	626.38
428.379	626.16
428.756	637.68
429.132	656.44
429.507	651.92
429.883	667.28
430.259	666.83
430.635	633.39
431.011	660.73
431.387	684.01
431.763	672.03
432.138	686.95
432.514	704.57
432.89	717.23
433.265	708.41
433.641	695.76
434.016	726.04
434.392	726.49
434.767	724.91
435.143	714.29
435.518	736.89
435.894	749.99
436.269	766.04
436.644	782.08
437.02	757.23
437.395	773.27
437.77	784.8
438.145	794.96
438.52	788.86
438.895	814.63
439.271	817.56
439.646	829.09
440.021	804.91
440.395	816.43
440.77	813.95
441.145	815.98
441.52	816.66
441.895	821.63
442.27	869.09
442.645	840.39
443.019	836.55
443.394	853.04
443.769	848.07
444.143	861.86
444.518	900.72
444.892	879.26
445.267	871.57
445.641	897.34
446.016	886.94
446.39	913.83
446.764	896.66
447.139	908.63
447.513	899.59
447.887	891.46
448.262	928.75
448.636	925.58
449.01	931.01
449.384	939.14
449.758	942.31
450.132	973.72
450.506	952.7
450.88	956.77
451.254	970.55
451.628	974.4
452.002	966.49
452.376	1004
452.75	1015.98
453.123	1003.55
453.497	1014.17
453.871	1015.98
454.244	1014.85
454.618	1027.73
454.992	1062.08
455.365	1036.54
455.739	1083.77
456.112	1106.82
456.486	1121.74
456.859	1126.71
457.232	1127.61
457.606	1151.79
457.979	1146.82
458.352	1168.74
458.725	1154.05
459.099	1180.27
459.472	1187.95
459.845	1205.12
460.218	1193.15
460.591	1198.34
460.964	1266.14
461.337	1278.79
461.71	1279.02
462.083	1291.45
462.456	1306.36
462.829	1309.98
463.201	1322.63
463.574	1331.67
463.947	1342.52
464.32	1382.75
464.692	1390.2
465.065	1405.8
465.438	1402.63
465.81	1435.85
466.183	1447.15
466.555	1486.25
466.928	1506.13
467.3	1478.11
467.672	1511.78
468.045	1554.04
468.417	1551.1
468.789	1578.45
469.161	1578.45
469.534	1589.07
469.906	1663.64
470.278	1629.97
470.65	1676.07
471.022	1711.1
471.394	1746.13
471.766	1762.85
472.138	1777.31
472.51	1807.59
472.882	1820.47
473.253	1849.17
473.625	1890.76
473.997	1934.6
474.369	1953.35
474.74	1966.69
475.112	1971.43
475.484	2038.77
475.855	2076.74
476.227	2117.19
476.598	2161.71
476.97	2183.4
477.341	2230.63
477.713	2264.98
478.084	2284.19
478.455	2358.09
478.827	2377.3
479.198	2441.25
479.569	2433.11
479.94	2533.9
480.311	2537.74
480.682	2584.97
481.053	2681.02
481.424	2675.82
481.795	2756.27
482.166	2797.62
482.537	2802.6
482.908	2953.78
483.279	2906.55
483.65	3053.66
484.021	3099.99
484.391	3137.95
484.762	3170.72
485.133	3186.09
485.503	3267.89
485.874	3342.24
486.244	3346.54
486.615	3420.21
486.985	3510.37
487.356	3501.79
487.726	3579.3
488.097	3653.19
488.467	3646.42
488.837	3776.81
489.207	3813.19
489.578	3890.93
489.948	3961.66
490.318	4014.99
490.688	4045.95
491.058	4104.93
491.428	4152.84
491.798	4196.01
492.168	4293.18
492.538	4306.06
492.908	4379.73
493.278	4414.76
493.648	4438.26
494.017	4485.26
494.387	4525.26
494.757	4624.24
495.126	4678.48
495.496	4679.16
495.866	4717.8
496.235	4773.39
496.605	4818.14
496.974	4866.5
497.344	4921.18
497.713	4938.81
498.082	4974.97
498.452	5034.4
498.821	5051.35
499.19	5069.43
499.559	5103.78
499.928	5140.84
500.298	5245.47
500.667	5318.01
501.036	5263.1
501.405	5330.21
501.774	5374.73
502.143	5412.24
502.512	5448.85
502.88	5449.31
503.249	5434.84
503.618	5514.84
503.987	5535.86
504.356	5576.53
504.724	5612.01
505.093	5586.48
505.462	5645.23
505.83	5716.64
506.199	5740.6
506.567	5803.19
506.936	5862.18
507.304	5878
507.672	5858.33
508.041	5886.58
508.409	5957.32
508.777	5995.96
509.145	6020.14
509.514	6005.68
509.882	6048.61
510.25	6147.37
510.618	6105.56
510.986	6099.91
511.354	6150.08
511.722	6247.25
512.09	6323.41
512.458	6263.75
512.826	6305.1
513.193	6320.47
513.561	6355.72
513.929	6428.26
514.297	6415.38
514.664	6474.82
515.032	6469.17
515.4	6487.24
515.767	6542.38
516.135	6569.05
516.502	6547.13
516.869	6686.79
517.237	6714.36
517.604	6628.71
517.972	6735.15
518.339	6762.27
518.706	6783.73
519.073	6797.97
519.44	6827.57
519.808	6843.62
520.175	6830.06
520.542	6920
520.909	6982.6
521.276	6934.92
521.643	6991.86
522.009	7054.69
522.376	7096.49
522.743	7148.7
523.11	7238.64
523.477	7242.48
523.843	7325.87
524.21	7344.62
524.577	7459.65
524.943	7392.31
525.31	7503.49
525.676	7518.4
526.043	7595.01
526.409	7628.91
526.776	7663.26
527.142	7715.23
527.508	7734.9
527.874	7798.62
528.241	7791.62
528.607	7845.63
528.973	7929.69
529.339	7919.07
529.705	8009.46
530.071	8046.75
530.437	7995.23
530.803	8144.15
531.169	8144.15
531.535	8129.24
531.901	8177.14
532.267	8223.92
532.632	8231.61
532.998	8289.23
533.364	8280.87
533.73	8349.34
534.095	8432.28
534.461	8468.89
534.826	8597.25
535.192	8506.63
535.557	8628.88
535.923	8636.11
536.288	8650.8
536.653	8639.96
537.019	8700.97
537.384	8730.8
537.749	8738.26
538.114	8793.17
538.479	8844.02
538.845	8893.06
539.21	8892.83
539.575	8911.36
539.94	8926.5
540.305	8975.54
540.67	8999.95
541.034	9014.18
541.399	9072.49
541.764	9106.16
542.129	9116.1
542.494	9197.68
542.858	9194.74
543.223	9193.84
543.587	9255.53
543.952	9349.54
544.316	9373.04
544.681	9276.55
545.045	9372.37
545.41	9461.18
545.774	9458.69
546.138	9530.33
546.503	9547.73
546.867	9540.5
547.231	9682.87
547.595	9650.55
547.959	9684.45
548.324	9682.19
548.688	9685.35
549.052	9763.09
549.416	9830.66
549.779	9811.45
550.143	9851.9
550.507	9881.51
550.871	9956.08
551.235	9963.31
551.599	10048.28
551.962	10050.31
552.326	10083.31
552.689	10153.81
553.053	10137.09
553.417	10100.71
553.78	10230.42
554.143	10227.49
554.507	10256.86
554.87	10275.17
555.234	10397.42
555.597	10363.53
555.96	10447.14
556.323	10437.65
556.686	10492.11
557.05	10546.8
557.413	10548.83
557.776	10609.62
558.139	10615.27
558.502	10701.6
558.865	10662.05
559.228	10735.04
559.59	10716.74
559.953	10732.33
560.316	10906.79
560.679	10941.59
561.041	10996.96
561.404	10874.7
561.767	11106.11
562.129	10987.01
562.492	11143.17
562.854	11029.05
563.217	11089.16
563.579	11139.33
563.941	11190.62
564.304	11288.93
564.666	11349.72
565.028	11400.79
565.39	11362.6
565.753	11453.89
566.115	11444.63
566.477	11512.2
566.839	11556.04
567.201	11616.15
567.563	11625.41
567.925	11761.91
568.287	11697.5
568.648	11752.42
569.01	11772.76
569.372	11870.15
569.734	11872.87
570.095	12003.03
570.457	12018.4
570.819	12056.59
571.18	12134.1
571.542	12165.51
571.903	12226.08
572.265	12238.51
572.626	12226.08
572.987	12288.67
573.349	12400.76
573.71	12556.46
574.071	12498.84
574.432	12549.91
574.794	12706.74
575.155	12659.06
575.516	12753.07
575.877	12877.36
576.238	12930.92
576.599	12971.14
576.96	13047.07
577.32	13066.51
577.681	13219.5
578.042	13377.68
578.403	13399.15
578.763	13488.42
579.124	13643.21
579.485	13757.79
579.845	13894.51
580.206	13873.27
580.566	14038.23
580.927	14127.5
581.287	14353.7
581.648	14386.25
582.008	14642.96
582.368	14644.32
582.728	14891.32
583.089	14964.99
583.449	15246.11
583.809	15272.78
584.169	15572.43
584.529	15670.51
584.889	16009.03
585.249	16080.21
585.609	16205.63
585.969	16536.02
586.329	16692.17
586.688	16846.75
587.048	17105.95
587.408	17370.35
587.768	17517.69
588.127	17772.82
588.487	18011.69
588.846	18429.3
589.206	18473.82
589.565	18860.25
589.925	19113.13
590.284	19353.8
590.643	19565.54
591.003	19857.51
591.362	20293.66
591.721	20422.25
592.08	20679.87
592.44	21063.58
592.799	21275.1
593.158	21675.32
593.517	21953.5
593.876	22295.19
594.235	22563.66
594.593	22791.67
594.952	23100.14
595.311	23411.77
595.67	23763.4
596.029	24196.84
596.387	24458.75
596.746	24785.97
597.104	24956.36
597.463	25335.34
597.822	25624.37
598.18	25922.67
598.538	26268.65
598.897	26675.64
599.255	26727.84
599.613	27413.93
599.972	27498.9
600.33	27775.5
600.688	28160.35
601.046	28391.98
601.404	28821.12
601.762	29113.09
602.12	29410.26
602.478	29812.51
602.836	29982.22
603.194	30118.94
603.552	30535.43
603.91	30660.85
604.268	31072.13
604.625	31253.83
604.983	31659.24
605.341	31789.86
605.698	32171.54
606.056	32543.96
606.413	32750.06
606.771	33123.38
607.128	33232.98
607.485	33398.18
607.843	33754.55
608.2	34103.24
608.557	34374.65
608.914	34434.08
609.272	34791.36
609.629	35190.22
609.986	35343.44
610.343	35399.25
610.7	35927.37
611.057	36042.17
611.414	36306.8
611.771	36404.88
612.127	36733.68
612.484	36871.3
612.841	37159.43
613.198	37170.73
613.554	37456.6
613.911	37789.7
614.267	38010.26
614.624	38042.57
614.98	38333.86
615.337	38574.99
615.693	38709.9
616.05	38864.92
616.406	39095.88
616.762	39140.17
617.118	39353.5
617.475	39591.23
617.831	39914.16
618.187	39957.55
618.543	40180.82
618.899	40388.27
619.255	40597.99
619.611	40675.05
619.967	40799.11
620.323	40957.75
620.678	41037.52
621.034	41020.12
621.39	41060.35
621.746	41082.27
622.101	41603.38
622.457	41499.88
622.812	41567.9
623.168	41733.55
623.523	41994.33
623.879	42049.25
624.234	41912.98
624.589	41937.61
624.945	42187.55
625.3	42395.45
625.655	42366.3
626.01	42435.45
626.365	42594.54
626.72	42520.2
627.075	42640.87
627.43	42674.99
627.785	42671.15
628.14	42759.29
628.495	43083.34
628.85	43027.3
629.205	42958.15
629.559	43302.55
629.914	42886.06
630.269	43201.08
630.623	43022.56
630.978	43095.1
631.332	43306.62
631.687	43363.11
632.041	43210.35
632.396	43323.56
632.75	43232.04
633.104	43300.06
633.459	43173.06
633.813	43246.28
634.167	43380.51
634.521	43294.19
634.875	43561.3
635.229	43454.86
635.583	43359.5
635.937	43458.93
636.291	43331.7
636.645	43418.7
636.999	43238.82
637.352	43590.9
637.706	43218.26
638.06	43594.74
638.413	43343.45
638.767	43341.64
639.121	43325.82
639.474	43177.13
639.828	43281.31
640.181	43429.32
640.534	43347.74
640.888	43331.7
641.241	43147.52
641.594	43250.8
641.947	43306.62
642.301	43208.54
642.654	43340.06
643.007	43318.59
643.36	43184.81
643.713	43201.53
644.066	43368.31
644.419	43063.01
644.771	43015.55
645.124	42563.36
645.477	42586.41
645.83	42298.05
646.182	42292.18
646.535	42061.9
646.888	42175.8
647.24	41920.89
647.593	42166.53
647.945	42098.96
648.298	41948.69
648.65	41857.84
649.002	41724.51
649.355	41937.39
649.707	41975.35
650.059	42235.46
650.411	42554.32
650.763	42637.48
651.115	42924.48
651.467	42730.59
651.819	42857.36
652.171	42769.91
652.523	42643.81
652.875	42836.57
653.227	42594.54
653.578	42789.79
653.93	42911.15
654.282	42695.78
654.633	42553.87
654.985	42609.46
655.337	42765.39
655.688	42766.97
656.039	42882.9
656.391	42489.46
656.742	42529.91
657.094	42788.66
657.445	42801.32
657.796	42589.12
658.147	42552.29
658.498	42463.25
658.849	42682.23
659.2	42478.61
659.551	42430.03
659.902	42569.46
660.253	42594.77
660.604	42604.71
660.955	42376.92
661.306	42631.83
661.656	42528.78
662.007	42503.92
662.358	42493.53
662.708	42540.76
663.059	42496.24
663.409	42222.12
663.76	42549.12
664.11	42481.55
664.461	42458.5
664.811	42440.88
665.161	42496.24
665.511	42227.77
665.862	42493.08
666.212	42537.82
666.562	42504.38
666.912	42459.18
667.262	42347.32
667.612	42381.22
667.962	42437.03
668.312	42467.54
668.662	42679.74
669.011	42353.87
669.361	42380.54
669.711	42263.48
670.06	42331.73
670.41	42313.42
670.76	42168.11
671.109	42275.46
671.459	42154.78
671.808	42262.35
672.157	42231.84
672.507	42022.81
672.856	41967.67
673.205	41941
673.554	42203.59
673.904	42073.65
674.253	42279.3
674.602	42032.52
674.951	41609.26
675.3	41333.56
675.649	41958.85
675.998	41895.13
676.346	42044.5
676.695	42173.54
677.044	41771.51
677.393	41999.53
677.741	42078.17
678.09	41856.03
678.438	41767.67
678.787	41918.4
679.135	41915.01
679.484	41595.7
679.832	41846.54
680.181	41609.94
680.529	41729.26
680.877	41624.63
681.225	41454.46
681.573	41746.66
681.922	41432.09
682.27	41309.61
682.618	41462.82
682.966	41253.11
683.314	41430.96
683.661	41125.66
684.009	41029.61
684.357	40974.47
684.705	40870.75
685.053	40918.2
685.4	40963.63
685.748	40714.59
686.095	40760.24
686.443	40539.91
686.79	40498.78
687.138	40662.84
687.485	40665.33
687.832	40515.28
688.18	40576.07
688.527	40341.27
688.874	40242.29
689.221	40274.15
689.568	40054.27
689.915	40002.07
690.262	39963.43
690.609	39780.83
690.956	39744.9
691.303	39679.59
691.65	39544.68
691.997	39498.81
692.344	39361.41
692.69	39312.37
693.037	39233.05
693.383	38929.1
693.73	39129.78
694.077	39005.49
694.423	38888.88
694.769	38704.48
695.116	38712.61
695.462	38568.89
695.808	38484.6
696.155	38604.82
696.501	38394.2
696.847	38400.08
697.193	38167.77
697.539	38116.02
697.885	37987.21
698.231	37906.98
698.577	37890.26
698.923	37748.8
699.269	37628.35
699.614	37531.17
699.96	37555.35
700.306	37459.09
700.651	37336.6
700.997	37149.26
701.342	37153.11
701.688	37049.83
702.033	36989.49
702.379	36996.72
702.724	36829.95
703.069	36951.98
703.415	36537.3
703.76	36584.76
704.105	36625.89
704.45	36449.39
704.795	36283.52
705.14	36214.6
705.485	36191.1
705.83	35930.09
706.175	36121.49
706.52	36008.5
706.865	35758.11
707.209	35702.07
707.554	35575.75
707.899	35739.58
708.243	35374.85
708.588	35374.39
708.932	35253.04
709.277	35079.71
709.621	35073.84
709.966	34985.93
710.31	35121.75
710.654	34754.07
710.998	34844.24
711.342	34807.18
711.687	34688.76
712.031	34601.08
712.375	34524.25
712.719	34551.59
713.063	34474.53
713.407	34552.04
713.75	34262.33
714.094	34262.33
714.438	34206.06
714.782	34289
715.125	34026.18
715.469	34214.88
715.812	33926.98
716.156	33728.34
716.499	33882.46
716.843	33791.39
717.186	33661.67
717.53	33695.57
717.873	33730.82
718.216	33571.5
718.559	33553.88
718.902	33208.8
719.246	33273.66
719.589	33259.42
719.932	33208.8
720.275	33106.88
720.617	33174
720.96	32997.06
721.303	33011.29
721.646	33185.53
721.989	32799.55
722.331	32901.01
722.674	32792.77
723.016	32759.32
723.359	32792.99
723.701	32702.6
724.044	32587.58
724.386	32391.65
724.729	32482.27
725.071	32387.81
725.413	32406.11
725.755	32379.67
726.097	32273.46
726.439	31984.43
726.782	32152.56
727.124	32193.01
727.465	32033.69
727.807	32060.36
728.149	31948.27
728.491	31896.07
728.833	31901.94
729.175	31866.24
729.516	31774.72
729.858	31802.29
730.199	31739.91
730.541	31776.07
730.882	31685.68
731.224	31719.35
731.565	31537.43
731.906	31372.01
732.248	31564.78
732.589	31420.37
732.93	31316.42
733.271	31225.13
733.612	31337.21
733.953	31307.83
734.294	31195.97
734.635	31085.02
734.976	31211.57
735.317	31000.05
735.658	31000.72
735.999	30939.26
736.339	30866.94
736.68	31018.35
737.021	30907.62
737.361	30787.85
737.702	30795.53
738.042	30685.48
738.383	30606.38
738.723	30709.66
739.063	30677.34
739.404	30697.23
739.744	30670.56
740.084	30367.29
740.424	30474.41
740.764	30387.86
741.104	30487.52
741.444	30260.18
741.784	30227.86
742.124	30193.74
742.464	30286.39
742.804	30198.94
743.143	30111.26
743.483	30069.68
743.823	29938.61
744.162	30022.9
744.502	29991.71
744.841	29895.89
745.181	29991.71
745.52	29911.94
745.86	29802.56
746.199	29722.79
746.538	29752.17
746.877	29824.94
747.216	29693.64
747.556	29714.66
747.895	29629.24
748.234	29593.3
748.573	29503.14
748.911	29580.87
749.25	29533.87
749.589	29364.84
749.928	29353.08
750.267	29493.19
750.605	29329.36
750.944	29324.84
751.283	29222.92
751.621	29163.48
751.96	28985.86
752.298	29191.96
752.636	29106.31
752.975	28975.47
753.313	29024.73
753.651	28920.1
753.989	28788.81
754.327	28805.53
754.666	28615.7
755.004	28534.12
755.342	28707.23
755.679	28581.13
756.017	28438.76
756.355	28578.87
756.693	28370.29
757.031	28521.02
757.368	28290.51
757.706	28288.71
758.044	28168.26
758.381	28199.89
758.719	28006.68
