Data from hue_270_FLMS001491_00028.txt Node
Date: Tue Feb 07 15:56:59 GMT 2017
User: dcchb
Spectrometer: FLMS00149
Trigger mode: 0
Integration Time (sec): 2.000000E-2
Scans to average: 10
Electric dark correction enabled: true
Nonlinearity correction enabled: false
Boxcar width: 0
XAxis mode: Wavelengths
Number of Pixels in Spectrum: 2048
>>>>>Begin Spectral Data<<<<<
341.393	-24.12
341.776	-24.12
342.16	-24.12
342.543	-44.01
342.927	-53.73
343.31	-73.84
343.693	-59.38
344.077	-65.25
344.46	-67.29
344.843	-58.25
345.226	-55.31
345.61	-29.77
345.993	-34.97
346.376	-8.3
346.759	13.84
347.142	33.5
347.525	42.54
347.908	54.97
348.291	79.6
348.674	111.24
349.057	116.66
349.44	127.06
349.823	134.97
350.206	162.09
350.588	185.36
350.971	206.83
351.354	209.32
351.737	242.08
352.119	241.63
352.502	264.46
352.884	259.48
353.267	273.95
353.65	270.11
354.032	308.52
354.414	280.28
354.797	312.59
355.179	307.85
355.562	318.24
355.944	308.75
356.326	320.73
356.709	313.95
357.091	326.15
357.473	332.7
357.855	346.49
358.238	350.78
358.62	326.38
359.002	334.28
359.384	305.81
359.766	320.95
360.148	328.18
360.53	328.86
360.912	323.89
361.294	335.87
361.676	315.53
362.057	327.28
362.439	332.7
362.821	332.03
363.203	331.12
363.584	321.4
363.966	305.36
364.348	329.54
364.729	340.84
365.111	320.5
365.493	314.17
365.874	305.13
366.256	294.06
366.637	312.82
367.019	323.89
367.4	326.15
367.781	306.04
368.163	320.73
368.544	318.24
368.925	302.2
369.306	310.1
369.688	319.82
370.069	301.97
370.45	315.98
370.831	317.11
371.212	322.31
371.593	302.42
371.974	318.47
372.355	313.49
372.736	301.97
373.117	328.86
373.498	306.94
373.879	314.4
374.26	313.04
374.641	329.54
375.021	301.74
375.402	337.67
375.783	294.06
376.163	303.55
376.544	316.66
376.925	306.94
377.305	323.21
377.686	309.65
378.066	326.83
378.447	327.73
378.827	316.66
379.208	358.69
379.588	342.87
379.968	308.97
380.349	340.16
380.729	326.83
381.109	333.38
381.489	355.98
381.87	328.18
382.25	331.35
382.63	318.92
383.01	316.66
383.39	350.56
383.77	334.51
384.15	345.81
384.53	350.56
384.91	364.79
385.29	351.23
385.67	352.14
386.049	362.98
386.429	359.14
386.809	370.44
387.189	347.17
387.568	359.82
387.948	357.11
388.328	353.27
388.707	379.03
389.087	370.22
389.466	372.7
389.846	362.31
390.225	382.65
390.605	382.87
390.984	378.58
391.363	365.24
391.743	369.76
392.122	381.97
392.501	383.78
392.881	387.16
393.26	387.16
393.639	387.62
394.018	392.81
394.397	380.84
394.776	393.27
395.155	409.54
395.534	379.93
395.913	409.54
396.292	394.17
396.671	395.07
397.05	385.13
397.429	387.16
397.808	417.9
398.186	397.11
398.565	405.02
398.944	416.32
399.323	410.67
399.701	422.19
400.08	408.86
400.458	424
400.837	435.98
401.215	444.34
401.594	409.09
401.972	409.99
402.351	435.3
402.729	451.8
403.107	448.41
403.486	450.89
403.864	450.44
404.242	450.44
404.62	462.64
404.999	449.31
405.377	471.68
405.755	455.19
406.133	465.13
406.511	456.54
406.889	479.59
407.267	478.24
407.645	471.23
408.023	499.25
408.401	486.82
408.779	487.73
409.156	509.42
409.534	496.31
409.912	492.02
410.29	518.46
410.667	527.27
411.045	531.12
411.422	542.19
411.8	522.08
412.178	546.71
412.555	562.75
412.933	568.86
413.31	567.73
413.687	572.47
414.065	597.55
414.442	592.36
414.819	611.11
415.197	610.44
415.574	617.67
415.951	585.35
416.328	615.63
416.705	628.06
417.082	633.26
417.46	648.63
417.837	633.94
418.214	650.89
418.591	671
418.967	679.81
419.344	687.04
419.721	681.17
420.098	694.73
420.475	725.46
420.852	695.63
421.228	734.05
421.605	753.93
421.982	752.13
422.358	744.9
422.735	752.13
423.111	781.96
423.488	767.95
423.864	802.52
424.241	794.84
424.617	826.7
424.994	816.98
425.37	791.67
425.746	851.79
426.123	860.37
426.499	866.25
426.875	848.4
427.251	877.32
427.627	906.02
428.003	921.61
428.379	921.84
428.756	930.43
429.132	923.2
429.507	948.96
429.883	933.14
430.259	975.17
430.635	987.83
431.011	984.66
431.387	996.87
431.763	1003.65
432.138	1044.55
432.514	1042.74
432.89	1042.06
433.265	1062.85
433.641	1088.62
434.016	1105.56
434.392	1130.2
434.767	1139.24
435.143	1145.79
435.518	1149.86
435.894	1192.57
436.269	1185.34
436.644	1202.74
437.02	1254.94
437.395	1257.88
437.77	1273.92
438.145	1279.34
438.52	1311.43
438.895	1289.74
439.271	1326.8
439.646	1348.04
440.021	1397.76
440.395	1372.22
440.77	1381.26
441.145	1376.97
441.52	1421.49
441.895	1417.42
442.27	1459
442.645	1431.66
443.019	1486.35
443.394	1463.29
443.769	1493.35
444.143	1500.81
444.518	1516.85
444.892	1481.37
445.267	1527.93
445.641	1561.15
446.016	1537.64
446.39	1571.31
446.764	1574.25
447.139	1573.12
447.513	1573.57
447.887	1591.2
448.262	1593.91
448.636	1601.37
449.01	1640.24
449.384	1628.71
449.758	1659.45
450.132	1646.79
450.506	1671.88
450.88	1658.32
451.254	1691.31
451.628	1694.93
452.002	1726.56
452.376	1734.02
452.75	1757.75
453.123	1745.55
453.497	1786.45
453.871	1776.96
454.244	1810.18
454.618	1816.28
454.992	1831.19
455.365	1859.89
455.739	1880.91
456.112	1909.61
456.486	1916.62
456.859	1922.27
457.232	1933.11
457.606	1945.09
457.979	1956.62
458.352	1993.68
458.725	2027.12
459.099	2030.29
459.472	2076.39
459.845	2073
460.218	2125.42
460.591	2133.79
460.964	2109.61
461.337	2165.65
461.71	2204.97
462.083	2241.35
462.456	2227.57
462.829	2254.69
463.201	2262.37
463.574	2268.7
463.947	2308.47
464.32	2351.18
464.692	2385.08
465.065	2392.31
465.438	2428.69
465.81	2406.09
466.183	2428.69
466.555	2472.08
466.928	2527.45
467.3	2500.56
467.672	2521.8
468.045	2569.03
468.417	2578.97
468.789	2610.38
469.161	2610.84
469.534	2640.67
469.906	2717.73
470.278	2733.54
470.65	2725.18
471.022	2805.18
471.394	2844.73
471.766	2886.99
472.138	2900.55
472.51	2956.36
472.882	2955.01
473.253	3016.47
473.625	3034.55
473.997	3088.34
474.369	3069.35
474.74	3117.49
475.112	3197.71
475.484	3239.97
475.855	3258.05
476.227	3290.59
476.598	3349.12
476.97	3391.38
477.341	3450.81
477.713	3501.89
478.084	3478.84
478.455	3569.23
478.827	3604.71
479.198	3694.42
479.569	3692.39
479.94	3768.32
480.311	3807.64
480.682	3893.51
481.053	3955.21
481.424	3971.93
481.795	4006.96
482.166	4028.2
482.537	4144.35
482.908	4147.74
483.279	4190.45
483.65	4242.66
484.021	4300.28
484.391	4336.21
484.762	4371.47
485.133	4365.37
485.503	4456.44
485.874	4567.85
486.244	4554.06
486.615	4610.33
486.985	4674.74
487.356	4753.15
487.726	4790.44
488.097	4863.43
488.467	4850.1
488.837	4942.53
489.207	4968.97
489.578	5035.4
489.948	5087.15
490.318	5167.83
490.688	5128.96
491.058	5197.66
491.428	5338
491.798	5330.99
492.168	5382.51
492.538	5450.31
492.908	5428.84
493.278	5552.68
493.648	5526.92
494.017	5541.61
494.387	5605.33
494.757	5702.51
495.126	5711.54
495.496	5731.88
495.866	5758.55
496.235	5786.57
496.605	5833.58
496.974	5843.52
497.344	5903.63
497.713	5910.18
498.082	5959.9
498.452	5949.96
498.821	5994.7
499.19	5996.73
499.559	6060.01
499.928	6125.32
500.298	6158.31
500.667	6162.61
501.036	6128.26
501.405	6240.34
501.774	6261.59
502.143	6215.49
502.512	6276.95
502.88	6304.07
503.249	6305.2
503.618	6360.34
503.987	6368.93
504.356	6384.3
504.724	6406.44
505.093	6400.57
505.462	6385.2
505.83	6450.51
506.199	6490.28
506.567	6521.01
506.936	6577.28
507.304	6601.46
507.672	6602.82
508.041	6648.7
508.409	6672.42
508.777	6711.07
509.145	6709.03
509.514	6742.48
509.882	6740.9
510.25	6765.3
510.618	6714.23
510.986	6771.18
511.354	6831.06
511.722	6874
512.09	6925.98
512.458	6897.28
512.826	6894.56
513.193	6970.49
513.561	6969.59
513.929	7019.08
514.297	7070.61
514.664	7056.14
515.032	7067.44
515.4	7059.08
515.767	7083.03
516.135	7109.25
516.502	7071.73
516.869	7195.8
517.237	7166.87
517.604	7156.7
517.972	7256.59
518.339	7240.54
518.706	7203.03
519.073	7217.72
519.44	7229.24
519.808	7316.47
520.175	7230.6
520.542	7360.31
520.909	7402.8
521.276	7394.66
521.643	7407.09
522.009	7518.05
522.376	7466.53
522.743	7529.35
523.11	7484.83
523.477	7600.76
523.843	7650.48
524.21	7645.05
524.577	7633.08
524.943	7675.79
525.31	7667.2
525.676	7812.51
526.043	7776.12
526.409	7754.2
526.776	7859.28
527.142	7877.14
527.508	7872.62
527.874	7925.5
528.241	7922.11
528.607	7933.18
528.973	7997.81
529.339	8001.88
529.705	8016.12
530.071	8091.37
530.437	8097.7
530.803	8076.68
531.169	8125.94
531.535	8085.49
531.901	8159.16
532.267	8177.92
532.632	8212.72
532.998	8207.07
533.364	8247.3
533.73	8260.86
534.095	8255.43
534.461	8233.51
534.826	8342.89
535.192	8318.48
535.557	8332.72
535.923	8346.05
536.288	8348.76
536.653	8370.68
537.019	8369.33
537.384	8364.58
537.749	8357.35
538.114	8421.3
538.479	8371.14
538.845	8445.26
539.21	8394.41
539.575	8435.77
539.94	8463.11
540.305	8478.7
540.67	8477.12
541.034	8500.4
541.399	8497.46
541.764	8478.03
542.129	8498.59
542.494	8555.31
542.858	8504.69
543.223	8591.02
543.587	8584.69
543.952	8588.53
544.316	8586.72
544.681	8595.31
545.045	8652.03
545.41	8626.5
545.774	8614.07
546.138	8671.24
546.503	8620.85
546.867	8710.34
547.231	8693.16
547.595	8725.48
547.959	8687.29
548.324	8672.37
548.688	8661.52
549.052	8804.8
549.416	8753.72
549.779	8752.14
550.143	8743.56
550.507	8801.41
550.871	8801.86
551.235	8811.12
551.599	8871.46
551.962	8840.5
552.326	8896.55
552.689	8854.96
553.053	8862.65
553.417	8873.27
553.78	8930.44
554.143	8919.6
554.507	8968.41
554.87	8978.13
555.234	9075.07
555.597	8998.24
555.96	8981.74
556.323	9095.64
556.686	9076.43
557.05	9121.4
557.413	9114.17
557.776	9189.87
558.139	9188.52
558.502	9066.94
558.865	9190.55
559.228	9266.25
559.59	9230.32
559.953	9341.73
560.316	9329.3
560.679	9360.26
561.041	9285.46
561.404	9409.98
561.767	9431.9
562.129	9416.98
562.492	9439.36
562.854	9453.37
563.217	9536.3
563.579	9484.33
563.941	9558.45
564.304	9631.44
564.666	9688.16
565.028	9623.08
565.39	9703.98
565.753	9722.96
566.115	9792.34
566.477	9835.28
566.839	9786.92
567.201	9921.38
567.563	9922.51
567.925	9927.48
568.287	9960.92
568.648	9953.24
569.01	10008.83
569.372	10069.85
569.734	10077.98
570.095	10168.6
570.457	10187.13
570.819	10231.65
571.18	10189.39
571.542	10297.19
571.903	10261.48
572.265	10349.61
572.626	10333.12
572.987	10354.81
573.349	10463.96
573.71	10464.64
574.071	10456.28
574.432	10565.2
574.794	10544.41
575.155	10586.9
575.516	10582.15
575.877	10596.61
576.238	10690.4
576.599	10690.62
576.96	10734.92
577.32	10701.92
577.681	10762.03
578.042	10888.81
578.403	10818.3
578.763	10878.19
579.124	10899.43
579.485	10954.8
579.845	10907.11
580.206	10924.06
580.566	10992.76
580.927	11032.99
581.287	11138.52
581.648	11069.37
582.008	11170.84
582.368	11123.15
582.728	11191.17
583.089	11213.55
583.449	11244.96
583.809	11195.24
584.169	11265.52
584.529	11187.33
584.889	11331.96
585.249	11319.98
585.609	11310.72
585.969	11421.23
586.329	11429.81
586.688	11486.99
587.048	11429.36
587.408	11503.71
587.768	11475.23
588.127	11509.81
588.487	11491.51
588.846	11603.37
589.206	11569.02
589.565	11640.43
589.925	11723.36
590.284	11725.17
590.643	11715
591.003	11679.3
591.362	11775.57
591.721	11817.37
592.08	11762.69
592.44	11771.05
592.799	11884.94
593.158	11793.19
593.517	11864.38
593.876	11976.24
594.235	11831.38
594.593	11897.37
594.952	11918.16
595.311	11920.2
595.67	12002.68
596.029	12032.06
596.387	12049.68
596.746	12125.39
597.104	12054.2
597.463	11939.18
597.822	12162.9
598.18	12152.51
598.538	12116.12
598.897	12182.34
599.255	12044.49
599.613	12383.91
599.972	12147.08
600.33	12187.98
600.688	12235.67
601.046	12244.71
601.404	12254.2
601.762	12235.89
602.12	12326.96
602.478	12328.09
602.836	12265.04
603.194	12274.54
603.552	12375.55
603.91	12295.55
604.268	12317.47
604.625	12296.23
604.983	12380.07
605.341	12304.37
605.698	12403.12
606.056	12425.49
606.413	12402.89
606.771	12393.63
607.128	12451.48
607.485	12355.44
607.843	12391.82
608.2	12494.64
608.557	12462.33
608.914	12411.71
609.272	12496.45
609.629	12624.36
609.986	12656.67
610.343	12581.42
610.7	12584.13
611.057	12596.56
611.414	12608.31
611.771	12667.29
612.127	12695.09
612.484	12684.47
612.841	12776.44
613.198	12687.41
613.554	12713.85
613.911	12721.98
614.267	12767.4
614.624	12771.02
614.98	12786.16
615.337	12875.42
615.693	12724.47
616.05	12770.79
616.406	12878.81
616.762	12911.58
617.118	12845.14
617.475	12859.83
617.831	12811.7
618.187	12850.57
618.543	12862.77
618.899	12921.07
619.255	12851.24
619.611	12919.26
619.967	12917.91
620.323	12938.93
620.678	12905.93
621.034	12885.37
621.39	12966.27
621.746	12912.26
622.101	13007.4
622.457	12892.37
622.812	12955.42
623.168	12925.59
623.523	12997
623.879	13013.27
624.234	12931.24
624.589	12955.87
624.945	12990.45
625.3	13067.06
625.655	12886.72
626.01	12953.16
626.365	12976.44
626.72	12894.41
627.075	12963.78
627.43	12918.36
627.785	12863.67
628.14	12954.97
628.495	12930.79
628.85	12974.86
629.205	12821.87
629.559	12997.91
629.914	12831.58
630.269	12935.76
630.623	12862.09
630.978	12849.21
631.332	12894.63
631.687	12892.15
632.041	12782.55
632.396	12909.32
632.75	12800.17
633.104	12818.7
633.459	12758.37
633.813	12768.53
634.167	12694.86
634.521	12747.07
634.875	12727.41
635.229	12696.67
635.583	12695.09
635.937	12742.32
636.291	12603.11
636.645	12696.45
636.999	12662.32
637.352	12717.91
637.706	12606.05
638.06	12623.68
638.413	12565.15
638.767	12545.04
639.121	12562.21
639.474	12481.08
639.828	12469.33
640.181	12514.08
640.534	12544.81
640.888	12472.72
641.241	12476.79
641.594	12436.57
641.947	12426.17
642.301	12495.77
642.654	12451.48
643.007	12409.9
643.36	12399.05
643.713	12430.24
644.066	12397.24
644.419	12349.79
644.771	12298.26
645.124	12219.17
645.477	12212.39
645.83	12103.69
646.182	12032.51
646.535	12056.01
646.888	12007.2
647.24	11985.05
647.593	12058.04
647.945	12036.35
648.298	11950.7
648.65	11896.69
649.002	11895.79
649.355	11956.8
649.707	11965.17
650.059	11988.22
650.411	12120.64
650.763	12155.9
651.115	12212.39
651.467	12196.57
651.819	12167.19
652.171	12257.14
652.523	12133.3
652.875	12126.52
653.227	12172.17
653.578	12227.53
653.93	12159.06
654.282	12122.45
654.633	12153.86
654.985	12164.48
655.337	12197.7
655.688	12184.59
656.039	12156.8
656.391	12138.27
656.742	12158.61
657.094	12121.77
657.445	12229.79
657.796	12196.8
658.147	12186.85
658.498	12143.69
658.849	12140.98
659.2	12149.57
659.551	12092.62
659.902	12205.16
660.253	12179.4
660.604	12184.82
660.955	12155.44
661.306	12121.77
661.656	12147.76
662.007	12190.7
662.358	12146.86
662.708	12187.98
663.059	12210.81
663.409	12124.71
663.76	12261.2
664.11	12249.68
664.461	12243.35
664.811	12183.69
665.161	12131.71
665.511	12170.13
665.862	12147.76
666.212	12260.53
666.562	12213.07
666.912	12196.35
667.262	12152.73
667.612	12157.25
667.962	12174.88
668.312	12168.55
668.662	12208.78
669.011	12208.1
669.361	12132.84
669.711	12095.78
670.06	12137.59
670.41	12064.15
670.76	12058.95
671.109	12119.74
671.459	12178.49
671.808	12072.28
672.157	12083.81
672.507	12076.12
672.856	11984.15
673.205	12038.38
673.554	12071.6
673.904	12023.02
674.253	12122.9
674.602	12128.55
674.951	11914.77
675.3	11830.71
675.649	11938.27
675.998	11970.14
676.346	11939.4
676.695	12063.92
677.044	11943.02
677.393	11943.02
677.741	11968.33
678.09	11951.15
678.438	11899.4
678.787	11934.21
679.135	11897.82
679.484	11836.13
679.832	11784.61
680.181	11786.41
680.529	11756.36
680.877	11762.01
681.225	11774.44
681.573	11774.89
681.922	11745.06
682.27	11723.82
682.618	11660.31
682.966	11626.87
683.314	11640.65
683.661	11625.06
684.009	11606.53
684.357	11537.61
684.705	11529.47
685.053	11534.44
685.4	11510.26
685.748	11441.34
686.095	11456.48
686.443	11419.87
686.79	11373.54
687.138	11436.82
687.485	11478.85
687.832	11312.75
688.18	11371.06
688.527	11321.57
688.874	11248.57
689.221	11236.15
689.568	11216.48
689.915	11190.04
690.262	11147.79
690.609	11204.73
690.956	11103.72
691.303	11153.89
691.65	10975.81
691.997	11007
692.344	10998.64
692.69	10919.54
693.037	10921.35
693.383	10807.68
693.73	10882.03
694.077	10739.89
694.423	10734.01
694.769	10717.97
695.116	10760.9
695.462	10708.02
695.808	10680.45
696.155	10696.5
696.501	10589.38
696.847	10547.12
697.193	10452.66
697.539	10561.59
697.885	10425.55
698.231	10417.18
698.577	10362.5
698.923	10391.2
699.269	10338.32
699.614	10207.47
699.96	10255.61
700.306	10204.99
700.651	10183.29
700.997	10102.84
701.342	10103.97
701.688	10118.21
702.033	10054.26
702.379	9956.18
702.724	9962.73
703.069	9918.44
703.415	9793.02
703.76	9928.38
704.105	9886.8
704.45	9841.38
704.795	9788.73
705.14	9714.15
705.485	9723.42
705.83	9618.33
706.175	9702.85
706.52	9635.28
706.865	9629.63
707.209	9635.28
707.554	9530.88
707.899	9567.94
708.243	9555.06
708.588	9520.48
708.932	9419.02
709.277	9438.68
709.621	9456.53
709.966	9421.96
710.31	9426.48
710.654	9241.4
710.998	9295.86
711.342	9260.15
711.687	9274.61
712.031	9212.7
712.375	9229.87
712.719	9179.25
713.063	9211.79
713.407	9219.93
713.75	9148.52
714.094	9150.78
714.438	9104.68
714.782	9160.04
715.125	9066.71
715.469	9127.5
715.812	9087.28
716.156	8994.4
716.499	9015.86
716.843	9057.9
717.186	9005.02
717.53	8983.32
717.873	8936.09
718.216	8945.58
718.559	8990.78
718.902	8901.29
719.246	8868.98
719.589	8875.08
719.932	8846.6
720.275	8845.7
720.617	8889.54
720.96	8849.77
721.303	8825.36
721.646	8842.54
721.989	8755.76
722.331	8887.05
722.674	8779.71
723.016	8766.83
723.359	8733.16
723.701	8732.71
724.044	8758.47
724.386	8663.11
724.729	8777.23
725.071	8677.12
725.413	8689.55
725.755	8650.68
726.097	8642.54
726.439	8572.71
726.782	8656.55
727.124	8678.02
727.465	8629.21
727.807	8668.76
728.149	8595.76
728.491	8578.59
728.833	8598.47
729.175	8621.07
729.516	8618.36
729.858	8580.62
730.199	8604.35
730.541	8567.06
730.882	8552.15
731.224	8505.82
731.565	8456.78
731.906	8516.22
732.248	8500.62
732.589	8459.27
732.93	8441.87
733.271	8509.89
733.612	8534.07
733.953	8499.27
734.294	8469.66
734.635	8461.3
734.976	8532.04
735.317	8472.83
735.658	8446.16
735.999	8488.65
736.339	8435.09
736.68	8499.95
737.021	8478.25
737.361	8397.58
737.702	8551.92
738.042	8473.51
738.383	8518.48
738.723	8527.97
739.063	8497.69
739.404	8516.89
739.744	8482.09
740.084	8530.91
740.424	8546.27
740.764	8548.53
741.104	8557.12
741.444	8602.99
741.784	8554.63
742.124	8571.81
742.464	8549.89
742.804	8488.19
743.143	8560.28
743.483	8584.01
743.823	8575.2
744.162	8609.77
744.502	8615.65
744.841	8626.5
745.181	8646.83
745.52	8686.38
745.86	8751.46
746.199	8777
746.538	8698.58
746.877	8767.28
747.216	8839.15
747.556	8888.41
747.895	8904
748.234	8930.22
748.573	8962.31
748.911	9020.84
749.25	9061.97
749.589	9111.68
749.928	9180.38
750.267	9340.6
750.605	9266.25
750.944	9343.09
751.283	9422.63
751.621	9501.73
751.96	9498.34
752.298	9578.56
752.636	9741.95
752.975	9721.38
753.313	9790.08
753.651	9949.85
753.989	9990.98
754.327	10066.46
754.666	10183.74
755.004	10287.92
755.342	10446.34
755.679	10482.04
756.017	10593.68
756.355	10722.94
756.693	10788.93
757.031	10978.75
757.368	11060.78
757.706	11210.61
758.044	11307.1
758.381	11502.35
758.719	11615.57
759.056	11728.79
759.394	11799.52
759.731	11968.78
760.068	12102.34
760.405	12255.55
760.743	12448.32
761.08	12547.3
761.417	12556.11
761.754	12858.48
