Data from hue_34_FLMS001491_00073.txt Node
Date: Tue Feb 07 17:26:06 GMT 2017
User: dcchb
Spectrometer: FLMS00149
Trigger mode: 0
Integration Time (sec): 2.000000E-2
Scans to average: 10
Electric dark correction enabled: true
Nonlinearity correction enabled: false
Boxcar width: 0
XAxis mode: Wavelengths
Number of Pixels in Spectrum: 2048
>>>>>Begin Spectral Data<<<<<
341.393	1.05
341.776	1.05
342.16	1.05
342.543	-59.74
342.927	-66.52
343.31	-83.25
343.693	-76.69
344.077	-57.26
344.46	-69.24
344.843	-34.43
345.226	-40.31
345.61	-32.85
345.993	-24.72
346.376	3.08
346.759	15.06
347.142	32.23
347.525	47.82
347.908	55.51
348.291	74.49
348.674	83.75
349.057	106.81
349.44	147.26
349.823	129.63
350.206	175.73
350.588	207.82
350.971	219.12
351.354	244.43
351.737	243.75
352.119	273.81
352.502	271.09
352.884	268.61
353.267	295.5
353.65	300.92
354.032	331.66
354.414	330.3
354.797	302.51
355.179	334.6
355.562	328.72
355.944	322.84
356.326	347.93
356.709	328.04
357.091	360.13
357.473	369.62
357.855	331.88
358.238	355.16
358.62	350.64
359.002	357.65
359.384	353.13
359.766	340.02
360.148	355.61
360.53	355.84
360.912	331.43
361.294	333.24
361.676	350.41
362.057	351.77
362.439	343.41
362.821	329.17
363.203	349.28
363.584	343.86
363.966	346.57
364.348	324.2
364.729	343.86
365.111	309.96
365.493	341.6
365.874	323.3
366.256	336.18
366.637	312.9
367.019	334.6
367.4	319.23
367.781	315.39
368.163	318.55
368.544	323.97
368.925	323.75
369.306	336.4
369.688	338.89
370.069	320.58
370.45	304.77
370.831	320.36
371.212	336.4
371.593	331.66
371.974	319.68
372.355	353.8
372.736	321.71
373.117	322.39
373.498	326.46
373.879	326.69
374.26	332.56
374.641	309.29
375.021	318.1
375.402	320.58
375.783	331.66
376.163	346.57
376.544	328.49
376.925	353.8
377.305	339.34
377.686	345.67
378.066	321.94
378.447	348.61
378.827	348.15
379.208	344.09
379.588	343.64
379.968	363.3
380.349	347.93
380.729	337.08
381.109	352.22
381.489	326.01
381.87	348.83
382.25	355.84
382.63	344.31
383.01	340.02
383.39	357.19
383.77	367.36
384.15	350.64
384.53	357.65
384.91	341.15
385.29	345.89
385.67	368.04
386.049	356.74
386.429	360.13
386.809	361.04
387.189	362.39
387.568	358.1
387.948	375.72
388.328	370.98
388.707	390.87
389.087	371.43
389.466	354.71
389.846	367.82
390.225	370.3
390.605	379.34
390.984	393.58
391.363	397.64
391.743	387.93
392.122	378.89
392.501	395.39
392.881	363.07
393.26	375.72
393.639	372.79
394.018	370.75
394.397	388.61
394.776	389.06
395.155	373.69
395.534	393.58
395.913	401.26
396.292	405.33
396.671	407.81
397.05	394.48
397.429	408.04
397.808	414.59
398.186	395.16
398.565	397.19
398.944	399.45
399.323	392.9
399.701	417.08
400.08	402.84
400.458	414.37
400.837	406.91
401.215	395.61
401.594	412.79
401.972	417.76
402.351	424.54
402.729	406.68
403.107	419.57
403.486	422.5
403.864	419.11
404.242	430.86
404.62	418.66
404.999	432.9
405.377	446.68
405.755	454.82
406.133	432.22
406.511	429.73
406.889	437.64
407.267	451.88
407.645	448.04
408.023	466.57
408.401	457.3
408.779	458.21
409.156	456.4
409.534	442.16
409.912	460.02
410.29	490.98
410.667	458.43
411.045	470.86
411.422	479.22
411.8	477.64
412.178	486.23
412.555	488.72
412.933	496.63
413.31	477.19
413.687	485.1
414.065	499.56
414.442	494.82
414.819	497.53
415.197	506.79
415.574	497.53
415.951	509.73
416.328	529.84
416.705	504.99
417.082	517.42
417.46	507.92
417.837	520.13
418.214	515.38
418.591	541.37
418.967	544.31
419.344	518.09
419.721	516.74
420.098	536.4
420.475	551.54
420.852	535.72
421.228	535.27
421.605	550.18
421.982	560.58
422.358	556.28
422.735	543.4
423.111	549.05
423.488	553.35
423.864	551.09
424.241	575.95
424.617	571.88
424.994	568.49
425.37	571.43
425.746	583.4
426.123	580.24
426.499	593.8
426.875	597.19
427.251	610.52
427.627	599.45
428.003	592.89
428.379	618.2
428.756	610.29
429.132	631.99
429.507	634.02
429.883	626.57
430.259	654.59
430.635	666.11
431.011	648.26
431.387	650.75
431.763	675.15
432.138	677.64
432.514	653.01
432.89	680.8
433.265	676.96
433.641	708.82
434.016	701.37
434.392	692.1
434.767	707.69
435.143	688.26
435.518	702.5
435.894	718.99
436.269	709.95
436.644	733.68
437.02	744.98
437.395	742.49
437.77	758.99
438.145	768.48
438.52	738.65
438.895	770.74
439.271	743.17
439.646	788.6
440.021	801.93
440.395	767.13
440.77	782.04
441.145	771.42
441.52	782.27
441.895	785.88
442.27	810.74
442.645	802.61
443.019	847.8
443.394	819.55
443.769	839.44
444.143	815.94
444.518	851.19
444.892	844.41
445.267	843.73
445.641	835.37
446.016	849.38
446.39	846.67
446.764	862.72
447.139	854.81
447.513	857.52
447.887	866.79
448.262	884.19
448.636	866.11
449.01	877.18
449.384	881.7
449.758	886.67
450.132	904.75
450.506	886.45
450.88	917.18
451.254	890.97
451.628	888.03
452.002	918.76
452.376	923.28
452.75	939.78
453.123	959.21
453.497	984.3
453.871	965.99
454.244	957.4
454.618	991.98
454.992	1011.87
455.365	983.62
455.739	1011.64
456.112	1020.23
456.486	1040.57
456.859	1063.62
457.232	1041.47
457.606	1056.16
457.979	1086.44
458.352	1094.8
458.725	1101.81
459.099	1102.71
459.472	1113.11
459.845	1121.69
460.218	1146.55
460.591	1166.89
460.964	1170.05
461.337	1165.08
461.71	1175.25
462.083	1216.38
462.456	1239.43
462.829	1232.65
463.201	1223.39
463.574	1232.65
463.947	1247.79
464.32	1272.65
464.692	1289.15
465.065	1289.6
465.438	1338.41
465.81	1348.13
466.183	1354.46
466.555	1384.96
466.928	1407.11
467.3	1399.88
467.672	1451.63
468.045	1462.7
468.417	1475.36
468.789	1455.92
469.161	1481.68
469.534	1503.83
469.906	1545.64
470.278	1577.27
470.65	1584.96
471.022	1622.25
471.394	1649.14
471.766	1670.15
472.138	1743.6
472.51	1735.69
472.882	1787.66
473.253	1777.04
473.625	1852.52
473.997	1860.21
474.369	1898.62
474.74	1914.22
475.112	1970.03
475.484	2008.45
475.855	2078.05
476.227	2062.91
476.598	2142.01
476.97	2163.02
477.341	2226.98
477.713	2267.2
478.084	2318.5
478.455	2396.24
478.827	2409.34
479.198	2518.72
479.569	2490.92
479.94	2588.32
480.311	2594.65
480.682	2694.53
481.053	2825.38
481.424	2885.04
481.795	2934.98
482.166	2989.22
482.537	3060.4
482.908	3143.34
483.279	3173.84
483.65	3293.16
484.021	3370.22
484.391	3429.43
484.762	3537
485.133	3586.94
485.503	3692.25
485.874	3785.35
486.244	3825.58
486.615	3965.46
486.985	4062.63
487.356	4147.83
487.726	4171.11
488.097	4312.8
488.467	4366.13
488.837	4528.16
489.207	4580.59
489.578	4678.21
489.948	4765.21
490.318	4864.87
490.688	4946.45
491.058	4992.1
491.428	5122.49
491.798	5230.29
492.168	5370.85
492.538	5402.71
492.908	5492.65
493.278	5654
493.648	5705.08
494.017	5821.68
494.387	5892.87
494.757	5995.24
495.126	6070.72
495.496	6086.76
495.866	6213.31
496.235	6249.69
496.605	6380.09
496.974	6451.5
497.344	6564.71
497.713	6591.83
498.082	6693.52
498.452	6783.69
498.821	6876.12
499.19	6924.7
499.559	7034.98
499.928	7100.97
500.298	7187.75
500.667	7304.81
501.036	7283.79
501.405	7401.3
501.774	7411.92
502.143	7486.95
502.512	7548.19
502.88	7685.81
503.249	7654.63
503.618	7776.66
503.987	7840.16
504.356	7905.92
504.724	7971.91
505.093	8020.27
505.462	8119.25
505.83	8121.28
506.199	8212.58
506.567	8359.47
506.936	8345.23
507.304	8503.65
507.672	8445.12
508.041	8546.58
508.409	8641.27
508.777	8749.29
509.145	8834.94
509.514	8842.17
509.882	8920.13
510.25	8872
510.618	8931.88
510.986	8951.77
511.354	9112.22
511.722	9103.86
512.09	9249.84
512.458	9246.9
512.826	9302.5
513.193	9361.48
513.561	9383.85
513.929	9452.32
514.297	9634.46
514.664	9584.3
515.032	9628.59
515.4	9758.08
515.767	9762.82
516.135	9899.77
516.502	9849.15
516.869	9921.69
517.237	9975.47
517.604	9981.12
517.972	10056.83
518.339	10071.74
518.706	10099.99
519.073	10183.83
519.44	10232.41
519.808	10361.68
520.175	10303.37
520.542	10418.4
520.909	10449.81
521.276	10577.49
521.643	10606.42
522.009	10755.34
522.376	10760.99
522.743	10785.62
523.11	10873.53
523.477	10995.78
523.843	11018.16
524.21	11172.73
524.577	11196.46
524.943	11280.52
525.31	11220.41
525.676	11385.15
526.043	11400.52
526.409	11494.98
526.776	11597.58
527.142	11692.94
527.508	11733.84
527.874	11779.27
528.241	11832.82
528.607	11955.76
528.973	12035.08
529.339	11958.47
529.705	12158.01
530.071	12222.19
530.437	12286.82
530.803	12382.87
531.169	12379.25
531.535	12406.82
531.901	12457.89
532.267	12492.02
532.632	12571.56
532.998	12595.74
533.364	12623.31
533.73	12779.24
534.095	12891.33
534.461	12941.04
534.826	12957.54
535.192	12935.39
535.557	13066.69
535.923	13127.03
536.288	13196.86
536.653	13185.33
537.019	13261.26
537.384	13267.14
537.749	13335.61
538.114	13393.69
538.479	13484.31
538.845	13466.68
539.21	13553.91
539.575	13605.89
539.94	13639.1
540.305	13760.46
540.67	13680.01
541.034	13789.16
541.399	13842.72
541.764	13885.2
542.129	13942.83
542.494	14025.54
542.858	14075.48
543.223	14118.87
543.587	14122.26
543.952	14237.51
544.316	14227.34
544.681	14195.7
545.045	14380.33
545.41	14413.55
545.774	14524.73
546.138	14485.64
546.503	14583.03
546.867	14633.88
547.231	14697.38
547.595	14685.4
547.959	14753.88
548.324	14767.66
548.688	14766.31
549.052	14897.83
549.416	14994.1
549.779	14984.15
550.143	15052.85
550.507	15166.52
550.871	15137.37
551.235	15137.14
551.599	15347.53
551.962	15303.92
552.326	15409.45
552.689	15494.2
553.053	15477.7
553.417	15462.33
553.78	15719.05
554.143	15577.58
554.507	15590.69
554.87	15761.76
555.234	15918.59
555.597	15811.48
555.96	15822.32
556.323	15974.64
556.686	15872.72
557.05	16046.5
557.413	16092.37
557.776	16161.98
558.139	16214.86
558.502	16278.81
558.865	16282.2
559.228	16392.25
559.59	16444.68
559.953	16474.51
560.316	16706.82
560.679	16648.97
561.041	16733.94
561.404	16849.42
561.767	16934.61
562.129	16869.75
562.492	17006.7
562.854	16955.85
563.217	17147.94
563.579	17192.23
563.941	17144.1
564.304	17316.75
564.666	17415.5
565.028	17367.82
565.39	17509.51
565.753	17525.1
566.115	17665.44
566.477	17707.02
566.839	17770.97
567.201	17816.85
567.563	17888.94
567.925	17918.09
568.287	17985.21
568.648	18027.69
569.01	18062.49
569.372	18295.03
569.734	18175.03
570.095	18356.04
570.457	18489.15
570.819	18451.18
571.18	18519.2
571.542	18667
571.903	18735.24
572.265	18753.32
572.626	18822.7
572.987	18815.92
573.349	18982.47
573.71	19125.74
574.071	19217.04
574.432	19240.31
574.794	19524.6
575.155	19449.57
575.516	19508.55
575.877	19589
576.238	19680.3
576.599	19912.39
576.96	20000.75
577.32	20025.6
577.681	20279.38
578.042	20367.29
578.403	20563.89
578.763	20546.49
579.124	20751.23
579.485	20931.79
579.845	21114.39
580.206	21150.77
580.566	21251.33
580.927	21422.18
581.287	21674.6
581.648	21737.65
582.008	22140.8
582.368	22111.42
582.728	22257.86
583.089	22463.96
583.449	22680.9
583.809	22844.51
584.169	23125.63
584.529	23202.02
584.889	23613.08
585.249	23758.61
585.609	23784.83
585.969	24135.1
586.329	24270.24
586.688	24591.59
587.048	24794.29
587.408	24973.95
587.768	25181.17
588.127	25406.03
588.487	25700.26
588.846	25983.19
589.206	26063.18
589.565	26375.49
589.925	26752.88
590.284	26887.8
590.643	27144.74
591.003	27331.4
591.362	27709.24
591.721	27996.69
592.08	28210.02
592.44	28506.06
592.799	28695.66
593.158	28980.4
593.517	29253.38
593.876	29456.54
594.235	29740.38
594.593	29940.6
594.952	30266.69
595.311	30449.51
595.67	30770.18
596.029	31140.79
596.387	31323.16
596.746	31697.16
597.104	31744.84
597.463	31970.83
597.822	32308.9
598.18	32358.39
598.538	32647.42
598.897	33202.88
599.255	33087.41
599.613	33749.31
599.972	33691.01
600.33	33962.19
600.688	34041.96
601.046	34480.82
601.404	34729.4
601.762	34794.93
602.12	35165.54
602.478	35222.04
602.836	35501.35
603.194	35522.37
603.552	35838.52
603.91	35871.29
604.268	36353.08
604.625	36393.31
604.983	36633.08
605.341	36590.82
605.698	37144.25
606.056	37231.48
606.413	37392.15
606.771	37605.93
607.128	37777.68
607.485	37699.49
607.843	38090.44
608.2	38294.5
608.557	38408.85
608.914	38370.88
609.272	38820.14
609.629	39010.64
609.986	39304.87
610.343	39141.71
610.7	39479.78
611.057	39693.79
611.414	39719.32
611.771	39736.27
612.127	40077.28
612.484	40275.01
612.841	40508.23
613.198	40376.03
613.554	40562.46
613.911	40842.46
614.267	41067.08
614.624	41052.85
614.98	41215.55
615.337	41471.14
615.693	41457.58
616.05	41538.26
616.406	41888.98
616.762	41770.12
617.118	41955.2
617.475	41899.83
617.831	42199.48
618.187	42293.94
618.543	42389.54
618.899	42592.24
619.255	42457.33
619.611	42561.96
619.967	42891.89
620.323	42910.43
620.678	42907.49
621.034	42826.59
621.39	43027.71
621.746	43132.34
622.101	43530.3
622.457	43256.4
622.812	43375.5
623.168	43514.48
623.523	43478.55
623.879	43787.46
624.234	43639.9
624.589	43822.49
624.945	43747.47
625.3	43827.24
625.655	43953.79
626.01	43988.82
626.365	44066.1
626.72	44114.69
627.075	44093.22
627.43	44144.29
627.785	44026.1
628.14	44179.54
628.495	44152.88
628.85	44116.72
629.205	44042.15
629.559	44351.29
629.914	44303.61
630.269	44353.78
630.623	44298.19
630.978	44203.72
631.332	44303.38
631.687	44602.58
632.041	44259.09
632.396	44522.81
632.75	44329.6
633.104	44443.94
633.459	44282.59
633.813	44286.43
634.167	44307.45
634.521	44365.08
634.875	44455.92
635.229	44386.32
635.583	44227.23
635.937	44397.17
636.291	44304.51
636.645	44262.25
636.999	44332.08
637.352	44398.52
637.706	44059.32
638.06	44375.25
638.413	44202.14
638.767	44148.58
639.121	44253.21
639.474	43979.32
639.828	44111.75
640.181	44115.82
640.534	44091.19
640.888	44087.12
641.241	43946.78
641.594	43991.07
641.947	44087.57
642.301	43863.62
642.654	44016.16
643.007	44025.88
643.36	44006.22
643.713	43932.55
644.066	43972.32
644.419	43886.22
644.771	43523.52
645.124	43103.64
645.477	43202.62
645.83	42926.7
646.182	42769.86
646.535	42563.77
646.888	42784.1
647.24	42351.57
647.593	42712.46
647.945	42513.37
648.298	42566.48
648.65	42453.49
649.002	42317.22
649.355	42531.68
649.707	42600.6
650.059	42827.04
650.411	43093.92
650.763	43113.81
651.115	43495.27
651.467	43417.76
651.819	43370.98
652.171	43393.12
652.523	43374.37
652.875	43303.41
653.227	43238.1
653.578	43436.97
653.93	43281.49
654.282	43221.38
654.633	43120.14
654.985	43239.46
655.337	43365.78
655.688	43214.82
656.039	43396.74
656.391	42954.49
656.742	43110.42
657.094	43213.02
657.445	43227.71
657.796	43277.2
658.147	43069.74
658.498	43109.29
658.849	43226.35
659.2	43011.21
659.551	42983.42
659.902	43055.28
660.253	42925.57
660.604	43136.86
660.955	42884.44
661.306	42997.2
661.656	42939.8
662.007	42996.98
662.358	43000.14
662.708	43063.42
663.059	43027.03
663.409	42745.91
663.76	43016.41
664.11	43112.23
664.461	43102.74
664.811	43005.34
665.161	43032
665.511	42944.1
665.862	42896.64
666.212	42934.15
666.562	42991.78
666.912	42900.48
667.262	42675.4
667.612	42883.31
667.962	42928.5
668.312	42823.65
668.662	42965.79
669.011	42816.87
669.361	42728.51
669.711	42716.31
670.06	42796.98
670.41	42745.46
670.76	42623.88
671.109	42829.52
671.459	42803.54
671.808	42726.93
672.157	42811.9
672.507	42551.11
672.856	42500.94
673.205	42505.24
673.554	42800.15
673.904	42502.3
674.253	42804.21
674.602	42676.31
674.951	42122.65
675.3	41903.22
675.649	42452.36
675.998	42520.61
676.346	42462.08
676.695	42679.7
677.044	42388.41
677.393	42384.11
677.741	42546.37
678.09	42375.75
678.438	42483.32
678.787	42391.34
679.135	42418.23
679.484	42153.16
679.832	42144.57
680.181	42012.37
680.529	42121.07
680.877	42044.01
681.225	41974.63
681.573	42229.09
681.922	41967.17
682.27	41750
682.618	41796.1
682.966	41716.33
683.314	41773.28
683.661	41639.95
684.009	41481.31
684.357	41466.62
684.705	41365.61
685.053	41337.13
685.4	41271.37
685.748	41204.03
686.095	41239.96
686.443	41077.93
686.79	40994.77
687.138	41105.73
687.485	41070.25
687.832	40986.63
688.18	41004.26
688.527	40701.67
688.874	40734.66
689.221	40759.75
689.568	40489.02
689.915	40535.12
690.262	40446.54
690.609	40418.51
690.956	40156.6
691.303	40259.2
691.65	39899.21
691.997	39998.86
692.344	39702.6
692.69	39716.16
693.037	39727.91
693.383	39462.83
693.73	39551.19
694.077	39417.41
694.423	39430.97
694.769	39306.23
695.116	39143.97
695.462	39170.64
695.808	39067.81
696.155	39047.48
696.501	38831.89
696.847	38785.11
697.193	38567.04
697.539	38713.47
697.885	38468.28
698.231	38307.83
698.577	38432.35
698.923	38303.54
699.269	38057.45
699.614	38000.95
699.96	37858.81
700.306	37884.34
700.651	37578.59
700.997	37685.25
701.342	37628.98
701.688	37539.95
702.033	37375.2
702.379	37424.69
702.724	37187.86
703.069	37277.35
703.415	36977.02
703.76	36909.23
704.105	36895.67
704.45	36840.98
704.795	36617.94
705.14	36498.16
705.485	36427.21
705.83	36274.67
706.175	36448
706.52	36334.78
706.865	36132.98
707.209	36046.88
707.554	36023.15
707.899	36090.94
708.243	35891.4
708.588	35914.23
708.932	35664.74
709.277	35559.66
709.621	35651.18
709.966	35373.67
710.31	35496.16
710.654	35224.75
710.998	35191.76
711.342	35201.7
711.687	35021.82
712.031	34940.24
712.375	34914.7
712.719	34922.84
713.063	34887.13
713.407	35041.25
713.75	34777.08
714.094	34695.05
714.438	34603.75
714.782	34649.85
715.125	34526.47
715.469	34636.97
715.812	34278.11
716.156	34203.08
716.499	34238.34
716.843	34187.26
717.186	34033.6
717.53	34262.29
717.873	34169.41
718.216	34031.56
718.559	33781.63
718.902	33590.9
719.246	33779.59
719.589	33488.75
719.932	33592.93
720.275	33579.82
720.617	33628.86
720.96	33479.49
721.303	33453.5
721.646	33376.44
721.989	33156.78
722.331	33350
722.674	33212.83
723.016	33273.16
723.359	33192.71
723.701	33165.6
724.044	32970.57
724.386	32843.12
724.729	32954.3
725.071	32766.74
725.413	32878.6
725.755	32809.45
726.097	32645.38
726.439	32471.15
726.782	32378.27
727.124	32734.2
727.465	32497.14
727.807	32500.53
728.149	32320.65
728.491	32376.69
728.833	32294.66
729.175	32036.14
729.516	32131.73
729.858	32184.61
730.199	32085.63
730.541	32007.66
730.882	32060.32
731.224	31941.67
731.565	31824.16
731.906	31871.17
732.248	31837.27
732.589	31623.72
732.93	31566.09
733.271	31565.19
733.612	31696.71
733.953	31680.44
734.294	31657.61
734.635	31539.88
734.976	31589.59
735.317	31387.56
735.658	31292.43
735.999	31464.85
736.339	31221.24
736.68	31294.01
737.021	31157.29
737.361	31023.73
737.702	31253.33
738.042	31066.67
738.383	30976.5
738.723	31011.53
739.063	30967.46
739.404	30968.59
739.744	30811.99
740.084	30775.15
740.424	30765.89
740.764	30755.04
741.104	30946.45
741.444	30758.2
741.784	30572.22
742.124	30563.86
742.464	30462.17
742.804	30435.27
743.143	30405.9
743.483	30477.08
743.823	30279.12
744.162	30296.97
744.502	30267.14
744.841	30180.14
745.181	30168.84
745.52	30102.17
745.86	30156.41
746.199	30081.61
746.538	30092.23
746.877	30160.48
747.216	30068.73
747.556	29920.94
747.895	29946.25
748.234	29847.49
748.573	29741.28
748.911	29730.43
749.25	29661.96
749.589	29637.1
749.928	29659.93
750.267	29524.34
750.605	29572.02
750.944	29485.02
751.283	29344.23
751.621	29362.53
751.96	29228.07
752.298	29201.63
752.636	29159.83
752.975	29169.54
753.313	28913.51
753.651	29062.88
753.989	28926.84
754.327	28957.57
754.666	28732.27
755.004	28914.64
755.342	28759.16
755.679	28612.04
756.017	28407.3
756.355	28655.88
756.693	28569.11
757.031	28485.95
757.368	28277.82
757.706	28335.44
