Data from hue_80_FLMS001491_2.txt Node
Date: Mon Feb 06 15:22:21 GMT 2017
User: dcchb
Spectrometer: FLMS00149
Trigger mode: 0
Integration Time (sec): 2.000000E-2
Scans to average: 10
Electric dark correction enabled: true
Nonlinearity correction enabled: false
Boxcar width: 0
XAxis mode: Wavelengths
Number of Pixels in Spectrum: 2048
>>>>>Begin Spectral Data<<<<<
341.393	-0.61
341.776	-0.61
342.16	-0.61
342.543	-55.07
342.927	-53.49
343.31	-71.79
343.693	-68.63
344.077	-63.2
344.46	-53.49
344.843	-68.63
345.226	-33.6
345.61	-37.67
345.993	-35.41
346.376	17.47
346.759	17.25
347.142	23.12
347.525	44.14
347.908	48.2
348.291	82.1
348.674	89.79
349.057	110.35
349.44	134.08
349.823	145.83
350.206	169.33
350.588	209.33
350.971	212.27
351.354	211.59
351.737	231.25
352.119	266.28
352.502	261.08
352.884	266.5
353.267	280.74
353.65	282.78
354.032	312.38
354.414	306.73
354.797	323.68
355.179	313.51
355.562	321.64
355.944	329.1
356.326	316.22
356.709	334.75
357.091	353.51
357.473	330.68
357.855	338.59
358.238	362.55
358.62	347.86
359.002	337.91
359.384	343.11
359.766	353.73
360.148	343.79
360.53	335.2
360.912	324.81
361.294	341.76
361.676	345.37
362.057	327.29
362.439	343.79
362.821	349.67
363.203	333.4
363.584	320.29
363.966	324.13
364.348	308.76
364.729	337.69
365.111	335.88
365.493	319.16
365.874	325.49
366.256	316.22
366.637	309.67
367.019	319.61
367.4	332.94
367.781	294.3
368.163	297.01
368.544	306.05
368.925	301.76
369.306	311.93
369.688	324.36
370.069	328.42
370.45	338.37
370.831	322.55
371.212	315.32
371.593	320.74
371.974	308.76
372.355	337.46
372.736	330.68
373.117	317.12
373.498	324.13
373.879	328.65
374.26	310.57
374.641	328.42
375.021	289.78
375.402	324.58
375.783	350.8
376.163	315.54
376.544	335.43
376.925	345.6
377.305	330.23
377.686	345.37
378.066	311.25
378.447	320.51
378.827	329.78
379.208	332.27
379.588	334.07
379.968	344.47
380.349	338.37
380.729	324.58
381.109	331.81
381.489	330.23
381.87	356.45
382.25	350.12
382.63	332.94
383.01	327.52
383.39	362.55
383.77	355.32
384.15	352.38
384.53	324.58
384.91	344.92
385.29	339.72
385.67	346.95
386.049	348.54
386.429	342.21
386.809	365.03
387.189	360.06
387.568	366.84
387.948	340.4
388.328	352.38
388.707	355.54
389.087	362.55
389.466	363.45
389.846	362.55
390.225	363.68
390.605	365.94
390.984	378.37
391.363	361.19
391.743	376.33
392.122	398.93
392.501	386.5
392.881	385.15
393.26	384.24
393.639	361.64
394.018	374.52
394.397	385.15
394.776	372.26
395.155	376.11
395.534	357.35
395.913	372.72
396.292	395.77
396.671	389.21
397.05	391.92
397.429	384.24
397.808	392.15
398.186	398.48
398.565	387.18
398.944	393.05
399.323	394.64
399.701	388.99
400.08	386.95
400.458	399.38
400.837	391.47
401.215	404.35
401.594	393.51
401.972	391.02
402.351	396.22
402.729	398.25
403.107	407.07
403.486	411.13
403.864	403.45
404.242	411.36
404.62	434.64
404.999	433.73
405.377	418.36
405.755	417.91
406.133	417.91
406.511	440.06
406.889	432.83
407.267	429.89
407.645	423.34
408.023	406.39
408.401	445.48
408.779	427.86
409.156	430.57
409.534	431.92
409.912	429.89
410.29	473.28
410.667	455.2
411.045	451.81
411.422	459.04
411.8	464.24
412.178	459.04
412.555	445.93
412.933	446.16
413.31	461.08
413.687	461.75
414.065	455.65
414.442	494.52
414.819	473.28
415.197	483.22
415.574	502.43
415.951	485.03
416.328	490.23
416.705	488.42
417.082	512.15
417.46	506.05
417.837	496.78
418.214	498.36
418.591	515.54
418.967	511.47
419.344	524.12
419.721	500.17
420.098	525.25
420.475	505.37
420.852	543.33
421.228	524.35
421.605	515.99
421.982	543.33
422.358	537.01
422.735	544.24
423.111	533.16
423.488	535.65
423.864	568.42
424.241	537.46
424.617	556.67
424.994	551.02
425.37	542.88
425.746	554.63
426.123	573.39
426.499	588.76
426.875	593.05
427.251	576.55
427.627	586.27
428.003	597.12
428.379	573.39
428.756	595.99
429.132	613.16
429.507	600.28
429.883	629.43
430.259	636.89
430.635	620.17
431.011	618.59
431.387	639.38
431.763	626.49
432.138	643.9
432.514	612.71
432.89	656.55
433.265	656.55
433.641	668.53
434.016	667.85
434.392	673.73
434.767	681.41
435.143	664.91
435.518	688.87
435.894	672.37
436.269	704.23
436.644	678.02
437.02	699.49
437.395	717.11
437.77	713.05
438.145	730.45
438.52	729.77
438.895	708.3
439.271	743.55
439.646	728.41
440.021	756.66
440.395	749.43
440.77	762.54
441.145	758.24
441.52	753.05
441.895	761.41
442.27	756.21
442.645	776.1
443.019	783.55
443.394	794.4
443.769	770.45
444.143	778.81
444.518	807.73
444.892	817.22
445.267	806.83
445.641	812.48
446.016	817.9
446.39	806.6
446.764	824.46
447.139	828.3
447.513	841.18
447.887	841.63
448.262	851.12
448.636	831.69
449.01	848.64
449.384	862.19
449.758	863.78
450.132	898.8
450.506	878.47
450.88	889.09
451.254	903.1
451.628	893.38
452.002	895.64
452.376	924.11
452.75	931.8
453.123	936.32
453.497	955.98
453.871	961.63
454.244	965.69
454.618	988.75
454.992	977.9
455.365	993.49
455.739	987.39
456.112	1035.98
456.486	1015.41
456.859	1026.03
457.232	1001.4
457.606	1049.76
457.979	1054.96
458.352	1059.48
458.725	1089.76
459.099	1080.72
459.472	1133.83
459.845	1136.76
460.218	1144.22
460.591	1144.67
460.964	1167.5
461.337	1171.57
461.71	1160.49
462.083	1218.12
462.456	1208.17
462.829	1205.69
463.201	1251.56
463.574	1240.04
463.947	1263.31
464.32	1268.96
464.692	1312.8
465.065	1307.38
465.438	1358.9
465.81	1342.86
466.183	1398
466.555	1423.08
466.928	1409.53
467.3	1412.46
467.672	1413.59
468.045	1483.87
468.417	1474.61
468.789	1501.5
469.161	1496.98
469.534	1552.8
469.906	1594.15
470.278	1588.73
470.65	1661.5
471.022	1699.01
471.394	1699.01
471.766	1729.97
472.138	1743.53
472.51	1808.16
472.882	1885.22
473.253	1875.05
473.625	1948.04
473.997	1996.18
474.369	1980.36
474.74	2034.37
475.112	2057.64
475.484	2134.7
475.855	2183.06
476.227	2223.97
476.598	2285.43
476.97	2325.21
477.341	2409.05
477.713	2437.97
478.084	2483.62
478.455	2577.18
478.827	2615.82
479.198	2752.54
479.569	2768.81
479.94	2869.83
480.311	2909.6
480.682	3063.72
481.053	3133.32
481.424	3221.68
481.795	3294.22
482.166	3358.85
482.537	3468
482.908	3542.12
483.279	3657.83
483.65	3723.59
484.021	3868.9
484.391	3960.19
484.762	4056.24
485.133	4053.52
485.503	4218.04
485.874	4387.07
486.244	4472.04
486.615	4598.82
486.985	4718.82
487.356	4830.23
487.726	4924.23
488.097	5142.53
488.467	5154.96
488.837	5316.77
489.207	5480.15
489.578	5649.41
489.948	5709.75
490.318	5866.58
490.688	5919.91
491.058	6140.25
491.428	6251.88
491.798	6420.01
492.168	6626.34
492.538	6642.61
492.908	6878.08
493.278	7012.09
493.648	7109.26
494.017	7255.93
494.387	7346.77
494.757	7551.74
495.126	7672.64
495.496	7792.18
495.866	7926.19
496.235	8104.04
496.605	8275.79
496.974	8356.24
497.344	8492.05
497.713	8656.11
498.082	8746.73
498.452	8919.16
498.821	9014.75
499.19	9127.74
499.559	9244.35
499.928	9378.13
500.298	9479.82
500.667	9607.73
501.036	9666.03
501.405	9847.72
501.774	9853.6
502.143	10091.56
502.512	10131.56
502.88	10286.81
503.249	10383.98
503.618	10461.04
503.987	10577.65
504.356	10728.15
504.724	10851.31
505.093	10923.85
505.462	11036.39
505.83	11206.33
506.199	11271.64
506.567	11434.8
506.936	11419.21
507.304	11654.91
507.672	11745.07
508.041	11753.43
508.409	11906.65
508.777	11953.65
509.145	12110.49
509.514	12181.9
509.882	12296.7
510.25	12293.31
510.618	12389.8
510.986	12449.23
511.354	12679.96
511.722	12769.45
512.09	12892.61
512.458	12892.16
512.826	12978.49
513.193	13149.1
513.561	13157.24
513.929	13195.88
514.297	13344.58
514.664	13430.9
515.032	13453.28
515.4	13582.09
515.767	13653.72
516.135	13764.91
516.502	13677.45
516.869	13906.82
517.237	13949.99
517.604	13930.1
517.972	14024.11
518.339	14159.02
518.706	14176.87
519.073	14239.02
519.44	14327.6
519.808	14495.96
520.175	14386.58
520.542	14585.68
520.909	14613.25
521.276	14666.58
521.643	14833.35
522.009	14881.04
522.376	14936.85
522.743	14995.61
523.11	15081.93
523.477	15274.02
523.843	15276.96
524.21	15398.31
524.577	15519.21
524.943	15506.1
525.31	15523.96
525.676	15625.87
526.043	15666.33
526.409	15812.76
526.776	15859.99
527.142	15905.87
527.508	15963.04
527.874	15959.42
528.241	16028.8
528.607	16104.51
528.973	16127.33
529.339	16167.1
529.705	16225.63
530.071	16338.4
530.437	16303.37
530.803	16452.52
531.169	16417.04
531.535	16457.94
531.901	16396.25
532.267	16507.21
532.632	16576.58
532.998	16500.43
533.364	16683.93
533.73	16558.73
534.095	16714.89
534.461	16703.36
534.826	16744.94
535.192	16775.67
535.557	16863.58
535.923	16781.55
536.288	16845.28
536.653	16795.11
537.019	16760.08
537.384	16775.67
537.749	16843.02
538.114	16778.39
538.479	16783.13
538.845	16715.11
539.21	16773.87
539.575	16782.45
539.94	16789.46
540.305	16821.55
540.67	16764.6
541.034	16854.54
541.399	16913.52
541.764	16940.42
542.129	16889.34
542.494	16938.38
542.858	16821.78
543.223	16925.5
543.587	16980.64
543.952	16791.95
544.316	16862
544.681	16787.65
545.045	16838.72
545.41	16884.6
545.774	16862.9
546.138	16842.34
546.503	16739.29
546.867	16706.07
547.231	16882.34
547.595	16822.91
547.959	16814.32
548.324	16879.4
548.688	16773.64
549.052	16801.89
549.416	16830.14
549.779	16820.42
550.143	16747.65
550.507	16847.09
550.871	16838.27
551.235	16755.79
551.599	16858.61
551.962	16822.68
552.326	16850.48
552.689	16810.02
553.053	16701.78
553.417	16747.2
553.78	16909.23
554.143	16753.08
554.507	16800.31
554.87	16785.62
555.234	16962.11
555.597	16786.52
555.96	16794.43
556.323	16841.89
556.686	16792.85
557.05	16880.76
557.413	16822.68
557.776	16922.79
558.139	16949.23
558.502	16891.15
558.865	16894.32
559.228	17029.68
559.59	16940.87
559.953	16996.01
560.316	17140.64
560.679	17146.96
561.041	17217.47
561.404	17140.64
561.767	17281.2
562.129	17120.3
562.492	17306.51
562.854	17253.18
563.217	17243.23
563.579	17278.49
563.941	17297.92
564.304	17387.18
564.666	17470.8
565.028	17388.09
565.39	17434.41
565.753	17490.01
566.115	17605.71
566.477	17601.64
566.839	17612.71
567.201	17620.85
567.563	17640.74
567.925	17762.32
568.287	17687.52
568.648	17717.12
569.01	17867.62
569.372	17882.99
569.734	17710.79
570.095	17939.49
570.457	17861.3
570.819	17924.57
571.18	17938.58
571.542	17933.16
571.903	17987.85
572.265	18050.44
572.626	18025.59
572.987	18105.13
573.349	18184.68
573.71	18113.72
574.071	18260.16
574.432	18175.41
574.794	18298.57
575.155	18313.94
575.516	18165.69
575.877	18219.7
576.238	18346.48
576.599	18384.67
576.96	18351.23
577.32	18399.36
577.681	18412.69
578.042	18469.64
578.403	18414.05
578.763	18452.47
579.124	18475.52
579.485	18369.31
579.845	18428.06
580.206	18457.66
580.566	18381.73
580.927	18519.13
581.287	18500.83
581.648	18419.93
582.008	18585.8
582.368	18509.64
582.728	18487.27
583.089	18494.05
583.449	18440.49
583.809	18396.2
584.169	18424.9
584.529	18435.52
584.889	18560.49
585.249	18445.69
585.609	18405.46
585.969	18565.01
586.329	18445.46
586.688	18473.26
587.048	18464.67
587.408	18357.55
587.768	18346.25
588.127	18392.58
588.487	18324.33
588.846	18396.65
589.206	18325.69
589.565	18312.13
589.925	18398
590.284	18352.81
590.643	18375.18
591.003	18324.56
591.362	18465.12
591.721	18396.65
592.08	18324.56
592.44	18444.33
592.799	18399.36
593.158	18301.06
593.517	18306.26
593.876	18317.33
594.235	18288.63
594.593	18314.62
594.952	18321.85
595.311	18234.39
595.67	18244.56
596.029	18472.13
596.387	18315.75
596.746	18412.02
597.104	18355.29
597.463	18310.55
597.822	18379.7
598.18	18245.92
598.538	18273.26
598.897	18449.53
599.255	18191.46
599.613	18505.57
599.972	18387.38
600.33	18366.14
600.688	18304.22
601.046	18268.97
601.404	18412.92
601.762	18335.18
602.12	18472.13
602.478	18498.79
602.836	18422.64
603.194	18328.63
603.552	18362.07
603.91	18311.23
604.268	18427.16
604.625	18309.42
604.983	18529.53
605.341	18347.38
605.698	18459.02
606.056	18405.91
606.413	18490.21
606.771	18372.24
607.128	18507.83
607.485	18307.84
607.843	18475.74
608.2	18504.67
608.557	18514.61
608.914	18428.06
609.272	18553.93
609.629	18529.07
609.986	18599.58
610.343	18505.35
610.7	18669.64
611.057	18634.83
611.414	18633.48
611.771	18665.57
612.127	18637.32
612.484	18708.51
612.841	18726.36
613.198	18685.91
613.554	18746.24
613.911	18784.44
614.267	18784.66
614.624	18777.88
614.98	18809.29
615.337	18849.52
615.693	18934.71
616.05	18843.87
616.406	19009.06
616.762	18938.1
617.118	18880.93
617.475	18936.97
617.831	19058.78
618.187	19043.86
618.543	19025.56
618.899	19161.15
619.255	19008.61
619.611	19021.49
619.967	19138.78
620.323	19160.7
620.678	19024.88
621.034	19013.58
621.39	19075.5
621.746	18998.22
622.101	19175.39
622.457	19074.37
622.812	19191.43
623.168	19200.24
623.523	19164.76
623.879	19167.25
624.234	19000.7
624.589	19183.52
624.945	19213.58
625.3	19116.63
625.655	19087.03
626.01	19100.81
626.365	19104.65
626.72	19032.11
627.075	19161.15
627.43	19093.81
627.785	18989.18
628.14	19186.23
628.495	19150.53
628.85	19116.86
629.205	19056.52
629.559	19132.67
629.914	19058.55
630.269	19144.2
630.623	19060.59
630.978	19033.24
631.332	19254.25
631.687	19066.46
632.041	19065.56
632.396	19066.91
632.75	19068.72
633.104	19031.66
633.459	18913.7
633.813	18953.02
634.167	18900.59
634.521	18835.51
634.875	18902.4
635.229	18811.33
635.583	18738.56
635.937	18735.62
636.291	18779.01
636.645	18813.36
636.999	18713.25
637.352	18718.9
637.706	18572.69
638.06	18790.09
638.413	18761.39
638.767	18704.66
639.121	18689.07
639.474	18601.62
639.828	18613.14
640.181	18650.2
640.534	18574.05
640.888	18583.54
641.241	18520.26
641.594	18526.14
641.947	18498.12
642.301	18496.76
642.654	18564.1
643.007	18540.83
643.36	18577.89
643.713	18563.65
644.066	18469.42
644.419	18390.32
644.771	18280.04
645.124	18117.11
645.477	18159.37
645.83	17974.74
646.182	18066.94
646.535	17888.41
646.888	17866.04
647.24	17790.56
647.593	17898.13
647.945	17839.6
648.298	17760.06
648.65	17797.34
649.002	17672.6
649.355	17840.96
649.707	17828.75
650.059	17852.71
650.411	18125.24
650.763	18068.07
651.115	18261.96
651.467	18167.73
651.819	18267.16
652.171	18231.46
652.523	18174.28
652.875	18156.2
653.227	18116.2
653.578	18143.55
653.93	18100.84
654.282	18251.12
654.633	18114.62
654.985	18125.47
655.337	18138.58
655.688	18183.32
656.039	18246.6
656.391	17975.19
656.742	18097.45
657.094	18047.51
657.445	18202.76
657.796	18186.49
658.147	18064.68
658.498	18133.15
658.849	18211.8
659.2	18174.51
659.551	18066.26
659.902	18213.6
660.253	18129.99
660.604	18198.69
660.955	18145.13
661.306	18197.56
661.656	18192.81
662.007	18154.4
662.358	18188.07
662.708	18265.58
663.059	18181.74
663.409	18093.61
663.76	18189.87
664.11	18249.31
664.461	18251.34
664.811	18271.45
665.161	18194.17
665.511	18160.95
665.862	18311.91
666.212	18207.05
666.562	18329.53
666.912	18192.13
667.262	18146.49
667.612	18290.66
667.962	18255.64
668.312	18222.42
668.662	18309.42
669.011	18180.16
669.361	18164.11
669.711	18158.46
670.06	18146.03
670.41	18108.52
670.76	18093.83
671.109	18224.68
671.459	18208.63
671.808	18133.15
672.157	18207.05
672.507	18003.89
672.856	18104
673.205	17979.26
673.554	18014.29
673.904	18013.38
674.253	18043.44
674.602	18079.6
674.951	17817.91
675.3	17641.19
675.649	18052.25
675.998	17995.53
676.346	17974.97
676.695	18057.9
677.044	17890.67
677.393	17894.74
677.741	18025.59
678.09	17922.76
678.438	17944.46
678.787	17949.88
679.135	17847.51
679.484	17776.33
679.832	17876.66
680.181	17691.36
680.529	17811.81
680.877	17660.17
681.225	17507.86
681.573	17766.16
681.922	17649.78
682.27	17676.67
682.618	17571.36
682.966	17514.19
683.314	17501.31
683.661	17507.41
684.009	17412.72
684.357	17426.28
684.705	17293.18
685.053	17346.73
685.4	17233.74
685.748	17243.91
686.095	17166.17
686.443	17153.29
686.79	17085.95
687.138	17156.68
687.485	17095.21
687.832	16964.82
688.18	17006.4
688.527	16962.79
688.874	16902.23
689.221	16829.91
689.568	16909.46
689.915	16860.42
690.262	16791.49
690.609	16677.15
690.956	16659.52
691.303	16648.45
691.65	16459.98
691.997	16539.75
692.344	16336.36
692.69	16419.98
693.037	16425.4
693.383	16219.31
693.73	16284.16
694.077	16108.12
694.423	16205.52
694.769	16097.27
695.116	16022.02
695.462	16010.5
695.808	15900.44
696.155	16004.62
696.501	15940.67
696.847	15824.06
697.193	15570.28
697.539	15695.7
697.885	15647.12
698.231	15571.64
698.577	15589.49
698.923	15574.12
699.269	15372.55
699.614	15350.18
699.96	15390.17
700.306	15284.87
700.651	15223.17
700.997	15186.11
701.342	15158.32
701.688	15146.34
702.033	15020.01
702.379	15067.92
702.724	14972.11
703.069	15006.46
703.415	14846.91
703.76	14784.99
704.105	14757.42
704.45	14701.6
704.795	14654.15
705.14	14574.6
705.485	14615.96
705.83	14552
706.175	14487.37
706.52	14400.82
706.865	14493.02
707.209	14384.55
707.554	14340.94
707.899	14413.25
708.243	14352.69
708.588	14271.56
708.932	14170.09
709.277	14130.32
709.621	14158.57
709.966	14034.05
710.31	14063.66
710.654	13928.74
710.998	13943.21
711.342	13942.3
711.687	13910.67
712.031	13797.45
712.375	13784.34
712.719	13824.57
713.063	13741.86
713.407	13798.58
713.75	13709.54
714.094	13741.63
714.438	13524.46
714.782	13605.36
715.125	13610.33
715.469	13623.89
715.812	13544.8
716.156	13504.12
716.499	13497.12
716.843	13444.69
717.186	13439.27
717.53	13444.69
717.873	13442.2
718.216	13401.07
718.559	13297.35
718.902	13194.07
719.246	13291.92
719.589	13224.81
719.932	13180.06
720.275	13215.77
720.617	13151.36
720.96	13157.46
721.303	13100.97
721.646	13146.17
721.989	13141.19
722.331	13119.95
722.674	13073.85
723.016	13084.92
723.359	13093.06
723.701	13142.32
724.044	13003.34
724.386	12926.51
724.729	12956.34
725.071	12965.15
725.413	12963.12
725.755	12977.13
726.097	12910.47
726.439	12896.45
726.782	12839.28
727.124	12969.45
727.465	12830.92
727.807	12856
728.149	12874.08
728.491	12865.72
728.833	12798.38
729.175	12780.53
729.516	12793.86
729.858	12788.89
730.199	12792.5
730.541	12811.71
730.882	12744.82
731.224	12830.69
731.565	12787.31
731.906	12792.73
732.248	12761.09
732.589	12645.39
732.93	12652.39
733.271	12655.11
733.612	12740.53
733.953	12734.88
734.294	12680.42
734.635	12666.63
734.976	12698.95
735.317	12747.76
735.658	12672.28
735.999	12626.18
736.339	12667.08
736.68	12719.74
737.021	12652.39
737.361	12736.01
737.702	12757.48
738.042	12673.86
738.383	12643.58
738.723	12715.89
739.063	12710.24
739.404	12751.37
739.744	12686.29
740.084	12731.04
740.424	12681.55
740.764	12699.17
741.104	12799.06
741.444	12737.14
741.784	12713.86
742.124	12755.22
742.464	12771.94
742.804	12803.35
743.143	12801.32
743.483	12872.95
743.823	12798.6
744.162	12815.55
744.502	12896
744.841	12878.6
745.181	12944.59
745.52	12974.87
745.86	13043.12
746.199	13004.93
746.538	13043.57
746.877	13090.12
747.216	13220.74
747.556	13239.04
747.895	13249.21
748.234	13283.11
748.573	13333.28
748.911	13352.49
749.25	13451.69
749.589	13390.9
749.928	13516.1
750.267	13603.78
750.605	13623.22
750.944	13707.05
751.283	13702.54
751.621	13859.82
751.96	13926.48
752.298	14015.07
752.636	14103.88
752.975	14174.84
753.313	14210.32
753.651	14341.16
753.989	14439.92
754.327	14398.34
754.666	14552.23
755.004	14735.28
755.342	14837.65
755.679	14910.41
756.017	14889.85
756.355	15125.77
