Data from hue_220_FLMS001491_00027.txt Node
Date: Tue Feb 07 16:39:11 GMT 2017
User: dcchb
Spectrometer: FLMS00149
Trigger mode: 0
Integration Time (sec): 2.000000E-2
Scans to average: 10
Electric dark correction enabled: true
Nonlinearity correction enabled: false
Boxcar width: 0
XAxis mode: Wavelengths
Number of Pixels in Spectrum: 2048
>>>>>Begin Spectral Data<<<<<
341.393	-15.99
341.776	-15.99
342.16	-15.99
342.543	-56.44
342.927	-74.07
343.31	-58.93
343.693	-78.59
344.077	-62.54
344.46	-45.14
344.843	-75.2
345.226	-31.36
345.61	-30.45
345.993	-22.77
346.376	-13.05
346.759	18.14
347.142	24.24
347.525	27.17
347.908	45.03
348.291	59.49
348.674	116.66
349.057	127.28
349.44	133.16
349.823	160.96
350.206	153.95
350.588	181.07
350.971	200.96
351.354	207.51
351.737	246.15
352.119	240.5
352.502	259.26
352.884	279.6
353.267	276.43
353.65	298.35
354.032	292.7
354.414	307.39
354.797	305.81
355.179	293.61
355.562	306.04
355.944	331.35
356.326	348.3
356.709	317.34
357.091	341.29
357.473	330.44
357.855	334.06
358.238	341.74
358.62	330.9
359.002	323.21
359.384	317.56
359.766	326.15
360.148	321.4
360.53	366.37
360.912	356.88
361.294	319.14
361.676	335.19
362.057	328.86
362.439	310.1
362.821	335.64
363.203	315.75
363.584	326.38
363.966	331.35
364.348	309.88
364.729	316.43
365.111	316.43
365.493	307.39
365.874	300.84
366.256	327.73
366.637	333.61
367.019	311.46
367.4	288.86
367.781	298.58
368.163	310.33
368.544	315.08
368.925	290.22
369.306	316.43
369.688	280.73
370.069	317.34
370.45	328.18
370.831	302.42
371.212	315.53
371.593	315.98
371.974	311.46
372.355	323.89
372.736	292.03
373.117	305.59
373.498	300.16
373.879	305.36
374.26	310.33
374.641	318.24
375.021	319.14
375.402	303.1
375.783	297.9
376.163	308.07
376.544	320.73
376.925	296.55
377.305	309.88
377.686	324.34
378.066	325.47
378.447	335.87
378.827	320.95
379.208	334.06
379.588	335.87
379.968	321.4
380.349	339.03
380.729	299.48
381.109	321.86
381.489	333.16
381.87	319.37
382.25	352.82
382.63	343.78
383.01	323.66
383.39	335.64
383.77	328.64
384.15	344
384.53	332.03
384.91	328.18
385.29	331.35
385.67	347.62
386.049	339.93
386.429	347.62
386.809	334.28
387.189	343.78
387.568	343.1
387.948	358.01
388.328	343.1
388.707	345.36
389.087	350.56
389.466	357.11
389.846	339.93
390.225	356.21
390.605	339.71
390.984	345.58
391.363	360.05
391.743	355.75
392.122	351.91
392.501	362.98
392.881	368.86
393.26	359.82
393.639	348.52
394.018	374.51
394.397	372.48
394.776	379.71
395.155	366.37
395.534	377.22
395.913	376.09
396.292	385.81
396.671	378.58
397.05	382.87
397.429	394.4
397.808	383.32
398.186	395.98
398.565	392.14
398.944	385.36
399.323	400.72
399.701	389.42
400.08	386.26
400.458	380.61
400.837	389.88
401.215	408.18
401.594	396.66
401.972	407.28
402.351	394.85
402.729	398.69
403.107	429.42
403.486	412.7
403.864	414.28
404.242	416.77
404.62	441.17
404.999	420.38
405.377	428.97
405.755	419.93
406.133	452.7
406.511	437.56
406.889	448.86
407.267	454.96
407.645	468.52
408.023	472.81
408.401	474.17
408.779	456.77
409.156	486.37
409.534	492.92
409.912	478.46
410.29	482.53
410.667	494.73
411.045	485.24
411.422	515.3
411.8	534.96
412.178	519.59
412.555	534.73
412.933	546.93
413.31	547.61
413.687	551.91
414.065	547.84
414.442	573.83
414.819	593.04
415.197	591.23
415.574	594.39
415.951	632.58
416.328	604.33
416.705	615.41
417.082	633.26
417.46	645.01
417.837	619.02
418.214	656.31
418.591	652.47
418.967	671.23
419.344	673.94
419.721	667.38
420.098	686.14
420.475	706.48
420.852	686.59
421.228	729.75
421.605	720.49
421.982	710.55
422.358	748.06
422.735	774.27
423.111	785.12
423.488	796.42
423.864	788.51
424.241	808.4
424.617	843.42
424.994	835.51
425.37	850.43
425.746	848.4
426.123	860.6
426.499	866.47
426.875	881.16
427.251	893.82
427.627	912.12
428.003	917.55
428.379	935.17
428.756	933.82
429.132	953.93
429.507	991.89
429.883	1000.71
430.259	966.81
430.635	996.41
431.011	1015.17
431.387	1028.73
431.763	1057.2
432.138	1063.76
432.514	1079.12
432.89	1085.23
433.265	1099.24
433.641	1117.32
434.016	1148.95
434.392	1164.55
434.767	1210.65
435.143	1199.8
435.518	1228.27
435.894	1216.75
436.269	1294.26
436.644	1301.49
437.02	1296.75
437.395	1283.41
437.77	1305.56
438.145	1379.46
438.52	1390.08
438.895	1393.92
439.271	1396.18
439.646	1440.02
440.021	1451.54
440.395	1491.77
440.77	1475.95
441.145	1509.17
441.52	1527.47
441.895	1517.53
442.27	1543.97
442.645	1560.47
443.019	1590.75
443.394	1568.6
443.769	1644.31
444.143	1606.57
444.518	1657.87
444.892	1660.58
445.267	1677.3
445.641	1706.68
446.016	1690.86
446.39	1728.37
446.764	1713.91
447.139	1712.78
447.513	1748.26
447.887	1754.81
448.262	1787.81
448.636	1782.38
449.01	1774.25
449.384	1797.3
449.758	1835.94
450.132	1861.25
450.506	1855.83
450.88	1883.4
451.254	1855.83
451.628	1903.06
452.002	1911.64
452.376	1913.23
452.75	1944.19
453.123	1971.98
453.497	1996.61
453.871	2000.91
454.244	2028.93
454.618	2049.27
454.992	2073.22
455.365	2083.84
455.739	2126.55
456.112	2134.46
456.486	2148.25
456.859	2177.85
457.232	2175.37
457.606	2202.03
457.979	2223.05
458.352	2277.28
458.725	2302.59
459.099	2335.36
459.472	2322.71
459.845	2372.65
460.218	2383.5
460.591	2421.69
460.964	2402.25
461.337	2480.67
461.71	2476.6
462.083	2530.84
462.456	2530.61
462.829	2541.23
463.201	2545.07
463.574	2587.33
463.947	2624.17
464.32	2670.04
464.692	2687.67
465.065	2709.36
465.438	2753.2
465.81	2784.16
466.183	2822.58
466.555	2869.36
466.928	2847.21
467.3	2867.55
467.672	2895.12
468.045	2945.52
468.417	2999.07
468.789	2994.33
469.161	3048.79
469.534	3060.32
469.906	3148.22
470.278	3147.77
470.65	3194.32
471.022	3268.67
471.394	3286.52
471.766	3312.29
472.138	3329.91
472.51	3431.15
472.882	3438.16
473.253	3473.64
473.625	3469.8
473.997	3560.41
474.369	3620.07
474.74	3632.05
475.112	3721.31
475.484	3746.62
475.855	3754.53
476.227	3764.25
476.598	3913.63
476.97	3925.6
477.341	4020.52
477.713	4067.07
478.084	4033.62
478.455	4169.89
478.827	4180.51
479.198	4338.25
479.569	4328.53
479.94	4362.43
480.311	4450.79
480.682	4532.37
481.053	4605.81
481.424	4688.75
481.795	4680.39
482.166	4735.53
482.537	4792.7
482.908	4882.19
483.279	4902.98
483.65	4973.94
484.021	5077.89
484.391	5118.11
484.762	5168.96
485.133	5160.82
485.503	5236.53
485.874	5323.08
486.244	5425
486.615	5438.78
486.985	5517.65
487.356	5619.34
487.726	5646.91
488.097	5747.48
488.467	5743.63
488.837	5860.24
489.207	5859.11
489.578	5972.55
489.948	5958.09
490.318	6137.3
490.688	6076.73
491.058	6183.62
491.428	6224.75
491.798	6244.41
492.168	6385.88
492.538	6396.27
492.908	6432.2
493.278	6480.11
493.648	6509.72
494.017	6587.45
494.387	6653.67
494.757	6632.88
495.126	6736.38
495.496	6705.42
495.866	6771.18
496.235	6800.56
496.605	6885.75
496.974	6849.14
497.344	6946.31
497.713	6978.63
498.082	6971.4
498.452	7029.25
498.821	7028.35
499.19	7050.72
499.559	7107.89
499.928	7179.08
500.298	7152.64
500.667	7250.26
501.036	7169.36
501.405	7301.79
501.774	7262.24
502.143	7311.73
502.512	7348.56
502.88	7341.56
503.249	7357.83
503.618	7367.77
503.987	7411.39
504.356	7448.45
504.724	7428.56
505.093	7496.58
505.462	7489.8
505.83	7477.6
506.199	7528.67
506.567	7661.1
506.936	7536.13
507.304	7618.16
507.672	7661.78
508.041	7654.32
508.409	7704.03
508.777	7768.89
509.145	7894.31
509.514	7760.76
509.882	7737.93
510.25	7717.82
510.618	7796.69
510.986	7783.58
511.354	7811.83
511.722	7795.78
512.09	7849.57
512.458	7881.21
512.826	7894.31
513.193	7893.86
513.561	7892.5
513.929	7895.22
514.297	7989
514.664	7944.25
515.032	7968.89
515.4	8026.51
515.767	8029
516.135	7929.11
516.502	7925.27
516.869	8078.94
517.237	8015.66
517.604	8034.87
517.972	8084.59
518.339	8050.24
518.706	8059.73
519.073	8051.82
519.44	8041.88
519.808	8038.26
520.175	8020.18
520.542	8095.89
520.909	8069.9
521.276	8095.66
521.643	8070.8
522.009	8092.5
522.376	8123.01
522.743	8115.32
523.11	8144.93
523.477	8209.11
523.843	8139.28
524.21	8194.64
524.577	8254.75
524.943	8212.95
525.31	8235.55
525.676	8255.43
526.043	8198.03
526.409	8221.08
526.776	8258.37
527.142	8206.17
527.508	8265.83
527.874	8246.39
528.241	8256.11
528.607	8304.7
528.973	8271.48
529.339	8246.62
529.705	8334.98
530.071	8232.16
530.437	8287.97
530.803	8312.83
531.169	8255.66
531.535	8243.68
531.901	8279.16
532.267	8238.94
532.632	8212.72
532.998	8199.16
533.364	8182.67
533.73	8216.56
534.095	8212.27
534.461	8164.36
534.826	8187.19
535.192	8186.06
535.557	8166.17
535.923	8072.39
536.288	8119.84
536.653	8106.06
537.019	8066.06
537.384	8133.18
537.749	8035.1
538.114	8043.23
538.479	8005.5
538.845	7991.26
539.21	7978.15
539.575	7913.52
539.94	7951.26
540.305	7967.3
540.67	7876.23
541.034	7847.99
541.399	7847.76
541.764	7807.99
542.129	7810.47
542.494	7782.68
542.858	7754.43
543.223	7803.24
543.587	7774.32
543.952	7701.55
544.316	7702.68
544.681	7613.87
545.045	7645.05
545.41	7691.83
545.774	7612.06
546.138	7638.05
546.503	7606.41
546.867	7510.37
547.231	7571.83
547.595	7512.4
547.959	7482.12
548.324	7429.47
548.688	7450.48
549.052	7443.25
549.416	7398.96
549.779	7418.62
550.143	7389.69
550.507	7378.85
550.871	7360.54
551.235	7285.29
551.599	7292.75
551.962	7300.66
552.326	7215.46
552.689	7259.98
553.053	7194.44
553.417	7226.08
553.78	7240.09
554.143	7138.17
554.507	7180.88
554.87	7141.56
555.234	7189.7
555.597	7083.71
555.96	7170.72
556.323	7135.24
556.686	7130.26
557.05	7192.64
557.413	7099.76
557.776	7041.45
558.139	7060.44
558.502	7061.79
558.865	7030.61
559.228	7085.97
559.59	7072.64
559.953	7011.62
560.316	7116.48
560.679	7046.88
561.041	7071.96
561.404	7053.2
561.767	7085.97
562.129	7034.22
562.492	7066.09
562.854	7065.18
563.217	7076.03
563.579	7065.63
563.941	7092.98
564.304	7082.13
564.666	7076.03
565.028	7131.85
565.39	7081.23
565.753	7108.34
566.115	7172.07
566.477	7131.62
566.839	7116.25
567.201	7153.09
567.563	7127.1
567.925	7151.96
568.287	7137.72
568.648	7165.52
569.01	7221.34
569.372	7192.64
569.734	7145.86
570.095	7233.54
570.457	7225.4
570.819	7151.05
571.18	7213.65
571.542	7213.88
571.903	7214.1
572.265	7245.29
572.626	7267.21
572.987	7227.44
573.349	7278.51
573.71	7250.71
574.071	7284.84
574.432	7318.06
574.794	7347.89
575.155	7377.04
575.516	7290.71
575.877	7350.37
576.238	7354.44
576.599	7383.37
576.96	7361.44
577.32	7397.15
577.681	7476.24
578.042	7452.97
578.403	7483.02
578.763	7413.42
579.124	7506.75
579.485	7504.72
579.845	7516.92
580.206	7504.49
580.566	7538.84
580.927	7565.28
581.287	7637.6
581.648	7619.07
582.008	7603.92
582.368	7600.08
582.728	7609.8
583.089	7630.14
583.449	7676.92
583.809	7656.58
584.169	7726.86
584.529	7637.37
584.889	7752.85
585.249	7623.13
585.609	7680.98
585.969	7723.92
586.329	7722.34
586.688	7763.92
587.048	7743.13
587.408	7744.94
587.768	7733.19
588.127	7778.84
588.487	7763.24
588.846	7846.63
589.206	7792.17
589.565	7856.8
589.925	7857.25
590.284	7879.17
590.643	7850.47
591.003	7851.6
591.362	7963.69
591.721	7898.83
592.08	7918.94
592.44	7992.39
592.799	7922.56
593.158	7958.04
593.517	7898.83
593.876	7965.95
594.235	8019.51
594.593	8006.85
594.952	7959.85
595.311	7935.67
595.67	7972.73
596.029	8002.11
596.387	8003.69
596.746	8059.05
597.104	8018.6
597.463	8029.22
597.822	8070.58
598.18	8054.76
598.538	8025.61
598.897	8033.07
599.255	8067.64
599.613	8130.01
599.972	8085.72
600.33	8121.2
600.688	8063.8
601.046	8176.79
601.404	8154.42
601.762	8158.03
602.12	8226.73
602.478	8175.21
602.836	8152.84
603.194	8090.01
603.552	8158.71
603.91	8082.33
604.268	8175.43
604.625	8142.22
604.983	8125.72
605.341	8064.7
605.698	8183.12
606.056	8127.75
606.413	8130.92
606.771	8195.1
607.128	8200.74
607.485	8152.16
607.843	8180.86
608.2	8233.29
608.557	8264.92
608.914	8201.65
609.272	8244.59
609.629	8279.84
609.986	8338.59
610.343	8253.4
610.7	8288.43
611.057	8281.65
611.414	8303.79
611.771	8300.4
612.127	8249.33
612.484	8344.92
612.841	8305.37
613.198	8327.97
613.554	8332.72
613.911	8380.18
614.267	8380.18
614.624	8370.23
614.98	8372.04
615.337	8379.05
615.693	8379.27
616.05	8342.89
616.406	8433.06
616.762	8376.79
617.118	8425.6
617.475	8328.88
617.831	8384.02
618.187	8447.97
618.543	8438.7
618.899	8462.21
619.255	8464.69
619.611	8438.03
619.967	8476.9
620.323	8468.99
620.678	8392.6
621.034	8417.46
621.39	8445.94
621.746	8438.93
622.101	8491.81
622.457	8470.79
622.812	8413.39
623.168	8476.9
623.523	8468.99
623.879	8553.28
624.234	8432.15
624.589	8467.86
624.945	8483
625.3	8493.62
625.655	8466.27
626.01	8505.37
626.365	8426.5
626.72	8483.9
627.075	8460.85
627.43	8464.24
627.785	8450.23
628.14	8460.62
628.495	8475.09
628.85	8427.63
629.205	8414.3
629.559	8473.28
629.914	8410
630.269	8455.43
630.623	8381.98
630.978	8355.99
631.332	8410.23
631.687	8416.33
632.041	8430.57
632.396	8428.08
632.75	8311.93
633.104	8423.34
633.459	8360.74
633.813	8307.41
634.167	8334.98
634.521	8322.55
634.875	8322.78
635.229	8288.88
635.583	8275.77
635.937	8311.02
636.291	8258.37
636.645	8260.18
636.999	8273.96
637.352	8217.69
637.706	8220.86
638.06	8219.05
638.413	8232.61
638.767	8211.14
639.121	8185.15
639.474	8166.17
639.828	8118.71
640.181	8201.65
640.534	8153.06
640.888	8120.07
641.241	8146.28
641.594	8175.21
641.947	8088.21
642.301	8087.3
642.654	8103.8
643.007	8114.19
643.36	8041.65
643.713	8128.2
644.066	8111.26
644.419	8073.74
644.771	8012.05
645.124	7936.12
645.477	7920.75
645.83	7969.79
646.182	7912.62
646.535	7869.91
646.888	7822.22
647.24	7749.46
647.593	7873.97
647.945	7888.89
648.298	7821.32
648.65	7837.59
649.002	7816.57
649.355	7828.55
649.707	7785.39
650.059	7899.74
650.411	7925.27
650.763	7893.86
651.115	8057.25
651.467	8031.48
651.819	7982.9
652.171	8031.94
652.523	7972.28
652.875	8016.79
653.227	7984.25
653.578	8024.48
653.93	8051.82
654.282	7961.66
654.633	7972.5
654.985	8017.92
655.337	8030.13
655.688	8015.89
656.039	8092.05
656.391	7993.29
656.742	8049.56
657.094	7958.72
657.445	7978.83
657.796	8030.13
658.147	8016.57
658.498	8018.38
658.849	8037.13
659.2	8049.11
659.551	8011.15
659.902	8068.09
660.253	8003.46
660.604	8117.81
660.955	8075.1
661.306	8010.47
661.656	8060.64
662.007	8057.7
662.358	8015.21
662.708	8078.49
663.059	8050.24
663.409	8082.56
663.76	8101.09
664.11	8066.06
664.461	8130.69
664.811	8078.94
665.161	8071.26
665.511	8069.9
665.862	8079.84
666.212	8063.8
666.562	8111.71
666.912	8122.33
667.262	8094.31
667.612	8174.08
667.962	8060.41
668.312	8121.42
668.662	8105.38
669.011	8109.45
669.361	8102.67
669.711	8076.91
670.06	8094.53
670.41	8025.38
670.76	8060.64
671.109	8109.22
671.459	8015.21
671.808	7985.38
672.157	8087.75
672.507	7997.59
672.856	8042.56
673.205	7981.09
673.554	8014.76
673.904	7985.16
674.253	8009.11
674.602	7933.86
674.951	7897.48
675.3	7842.11
675.649	7973.63
675.998	7976.34
676.346	7907.19
676.695	7955.33
677.044	7948.1
677.393	7943.35
677.741	7922.11
678.09	7925.72
678.438	7899.06
678.787	7915.55
679.135	7875.33
679.484	7821.55
679.832	7853.64
680.181	7779.29
680.529	7813.41
680.877	7788.33
681.225	7781.09
681.573	7837.14
681.922	7718.27
682.27	7781.55
682.618	7773.86
682.966	7711.72
683.314	7734.54
683.661	7663.36
684.009	7644.15
684.357	7635.79
684.705	7647.54
685.053	7688.89
685.4	7686.86
685.748	7571.61
686.095	7651.38
686.443	7481.67
686.79	7506.98
687.138	7497.49
687.485	7535.23
687.832	7521.89
688.18	7503.14
688.527	7429.69
688.874	7422.23
689.221	7449.13
689.568	7347.21
689.915	7399.64
690.262	7337.72
690.609	7395.34
690.956	7296.59
691.303	7299.07
691.65	7288.23
691.997	7249.81
692.344	7235.12
692.69	7145.63
693.037	7216.14
693.383	7149.25
693.73	7114.9
694.077	7098.17
694.423	7113.09
694.769	7047.78
695.116	7104.28
695.462	7036.71
695.808	6996.26
696.155	7071.73
696.501	6928.46
696.847	6911.29
697.193	6880.1
697.539	6944.96
697.885	6865.64
698.231	6821.35
698.577	6815.7
698.923	6860.22
699.269	6788.58
699.614	6690.73
699.96	6665.42
700.306	6651.86
700.651	6619.77
700.997	6652.54
701.342	6629.94
701.688	6595.14
702.033	6563.05
702.379	6581.35
702.724	6532.54
703.069	6478.98
703.415	6448.25
703.76	6459.55
704.105	6490.96
704.45	6466.78
704.795	6432.43
705.14	6354.01
705.485	6356.95
705.83	6323.05
706.175	6339.32
706.52	6296.84
706.865	6313.79
707.209	6252.32
707.554	6229.95
707.899	6211.19
708.243	6192.89
708.588	6218.88
708.932	6161.02
709.277	6129.39
709.621	6115.15
709.966	6111.31
710.31	6137.52
710.654	6073.57
710.998	6066.56
711.342	6054.36
711.687	6057.98
712.031	5996.28
712.375	6037.86
712.719	5991.31
713.063	5959.22
713.407	5972.78
713.75	5958.09
714.094	5939.79
714.438	5968.94
714.782	5916.51
715.125	5915.83
715.469	5928.94
715.812	5895.27
716.156	5862.73
716.499	5881.48
716.843	5888.49
717.186	5792.67
717.53	5867.92
717.873	5854.37
718.216	5839.9
718.559	5822.28
718.902	5792.45
719.246	5827.93
719.589	5786.8
719.932	5761.49
720.275	5796.29
720.617	5800.13
720.96	5776.63
721.303	5737.98
721.646	5787.02
721.989	5725.33
722.331	5735.95
722.674	5740.92
723.016	5737.08
723.359	5716.52
723.701	5712.22
724.044	5669.96
724.386	5665.44
724.729	5710.19
725.071	5663.64
725.413	5706.35
725.755	5685.56
726.097	5643.75
726.439	5693.01
726.782	5664.77
727.124	5667.93
727.465	5654.37
727.807	5677.65
728.149	5634.94
728.491	5631.32
728.833	5641.04
729.175	5655.95
729.516	5709.51
729.858	5621.83
730.199	5641.04
730.541	5653.24
730.882	5693.47
731.224	5678.33
731.565	5641.72
731.906	5620.25
732.248	5657.53
732.589	5626.12
732.93	5641.72
733.271	5649.85
733.612	5626.58
733.953	5670.19
734.294	5649.17
734.635	5662.96
734.976	5651.21
735.317	5663.86
735.658	5658.66
735.999	5694.37
736.339	5680.36
736.68	5700.47
737.021	5718.78
737.361	5638.55
737.702	5670.42
738.042	5656.63
738.383	5664.31
738.723	5705.9
739.063	5701.83
739.404	5712.9
739.744	5757.65
740.084	5724.43
740.424	5763.29
740.764	5730.98
741.104	5785.67
741.444	5753.58
741.784	5749.74
742.124	5811.66
742.464	5831.77
742.804	5823.41
743.143	5788.15
743.483	5836.51
743.823	5849.62
744.162	5864.08
744.502	5883.29
744.841	5948.6
745.181	5991.09
745.52	5976.17
745.86	6045.1
746.199	6090.97
746.538	6064.53
746.877	6145.66
747.216	6163.74
747.556	6186.11
747.895	6219.33
748.234	6270.63
748.573	6352.21
748.911	6382.49
749.25	6431.3
749.589	6483.73
749.928	6566.66
750.267	6596.95
750.605	6662.03
750.944	6730.5
751.283	6747.9
751.621	6846.88
751.96	6918.07
752.298	7034
752.636	7124.84
752.975	7187.89
753.313	7226.31
753.651	7363.48
753.989	7427.88
754.327	7496.13
754.666	7640.08
755.004	7776.12
755.342	7903.58
755.679	8047.08
756.017	8112.16
756.355	8369.1
756.693	8396.9
757.031	8484.35
757.368	8596.21
757.706	8785.59
758.044	8929.77
758.381	9151.68
758.719	9259.93
759.056	9384.22
759.394	9518.9
759.731	9692.46
760.068	9842.51
760.405	9944.65
760.743	10071.88
761.08	10272.33
761.417	10417.41
761.754	10595.94
762.091	10784.86
762.428	10924.29
762.765	11094.68
763.102	11284.51
763.438	11408.8
763.775	11550.49
764.112	11823.93
764.449	12002.23
764.785	12147.76
765.122	12224.82
765.458	12385.49
765.795	12544.81
766.131	12744.81
766.467	12888.53
766.804	13013.27
767.14	13076.32
767.476	13295.53
767.812	13427.5
768.148	13561.06
768.485	13658
768.821	13750.66
