Data from hue_150_FLMS001491_00057.txt Node
Date: Tue Feb 07 16:54:14 GMT 2017
User: dcchb
Spectrometer: FLMS00149
Trigger mode: 0
Integration Time (sec): 2.000000E-2
Scans to average: 10
Electric dark correction enabled: true
Nonlinearity correction enabled: false
Boxcar width: 0
XAxis mode: Wavelengths
Number of Pixels in Spectrum: 2048
>>>>>Begin Spectral Data<<<<<
341.393	-15.07
341.776	-15.07
342.16	-15.07
342.543	-65.46
342.927	-85.58
343.31	-83.09
343.693	-77.44
344.077	-57.33
344.46	-73.6
344.843	-56.43
345.226	-39.25
345.61	-25.24
345.993	-7.84
346.376	-10.32
346.759	5.04
347.142	32.16
347.525	49.79
347.908	66.74
348.291	68.32
348.674	88.66
349.057	119.84
349.44	129.11
349.823	132.72
350.206	158.48
350.588	189.9
350.971	206.39
351.354	217.47
351.737	234.19
352.119	247.97
352.502	278.71
352.884	292.04
353.267	271.02
353.65	294.3
354.032	281.65
354.414	299.95
354.797	312.83
355.179	336.78
355.562	325.71
355.944	355.77
356.326	320.29
356.709	316.45
357.091	338.59
357.473	334.75
357.855	340.17
358.238	320.29
358.62	332.94
359.002	333.85
359.384	327.29
359.766	324.81
360.148	334.53
360.53	332.72
360.912	344.69
361.294	345.82
361.676	324.58
362.057	328.88
362.439	334.07
362.821	324.13
363.203	297.92
363.584	330.46
363.966	316.45
364.348	318.71
364.729	346.05
365.111	298.14
365.493	325.03
365.874	320.06
366.256	298.14
366.637	286.39
367.019	315.99
367.4	299.72
367.781	308.99
368.163	325.49
368.544	320.74
368.925	311.93
369.306	341.3
369.688	298.37
370.069	297.46
370.45	297.46
370.831	296.11
371.212	306.96
371.593	306.73
371.974	297.01
372.355	340.4
372.736	305.6
373.117	306.73
373.498	316.67
373.879	298.37
374.26	319.38
374.641	320.06
375.021	319.84
375.402	310.57
375.783	323
376.163	316.45
376.544	306.96
376.925	311.7
377.305	328.42
377.686	318.71
378.066	327.97
378.447	322.77
378.827	306.5
379.208	315.54
379.588	320.97
379.968	313.06
380.349	335.43
380.729	326.39
381.109	350.57
381.489	318.03
381.87	343.34
382.25	337.24
382.63	339.5
383.01	341.08
383.39	324.36
383.77	339.72
384.15	322.55
384.53	343.79
384.91	340.4
385.29	342.21
385.67	347.41
386.049	356.22
386.429	346.28
386.809	353.73
387.189	366.16
387.568	341.53
387.948	359.84
388.328	352.38
388.707	359.84
389.087	350.8
389.466	352.15
389.846	364.58
390.225	364.13
390.605	352.83
390.984	355.99
391.363	339.5
391.743	347.86
392.122	374.98
392.501	367.97
392.881	381.53
393.26	360.97
393.639	359.61
394.018	370.23
394.397	373.85
394.776	356.67
395.155	387.41
395.534	394.64
395.913	386.28
396.292	381.76
396.671	377.69
397.05	401.19
397.429	388.31
397.808	369.55
398.186	386.28
398.565	401.64
398.944	394.41
399.323	397.35
399.701	382.66
400.08	399.16
400.458	392.38
400.837	375.65
401.215	410.68
401.594	375.2
401.972	415.2
402.351	413.17
402.729	436.9
403.107	424.24
403.486	415.88
403.864	425.37
404.242	406.61
404.62	407.52
404.999	420.17
405.377	433.51
405.755	418.82
406.133	413.17
406.511	396.9
406.889	420.17
407.267	452.49
407.645	420.17
408.023	431.7
408.401	439.61
408.779	424.92
409.156	436.9
409.534	431.47
409.912	421.3
410.29	448.65
410.667	467.63
411.045	450
411.422	454.75
411.8	455.65
412.178	451.81
412.555	471.92
412.933	473.5
413.31	458.59
413.687	482.09
414.065	475.09
414.442	483.9
414.819	472.37
415.197	490
415.574	490.45
415.951	477.57
416.328	496.1
416.705	464.92
417.082	498.81
417.46	464.92
417.837	494.07
418.214	516.22
418.591	493.62
418.967	509.44
419.344	520.96
419.721	537.23
420.098	517.35
420.475	514.41
420.852	514.41
421.228	527.29
421.605	540.17
421.982	534.07
422.358	541.3
422.735	526.61
423.111	544.01
423.488	534.29
423.864	544.92
424.241	566.61
424.617	544.92
424.994	552.6
425.37	548.3
425.746	560.96
426.123	578.81
426.499	559.38
426.875	562.54
427.251	592.6
427.627	571.58
428.003	596.44
428.379	580.62
428.756	630.34
429.132	613.61
429.507	621.98
429.883	616.1
430.259	626.27
430.635	618.81
431.011	622.43
431.387	642.77
431.763	644.8
432.138	638.47
432.514	640.05
432.89	672.37
433.265	659.04
433.641	675.53
434.016	666.49
434.392	677.57
434.767	688.64
435.143	680.5
435.518	688.64
435.894	694.29
436.269	709.66
436.644	727.96
437.02	703.78
437.395	706.94
437.77	720.73
438.145	726.61
438.52	748.98
438.895	757.11
439.271	756.66
439.646	775.42
440.021	770.9
440.395	748.75
440.77	781.52
441.145	787.39
441.52	765.93
441.895	779.03
442.27	791.46
442.645	798.24
443.019	809.54
443.394	819.03
443.769	813.83
444.143	796.21
444.518	832.82
444.892	832.59
445.267	838.92
445.641	835.75
446.016	819.94
446.39	839.14
446.764	824.91
447.139	859.94
447.513	872.14
447.887	863.1
448.262	883.44
448.636	868.52
449.01	862.65
449.384	872.14
449.758	906.71
450.132	896.54
450.506	921.63
450.88	937.67
451.254	937.22
451.628	924.79
452.002	917.33
452.376	960.27
452.75	963.89
453.123	985.13
453.497	975.19
453.871	934.96
454.244	994.85
454.618	1024.9
454.992	1022.42
455.365	1011.34
455.739	1046.37
456.112	1027.61
456.486	1077.1
456.859	1054.51
457.232	1063.55
457.606	1059.03
457.979	1080.95
458.352	1097.89
458.725	1118.46
459.099	1142.41
459.472	1156.2
459.845	1173.37
460.218	1195.52
460.591	1177.89
460.964	1191.68
461.337	1215.86
461.71	1220.83
462.083	1233.94
462.456	1234.16
462.829	1270.09
463.201	1289.75
463.574	1320.04
463.947	1321.39
464.32	1343.54
464.692	1364.78
465.065	1401.16
465.438	1334.5
465.81	1396.19
466.183	1402.29
466.555	1465.79
466.928	1472.35
467.3	1493.82
467.672	1488.39
468.045	1556.87
468.417	1546.92
468.789	1579.24
469.161	1602.06
469.534	1624.89
469.906	1666.92
470.278	1671.21
470.65	1721.38
471.022	1732.45
471.394	1793.7
471.766	1820.14
472.138	1825.79
472.51	1902.85
472.882	1942.62
473.253	1953.24
473.625	2020.81
473.997	2041.37
474.369	2103.74
474.74	2074.82
475.112	2134.03
475.484	2169.28
475.855	2282.5
476.227	2281.14
476.598	2350.52
476.97	2414.47
477.341	2486.78
477.713	2534.02
478.084	2579.89
478.455	2653.56
478.827	2712.09
479.198	2842.48
479.569	2845.19
479.94	2937.17
480.311	2990.95
480.682	3095.81
481.053	3240.66
481.424	3277.27
481.795	3389.36
482.166	3451.05
482.537	3535.34
482.908	3646.75
483.279	3699.86
483.65	3815.56
484.021	3942.34
484.391	4043.13
484.762	4133.75
485.133	4189.79
485.503	4360.18
485.874	4441.99
486.244	4541.87
486.615	4608.76
486.985	4793.16
487.356	4935.08
487.726	5020.5
488.097	5192.25
488.467	5269.76
488.837	5347.95
489.207	5492.13
489.578	5703.2
489.948	5807.6
490.318	5874.49
490.688	5984.09
491.058	6165.11
491.428	6285.78
491.798	6411.65
492.168	6595.6
492.538	6660.01
492.908	6776.39
493.278	6950.62
493.648	7008.02
494.017	7107.23
494.387	7266.77
494.757	7419.54
495.126	7540.66
495.496	7624.28
495.866	7728.68
496.235	7887.77
496.605	8013.65
496.974	8092.29
497.344	8256.8
497.713	8346.52
498.082	8479.85
498.452	8571.14
498.821	8588.55
499.19	8763.68
499.559	8862.66
499.928	8974.75
500.298	9100.62
500.667	9137.46
501.036	9248.19
501.405	9341.07
501.774	9412.25
502.143	9484.12
502.512	9517.33
502.88	9631.68
503.249	9765.24
503.618	9817.21
503.987	9884.1
504.356	9981.73
504.724	10028.51
505.093	10101.27
505.462	10175.4
505.83	10201.61
506.199	10423.53
506.567	10564.09
506.936	10418.1
507.304	10574.26
507.672	10664.65
508.041	10620.58
508.409	10793.69
508.777	10891.99
509.145	10971.08
509.514	10955.26
509.882	11037.52
510.25	11076.84
510.618	11081.81
510.986	11165.65
511.354	11246.78
511.722	11324.74
512.09	11368.13
512.458	11365.2
512.826	11448.58
513.193	11505.98
513.561	11546.21
513.929	11589.82
514.297	11735.81
514.664	11776.94
515.032	11669.37
515.4	11791.62
515.767	11854
516.135	11863.26
516.502	11750.95
516.869	11991.62
517.237	12043.82
517.604	11967.44
517.972	12147.1
518.339	12115.01
518.706	12180.09
519.073	12075.91
519.44	12173.76
519.808	12242.23
520.175	12238.39
520.542	12326.53
520.909	12293.53
521.276	12240.65
521.643	12399.97
522.009	12363.81
522.376	12517.48
522.743	12383.25
523.11	12456.24
523.477	12612.39
523.843	12606.52
524.21	12744.59
524.577	12737.81
524.943	12710.92
525.31	12801.77
525.676	12839.51
526.043	12813.74
526.409	12771.03
526.776	12940.07
527.142	12890.81
527.508	12851.26
527.874	12880.86
528.241	12913.4
528.607	12921.76
528.973	12966.74
529.339	12908.21
529.705	13052.61
530.071	13040.86
530.437	13119.5
530.803	13113.4
531.169	13044.93
531.535	12997.24
531.901	13026.17
532.267	12958.37
532.632	13063
532.998	12973.74
533.364	13027.75
533.73	12945.27
534.095	13041.31
534.461	12960.63
534.826	13009.22
535.192	12997.47
535.557	13017.81
535.923	12933.06
536.288	12971.48
536.653	12915.44
537.019	12896.91
537.384	12905.27
537.749	12917.47
538.114	12878.38
538.479	12767.42
538.845	12816.68
539.21	12662.79
539.575	12665.73
539.94	12706.63
540.305	12628.21
540.67	12637.7
541.034	12584.15
541.399	12656.69
541.764	12561.77
542.129	12565.39
542.494	12512.06
542.858	12477.26
543.223	12448.56
543.587	12446.07
543.952	12406.3
544.316	12398.16
544.681	12401.33
545.045	12327.88
545.41	12322.68
545.774	12330.82
546.138	12193.2
546.503	12171.5
546.867	12141.22
547.231	12199.98
547.595	12180.54
547.959	12107.55
548.324	12023.94
548.688	12039.53
549.052	11978.96
549.416	12127.66
549.779	11966.31
550.143	11930.83
550.507	11944.62
550.871	11902.58
551.235	11858.52
551.599	11902.58
551.962	11867.78
552.326	11801.57
552.689	11837.05
553.053	11703.49
553.417	11703.27
553.78	11774.68
554.143	11698.29
554.507	11706.2
554.87	11726.09
555.234	11741.68
555.597	11643.61
555.96	11548.02
556.323	11608.13
556.686	11565.87
557.05	11588.24
557.413	11534.91
557.776	11513.44
558.139	11633.44
558.502	11582.59
558.865	11570.39
559.228	11544.63
559.59	11577.17
559.953	11524.29
560.316	11674.34
560.679	11545.98
561.041	11622.59
561.404	11571.97
561.767	11641.35
562.129	11525.87
562.492	11634.79
562.854	11557.51
563.217	11586.66
563.579	11620.33
563.941	11596.6
564.304	11668.24
564.666	11597.05
565.028	11632.76
565.39	11582.14
565.753	11635.47
566.115	11612.42
566.477	11584.17
566.839	11691.51
567.201	11710.27
567.563	11724.96
567.925	11761.12
568.287	11823.04
568.648	11829.36
569.01	11786.65
569.372	11842.25
569.734	11715.92
570.095	11791.85
570.457	11801.79
570.819	11816.03
571.18	11801.57
571.542	11880.44
571.903	11840.89
572.265	11945.29
572.626	11923.6
572.987	11921.11
573.349	11962.02
573.71	11875.46
574.071	11980.77
574.432	11886.09
574.794	12047.21
575.155	12014.9
575.516	12013.99
575.877	12031.39
576.238	11970.6
576.599	11964.95
576.96	11950.26
577.32	11929.47
577.681	12054.44
578.042	11928.12
578.403	12056.93
578.763	12004.5
579.124	11876.14
579.485	12037.72
579.845	12020.55
580.206	11950.04
580.566	11985.07
580.927	11916.37
581.287	11951.85
581.648	11952.52
582.008	11968.12
582.368	11917.05
582.728	11998.4
583.089	12006.76
583.449	11953.2
583.809	11897.16
584.169	12017.38
584.529	11970.6
584.889	12030.26
585.249	11967.21
585.609	11850.61
585.969	11973.09
586.329	11959.08
586.688	11909.59
587.048	11831.62
587.408	11797.95
587.768	11845.41
588.127	11858.97
588.487	11874.33
588.846	11920.44
589.206	11816.71
589.565	11804.05
589.925	11863.94
590.284	11826.65
590.643	11788.91
591.003	11812.87
591.362	11908.91
591.721	11883.6
592.08	11830.95
592.44	11803.83
592.799	11790.27
593.158	11797.27
593.517	11778.97
593.876	11763.6
594.235	11785.07
594.593	11709.82
594.952	11762.47
595.311	11796.6
595.67	11766.09
596.029	11835.47
596.387	11725.86
596.746	11827.56
597.104	11765.41
597.463	11693.1
597.822	11756.6
598.18	11726.77
598.538	11731.97
598.897	11771.06
599.255	11664.85
599.613	11820.1
599.972	11739.42
600.33	11758.63
600.688	11772.19
601.046	11729.71
601.404	11787.78
601.762	11757.95
602.12	11791.4
602.478	11800.44
602.836	11798.86
603.194	11691.29
603.552	11766.31
603.91	11663.72
604.268	11783.94
604.625	11678.86
604.983	11786.43
605.341	11672.76
605.698	11716.82
606.056	11737.84
606.413	11758.41
606.771	11827.56
607.128	11759.76
607.485	11764.73
607.843	11799.08
608.2	11761.8
608.557	11776.48
608.914	11740.1
609.272	11767.22
609.629	11795.69
609.986	11938.06
610.343	11777.84
610.7	11908.23
611.057	11874.33
611.414	11885.63
611.771	11891.28
612.127	11969.02
612.484	11914.56
612.841	11929.02
613.198	11924.28
613.554	11859.19
613.911	11966.99
614.267	11879.76
614.624	11889.02
614.98	11993.2
615.337	11966.76
615.693	11939.64
616.05	11973.32
616.406	11988
616.762	11961.11
617.118	11957.27
617.475	12070.04
617.831	11994.33
618.187	12014.44
618.543	12006.99
618.899	12015.57
619.255	12018.51
619.611	12012.64
619.967	12114.78
620.323	12136.25
620.678	11999.98
621.034	11954.56
621.39	12043.82
621.746	12002.92
622.101	12149.58
622.457	12033.65
622.812	12049.92
623.168	12145.51
623.523	12124.95
623.879	12176.47
624.234	11972.19
624.589	12075.46
624.945	12121.56
625.3	12183.48
625.655	12033.88
626.01	12058.74
626.365	12125.18
626.72	12064.39
627.075	12100.54
627.43	12083.59
627.785	12065.52
628.14	12009.02
628.495	12046.76
628.85	12001.34
629.205	12018.51
629.559	12055.12
629.914	12055.57
630.269	12002.24
630.623	11988
630.978	11934.67
631.332	12058.06
631.687	12077.95
632.041	11978.74
632.396	11930.83
632.75	11916.82
633.104	11940.77
633.459	11866.43
633.813	11984.84
634.167	11891.28
634.521	11905.07
634.875	11929.47
635.229	11903.94
635.583	11880.66
635.937	11843.6
636.291	11913.2
636.645	11689.25
636.999	11774.22
637.352	11782.59
637.706	11699.2
638.06	11766.54
638.413	11739.65
638.767	11657.84
639.121	11715.69
639.474	11671.63
639.828	11652.42
640.181	11618.97
640.534	11724.73
640.888	11537.85
641.241	11604.96
641.594	11540.78
641.947	11594.57
642.301	11557.96
642.654	11599.99
643.007	11537.85
643.36	11575.81
643.713	11608.8
644.066	11571.97
644.419	11507.34
644.771	11399.32
645.124	11322.71
645.477	11353.9
645.83	11265.76
646.182	11223.28
646.535	11227.57
646.888	11261.92
647.24	11135.82
647.593	11194.8
647.945	11164.97
648.298	11132.21
648.65	11111.87
649.002	11100.8
649.355	11183.05
649.707	11146.67
650.059	11223.28
650.411	11292.88
650.763	11280.45
651.115	11428.24
651.467	11303.05
651.819	11390.73
652.171	11358.19
652.523	11426.89
652.875	11360
653.227	11379.43
653.578	11463.5
653.93	11437.96
654.282	11237.52
654.633	11345.08
654.985	11334.24
655.337	11366.33
655.688	11457.62
656.039	11476.38
656.391	11305.31
656.742	11382.82
657.094	11375.82
657.445	11405.42
657.796	11394.57
658.147	11347.57
658.498	11342.6
658.849	11433.67
659.2	11386.21
659.551	11396.38
659.902	11361.58
660.253	11392.31
660.604	11423.05
660.955	11368.81
661.306	11414.01
661.656	11432.76
662.007	11433.44
662.358	11403.16
662.708	11336.5
663.059	11494.46
663.409	11361.58
663.76	11445.87
664.11	11401.35
664.461	11463.05
664.811	11417.85
665.161	11434.57
665.511	11438.87
665.862	11411.52
666.212	11440.67
666.562	11501.92
666.912	11408.36
667.262	11479.99
667.612	11444.06
667.962	11444.52
668.312	11429.83
668.662	11531.07
669.011	11398.64
669.361	11394.8
669.711	11375.59
670.06	11367.91
670.41	11406.78
670.76	11358.87
671.109	11456.49
671.459	11395.48
671.808	11363.39
672.157	11405.65
672.507	11366.55
672.856	11358.64
673.205	11341.02
673.554	11368.81
673.904	11254.24
674.253	11334.24
674.602	11317.29
674.951	11176.73
675.3	11038.42
675.649	11257.18
675.998	11247.23
676.346	11257.4
676.695	11294.91
677.044	11173.79
677.393	11201.13
677.741	11203.84
678.09	11164.75
678.438	11202.49
678.787	11227.8
679.135	11216.95
679.484	11111.64
679.832	11150.74
680.181	11087.24
680.529	11074.81
680.877	11072.77
681.225	11066.45
681.573	11141.02
681.922	11005.88
682.27	10973.34
682.618	10970.86
682.966	10961.82
683.314	10955.26
683.661	10934.02
684.009	10817.19
684.357	10842.5
684.705	10870.07
685.053	10817.64
685.4	10842.05
685.748	10767.25
686.095	10736.96
686.443	10675.04
686.79	10693.35
687.138	10728.38
687.485	10687.93
687.832	10654.25
688.18	10708.26
688.527	10552.34
688.874	10608.61
689.221	10595.27
689.568	10527.25
689.915	10489.74
690.262	10473.24
690.609	10444.32
690.956	10439.57
691.303	10460.59
691.65	10345.56
691.997	10326.35
692.344	10321.38
692.69	10290.87
693.037	10366.35
693.383	10185.79
693.73	10234.6
694.077	10147.83
694.423	10105.34
694.769	10070.77
695.116	10028.96
695.462	9993.71
695.808	10003.2
696.155	10002.07
696.501	9915.29
696.847	9949.19
697.193	9843.2
697.539	9867.83
697.885	9858.34
698.231	9736.54
698.577	9762.98
698.923	9656.31
699.269	9654.28
699.614	9620.83
699.96	9615.64
700.306	9537.45
700.651	9520.95
700.997	9468.75
701.342	9470.78
701.688	9434.17
702.033	9389.2
702.379	9418.81
702.724	9339.49
703.069	9352.14
703.415	9250.67
703.76	9299.04
704.105	9259.26
704.45	9186.04
704.795	9154.86
705.14	9198.02
705.485	9135.2
705.83	9046.61
706.175	9103.11
706.52	9059.27
706.865	9003.22
707.209	8987.63
707.554	8954.86
707.899	8898.59
708.243	8897.46
708.588	8847.75
708.932	8809.1
709.277	8837.35
709.621	8838.71
709.966	8718.94
710.31	8769.78
710.654	8624.93
710.998	8682.78
711.342	8687.53
711.687	8672.61
712.031	8584.7
712.375	8588.77
712.719	8645.94
713.063	8625.61
713.407	8564.14
713.75	8548.55
714.094	8510.58
714.438	8566.17
714.782	8509.45
715.125	8408.89
715.469	8509.9
715.812	8448.44
716.156	8390.81
716.499	8347.87
716.843	8403.01
717.186	8313.07
717.53	8355.78
717.873	8324.15
718.216	8335.22
718.559	8283.69
718.902	8310.81
719.246	8250.02
719.589	8274.2
719.932	8257.71
720.275	8307.2
720.617	8226.07
720.96	8187.2
721.303	8193.53
721.646	8224.26
721.989	8205.73
722.331	8256.8
722.674	8213.64
723.016	8272.62
723.359	8193.3
723.701	8224.94
724.044	8145.17
724.386	8153.75
724.729	8187.88
725.071	8085.96
725.413	8159.63
725.755	8146.3
726.097	8147.88
726.439	8070.59
726.782	8123.02
727.124	8131.83
727.465	8127.99
727.807	8084.15
728.149	8097.26
728.491	8101.1
728.833	8034.89
729.175	8012.97
729.516	8029.24
729.858	8031.5
730.199	8121.21
730.541	8067.2
730.882	8031.27
731.224	8120.99
731.565	8068.56
731.906	8032.18
732.248	7959.18
732.589	8009.35
732.93	7964.15
733.271	7981.33
733.612	7988.11
733.953	8037.37
734.294	7953.53
734.635	7942.69
734.976	7971.84
735.317	7984.04
735.658	7971.16
735.999	7988.34
736.339	8015.68
736.68	8005.51
737.021	8029.69
737.361	7976.13
737.702	8049.35
738.042	8010.71
738.383	8007.32
738.723	8037.6
739.063	8028.79
739.404	8066.3
739.744	8073.08
740.084	8088.9
740.424	8118.05
740.764	8041.44
741.104	8115.56
741.444	8093.87
741.784	8119.41
742.124	8146.98
742.464	8149.91
742.804	8160.08
743.143	8116.02
743.483	8183.58
743.823	8238.05
744.162	8242.11
744.502	8243.24
744.841	8249.12
745.181	8327.08
745.52	8382.68
745.86	8383.13
746.199	8412.96
746.538	8381.77
746.877	8479.17
747.216	8532.95
747.556	8585.61
747.895	8590.35
748.234	8604.14
748.573	8669.22
748.911	8707.41
749.25	8753.96
749.589	8760.74
749.928	8886.16
750.267	9024.47
750.605	9038.25
750.944	9047.29
751.283	9079.38
751.621	9169.1
751.96	9274.85
752.298	9330.67
752.636	9459.71
752.975	9536.77
753.313	9564.34
753.651	9752.13
753.989	9757.1
754.327	9890.66
754.666	10023.08
755.004	10049.98
755.342	10161.61
755.679	10319.57
756.017	10408.38
756.355	10651.09
756.693	10588.49
757.031	10832.55
757.368	10920.69
757.706	11067.12
758.044	11107.12
758.381	11372.65
758.719	11438.19
759.056	11661.91
759.394	11824.17
759.731	11924.28
