Data from hue_340_FLMS001491_57.txt Node
Date: Mon Feb 06 15:43:18 GMT 2017
User: dcchb
Spectrometer: FLMS00149
Trigger mode: 0
Integration Time (sec): 2.000000E-2
Scans to average: 10
Electric dark correction enabled: true
Nonlinearity correction enabled: false
Boxcar width: 0
XAxis mode: Wavelengths
Number of Pixels in Spectrum: 2048
>>>>>Begin Spectral Data<<<<<
341.393	-10.54
341.776	-10.54
342.16	-10.54
342.543	-65.45
342.927	-95.51
343.31	-81.72
343.693	-69.52
344.077	-71.1
344.46	-54.15
344.843	-62.51
345.226	-51.89
345.61	-38.78
345.993	-36.07
346.376	15.45
346.759	20.42
347.142	20.65
347.525	57.48
347.908	66.3
348.291	80.99
348.674	82.34
349.057	122.12
349.44	133.41
349.823	152.4
350.206	151.27
350.588	157.37
350.971	214.99
351.354	225.84
351.737	243.02
352.119	248.21
352.502	273.52
352.884	269
353.267	275.11
353.65	297.7
354.032	284.82
354.414	279.63
354.797	296.57
355.179	309.68
355.562	325.73
355.944	325.95
356.326	323.92
356.709	332.51
357.091	340.41
357.473	340.19
357.855	334.54
358.238	335.44
358.62	334.31
359.002	311.94
359.384	313.97
359.766	321.88
360.148	318.95
360.53	320.75
360.912	327.99
361.294	318.49
361.676	339.74
362.057	328.44
362.439	322.79
362.821	318.27
363.203	303.13
363.584	316.01
363.966	297.03
364.348	312.84
364.729	334.31
365.111	325.05
365.493	320.53
365.874	317.36
366.256	326.18
366.637	321.43
367.019	292.05
367.4	322.34
367.781	321.66
368.163	295.9
368.544	320.75
368.925	298.83
369.306	315.33
369.688	289.79
370.069	321.43
370.45	290.7
370.831	300.87
371.212	297.25
371.593	291.6
371.974	315.56
372.355	301.09
372.736	319.85
373.117	324.82
373.498	320.08
373.879	318.72
374.26	307.65
374.641	313.07
375.021	314.65
375.402	313.3
375.783	330.7
376.163	319.4
376.544	316.69
376.925	304.94
377.305	300.87
377.686	329.57
378.066	312.62
378.447	308.78
378.827	322.11
379.208	316.23
379.588	312.62
379.968	342.67
380.349	341.09
380.729	333.86
381.109	331.15
381.489	325.27
381.87	307.87
382.25	319.4
382.63	337.7
383.01	316.69
383.39	339.96
383.77	336.12
384.15	338.15
384.53	318.95
384.91	343.8
385.29	343.58
385.67	337.7
386.049	333.86
386.429	341.32
386.809	331.6
387.189	343.8
387.568	346.74
387.948	338.83
388.328	339.28
388.707	311.94
389.087	356.23
389.466	366.4
389.846	350.81
390.225	339.74
390.605	341.77
390.984	344.71
391.363	351.49
391.743	369.11
392.122	349.68
392.501	359.62
392.881	375.44
393.26	380.64
393.639	359.4
394.018	360.98
394.397	366.63
394.776	382.9
395.155	362.34
395.534	366.18
395.913	377.48
396.292	363.01
396.671	379.74
397.05	366.63
397.429	360.98
397.808	352.17
398.186	366.18
398.565	385.84
398.944	379.51
399.323	373.18
399.701	385.61
400.08	375.44
400.458	381.09
400.837	372.5
401.215	367.08
401.594	371.83
401.972	385.84
402.351	410.02
402.729	382
403.107	402.79
403.486	405.05
403.864	404.14
404.242	414.54
404.62	419.28
404.999	381.09
405.377	412.73
405.755	412.5
406.133	418.6
406.511	426.29
406.889	426.74
407.267	421.09
407.645	421.09
408.023	438.27
408.401	429
408.779	417.93
409.156	445.27
409.534	439.62
409.912	414.76
410.29	448.21
410.667	430.36
411.045	441.88
411.422	448.21
411.8	477.81
412.178	463.35
412.555	479.62
412.933	451.82
413.31	483.69
413.687	502.22
414.065	478.72
414.442	486.4
414.819	485.95
415.197	491.15
415.574	500.18
415.951	492.05
416.328	499.73
416.705	511.94
417.082	517.59
417.46	507.87
417.837	516.46
418.214	521.2
418.591	516.46
418.967	541.31
419.344	545.61
419.721	550.13
420.098	556
420.475	554.42
420.852	560.3
421.228	555.78
421.605	557.81
421.982	556.45
422.358	587.41
422.735	568.21
423.111	564.14
423.488	563.91
423.864	585.15
424.241	597.81
424.617	610.24
424.994	601.65
425.37	595.1
425.746	631.03
426.123	616.11
426.499	616.11
426.875	620.18
427.251	651.82
427.627	630.58
428.003	630.8
428.379	624.48
428.756	663.34
429.132	642.1
429.507	651.59
429.883	655.21
430.259	686.85
430.635	689.33
431.011	668.54
431.387	698.82
431.763	706.96
432.138	714.87
432.514	718.48
432.89	708.54
433.265	717.13
433.641	736.34
434.016	725.49
434.392	768.43
434.767	755.55
435.143	737.69
435.518	745.38
435.894	761.19
436.269	767.3
436.644	774.98
437.02	804.36
437.395	810.46
437.77	801.87
438.145	795.54
438.52	806.84
438.895	820.18
439.271	812.94
439.646	835.09
440.021	837.58
440.395	821.53
440.77	835.09
441.145	825.6
441.52	876.9
441.895	860.85
442.27	848.2
442.645	872.15
443.019	882.55
443.394	858.82
443.769	882.32
444.143	883
444.518	899.27
444.892	901.98
445.267	892.04
445.641	896.11
446.016	894.75
446.39	912.38
446.764	892.72
447.139	911.47
447.513	897.46
447.887	924.58
448.262	939.04
448.636	925.71
449.01	937.91
449.384	910.57
449.758	936.78
450.132	950.57
450.506	958.25
450.88	930.46
451.254	948.76
451.628	987.4
452.002	963.9
452.376	984.47
452.75	993.28
453.123	988.76
453.497	1003
453.871	1032.37
454.244	1025.14
454.618	1018.82
454.992	1024.46
455.365	1053.16
455.739	1059.49
456.112	1066.05
456.486	1085.71
456.859	1050.23
457.232	1077.8
457.606	1054.07
457.979	1088.64
458.352	1125.93
458.725	1116.67
459.099	1149.43
459.472	1120.96
459.845	1127.96
460.218	1164.8
460.591	1160.28
460.964	1181.97
461.337	1176.55
461.71	1204.57
462.083	1195.76
462.456	1211.13
462.829	1224.91
463.201	1182.2
463.574	1222.2
463.947	1243.44
464.32	1298.13
464.692	1243.44
465.065	1290.67
465.438	1335.64
465.81	1290.9
466.183	1320.28
466.555	1339.94
466.928	1338.13
467.3	1360.27
467.672	1376.32
468.045	1402.99
468.417	1395.3
468.789	1396.66
469.161	1415.87
469.534	1431.01
469.906	1478.01
470.278	1471.01
470.65	1491.8
471.022	1485.7
471.394	1498.8
471.766	1513.04
472.138	1556.2
472.51	1568.18
472.882	1583.77
473.253	1625.58
473.625	1619.48
473.997	1677.33
474.369	1678.01
474.74	1661.28
475.112	1698.35
475.484	1706.03
475.855	1753.03
476.227	1771.56
476.598	1805.46
476.97	1801.62
477.341	1829.42
477.713	1865.35
478.084	1893.82
478.455	1915.97
478.827	1947.38
479.198	1952.58
479.569	1993.93
479.94	2023.08
480.311	2061.05
480.682	2069.86
481.053	2094.72
481.424	2141.27
481.795	2155.28
482.166	2192.12
482.537	2212.91
482.908	2289.52
483.279	2309.4
483.65	2338.55
484.021	2368.38
484.391	2365.22
484.762	2420.81
485.133	2422.85
485.503	2490.41
485.874	2525.89
486.244	2518.89
486.615	2603.18
486.985	2613.58
487.356	2628.26
487.726	2685.44
488.097	2697.19
488.467	2751.65
488.837	2782.38
489.207	2811.54
489.578	2845.89
489.948	2847.02
490.318	2859.44
490.688	2908.26
491.058	2954.13
491.428	2996.84
491.798	2996.62
492.168	3047.46
492.538	3080.46
492.908	3115.94
493.278	3165.88
493.648	3155.26
494.017	3193.9
494.387	3193.45
494.757	3271.64
495.126	3263.73
495.496	3265.99
495.866	3343.27
496.235	3361.8
496.605	3388.02
496.974	3399.09
497.344	3436.38
497.713	3400
498.082	3439.09
498.452	3506.43
498.821	3484.74
499.19	3497.39
499.559	3526.77
499.928	3545.08
500.298	3577.17
500.667	3570.16
501.036	3606.32
501.405	3593.21
501.774	3646.32
502.143	3663.04
502.512	3691.29
502.88	3688.35
503.249	3689.25
503.618	3737.61
503.987	3739.87
504.356	3772.19
504.724	3784.84
505.093	3801.34
505.462	3792.08
505.83	3851.06
506.199	3893.99
506.567	3932.18
506.936	3876.37
507.304	3907.78
507.672	3916.82
508.041	3943.26
508.409	3962.69
508.777	3981.45
509.145	4032.3
509.514	3969.02
509.882	4022.35
510.25	4064.84
510.618	4053.76
510.986	4063.71
511.354	4052.86
511.722	4078.85
512.09	4206.98
512.458	4092.86
512.826	4209.47
513.193	4191.16
513.561	4199.3
513.929	4211.27
514.297	4216.92
514.664	4239.52
515.032	4246.75
515.4	4268.67
515.767	4304.6
516.135	4281.55
516.502	4256.92
516.869	4309.58
517.237	4310.93
517.604	4347.54
517.972	4314.77
518.339	4370.14
518.706	4385.28
519.073	4389.8
519.44	4413.3
519.808	4461.21
520.175	4396.81
520.542	4452.62
520.909	4517.93
521.276	4443.36
521.643	4524.94
522.009	4501.21
522.376	4562.22
522.743	4567.2
523.11	4552.96
523.477	4619.85
523.843	4597.03
524.21	4659.85
524.577	4740.75
524.943	4735.33
525.31	4716.8
525.676	4796.57
526.043	4756.8
526.409	4855.1
526.776	4845.38
527.142	4870.01
527.508	4890.13
527.874	4950.46
528.241	4916.79
528.607	4924.25
528.973	4983.68
529.339	4981.2
529.705	5029.56
530.071	5059.39
530.437	5041.76
530.803	5085.83
531.169	5085.37
531.535	5139.61
531.901	5148.42
532.267	5171.25
532.632	5218.7
532.998	5212.15
533.364	5220.74
533.73	5248.08
534.095	5299.61
534.461	5304.35
534.826	5351.36
535.192	5374.18
535.557	5385.03
535.923	5385.93
536.288	5432.94
536.653	5420.73
537.019	5426.16
537.384	5484.46
537.749	5481.52
538.114	5495.76
538.479	5485.59
538.845	5563.1
539.21	5518.36
539.575	5543.22
539.94	5615.08
540.305	5652.37
540.67	5643.78
541.034	5658.69
541.399	5705.02
541.764	5694.4
542.129	5745.7
542.494	5720.16
542.858	5799.48
543.223	5787.96
543.587	5804.9
543.952	5842.87
544.316	5895.52
544.681	5861.63
545.045	5895.07
545.41	5989.08
545.774	5957.67
546.138	5961.06
546.503	5974.84
546.867	6004.22
547.231	6093.48
547.595	6076.08
547.959	6109.3
548.324	6155.63
548.688	6129.87
549.052	6147.95
549.416	6218.9
549.779	6175.29
550.143	6199.47
550.507	6224.78
550.871	6293.93
551.235	6317.88
551.599	6298.45
551.962	6295.51
552.326	6356.08
552.689	6379.35
553.053	6306.59
553.417	6370.54
553.78	6468.39
554.143	6446.02
554.507	6461.16
554.87	6515.17
555.234	6509.74
555.597	6511.55
555.96	6535.73
556.323	6575.96
556.686	6571.21
557.05	6644.66
557.413	6649.4
557.776	6636.52
558.139	6726.24
558.502	6683.75
558.865	6682.17
559.228	6747.93
559.59	6753.81
559.953	6740.92
560.316	6770.75
560.679	6806.69
561.041	6826.35
561.404	6874.93
561.767	6917.42
562.129	6897.3
562.492	6937.08
562.854	6928.94
563.217	6956.29
563.579	6976.4
563.941	7015.27
564.304	7014.82
564.666	7080.58
565.028	7071.99
565.39	7071.31
565.753	7153.57
566.115	7133.68
566.477	7175.49
566.839	7201.25
567.201	7279.89
567.563	7235.6
567.925	7358.08
568.287	7318.99
568.648	7332.77
569.01	7385.65
569.372	7413
569.734	7436.27
570.095	7457.97
570.457	7501.58
570.819	7531.41
571.18	7603.73
571.542	7631.52
571.903	7636.95
572.265	7716.72
572.626	7781.35
572.987	7781.8
573.349	7822.7
573.71	7872.19
574.071	7913.77
574.432	7938.18
574.794	8046.65
575.155	8064.28
575.516	8058.63
575.877	8111.51
576.238	8144.73
576.599	8242.13
576.96	8238.96
577.32	8307.66
577.681	8429.24
578.042	8512.4
578.403	8569.35
578.763	8650.03
579.124	8713.3
579.485	8849.34
579.845	8867.87
580.206	9081.88
580.566	9082.11
580.927	9159.39
581.287	9347.86
581.648	9459.72
582.008	9572.71
582.368	9733.84
582.728	9849.77
583.089	9928.86
583.449	10131.57
583.809	10348.97
584.169	10403.88
584.529	10582.41
584.889	10792.12
585.249	10842.06
585.609	11083.18
585.969	11258.09
586.329	11430.29
586.688	11642.04
587.048	11931.75
587.408	11964.74
587.768	12195.02
588.127	12545.07
588.487	12630.26
588.846	13063.7
589.206	13228.44
589.565	13370.35
589.925	13572.38
590.284	13860.06
590.643	14115.42
591.003	14414.62
591.362	14685.8
591.721	14882.18
592.08	15146.81
592.44	15351.32
592.799	15729.61
593.158	15942.94
593.517	16196.72
593.876	16533.89
594.235	16624.96
594.593	17006.42
594.952	17306.52
595.311	17502.68
595.67	17749.9
596.029	18083.68
596.387	18431.01
596.746	18760.72
597.104	18934.28
597.463	19162.29
597.822	19455.62
598.18	19731.32
598.538	19992.1
598.897	20394.35
599.255	20511.18
599.613	21135.57
599.972	21123.15
600.33	21583.02
600.688	21668.67
601.046	22022.78
601.404	22258.26
601.762	22648.3
602.12	22924.68
602.478	23155.86
602.836	23409.41
603.194	23549.75
603.552	23907.7
603.91	24010.53
604.268	24432.44
604.625	24581.36
604.983	24963.95
605.341	25039.88
605.698	25405.29
606.056	25609.58
606.413	25911.27
606.771	26031.49
607.128	26289.34
607.485	26402.1
607.843	26686.61
608.2	26952.82
608.557	27297.22
608.914	27388.07
609.272	27750.32
609.629	28069.63
609.986	28137.42
610.343	28176.97
610.7	28681.82
611.057	28858.53
611.414	28888.14
611.771	29144.18
612.127	29409.48
612.484	29500.1
612.841	29717.5
613.198	29812.18
613.554	29939.64
613.911	30270.25
614.267	30421.88
614.624	30496.68
614.98	30628.43
615.337	31012.15
615.693	30925.6
616.05	31078.14
616.406	31528.52
616.762	31436.09
617.118	31608.07
617.475	31673.83
617.831	31967.61
618.187	32029.07
618.543	32161.72
618.899	32460.02
619.255	32551.77
619.611	32632
619.967	32876.51
620.323	32961.03
620.678	32997.86
621.034	32972.33
621.39	33145.2
621.746	33119.21
622.101	33778.18
622.457	33565.53
622.812	33712.87
623.168	33831.51
623.523	33842.81
623.879	34009.13
624.234	33902.24
624.589	34144.95
624.945	34088.91
625.3	34175.68
625.655	34264.49
626.01	34361.89
626.365	34480.31
626.72	34567.09
627.075	34523.7
627.43	34631.72
627.785	34641.21
628.14	34603.69
628.495	34824.25
628.85	34787.42
629.205	34776.35
629.559	35017.7
629.914	34913.07
630.269	35092.5
630.623	34901.09
630.978	34888.66
631.332	35151.93
631.687	35111.25
632.041	35091.82
632.396	35305.15
632.75	35167.75
633.104	35269.21
633.459	35080.52
633.813	35178.37
634.167	35292.72
634.521	35165.94
634.875	35371.81
635.229	35205.49
635.583	35050.46
635.937	35148.54
636.291	35126.39
636.645	35335.88
636.999	35104.25
637.352	35288.2
637.706	35059.95
638.06	35472.37
638.413	35079.39
638.767	35189.67
639.121	35266.73
639.474	35007.98
639.828	35085.04
640.181	35190.57
640.534	35185.15
640.888	35138.82
641.241	35093.85
641.594	34967.07
641.947	35155.77
642.301	35080.29
642.654	35127.75
643.007	35166.17
643.36	35004.59
643.713	35117.81
644.066	35184.24
644.419	34982.89
644.771	34744.93
645.124	34502.68
645.477	34315.79
645.83	34233.99
646.182	34107.21
646.535	34044.84
646.888	34148.34
647.24	34021.34
647.593	34021.11
647.945	34014.33
648.298	33872.19
648.65	33876.71
649.002	33851.85
649.355	34030.15
649.707	33872.87
650.059	34152.41
650.411	34415.68
650.763	34599.85
651.115	34905.61
651.467	34663.13
651.819	34745.39
652.171	34786.51
652.523	34608.89
652.875	34670.36
653.227	34459.29
653.578	34715.33
653.93	34661.32
654.282	34608.67
654.633	34519.63
654.985	34590.36
655.337	34698.61
655.688	34513.3
656.039	34591.27
656.391	34325.74
656.742	34429.24
657.094	34477.14
657.445	34618.16
657.796	34509.01
658.147	34466.98
658.498	34478.95
658.849	34581.1
659.2	34427.88
659.551	34400.08
659.902	34497.48
660.253	34370.71
660.604	34347.2
660.955	34280.77
661.306	34460.42
661.656	34356.7
662.007	34277.83
662.358	34366.19
662.708	34269.47
663.059	34175.01
663.409	34034.9
663.76	34382.91
664.11	34269.92
664.461	34421.33
664.811	34245.29
665.161	34267.21
665.511	34233.53
665.862	34198.28
666.212	34435.34
666.562	34370.48
666.912	34254.78
667.262	34319.86
667.612	34255.91
667.962	34269.24
668.312	34231.5
668.662	34404.38
669.011	34322.57
669.361	34189.02
669.711	34187.43
670.06	34106.53
670.41	34203.03
670.76	34099.3
671.109	34234.66
671.459	34152.41
671.808	34077.83
672.157	34151.05
672.507	34069.92
672.856	34008.68
673.205	34017.5
673.554	34125.29
673.904	33952.64
674.253	34135.68
674.602	33958.97
674.951	33586.32
675.3	33474.68
675.649	33929.14
675.998	33944.73
676.346	33985.86
676.695	33991.51
677.044	33774.56
677.393	33850.95
677.741	33873.54
678.09	33775.47
678.438	33711.74
678.787	33851.17
679.135	33850.04
679.484	33642.36
679.832	33637.17
680.181	33527.11
680.529	33654.79
680.877	33603.49
681.225	33409.15
681.573	33558.52
681.922	33515.81
682.27	33408.47
682.618	33441.69
682.966	33297.97
683.314	33282.37
683.661	33322.6
684.009	33075.37
684.357	32950.63
684.705	33058.88
685.053	33126.67
685.4	33056.84
685.748	32853.46
686.095	32723.74
686.443	32756.96
686.79	32541.15
687.138	32746.12
687.485	32776.85
687.832	32535.95
688.18	32637.64
688.527	32438.33
688.874	32617.08
689.221	32340.48
689.568	32320.14
689.915	32252.57
690.262	32328.05
690.609	32218.9
690.956	31981.62
691.303	32038.79
691.65	31842.64
691.997	31878.12
692.344	31639.25
692.69	31571.91
693.037	31733.49
693.383	31509.99
693.73	31540.72
694.077	31282.65
694.423	31383.67
694.769	31270
695.116	31150.45
695.462	31103.67
695.808	31151.36
696.155	31063.22
696.501	30790.01
696.847	30808.54
697.193	30625.49
697.539	30682.44
697.885	30525.61
698.231	30389.34
698.577	30604.25
698.923	30332.39
699.269	30363.35
699.614	30194.09
699.96	30119.07
700.306	30093.3
700.651	30058.5
700.997	29941.44
701.342	29842.46
701.688	29831.84
702.033	29764.5
702.379	29748.91
702.724	29587.33
703.069	29725.18
703.415	29361.8
703.76	29356.15
704.105	29236.83
704.45	29212.2
704.795	29121.8
705.14	28920.91
705.485	28877.52
705.83	28854.24
706.175	28946.22
706.52	28886.78
706.865	28604.3
707.209	28709.61
707.554	28610.86
707.899	28679.78
708.243	28479.79
708.588	28453.12
708.932	28148.5
709.277	28205.22
709.621	28285.22
709.966	28086.58
710.31	28167.48
710.654	27899.46
710.998	27960.25
711.342	28052.45
711.687	27866.24
712.031	27747.6
712.375	27604.56
712.719	27672.58
713.063	27649.75
713.407	27701.05
713.75	27520.72
714.094	27484.79
714.438	27399.14
714.782	27524.56
715.125	27288.18
715.469	27374.73
715.812	27134.96
716.156	27064.68
716.499	27034.18
716.843	27088.86
717.186	27060.84
717.53	27018.58
717.873	27114.17
718.216	26793.73
718.559	26842.99
718.902	26635.09
719.246	26726.39
719.589	26618.82
719.932	26539.95
720.275	26538.37
720.617	26461.54
720.96	26471.93
721.303	26422.44
721.646	26519.61
721.989	26292.27
722.331	26457.47
722.674	26330.69
723.016	26255.67
723.359	26253.41
723.701	26231.49
724.044	26015.9
724.386	25892.29
724.729	26015.45
725.071	25971.15
725.413	25983.13
725.755	25949.68
726.097	25854.09
726.439	25655.46
726.782	25622.91
727.124	25753.53
727.465	25633.08
727.807	25694.32
728.149	25546.53
728.491	25522.8
728.833	25670.14
729.175	25318.52
729.516	25410.26
729.858	25383.6
730.199	25399.64
730.541	25342.7
730.882	25260.66
731.224	25350.6
731.565	25132.31
731.906	25206.65
732.248	25269.93
732.589	25052.08
732.93	24906.55
733.271	24927.56
733.612	24978.41
733.953	24999.2
734.294	24897.06
734.635	24793.78
734.976	24888.24
735.317	24694.12
735.658	24783.16
735.999	24714.92
736.339	24662.71
736.68	24740.45
737.021	24694.58
737.361	24481.25
737.702	24683.05
738.042	24616.16
738.383	24597.4
738.723	24596.73
739.063	24459.33
739.404	24521.7
739.744	24360.8
740.084	24344.53
740.424	24416.62
740.764	24258.66
741.104	24305.89
741.444	24187.92
741.784	24068.38
742.124	24325.55
742.464	24049.4
742.804	24027.93
743.143	24114.48
743.483	24031.77
743.823	23992.45
744.162	23919.23
744.502	24010.75
744.841	23864.99
745.181	23990.87
745.52	23746.58
745.86	23813.7
746.199	23857.08
746.538	23752.68
746.877	23812.57
747.216	23819.12
747.556	23793.36
747.895	23653.47
748.234	23547.94
748.573	23496.19
748.911	23506.81
749.25	23522.63
749.589	23488.96
749.928	23425.68
750.267	23403.54
750.605	23316.99
750.944	23262.75
751.283	23279.7
751.621	23271.79
751.96	23129.65
752.298	23122.19
752.636	23201.06
752.975	22967.39
753.313	22826.83
753.651	23001.51
753.989	22916.77
754.327	22775.31
754.666	22788.19
755.004	22782.76
755.342	22728.53
755.679	22774.18
756.017	22492.83
756.355	22571.92
756.693	22571.69
757.031	22457.8
757.368	22383.45
757.706	22403.79
758.044	22276.34
758.381	22274.98
758.719	22342.55
759.056	22205.6
759.394	22152.5
759.731	22041.31
760.068	22087.41
760.405	21937.59
760.743	21888.1
761.08	21967.19
