Data from hue_210_FLMS001491_00095.txt Node
Date: Tue Feb 07 16:42:01 GMT 2017
User: dcchb
Spectrometer: FLMS00149
Trigger mode: 0
Integration Time (sec): 2.000000E-2
Scans to average: 10
Electric dark correction enabled: true
Nonlinearity correction enabled: false
Boxcar width: 0
XAxis mode: Wavelengths
Number of Pixels in Spectrum: 2048
>>>>>Begin Spectral Data<<<<<
341.393	-4.18
341.776	-4.18
342.16	-4.18
342.543	-71.07
342.927	-66.1
343.31	-87.34
343.693	-80.56
344.077	-45.08
344.46	-74.69
344.843	-58.87
345.226	-59.77
345.61	-16.38
345.993	-17.74
346.376	-2.6
346.759	7.8
347.142	39.89
347.525	54.35
347.908	55.93
348.291	78.08
348.674	88.92
349.057	118.08
349.44	129.6
349.823	134.8
350.206	152.88
350.588	183.84
350.971	216.6
351.354	227.68
351.737	241.46
352.119	231.97
352.502	263.83
352.884	248.24
353.267	253.67
353.65	273.78
354.032	290.73
354.414	310.61
354.797	303.16
355.179	323.04
355.562	299.54
355.944	334.12
356.326	327.56
356.709	316.26
357.091	321.23
357.473	334.79
357.855	323.27
358.238	342.93
358.62	335.02
359.002	335.92
359.384	330.5
359.766	317.17
360.148	329.37
360.53	334.57
360.912	330.95
361.294	321.01
361.676	341.35
362.057	344.51
362.439	338.18
362.821	337.28
363.203	309.26
363.584	311.29
363.966	315.81
364.348	311.74
364.729	321.01
365.111	307
365.493	321.69
365.874	300.22
366.256	296.38
366.637	301.12
367.019	306.77
367.4	302.03
367.781	328.01
368.163	304.51
368.544	313.55
368.925	321.01
369.306	301.8
369.688	296.83
370.069	303.38
370.45	309.26
370.831	302.93
371.212	294.79
371.593	301.57
371.974	326.21
372.355	330.27
372.736	323.04
373.117	299.09
373.498	309.94
373.879	311.52
374.26	293.44
374.641	303.16
375.021	303.16
375.402	313.1
375.783	317.62
376.163	303.16
376.544	333.21
376.925	318.97
377.305	320.78
377.686	330.5
378.066	318.3
378.447	335.02
378.827	318.97
379.208	326.21
379.588	306.55
379.968	339.99
380.349	314.91
380.729	319.88
381.109	353.32
381.489	311.07
381.87	342.25
382.25	334.79
382.63	331.18
383.01	322.82
383.39	319.88
383.77	350.61
384.15	345.87
384.53	336.38
384.91	337.05
385.29	357.62
385.67	341.8
386.049	367.56
386.429	340.22
386.809	351.06
387.189	348.8
387.568	371.85
387.948	339.54
388.328	341.57
388.707	367.11
389.087	351.06
389.466	351.97
389.846	358.3
390.225	348.35
390.605	363.49
390.984	362.82
391.363	356.26
391.743	373.44
392.122	379.76
392.501	359.88
392.881	374.11
393.26	382.48
393.639	372.53
394.018	382.93
394.397	379.09
394.776	389.48
395.155	396.71
395.534	393.1
395.913	396.03
396.292	385.41
396.671	387
397.05	403.49
397.429	386.77
397.808	381.57
398.186	385.87
398.565	387.9
398.944	388.58
399.323	405.53
399.701	415.24
400.08	405.98
400.458	409.82
400.837	393.32
401.215	410.72
401.594	427.22
401.972	422.25
402.351	421.12
402.729	438.29
403.107	440.55
403.486	415.24
403.864	432.19
404.242	432.42
404.62	444.85
404.999	425.19
405.377	437.39
405.755	446.2
406.133	485.52
406.511	461.12
406.889	465.86
407.267	459.08
407.645	483.04
408.023	476.26
408.401	489.37
408.779	495.24
409.156	495.69
409.534	530.04
409.912	537.73
410.29	499.08
410.667	536.14
411.045	545.86
411.422	547.22
411.8	575.47
412.178	552.19
412.555	570.04
412.933	562.58
413.31	594.22
413.687	602.13
414.065	584.05
414.442	635.35
414.819	595.58
415.197	615.46
415.574	633.54
415.951	624.96
416.328	649.59
416.705	646.42
417.082	672.19
417.46	668.12
417.837	711.51
418.214	706.08
418.591	671.96
418.967	710.83
419.344	716.48
419.721	743.82
420.098	769.36
420.475	738.17
420.852	767.78
421.228	757.38
421.605	775.69
421.982	800.09
422.358	810.26
422.735	817.27
423.111	841.45
423.488	850.49
423.864	870.6
424.241	872.86
424.617	887.55
424.994	911.95
425.37	907.89
425.746	929.35
426.123	961.9
426.499	942.01
426.875	978.84
427.251	1010.93
427.627	1020.65
428.003	1010.26
428.379	1033.98
428.756	1040.99
429.132	1064.04
429.507	1066.98
429.883	1060.42
430.259	1071.95
430.635	1078.5
431.011	1102.46
431.387	1109.91
431.763	1157.6
432.138	1139.07
432.514	1150.59
432.89	1177.94
433.265	1216.58
433.641	1235.11
434.016	1258.61
434.392	1283.92
434.767	1302.45
435.143	1294.32
435.518	1360.76
435.894	1346.97
436.269	1386.97
436.644	1378.16
437.02	1422.9
437.395	1439.17
437.77	1451.37
438.145	1520.98
438.52	1518.94
438.895	1554.2
439.271	1570.24
439.646	1584.7
440.021	1609.11
440.395	1649.79
440.77	1612.27
441.145	1659.73
441.52	1681.2
441.895	1700.86
442.27	1733.17
442.645	1733.4
443.019	1761.42
443.394	1766.39
443.769	1802.55
444.143	1801.87
444.518	1822.44
444.892	1854.75
445.267	1877.58
445.641	1902.21
446.016	1907.86
446.39	1892.04
446.764	1932.94
447.139	1941.98
447.513	1952.15
447.887	1944.69
448.262	1973.62
448.636	1983.34
449.01	2017.69
449.384	2026.73
449.758	2045.93
450.132	2075.54
450.506	2096.1
450.88	2053.62
451.254	2103.56
451.628	2130
452.002	2146.95
452.376	2152.6
452.75	2188.53
453.123	2194.63
453.497	2242.99
453.871	2235.76
454.244	2293.16
454.618	2312.37
454.992	2333.61
455.365	2340.16
455.739	2416.77
456.112	2408.19
456.486	2464.68
456.859	2469.65
457.232	2502.87
457.606	2498.8
457.979	2525.02
458.352	2574.51
458.725	2586.94
459.099	2593.94
459.472	2680.72
459.845	2700.15
460.218	2718.46
460.591	2689.08
460.964	2741.51
461.337	2817.89
461.71	2857.89
462.083	2854.5
462.456	2879.59
462.829	2860.83
463.201	2939.92
463.574	2950.54
463.947	3002.52
464.32	3063.99
464.692	3096.3
465.065	3125
465.438	3158.67
465.81	3207.03
466.183	3219.24
466.555	3263.08
466.928	3312.12
467.3	3284.32
467.672	3367.71
468.045	3451.55
468.417	3456.07
468.789	3456.97
469.161	3485.45
469.534	3584.65
469.906	3635.05
470.278	3608.61
470.65	3684.76
471.022	3764.31
471.394	3788.49
471.766	3775.38
472.138	3867.36
472.51	3925.21
472.882	4008.82
473.253	4051.98
473.625	4097.41
473.997	4157.29
474.369	4209.04
474.74	4265.31
475.112	4313.9
475.484	4382.82
475.855	4463.95
476.227	4477.96
476.598	4608.81
476.97	4637.96
477.341	4675.7
477.713	4750.95
478.084	4785.98
478.455	4908.23
478.827	4932.19
479.198	5070.26
479.569	5086.98
479.94	5225.51
480.311	5276.81
480.682	5356.58
481.053	5479.06
481.424	5491.72
481.795	5593.64
482.166	5644.48
482.537	5720.87
482.908	5825.72
483.279	5866.4
483.65	5937.36
484.021	6057.13
484.391	6069.56
484.762	6184.36
485.133	6181.65
485.503	6298.03
485.874	6399.27
486.244	6461.64
486.615	6610.33
486.985	6646.27
487.356	6762.87
487.726	6804.23
488.097	6868.18
488.467	6891.23
488.837	7005.35
489.207	7098.68
489.578	7142.3
489.948	7283.76
490.318	7318.79
490.688	7386.59
491.058	7463.65
491.428	7577.77
491.798	7598.56
492.168	7718.33
492.538	7724.88
492.908	7791.77
493.278	7938.66
493.648	7922.84
494.017	8006.46
494.387	8048.49
494.757	8130.97
495.126	8154.7
495.496	8194.02
495.866	8239.44
496.235	8271.53
496.605	8357.41
496.974	8422.49
497.344	8412.55
497.713	8528.48
498.082	8594.69
498.452	8581.13
498.821	8608.02
499.19	8635.37
499.559	8710.39
499.928	8761.92
500.298	8738.19
500.667	8890.95
501.036	8836.26
501.405	8857.51
501.774	8907
502.143	8970.27
502.512	8948.13
502.88	9042.36
503.249	9008.69
503.618	9104.05
503.987	9109.48
504.356	9080.78
504.724	9119.2
505.093	9175.01
505.462	9174.56
505.83	9248.91
506.199	9269.93
506.567	9343.14
506.936	9341.79
507.304	9458.4
507.672	9448
508.041	9457.72
508.409	9498.39
508.777	9471.28
509.145	9592.4
509.514	9524.38
509.882	9556.7
510.25	9595.11
510.618	9610.48
510.986	9580.65
511.354	9730.93
511.722	9747.65
512.09	9768.22
512.458	9702.68
512.826	9779.97
513.193	9815
513.561	9775.45
513.929	9791.95
514.297	9855.22
514.664	9877.37
515.032	9905.16
515.4	9936.12
515.767	9935.67
516.135	9958.95
516.502	9886.18
516.869	10045.72
517.237	10017.48
517.604	9961.66
517.972	10004.82
518.339	10070.36
518.706	10049.79
519.073	10039.17
519.44	10009.12
519.808	10066.06
520.175	10004.37
520.542	10091.83
520.909	10127.98
521.276	10099.96
521.643	10171.14
522.009	10172.73
522.376	10179.28
522.743	10155.55
523.11	10253.63
523.477	10295.44
523.843	10296.79
524.21	10283.23
524.577	10382.44
524.943	10337.24
525.31	10353.97
525.676	10384.47
526.043	10459.72
526.409	10365.04
526.776	10461.31
527.142	10498.82
527.508	10427.18
527.874	10475.77
528.241	10457.69
528.607	10510.12
528.973	10493.85
529.339	10437.13
529.705	10490.01
530.071	10491.59
530.437	10415.88
530.803	10497.24
531.169	10513.28
531.535	10457.24
531.901	10460.63
532.267	10421.31
532.632	10468.76
532.998	10504.02
533.364	10451.14
533.73	10386.05
534.095	10485.26
534.461	10428.09
534.826	10405.72
535.192	10391.03
535.557	10456.11
535.923	10324.36
536.288	10313.51
536.653	10399.16
537.019	10239.84
537.384	10253.18
537.749	10303.8
538.114	10240.3
538.479	10266.06
538.845	10234.87
539.21	10135.89
539.575	10129.79
539.94	10111.03
540.305	10160.98
540.67	10028.1
541.034	10015.67
541.399	10003.47
541.764	10002.11
542.129	9961.66
542.494	9938.83
542.858	9916.91
543.223	9932.28
543.587	9892.73
543.952	9921.66
544.316	9890.25
544.681	9760.76
545.045	9711.04
545.41	9820.19
545.774	9789.23
546.138	9739.97
546.503	9740.65
546.867	9672.4
547.231	9753.98
547.595	9602.35
547.959	9673.53
548.324	9559.41
548.688	9513.08
549.052	9520.31
549.416	9467.66
549.779	9478.96
550.143	9407.1
550.507	9455.23
550.871	9412.97
551.235	9419.07
551.599	9326.42
551.962	9399.41
552.326	9273.54
552.689	9339.98
553.053	9231.96
553.417	9234.22
553.78	9315.57
554.143	9222.02
554.507	9233.32
554.87	9177.05
555.234	9251.4
555.597	9131.17
555.96	9125.52
556.323	9204.62
556.686	9123.71
557.05	9097.73
557.413	9098.18
557.776	9121
558.139	9110.16
558.502	9124.62
558.865	9044.39
559.228	9108.8
559.59	9031.29
559.953	9090.5
560.316	9108.57
560.679	9117.61
561.041	9119.2
561.404	9034.45
561.767	9096.37
562.129	9010.95
562.492	9095.02
562.854	9071.74
563.217	9024.06
563.579	9025.41
563.941	9003.27
564.304	9002.14
564.666	9022.93
565.028	9071.29
565.39	8977.28
565.753	9096.37
566.115	9130.04
566.477	9072.19
566.839	9038.29
567.201	9089.59
567.563	9105.18
567.925	9166.43
568.287	9124.17
568.648	9120.33
569.01	9136.37
569.372	9281.22
569.734	9135.69
570.095	9202.81
570.457	9180.89
570.819	9196.93
571.18	9252.3
571.542	9287.1
571.903	9210.94
572.265	9210.04
572.626	9291.85
572.987	9272.41
573.349	9197.16
573.71	9252.07
574.071	9335.01
574.432	9290.26
574.794	9307.21
575.155	9334.33
575.516	9265.41
575.877	9296.82
576.238	9421.11
576.599	9345.63
576.96	9354.67
577.32	9313.99
577.681	9364.39
578.042	9359.87
578.403	9443.93
578.763	9355.12
579.124	9381.34
579.485	9422.69
579.845	9481.45
580.206	9446.42
580.566	9433.76
580.927	9463.82
581.287	9378.17
581.648	9503.59
582.008	9535.91
582.368	9462.92
582.728	9508.56
583.089	9529.13
583.449	9437.6
583.809	9478.73
584.169	9525.29
584.529	9510.6
584.889	9580.43
585.249	9509.02
585.609	9522.8
585.969	9616.36
586.329	9508.34
586.688	9568.9
587.048	9478.06
587.408	9515.79
587.768	9558.51
588.127	9518.96
588.487	9528.68
588.846	9617.04
589.206	9616.13
589.565	9563.93
589.925	9587.43
590.284	9526.87
590.643	9640.54
591.003	9690.71
591.362	9622.91
591.721	9549.69
592.08	9635.79
592.44	9558.05
592.799	9649.12
593.158	9633.31
593.517	9577.71
593.876	9595.57
594.235	9658.84
594.593	9573.65
594.952	9652.74
595.311	9607.77
595.67	9605.74
596.029	9719.41
596.387	9685.06
596.746	9668.79
597.104	9623.81
597.463	9585.85
597.822	9704.04
598.18	9641.22
598.538	9608.67
598.897	9675.56
599.255	9559.41
599.613	9673.98
599.972	9642.12
600.33	9682.8
600.688	9624.72
601.046	9681.44
601.404	9695.9
601.762	9671.05
602.12	9712.63
602.478	9700.2
602.836	9718.95
603.194	9573.19
603.552	9677.15
603.91	9701.33
604.268	9644.61
604.625	9596.92
604.983	9622.68
605.341	9669.69
605.698	9658.62
606.056	9713.98
606.413	9698.62
606.771	9715.11
607.128	9739.52
607.485	9726.64
607.843	9732.29
608.2	9748.11
608.557	9744.04
608.914	9750.37
609.272	9738.61
609.629	9808.89
609.986	9820.87
610.343	9740.65
610.7	9843.47
611.057	9811.15
611.414	9771.61
611.771	9786.97
612.127	9778.84
612.484	9752.85
612.841	9866.07
613.198	9814.77
613.554	9836.01
613.911	9907.65
614.267	9884.6
614.624	9897.25
614.98	9886.18
615.337	9871.04
615.693	9899.97
616.05	9877.82
616.406	9916.91
616.762	9838.5
617.118	9822.68
617.475	9930.02
617.831	9926.63
618.187	9930.93
618.543	10008.21
618.899	9938.61
619.255	9934.09
619.611	9918.04
619.967	9948.1
620.323	9966.63
620.678	9960.53
621.034	9905.62
621.39	9890.47
621.746	9923.47
622.101	10019.96
622.457	9978.83
622.812	9941.32
623.168	9992.62
623.523	9979.06
623.879	10000.98
624.234	9952.62
624.589	9927.54
624.945	10023.8
625.3	9948.33
625.655	9933.41
626.01	9931.38
626.365	9939.74
626.72	10004.6
627.075	9966.86
627.43	9960.76
627.785	9983.58
628.14	9958.72
628.495	9981.77
628.85	9917.14
629.205	9893.41
629.559	9905.84
629.914	9838.5
630.269	9894.77
630.623	9878.95
630.978	9833.3
631.332	9864.49
631.687	9886.41
632.041	9799.86
632.396	9798.73
632.75	9821.1
633.104	9878.05
633.459	9766.18
633.813	9743.81
634.167	9811.38
634.521	9794.43
634.875	9792.62
635.229	9704.49
635.583	9679.18
635.937	9680.76
636.291	9750.14
636.645	9711.5
636.999	9673.3
637.352	9693.87
637.706	9598.96
638.06	9642.8
638.413	9665.17
638.767	9623.59
639.121	9546.08
639.474	9575.68
639.828	9574.55
640.181	9560.77
640.534	9558.51
640.888	9568.22
641.241	9502.24
641.594	9498.17
641.947	9565.74
642.301	9515.57
642.654	9522.12
643.007	9520.09
643.36	9513.08
643.713	9474.89
644.066	9482.8
644.419	9467.66
644.771	9395.35
645.124	9322.58
645.477	9260.43
645.83	9225.86
646.182	9219.53
646.535	9150.83
646.888	9196.26
647.24	9120.33
647.593	9213.66
647.945	9162.13
648.298	9086.88
648.65	9150.61
649.002	9137.73
649.355	9178.4
649.707	9146.31
650.059	9261.56
650.411	9318.29
650.763	9359.41
651.115	9437.38
651.467	9356.93
651.819	9355.57
652.171	9351.05
652.523	9399.19
652.875	9338.4
653.227	9322.13
653.578	9401
653.93	9349.92
654.282	9305.41
654.633	9326.2
654.985	9307.66
655.337	9330.49
655.688	9412.07
656.039	9416.36
656.391	9357.83
656.742	9351.28
657.094	9457.27
657.445	9364.16
657.796	9376.59
658.147	9332.97
658.498	9348.34
658.849	9349.02
659.2	9336.14
659.551	9330.72
659.902	9431.73
660.253	9391.73
660.604	9376.14
660.955	9369.36
661.306	9426.76
661.656	9389.92
662.007	9383.82
662.358	9381.34
662.708	9387.66
663.059	9451.39
663.409	9334.56
663.76	9502.91
664.11	9450.49
664.461	9460.43
664.811	9370.49
665.161	9462.92
665.511	9457.04
665.862	9432.63
666.212	9454.78
666.562	9448.45
666.912	9488.68
667.262	9431.73
667.612	9449.81
667.962	9415.46
668.312	9447.77
668.662	9451.16
669.011	9453.65
669.361	9450.94
669.711	9484.16
670.06	9426.98
670.41	9409.58
670.76	9353.77
671.109	9409.36
671.459	9357.61
671.808	9311.96
672.157	9442.8
672.507	9286.65
672.856	9336.14
673.205	9346.53
673.554	9389.02
673.904	9313.77
674.253	9366.65
674.602	9351.73
674.951	9248.68
675.3	9159.65
675.649	9306.08
675.998	9305.41
676.346	9293.88
676.695	9327.55
677.044	9190.38
677.393	9229.25
677.741	9208.91
678.09	9245.29
678.438	9219.08
678.787	9236.48
679.135	9236.03
679.484	9158.97
679.832	9192.64
680.181	9174.11
680.529	9152.19
680.877	9089.14
681.225	9070.38
681.573	9108.35
681.922	9083.94
682.27	9049.59
682.618	9076.48
682.966	9004.17
683.314	9031.29
683.661	9017.95
684.009	8941.35
684.357	8897.73
684.705	8951.52
685.053	8965.75
685.4	8939.76
685.748	8841.69
686.095	8832.2
686.443	8782.25
686.79	8755.81
687.138	8894.79
687.485	8806.66
687.832	8752.88
688.18	8795.81
688.527	8722.14
688.874	8676.27
689.221	8679.21
689.568	8650.06
689.915	8599.66
690.262	8672.2
690.609	8604.41
690.956	8529.38
691.303	8579.1
691.65	8513.79
691.997	8528.02
692.344	8453.68
692.69	8410.29
693.037	8442.83
693.383	8308.14
693.73	8296.17
694.077	8303.85
694.423	8342.94
694.769	8300.69
695.116	8321.7
695.462	8214.81
695.808	8220.01
696.155	8210.97
696.501	8080.13
696.847	8119.22
697.193	8048.49
697.539	8061.14
697.885	7984.76
698.231	7971.88
698.577	7947.7
698.923	8013.91
699.269	7944.54
699.614	7844.88
699.96	7770.08
700.306	7826.8
700.651	7813.01
700.997	7669.52
701.342	7728.05
701.688	7660.7
702.033	7669.97
702.379	7592.23
702.724	7575.28
703.069	7641.27
703.415	7544.1
703.76	7554.26
704.105	7559.24
704.45	7487.83
704.795	7399.92
705.14	7487.83
705.485	7376.42
705.83	7375.96
706.175	7342.29
706.52	7326.7
706.865	7306.36
707.209	7320.37
707.554	7235.85
707.899	7256.65
708.243	7167.61
708.588	7180.72
708.932	7179.81
709.277	7146.14
709.621	7162.41
709.966	7064.11
710.31	7042.64
710.654	7082.64
710.998	7102.98
711.342	7023.88
711.687	7037.89
712.031	6999.48
712.375	6972.36
712.719	7058.91
713.063	6985.47
713.407	6966.71
713.75	6921.96
714.094	6911.57
714.438	6895.75
714.782	6904.11
715.125	6868.63
715.469	6842.87
715.812	6864.57
716.156	6773.27
716.499	6802.65
716.843	6818.24
717.186	6793.38
717.53	6789.99
717.873	6808.52
718.216	6754.06
718.559	6787.28
718.902	6727.85
719.246	6720.84
719.589	6703.21
719.932	6698.24
720.275	6681.75
720.617	6634.97
720.96	6673.61
721.303	6676.1
721.646	6646.04
721.989	6692.37
722.331	6630.67
722.674	6623.67
723.016	6632.71
723.359	6607.17
723.701	6646.27
724.044	6578.02
724.386	6579.6
724.729	6642.42
725.071	6592.93
725.413	6602.65
725.755	6592.03
726.097	6567.17
726.439	6523.56
726.782	6520.85
727.124	6542.31
727.465	6547.06
727.807	6537.57
728.149	6582.54
728.491	6546.61
728.833	6553.39
729.175	6487.85
729.516	6507.74
729.858	6533.95
730.199	6504.57
730.541	6537.34
730.882	6521.98
731.224	6528.3
731.565	6489.89
731.906	6514.29
732.248	6563.33
732.589	6498.47
732.93	6529.21
733.271	6489.66
733.612	6474.97
733.953	6522.88
734.294	6542.09
734.635	6538.7
734.976	6475.42
735.317	6472.71
735.658	6474.97
735.999	6514.74
736.339	6516.1
736.68	6486.95
737.021	6565.82
737.361	6553.61
737.702	6577.57
738.042	6534.4
738.383	6569.21
738.723	6566.49
739.063	6580.73
739.404	6658.47
739.744	6559.71
740.084	6559.04
740.424	6559.94
740.764	6585.25
741.104	6596.1
741.444	6551.35
741.784	6653.5
742.124	6667.51
742.464	6689.65
742.804	6641.07
743.143	6751.57
743.483	6739.82
743.823	6681.97
744.162	6716.55
744.502	6755.64
744.841	6810.78
745.181	6851.23
745.52	6875.19
745.86	6956.99
746.199	6962.87
746.538	6969.65
746.877	7057.33
747.216	7069.31
747.556	7088.74
747.895	7163.77
748.234	7145.01
748.573	7185.01
748.911	7274.05
749.25	7367.15
749.589	7352.24
749.928	7412.35
750.267	7507.49
750.605	7559.69
750.944	7608.5
751.283	7725.33
751.621	7805.78
751.96	7857.08
752.298	7949.28
752.636	8025.21
752.975	8145.21
753.313	8253.68
753.651	8333.45
753.989	8409.38
754.327	8536.84
754.666	8589.94
755.004	8716.95
755.342	8866.55
755.679	9006.2
756.017	9090.5
756.355	9275.8
756.693	9365.06
757.031	9471.5
757.368	9582.69
757.706	9768.67
758.044	9897.25
758.381	10120.52
758.719	10206.4
759.056	10318.26
759.394	10523.23
759.731	10605.26
760.068	10773.84
760.405	11002.08
760.743	11069.43
761.08	11251.34
761.417	11360.49
761.754	11626.25
762.091	11706.7
762.428	11915.05
762.765	12012.68
763.102	12198.21
763.438	12353.46
763.775	12588.93
764.112	12707.12
764.449	12926.33
764.785	13142.82
765.122	13066.89
765.458	13274.79
765.795	13492.19
766.131	13635.23
766.467	13821.9
766.804	13963.14
767.14	14042.46
