Data from hue_230_FLMS001491_00061.txt Node
Date: Tue Feb 07 16:37:34 GMT 2017
User: dcchb
Spectrometer: FLMS00149
Trigger mode: 0
Integration Time (sec): 2.000000E-2
Scans to average: 10
Electric dark correction enabled: true
Nonlinearity correction enabled: false
Boxcar width: 0
XAxis mode: Wavelengths
Number of Pixels in Spectrum: 2048
>>>>>Begin Spectral Data<<<<<
341.393	6.67
341.776	6.67
342.16	6.67
342.543	-63.61
342.927	-49.6
343.31	-56.38
343.693	-83.95
344.077	-84.18
344.46	-61.35
344.843	-57.74
345.226	-32.88
345.61	-38.3
345.993	-23.84
346.376	-7.34
346.759	36.72
347.142	39.89
347.525	49.6
347.908	47.57
348.291	76.95
348.674	81.47
349.057	113.78
349.44	126.21
349.823	165.98
350.206	161.46
350.588	194.91
350.971	208.24
351.354	216.15
351.737	218.86
352.119	251.41
352.502	255.25
352.884	269.94
353.267	257.73
353.65	295.47
354.032	299.31
354.414	305.19
354.797	290.05
355.179	309.71
355.562	318.3
355.944	329.14
356.326	348.13
356.709	322.36
357.091	323.04
357.473	316.71
357.855	342.7
358.238	335.02
358.62	308.58
359.002	342.7
359.384	348.8
359.766	330.5
360.148	322.36
360.53	319.43
360.912	336.15
361.294	347.22
361.676	352.19
362.057	346.32
362.439	300.67
362.821	337.28
363.203	321.01
363.584	318.75
363.966	316.49
364.348	318.07
364.729	325.98
365.111	311.97
365.493	340.67
365.874	300.44
366.256	305.19
366.637	288.24
367.019	326.88
367.4	305.64
367.781	311.29
368.163	309.03
368.544	317.39
368.925	305.19
369.306	315.36
369.688	299.31
370.069	314.46
370.45	315.36
370.831	305.64
371.212	313.33
371.593	304.29
371.974	302.93
372.355	321.01
372.736	341.12
373.117	328.69
373.498	323.27
373.879	327.34
374.26	306.77
374.641	330.05
375.021	317.39
375.402	305.42
375.783	316.04
376.163	318.3
376.544	332.99
376.925	320.56
377.305	314.91
377.686	329.14
378.066	337.73
378.447	314.46
378.827	309.71
379.208	338.64
379.588	328.92
379.968	334.79
380.349	339.99
380.729	321.46
381.109	351.06
381.489	334.12
381.87	339.09
382.25	356.94
382.63	332.99
383.01	319.2
383.39	338.64
383.77	353.1
384.15	342.25
384.53	358.97
384.91	355.36
385.29	349.93
385.67	361.91
386.049	357.39
386.429	334.57
386.809	358.97
387.189	364.85
387.568	340.89
387.948	342.7
388.328	353.78
388.707	359.43
389.087	337.96
389.466	348.58
389.846	354
390.225	357.62
390.605	360.78
390.984	366.88
391.363	363.49
391.743	349.71
392.122	356.49
392.501	360.78
392.881	377.96
393.26	376.6
393.639	369.37
394.018	390.39
394.397	365.08
394.776	396.03
395.155	366.43
395.534	378.18
395.913	387.45
396.292	358.52
396.671	389.03
397.05	395.58
397.429	366.88
397.808	388.58
398.186	383.83
398.565	391.74
398.944	392.42
399.323	402.14
399.701	386.54
400.08	389.48
400.458	411.4
400.837	406.43
401.215	406.2
401.594	403.94
401.972	409.59
402.351	427.9
402.729	406.2
403.107	405.98
403.486	420.44
403.864	443.94
404.242	414.11
404.62	447.33
404.999	433.55
405.377	406.88
405.755	401.23
406.133	456.6
406.511	456.15
406.889	466.99
407.267	478.07
407.645	465.86
408.023	461.34
408.401	483.94
408.779	471.74
409.156	462.02
409.534	499.08
409.912	467.22
410.29	495.02
410.667	496.82
411.045	512.64
411.422	500.44
411.8	512.42
412.178	517.84
412.555	557.84
412.933	523.26
413.31	533.43
413.687	516.71
414.065	536.14
414.442	559.19
414.819	564.62
415.197	589.7
415.574	563.94
415.951	585.18
416.328	592.87
416.705	613.43
417.082	609.36
417.46	605.52
417.837	624.5
418.214	620.21
418.591	616.59
418.967	654.11
419.344	633.99
419.721	664.5
420.098	651.62
420.475	667.89
420.852	644.62
421.228	675.8
421.605	671.06
421.982	689.81
422.358	690.04
422.735	696.59
423.111	724.16
423.488	725.29
423.864	724.39
424.241	724.39
424.617	748.57
424.994	781.79
425.37	793.09
425.746	793.31
426.123	809.36
426.499	779.75
426.875	815.68
427.251	813.42
427.627	828.34
428.003	840.77
428.379	833.31
428.756	848
429.132	869.69
429.507	904.27
429.883	879.19
430.259	885.06
430.635	915.12
431.011	939.98
431.387	952.4
431.763	950.6
432.138	952.18
432.514	989.24
432.89	945.4
433.265	1018.84
433.641	1009.35
434.016	1007.09
434.392	1036.92
434.767	1086.41
435.143	1067.43
435.518	1078.05
435.894	1104.49
436.269	1114.43
436.644	1134.55
437.02	1146.98
437.395	1187.88
437.77	1169.8
438.145	1205.96
438.52	1199.18
438.895	1218.61
439.271	1256.8
439.646	1287.76
440.021	1277.59
440.395	1311.72
440.77	1294.77
441.145	1308.78
441.52	1320.53
441.895	1323.24
442.27	1327.76
442.645	1361.89
443.019	1414.99
443.394	1375.67
443.769	1403.92
444.143	1399.85
444.518	1457.7
444.892	1432.84
445.267	1438.72
445.641	1449.79
446.016	1462.22
446.39	1470.58
446.764	1510.58
447.139	1487.98
447.513	1520.75
447.887	1494.31
448.262	1509.9
448.636	1548.77
449.01	1535.21
449.384	1559.85
449.758	1554.65
450.132	1580.18
450.506	1599.17
450.88	1608.43
451.254	1637.58
451.628	1646.17
452.002	1651.14
452.376	1682.55
452.75	1682.55
453.123	1697.7
453.497	1751.03
453.871	1739.5
454.244	1768.2
454.618	1755.32
454.992	1767.52
455.365	1765.94
455.739	1815.21
456.112	1846.84
456.486	1852.95
456.859	1862.66
457.232	1923.9
457.606	1898.59
457.979	1913.73
458.352	1969.55
458.725	1991.02
459.099	1958.93
459.472	2012.72
459.845	2028.08
460.218	2047.74
460.591	2050
460.964	2075.31
461.337	2133.39
461.71	2149.44
462.083	2198.02
462.456	2222.88
462.829	2171.58
463.201	2236.89
463.574	2214.29
463.947	2260.62
464.32	2306.27
464.692	2329.77
465.065	2324.12
465.438	2379.49
465.81	2414.96
466.183	2421.74
466.555	2451.12
466.928	2473.95
467.3	2432.14
467.672	2503.32
468.045	2553.72
468.417	2504.68
468.789	2583.77
469.161	2629.42
469.534	2630.78
469.906	2699.7
470.278	2725.69
470.65	2727.72
471.022	2816.76
471.394	2852.92
471.766	2871.45
472.138	2861.51
472.51	2919.58
472.882	2974.72
473.253	2971.56
473.625	3020.15
473.997	3084.1
474.369	3073.03
474.74	3134.27
475.112	3202.97
475.484	3222.18
475.855	3268.95
476.227	3276.19
476.598	3332.23
476.97	3379.91
477.341	3472.79
477.713	3517.31
478.084	3548.72
478.455	3588.72
478.827	3639.11
479.198	3680.47
479.569	3689.73
479.94	3777.19
480.311	3843.63
480.682	3906.68
481.053	3970.86
481.424	4087.01
481.795	4077.52
482.166	4091.76
482.537	4213.11
482.908	4236.16
483.279	4240.91
483.65	4305.99
484.021	4414.91
484.391	4429.38
484.762	4440.45
485.133	4506.44
485.503	4595.7
485.874	4642.48
486.244	4665.98
486.615	4752.76
486.985	4768.12
487.356	4862.58
487.726	4869.36
488.097	4985.97
488.467	4991.62
488.837	5113.65
489.207	5127.44
489.578	5201.11
489.948	5192.74
490.318	5269.35
490.688	5281.33
491.058	5348.67
491.428	5444.49
491.798	5463.7
492.168	5524.26
492.538	5603.13
492.908	5621.43
493.278	5671.15
493.648	5666.86
494.017	5777.14
494.387	5793.41
494.757	5858.26
495.126	5879.73
495.496	5929.45
495.866	5949.79
496.235	5958.83
496.605	6036.79
496.974	6027.3
497.344	6095.77
497.713	6114.98
498.082	6135.54
498.452	6189.78
498.821	6208.09
499.19	6239.5
499.559	6254.64
499.928	6302.09
500.298	6309.78
500.667	6428.87
501.036	6335.31
501.405	6375.54
501.774	6394.97
502.143	6445.37
502.512	6524.01
502.88	6472.03
503.249	6479.49
503.618	6535.53
503.987	6548.42
504.356	6571.24
504.724	6608.07
505.093	6627.96
505.462	6646.27
505.83	6728.07
506.199	6754.51
506.567	6745.7
506.936	6760.61
507.304	6830.22
507.672	6832.7
508.041	6822.08
508.409	6818.69
508.777	6919.48
509.145	6920.38
509.514	6949.31
509.882	6889.42
510.25	6887.39
510.618	6959.7
510.986	6970.55
511.354	6958.8
511.722	7020.72
512.09	7092.36
512.458	7053.49
512.826	7042.87
513.193	7103.2
513.561	7131.68
513.929	7109.76
514.297	7181.85
514.664	7194.5
515.032	7232.01
515.4	7239.92
515.767	7230.88
516.135	7285.8
516.502	7133.71
516.869	7252.35
517.237	7271.11
517.604	7225.23
517.972	7298.23
518.339	7313.82
518.706	7303.88
519.073	7279.24
519.44	7366.7
519.808	7387.94
520.175	7333.48
520.542	7375.51
520.909	7392.46
521.276	7372.12
521.643	7408.28
522.009	7457.09
522.376	7421.39
522.743	7519.46
523.11	7466.81
523.477	7600.14
523.843	7533.7
524.21	7631.1
524.577	7591.78
524.943	7648.5
525.31	7602.85
525.676	7612.34
526.043	7661.15
526.409	7654.83
526.776	7673.58
527.142	7695.28
527.508	7700.25
527.874	7775.28
528.241	7712
528.607	7721.27
528.973	7753.58
529.339	7740.25
529.705	7778.21
530.071	7715.16
530.437	7767.14
530.803	7777.99
531.169	7780.47
531.535	7749.74
531.901	7764.65
532.267	7818.44
532.632	7749.74
532.998	7761.72
533.364	7815.27
533.73	7750.64
534.095	7802.85
534.461	7741.83
534.826	7781.83
535.192	7763.75
535.557	7773.24
535.923	7781.15
536.288	7700.7
536.653	7785.45
537.019	7710.19
537.384	7734.82
537.749	7741.38
538.114	7728.72
538.479	7681.04
538.845	7671.55
539.21	7644.43
539.575	7691.44
539.94	7662.96
540.305	7667.71
540.67	7662.28
541.034	7683.3
541.399	7643.75
541.764	7640.59
542.129	7605.79
542.494	7591.55
542.858	7577.77
543.223	7588.39
543.587	7576.18
543.952	7558.11
544.316	7550.42
544.681	7563.76
545.045	7581.83
545.41	7549.52
545.774	7555.39
546.138	7486.92
546.503	7499.12
546.867	7465
547.231	7495.74
547.595	7461.16
547.959	7428.17
548.324	7435.62
548.688	7403.53
549.052	7398.79
549.416	7412.8
549.779	7433.59
550.143	7399.01
550.507	7426.13
550.871	7343.2
551.235	7381.84
551.599	7381.16
551.962	7339.81
552.326	7342.74
552.689	7340.71
553.053	7263.42
553.417	7304.33
553.78	7311.33
554.143	7283.09
554.507	7303.2
554.87	7352.69
555.234	7330.77
555.597	7335.51
555.96	7260.71
556.323	7330.54
556.686	7281.5
557.05	7340.94
557.413	7328.51
557.776	7304.55
558.139	7295.06
558.502	7335.74
558.865	7289.41
559.228	7348.17
559.59	7323.54
559.953	7384.1
560.316	7378.68
560.679	7389.07
561.041	7373.48
561.404	7433.14
561.767	7392.91
562.129	7389.07
562.492	7427.49
562.854	7430.2
563.217	7374.61
563.579	7431.56
563.941	7414.38
564.304	7493.93
564.666	7418.9
565.028	7487.15
565.39	7513.81
565.753	7486.02
566.115	7448.73
566.477	7549.74
566.839	7564.43
567.201	7618.67
567.563	7616.64
567.925	7630.87
568.287	7578.44
568.648	7555.17
569.01	7620.48
569.372	7666.13
569.734	7657.09
570.095	7729.4
570.457	7651.21
570.819	7689.18
571.18	7692.57
571.542	7717.42
571.903	7689.85
572.265	7806.01
572.626	7815.05
572.987	7820.02
573.349	7814.14
573.71	7864.99
574.071	7828.16
574.432	7861.83
574.794	7935.5
575.155	7888.72
575.516	7888.27
575.877	7985.89
576.238	7962.39
576.599	7974.59
576.96	7975.95
577.32	8069.05
577.681	8028.15
578.042	8038.32
578.403	8050.97
578.763	8074.48
579.124	8060.24
579.485	8108.15
579.845	8119
580.206	8098.88
580.566	8196.51
580.927	8115.15
581.287	8162.16
581.648	8177.75
582.008	8208.71
582.368	8188.15
582.728	8264.3
583.089	8204.64
583.449	8246.45
583.809	8205.32
584.169	8246.68
584.529	8261.14
584.889	8288.26
585.249	8308.14
585.609	8250.07
585.969	8288.71
586.329	8274.7
586.688	8260.01
587.048	8328.71
587.408	8295.71
587.768	8310.63
588.127	8284.87
588.487	8344.98
588.846	8400.12
589.206	8302.72
589.565	8327.8
589.925	8490.29
590.284	8309.73
590.643	8383.85
591.003	8432.89
591.362	8427.01
591.721	8482.38
592.08	8483.05
592.44	8470.62
592.799	8477.4
593.158	8531.41
593.517	8427.24
593.876	8437.86
594.235	8489.83
594.593	8544.52
594.952	8515.82
595.311	8515.82
595.67	8535.48
596.029	8610.51
596.387	8582.03
596.746	8595.14
597.104	8564.63
597.463	8570.28
597.822	8605.31
598.18	8563.28
598.538	8559.89
598.897	8565.76
599.255	8531.19
599.613	8701.81
599.972	8568.93
600.33	8675.37
600.688	8626.78
601.046	8676.5
601.404	8681.47
601.762	8664.97
602.12	8724.4
602.478	8695.7
602.836	8639.66
603.194	8628.81
603.552	8636.72
603.91	8678.98
604.268	8662.26
604.625	8708.58
604.983	8701.13
605.341	8661.58
605.698	8705.65
606.056	8724.4
606.413	8732.09
606.771	8829.94
607.128	8707.68
607.485	8723.95
607.843	8680.56
608.2	8768.7
608.557	8800.79
608.914	8772.31
609.272	8821.8
609.629	8762.14
609.986	8790.84
610.343	8742.71
610.7	8840.11
611.057	8810.05
611.414	8828.13
611.771	8851.86
612.127	8838.3
612.484	8856.38
612.841	8869.48
613.198	8837.17
613.554	8871.52
613.911	8948.8
614.267	8927.79
614.624	8934.12
614.98	8939.09
615.337	8928.24
615.693	8895.92
616.05	8880.33
616.406	8915.13
616.762	8890.73
617.118	9007.56
617.475	8980.89
617.831	8984.28
618.187	8989.71
618.543	8974.11
618.899	9070.83
619.255	8982.48
619.611	9074.22
619.967	9067.67
620.323	9048.24
620.678	9015.02
621.034	8928.47
621.39	8950.16
621.746	8992.64
622.101	9050.95
622.457	8950.16
622.812	9027.9
623.168	9034
623.523	9092.98
623.879	9030.38
624.234	9029.93
624.589	8971.85
624.945	9023.38
625.3	9041.46
625.655	8996.94
626.01	9019.76
626.365	9075.13
626.72	9018.41
627.075	9029.93
627.43	9042.81
627.785	8992.87
628.14	9045.98
628.495	9088.69
628.85	8991.51
629.205	8918.75
629.559	9020.67
629.914	8994.23
630.269	9016.37
630.623	8986.54
630.978	8957.39
631.332	9001.46
631.687	9020.21
632.041	8854.12
632.396	8960.33
632.75	8897.28
633.104	8855.25
633.459	8844.4
633.813	8955.81
634.167	8894.57
634.521	8842.59
634.875	8867.45
635.229	8869.71
635.583	8776.15
635.937	8835.81
636.291	8815.47
636.645	8750.62
636.999	8704.74
637.352	8746.32
637.706	8746.55
638.06	8724.86
638.413	8808.24
638.767	8706.1
639.121	8746.1
639.474	8733.22
639.828	8741.35
640.181	8749.71
640.534	8709.04
640.888	8627.91
641.241	8634.24
641.594	8663.61
641.947	8691.41
642.301	8622.71
642.654	8674.01
643.007	8652.09
643.36	8698.64
643.713	8595.14
644.066	8620
644.419	8558.76
644.771	8544.97
645.124	8485.77
645.477	8455.94
645.83	8374.81
646.182	8348.82
646.535	8385.66
646.888	8346.11
647.24	8327.13
647.593	8367.35
647.945	8318.99
648.298	8229.28
648.65	8353.79
649.002	8319.67
649.355	8294.36
649.707	8278.54
650.059	8327.35
650.411	8469.49
650.763	8425.2
651.115	8506.1
651.467	8445.77
651.819	8482.15
652.171	8484.18
652.523	8482.6
652.875	8448.25
653.227	8485.99
653.578	8504.52
653.93	8506.56
654.282	8437.63
654.633	8422.26
654.985	8522.83
655.337	8480.57
655.688	8507.46
656.039	8495.93
656.391	8413.9
656.742	8480.57
657.094	8530.06
657.445	8497.29
657.796	8448.25
658.147	8461.59
658.498	8419.1
658.849	8439.44
659.2	8468.82
659.551	8444.64
659.902	8439.89
660.253	8407.35
660.604	8548.14
660.955	8421.59
661.306	8469.72
661.656	8445.54
662.007	8483.51
662.358	8488.48
662.708	8464.52
663.059	8457.74
663.409	8433.56
663.76	8549.27
664.11	8481.47
664.461	8506.78
664.811	8510.4
665.161	8438.08
665.511	8445.31
665.862	8508.14
666.212	8438.31
666.562	8498.65
666.912	8530.96
667.262	8396.95
667.612	8470.4
667.962	8460.91
668.312	8477.18
668.662	8538.42
669.011	8502.04
669.361	8464.98
669.711	8483.96
670.06	8429.5
670.41	8429.27
670.76	8446.9
671.109	8435.37
671.459	8513.11
671.808	8395.6
672.157	8440.12
672.507	8433.79
672.856	8393.56
673.205	8382.27
673.554	8385.43
673.904	8370.74
674.253	8403.06
674.602	8406.9
674.951	8229.28
675.3	8174.59
675.649	8336.16
675.998	8349.5
676.346	8351.76
676.695	8402.15
677.044	8299.56
677.393	8376.16
677.741	8330.06
678.09	8269.73
678.438	8307.24
678.787	8314.47
679.135	8231.99
679.484	8182.72
679.832	8261.36
680.181	8250.97
680.529	8175.49
680.877	8159.9
681.225	8168.03
681.573	8264.98
681.922	8137.3
682.27	8158.32
682.618	8152.22
682.966	8122.61
683.314	8059.34
683.661	8096.62
684.009	8045.55
684.357	8100.24
684.705	8062.5
685.053	7992.67
685.4	8062.95
685.748	7970.98
686.095	7929.17
686.443	7921.49
686.79	7950.86
687.138	7915.61
687.485	7907.48
687.832	7890.98
688.18	7872.9
688.527	7814.82
688.874	7794.03
689.221	7734.15
689.568	7775.73
689.915	7741.6
690.262	7790.42
690.609	7765.56
690.956	7687.14
691.303	7683.53
691.65	7632.68
691.997	7599.69
692.344	7566.69
692.69	7623.87
693.037	7559.01
693.383	7446.92
693.73	7479.01
694.077	7430.43
694.423	7503.87
694.769	7440.82
695.116	7404.21
695.462	7396.75
695.808	7406.7
696.155	7372.12
696.501	7364.21
696.847	7309.3
697.193	7315.4
697.539	7297.55
697.885	7249.41
698.231	7244.89
698.577	7161.73
698.923	7187.49
699.269	7146.14
699.614	7092.58
699.96	7085.35
700.306	7024.79
700.651	7039.48
700.997	7002.87
701.342	6937.56
701.688	6937.56
702.033	6960.38
702.379	6965.13
702.724	6871.8
703.069	6958.57
703.415	6822.76
703.76	6893.04
704.105	6842.42
704.45	6801.52
704.795	6799.71
705.14	6752.25
705.485	6776.21
705.83	6705.93
706.175	6745.92
706.52	6719.48
706.865	6652.82
707.209	6621.41
707.554	6606.04
707.899	6618.02
708.243	6596.78
708.588	6673.16
708.932	6564.46
709.277	6506.38
709.621	6552.26
709.966	6509.77
710.31	6533.05
710.654	6427.97
710.998	6482.65
711.342	6488.53
711.687	6441.98
712.031	6439.27
712.375	6357.69
712.719	6435.42
713.063	6419.83
713.407	6363.56
713.75	6409.44
714.094	6370.34
714.438	6349.55
714.782	6310.68
715.125	6269.33
715.469	6329.44
715.812	6247.41
716.156	6316.56
716.499	6253.28
716.843	6252.6
717.186	6219.84
717.53	6276.11
717.873	6260.29
718.216	6204.24
718.559	6209.67
718.902	6147.07
719.246	6193.85
719.589	6221.42
719.932	6199.95
720.275	6115.88
720.617	6125.15
720.96	6110.69
721.303	6150.69
721.646	6167.86
721.989	6081.76
722.331	6077.47
722.674	6112.72
723.016	6075.66
723.359	6116.11
723.701	6116.79
724.044	6052.61
724.386	6002.44
724.729	6072.72
725.071	6032.27
725.413	6035.66
725.755	6058.48
726.097	6030.69
726.439	6034.08
726.782	5958.83
727.124	6051.03
727.465	5966.51
727.807	6020.52
728.149	5980.97
728.491	5995.21
728.833	6016.23
729.175	5964.48
729.516	5956.11
729.858	5974.19
730.199	6028.88
730.541	6011.03
730.882	5937.36
731.224	5955.21
731.565	5973.29
731.906	5923.8
732.248	5931.93
732.589	5931.26
732.93	5944.59
733.271	5930.13
733.612	5935.1
733.953	5943.23
734.294	5913.86
734.635	5962.89
734.976	5979.39
735.317	5983.01
735.658	5954.31
735.999	5922.9
736.339	5960.41
736.68	5946.85
737.021	5925.61
737.361	5919.51
737.702	6026.85
738.042	5944.59
738.383	5966.28
738.723	5995.44
739.063	5973.97
739.404	6009.9
739.744	5970.8
740.084	5972.39
740.424	6000.41
740.764	6025.72
741.104	6039.95
741.444	6031.59
741.784	6017.13
742.124	6028.2
742.464	6029.78
742.804	6105.26
743.143	6072.72
743.483	6011.25
743.823	6070.46
744.162	6108.2
744.502	6153.17
744.841	6150.69
745.181	6175.77
745.52	6179.84
745.86	6194.53
746.199	6244.69
746.538	6294.18
746.877	6307.07
747.216	6317.46
747.556	6361.75
747.895	6360.62
748.234	6374.86
748.573	6394.3
748.911	6483.56
749.25	6498.93
749.589	6560.39
749.928	6640.39
750.267	6642.65
750.605	6694.85
750.944	6695.53
751.283	6716.77
751.621	6812.36
751.96	6878.12
752.298	6955.64
752.636	7038.35
752.975	7036.76
753.313	7136.2
753.651	7212.35
753.989	7267.27
754.327	7348.62
754.666	7426.36
755.004	7538.22
755.342	7574.83
755.679	7669.52
756.017	7775.73
756.355	7923.97
756.693	8004.2
757.031	8093.23
757.368	8144.08
757.706	8205.09
758.044	8376.62
758.381	8498.42
758.719	8570.28
759.056	8710.39
759.394	8746.1
759.731	8848.92
760.068	8977.5
760.405	9107.67
760.743	9230.38
761.08	9387.89
761.417	9443.48
761.754	9553.76
762.091	9734.77
762.428	9806.63
762.765	9835.56
763.102	10077.59
763.438	10114.88
763.775	10216.12
764.112	10322.78
764.449	10461.98
764.785	10551.7
765.122	10679.38
765.458	10793.5
765.795	10873.05
766.131	11046.6
766.467	11146.71
766.804	11184.45
767.14	11345.13
767.476	11406.37
767.812	11512.13
768.148	11593.93
768.485	11600.71
768.821	11649.52
769.157	11800.71
769.492	11893.36
