Data from hue_34_FLMS001491_00057.txt Node
Date: Tue Feb 07 17:25:50 GMT 2017
User: dcchb
Spectrometer: FLMS00149
Trigger mode: 0
Integration Time (sec): 2.000000E-2
Scans to average: 10
Electric dark correction enabled: true
Nonlinearity correction enabled: false
Boxcar width: 0
XAxis mode: Wavelengths
Number of Pixels in Spectrum: 2048
>>>>>Begin Spectral Data<<<<<
341.393	-22.13
341.776	-22.13
342.16	-22.13
342.543	-48.12
342.927	-66.42
343.31	-81.34
343.693	-75.92
344.077	-40.44
344.46	-46.54
344.843	-57.84
345.226	-52.64
345.61	-39.76
345.993	-6.77
346.376	-6.99
346.759	1.14
347.142	33.01
347.525	42.05
347.908	53.12
348.291	74.14
348.674	98.09
349.057	106.68
349.44	121.82
349.823	141.93
350.206	152.33
350.588	189.61
350.971	204.08
351.354	222.83
351.737	233.23
352.119	237.52
352.502	270.97
352.884	271.65
353.267	293.34
353.65	286.11
354.032	300.12
354.414	337.18
354.797	310.97
355.179	317.97
355.562	316.39
355.944	317.07
356.326	325.43
356.709	340.8
357.091	351.64
357.473	362.72
357.855	345.09
358.238	342.6
358.62	332.21
359.002	348.48
359.384	342.38
359.766	336.73
360.148	340.57
360.53	327.24
360.912	346.45
361.294	329.5
361.676	347.35
362.057	331.08
362.439	338.08
362.821	315.94
363.203	323.17
363.584	320.68
363.966	332.21
364.348	342.38
364.729	310.29
365.111	331.3
365.493	336.95
365.874	314.36
366.256	327.01
366.637	314.58
367.019	313.9
367.4	304.86
367.781	318.42
368.163	314.58
368.544	322.04
368.925	317.07
369.306	309.38
369.688	314.36
370.069	305.32
370.45	312.77
370.831	293.79
371.212	309.84
371.593	310.74
371.974	327.01
372.355	341.25
372.736	306.22
373.117	305.09
373.498	338.99
373.879	308.25
374.26	306.9
374.641	321.14
375.021	329.27
375.402	320.01
375.783	334.02
376.163	318.88
376.544	320.23
376.925	305.54
377.305	330.85
377.686	332.89
378.066	320.01
378.447	325.88
378.827	332.89
379.208	337.41
379.588	341.7
379.968	336.05
380.349	343.73
380.729	313.9
381.109	343.06
381.489	335.6
381.87	324.53
382.25	327.92
382.63	342.15
383.01	343.28
383.39	338.76
383.77	343.06
384.15	346.9
384.53	329.95
384.91	325.66
385.29	341.25
385.67	352.77
386.049	338.54
386.429	339.89
386.809	339.44
387.189	353.9
387.568	354.58
387.948	349.38
388.328	336.73
388.707	365.2
389.087	359.55
389.466	358.2
389.846	366.56
390.225	351.87
390.605	383.96
390.984	361.36
391.363	356.84
391.743	356.16
392.122	363.39
392.501	362.04
392.881	391.64
393.26	376.73
393.639	371.76
394.018	369.04
394.397	364.07
394.776	405.43
395.155	365.43
395.534	384.18
395.913	346.9
396.292	389.61
396.671	384.64
397.05	388.48
397.429	377.18
397.808	374.47
398.186	388.7
398.565	381.02
398.944	371.53
399.323	403.85
399.701	390.06
400.08	401.13
400.458	393
400.837	373.11
401.215	406.11
401.594	402.94
401.972	408.36
402.351	412.66
402.729	419.44
403.107	411.08
403.486	418.53
403.864	399.33
404.242	402.94
404.62	400.68
404.999	404.07
405.377	394.13
405.755	408.36
406.133	417.4
406.511	403.85
406.889	409.27
407.267	426.9
407.645	435.03
408.023	425.31
408.401	435.48
408.779	452.43
409.156	455.82
409.534	447.91
409.912	461.92
410.29	433.9
410.667	464.41
411.045	455.37
411.422	451.98
411.8	455.6
412.178	469.83
412.555	482.71
412.933	472.09
413.31	469.38
413.687	469.38
414.065	488.59
414.442	481.13
414.819	484.3
415.197	491.75
415.574	495.82
415.951	499.89
416.328	502.37
416.705	489.04
417.082	501.02
417.46	491.98
417.837	518.64
418.214	504.86
418.591	510.51
418.967	513.67
419.344	504.18
419.721	517.97
420.098	510.06
420.475	490.4
420.852	524.29
421.228	527.23
421.605	532.43
421.982	535.37
422.358	523.62
422.735	538.76
423.111	543.28
423.488	545.99
423.864	544.86
424.241	544.41
424.617	543.5
424.994	553.22
425.37	567
425.746	568.59
426.123	570.17
426.499	572.88
426.875	595.7
427.251	574.46
427.627	565.65
428.003	564.75
428.379	586.67
428.756	575.59
429.132	599.32
429.507	619.21
429.883	587.12
430.259	623.95
430.635	620.11
431.011	645.42
431.387	641.58
431.763	629.83
432.138	637.51
432.514	647.45
432.89	647
433.265	642.48
433.641	656.72
434.016	643.39
434.392	644.74
434.767	682.48
435.143	664.86
435.518	693.1
435.894	694.23
436.269	697.62
436.644	710.96
437.02	712.76
437.395	717.96
437.77	719.54
438.145	717.06
438.52	701.69
438.895	734.46
439.271	728.13
439.646	761.12
440.021	767.23
440.395	745.08
440.77	745.31
441.145	746.66
441.52	757.96
441.895	761.8
442.27	752.08
442.645	785.53
443.019	785.53
443.394	763.16
443.769	785.53
444.143	790.05
444.518	790.73
444.892	801.12
445.267	819.88
445.641	780.56
446.016	812.2
446.39	793.89
446.764	800.9
447.139	818.98
447.513	823.27
447.887	852.2
448.262	834.12
448.636	833.21
449.01	811.29
449.384	872.99
449.758	844.96
450.132	868.92
450.506	865.53
450.88	867.34
451.254	862.59
451.628	877.96
452.002	850.61
452.376	880.44
452.75	904.4
453.123	904.17
453.497	911.18
453.871	904.62
454.244	934
454.618	970.61
454.992	951.4
455.365	940.55
455.739	966.32
456.112	1001.34
456.486	987.78
456.859	979.88
457.232	987.78
457.606	1011.96
457.979	1013.77
458.352	1049.25
458.725	1062.36
459.099	1042.47
459.472	1066.65
459.845	1087.22
460.218	1094.67
460.591	1086.31
460.964	1089.48
461.337	1091.74
461.71	1097.84
462.083	1144.16
462.456	1152.98
462.829	1158.63
463.201	1181.68
463.574	1203.82
463.947	1208.34
464.32	1220.55
464.692	1242.69
465.065	1241.56
465.438	1273.2
465.81	1285.18
466.183	1297.16
466.555	1312.07
466.928	1309.13
467.3	1347.1
467.672	1319.98
468.045	1380.77
468.417	1395.46
468.789	1389.13
469.161	1446.76
469.534	1467.32
469.906	1465.06
470.278	1508.22
470.65	1542.8
471.022	1531.95
471.394	1558.39
471.766	1598.39
472.138	1592.29
472.51	1628.9
472.882	1656.92
473.253	1694.66
473.625	1732.62
473.997	1778.5
474.369	1794.32
474.74	1805.16
475.112	1842.23
475.484	1866.86
475.855	1904.82
476.227	1969.91
476.598	1999.96
476.97	2032.05
477.341	2092.16
477.713	2152.73
478.084	2143.23
478.455	2297.35
478.827	2276.56
479.198	2353.85
479.569	2376.9
479.94	2461.42
480.311	2507.29
480.682	2605.6
481.053	2604.01
481.424	2706.61
481.795	2752.71
482.166	2808.98
482.537	2859.83
482.908	2958.81
483.279	3016.88
483.65	3119.25
484.021	3168.97
484.391	3242.64
484.762	3327.16
485.133	3390.89
485.503	3394.05
485.874	3531.22
486.244	3571.45
486.615	3692.12
486.985	3765.34
487.356	3847.6
487.726	3935.28
488.097	4032
488.467	4111.32
488.837	4212.78
489.207	4314.7
489.578	4399.9
489.948	4463.4
490.318	4541.59
490.688	4584.3
491.058	4727.12
491.428	4766.44
491.798	4865.87
492.168	5034.46
492.538	5064.51
492.908	5160.1
493.278	5322.81
493.648	5313.77
494.017	5432.41
494.387	5505.18
494.757	5626.76
495.126	5651.39
495.496	5741.33
495.866	5812.74
496.235	5932.97
496.605	5987.43
496.974	6060.87
497.344	6107.65
497.713	6182.22
498.082	6248.66
498.452	6395.78
498.821	6450.92
499.19	6451.6
499.559	6541.99
499.928	6671.93
500.298	6641.2
500.667	6736.33
501.036	6798.03
501.405	6905.6
501.774	6937.91
502.143	7022.43
502.512	7050.45
502.88	7132.71
503.249	7232.59
503.618	7308.52
503.987	7333.38
504.356	7417.22
504.724	7464.45
505.093	7499.93
505.462	7575.63
505.83	7621.51
506.199	7704.44
506.567	7742.41
506.936	7784.89
507.304	7987.15
507.672	7986.47
508.041	8011.55
508.409	8114.38
508.777	8127.71
509.145	8238.44
509.514	8209.97
509.882	8302.62
510.25	8259.01
510.618	8380.13
510.986	8453.13
511.354	8542.16
511.722	8583.29
512.09	8686.79
512.458	8639.56
512.826	8703.97
513.193	8771.53
513.561	8856.96
513.929	8875.04
514.297	8978.08
514.664	8961.59
515.032	9023.28
515.4	9102.37
515.767	9193.9
516.135	9237.06
516.502	9144.41
516.869	9412.87
517.237	9340.79
517.604	9354.12
517.972	9410.39
518.339	9559.76
518.706	9448.58
519.073	9541.46
519.44	9612.64
519.808	9733.77
520.175	9699.65
520.542	9797.04
520.909	9895.8
521.276	9820.55
521.643	9953.2
522.009	10006.3
522.376	10133.53
522.743	10075.46
523.11	10213.08
523.477	10251.95
523.843	10434.54
524.21	10440.87
524.577	10514.09
524.943	10554.54
525.31	10623.69
525.676	10693.07
526.043	10730.81
526.409	10819.39
526.776	10887.86
527.142	10914.53
527.508	10998.14
527.874	11072.72
528.241	11097.58
528.607	11138.25
528.973	11247.85
529.339	11279.04
529.705	11386.61
530.071	11474.74
530.437	11436.78
530.803	11606.71
531.169	11589.09
531.535	11637.67
531.901	11715.64
532.267	11744.79
532.632	11870.44
532.998	11817.33
533.364	12000.38
533.73	11940.94
534.095	12134.38
534.461	12072.47
534.826	12181.84
535.192	12240.37
535.557	12300.93
535.923	12220.26
536.288	12368.05
536.653	12418.67
537.019	12325.34
537.384	12481.72
537.749	12533.24
538.114	12591.32
538.479	12578.21
538.845	12641.04
539.21	12611.66
539.575	12805.78
539.94	12811.43
540.305	12906.57
540.67	12843.07
541.034	12949.73
541.399	12999.22
541.764	13064.08
542.129	13128.03
542.494	13147.92
542.858	13161.25
543.223	13195.37
543.587	13247.35
543.952	13324.86
544.316	13391.07
544.681	13390.17
545.045	13458.87
545.41	13531.64
545.774	13630.62
546.138	13667.68
546.503	13625.19
546.867	13631.52
547.231	13812.08
547.595	13765.75
547.959	13933.66
548.324	13934.34
548.688	13944.28
549.052	13982.92
549.416	14092.3
549.779	14140.21
550.143	14071.73
550.507	14245.06
550.871	14282.58
551.235	14258.17
551.599	14394.21
551.962	14397.38
552.326	14433.53
552.689	14543.81
553.053	14455.45
553.417	14556.02
553.78	14713.75
554.143	14655
554.507	14700.19
554.87	14810.47
555.234	14939.51
555.597	14771.6
555.96	14906.06
556.323	14984.25
556.686	14946.51
557.05	15100.18
557.413	15074.19
557.776	15132.5
558.139	15236
558.502	15268.77
558.865	15228.09
559.228	15435.31
559.59	15393.51
559.953	15430.12
560.316	15594.63
560.679	15566.16
561.041	15719.6
561.404	15779.94
561.767	15832.37
562.129	15737.68
562.492	15955.3
562.854	15976.54
563.217	15928.41
563.579	16024
563.941	16103.77
564.304	16187.16
564.666	16271.68
565.028	16263.77
565.39	16251.79
565.753	16502.41
566.115	16459.47
566.477	16573.36
566.839	16618.56
567.201	16699.69
567.563	16739.46
567.925	16919.34
568.287	16849.97
568.648	16876.86
569.01	17051.54
569.372	17079.34
569.734	17072.11
570.095	17122.73
570.457	17336.06
570.819	17271.88
571.18	17322.95
571.542	17336.06
571.903	17364.3
572.265	17592.55
572.626	17598.65
572.987	17721.58
573.349	17732.88
573.71	17889.49
574.071	17943.5
574.432	18032.31
574.794	18249.93
575.155	18238.4
575.516	18310.72
575.877	18438.63
576.238	18409.7
576.599	18661.67
576.96	18690.37
577.32	18820.54
577.681	18942.79
578.042	19098.5
578.403	19231.15
578.763	19265.95
579.124	19386.62
579.485	19557.92
579.845	19704.13
580.206	19826.16
580.566	19957
580.927	20067.06
581.287	20286.26
581.648	20433.15
582.008	20629.98
582.368	20867.49
582.728	21065.9
583.089	21086.24
583.449	21259.12
583.809	21538.2
584.169	21786.11
584.529	21883.96
584.889	22084.41
585.249	22290.95
585.609	22366.88
585.969	22706.76
586.329	22924.38
586.688	23192.17
587.048	23368.67
587.408	23487.76
587.768	23733.4
588.127	23947.63
588.487	24085.71
588.846	24538.58
589.206	24652.93
589.565	24849.76
589.925	25158.9
590.284	25350.31
590.643	25589.4
591.003	25957.98
591.362	26246.33
591.721	26428.7
592.08	26589.37
592.44	26909.36
592.799	27239.75
593.158	27325.85
593.517	27549.35
593.876	27924.25
594.235	28067.75
594.593	28347.29
594.952	28687.4
595.311	28675.64
595.67	29104.56
596.029	29391.78
596.387	29684.66
596.746	29946.57
597.104	30078.09
597.463	30359.67
597.822	30664.29
598.18	30737.29
598.538	30972.53
598.897	31322.13
599.255	31234.67
599.613	31895.67
599.972	31932.73
600.33	32306.06
600.688	32322.1
601.046	32748.31
601.404	32867.4
601.762	33010.45
602.12	33394.16
602.478	33508.06
602.836	33806.36
603.194	33679.58
603.552	33970.87
603.91	34061.72
604.268	34436.85
604.625	34384.65
604.983	34668.26
605.341	34807.01
605.698	35114.57
606.056	35444.73
606.413	35538.06
606.771	35824.38
607.128	35910.26
607.485	35803.59
607.843	36107.54
608.2	36401.54
608.557	36601.76
608.914	36596.34
609.272	36962.21
609.629	37295.76
609.986	37239.26
610.343	37413.04
610.7	37745.46
611.057	37678.35
611.414	37853.03
611.771	37818.68
612.127	38254.6
612.484	38328.27
612.841	38685.55
613.198	38446.46
613.554	38723.97
613.911	38893.45
614.267	39102.94
614.624	39138.19
614.98	39132.54
615.337	39544.96
615.693	39521.01
616.05	39535.25
616.406	39794.67
616.762	39712.64
617.118	39947.66
617.475	39940.88
617.831	40118.06
618.187	40218.84
618.543	40367.77
618.899	40674.42
619.255	40477.37
619.611	40624.93
619.967	40776.34
620.323	40854.76
620.678	40792.61
621.034	40862.89
621.39	40951.03
621.746	40968.88
622.101	41405.71
622.457	41231.25
622.812	41434.4
623.168	41430.34
623.523	41581.75
623.879	41842.53
624.234	41534.97
624.589	41748.52
624.945	41633.04
625.3	42019.47
625.655	41851.12
626.01	41827.16
626.365	41982.87
626.72	42003.88
627.075	41927.5
627.43	42035.07
627.785	41921.85
628.14	42118.68
628.495	42244.33
628.85	42141.5
629.205	42127.27
629.559	42261.5
629.914	42222.18
630.269	42315.29
630.623	42125.91
630.978	42057.44
631.332	42264.89
631.687	42496.98
632.041	42271.22
632.396	42406.13
632.75	42144.67
633.104	42403.87
633.459	42347.38
633.813	42396.41
634.167	42311.67
634.521	42196.42
634.875	42328.39
635.229	42251.78
635.583	42084.56
635.937	42115.52
636.291	42104.67
636.645	42117.32
636.999	42146.25
637.352	42281.84
637.706	41948.52
638.06	42195.06
638.413	42155.29
638.767	41951.68
639.121	42176.31
639.474	41915.3
639.828	42021.06
640.181	41951.68
640.534	41985.58
640.888	41882.98
641.241	41665.81
641.594	41855.18
641.947	42023.32
642.301	41913.04
642.654	41942.64
643.007	41892.92
643.36	41775.41
643.713	41684.34
644.066	42028.51
644.419	41676.43
644.771	41466.95
645.124	41141.98
645.477	41066.73
645.83	40834.65
646.182	40825.61
646.535	40614.54
646.888	40628.32
647.24	40436.47
647.593	40724.14
647.945	40601.43
648.298	40369.8
648.65	40446.18
649.002	40267.66
649.355	40551.49
649.707	40461.55
650.059	40619.06
650.411	41113.74
650.763	41053.62
651.115	41412.94
651.467	41366.84
651.819	41384.24
652.171	41196.22
652.523	41269.44
652.875	41239.83
653.227	40991.93
653.578	41384.24
653.93	41261.3
654.282	41106.05
654.633	40955.55
654.985	40984.25
655.337	41071.7
655.688	41247.52
656.039	41333.84
656.391	40882.55
656.742	41047.3
657.094	41092.72
657.445	41142.89
657.796	40996.68
658.147	41042.1
658.498	41078.26
658.849	40876.45
659.2	40900.18
659.551	40900.86
659.902	41003
660.253	40971.82
660.604	40987.19
660.955	40658.83
661.306	40833.29
661.656	40681.66
662.007	40803.69
662.358	40698.38
662.708	40798.49
663.059	40730.24
663.409	40625.84
663.76	40768.43
664.11	40864.25
664.461	40935.89
664.811	40802.78
665.161	40661.09
665.511	40667.87
665.862	40720.3
666.212	40862.22
666.562	40887.07
666.912	40709.45
667.262	40567.31
667.612	40655.67
667.962	40749
668.312	40684.59
668.662	40841.2
669.011	40713.29
669.361	40717.59
669.711	40634.2
670.06	40673.52
670.41	40502.23
670.76	40556.91
671.109	40809.11
671.459	40603.01
671.808	40571.83
672.157	40664.71
672.507	40385.39
672.856	40419.52
673.205	40534.54
673.554	40640.08
673.904	40352.4
674.253	40670.58
674.602	40385.84
674.951	39968.45
675.3	39790.15
675.649	40340.87
675.998	40374.32
676.346	40425.84
676.695	40488.89
677.044	40254.77
677.393	40378.61
677.741	40337.48
678.09	40297.49
678.438	40168.45
678.787	40217.26
679.135	40243.02
679.484	39918.96
679.832	40102.24
680.181	39907.89
680.529	39934.78
680.877	39849.81
681.225	39875.35
681.573	40060.66
681.922	39812.3
682.27	39684.62
682.618	39678.29
682.966	39603.04
683.314	39676.03
683.661	39584.06
684.009	39245.31
684.357	39362.37
684.705	39309.04
685.053	39284.63
685.4	39310.62
685.748	39043.28
686.095	39127.12
686.443	38961.25
686.79	39041.93
687.138	39062.94
687.485	38956.5
687.832	38815.49
688.18	38858.2
688.527	38616.17
688.874	38581.6
689.221	38572.33
689.568	38569.4
689.915	38467.7
690.262	38403.07
690.609	38262.96
690.956	38128.73
691.303	38029.97
691.65	37934.61
691.997	37951.56
692.344	37663.43
692.69	37735.07
693.037	37678.8
693.383	37375.75
693.73	37439.26
694.077	37316.55
694.423	37225.25
694.769	37158.36
695.116	37120.17
695.462	37175.08
695.808	36983
696.155	37101.41
696.501	36719.27
696.847	36719.73
697.193	36558.83
697.539	36590.69
697.885	36432.28
698.231	36339.85
698.577	36277.93
698.923	36300.3
699.269	36040.87
699.614	35950.71
699.96	35943.48
700.306	35922.01
700.651	35781.45
700.997	35684.73
701.342	35520.66
701.688	35477.27
702.033	35476.14
702.379	35384.62
702.724	35308.69
703.069	35335.13
703.415	34927.01
703.76	34952.54
704.105	34964.29
704.45	34841.81
704.795	34639.78
705.14	34658.31
705.485	34577.18
705.83	34440.01
706.175	34504.87
706.52	34433.91
706.865	34383.06
707.209	34235.95
707.554	34139
707.899	34159.57
708.243	34008.39
708.588	33920.25
708.932	33819.69
709.277	33639.36
709.621	33788.28
709.966	33512.35
710.31	33620.37
710.654	33290.44
710.998	33398.23
711.342	33355.52
711.687	33284.34
712.031	33098.58
712.375	32936.55
712.719	32941.52
713.063	32995.08
713.407	33060.39
713.75	32890.22
714.094	32768.42
714.438	32675.31
714.782	32685.26
715.125	32636.67
715.469	32708.98
715.812	32490.69
716.156	32277.58
716.499	32394.64
716.843	32330.24
717.186	32166.85
717.53	32332.27
717.873	32262.22
718.216	32167.53
718.559	32019.74
718.902	31763.7
719.246	31985.39
719.589	31890.7
719.932	31775.9
720.275	31780.2
720.617	31637.15
720.96	31551.73
721.303	31586.3
721.646	31457.49
721.989	31333.43
722.331	31487.77
722.674	31354.44
723.016	31493.2
723.359	31325.07
723.701	31345.4
724.044	31182.25
724.386	31004.85
724.729	31083.04
725.071	31083.94
725.413	31033.1
725.755	31043.04
726.097	30946.77
726.439	30765.31
726.782	30741.8
727.124	31001.01
727.465	30780.22
727.807	30683.05
728.149	30619.32
728.491	30538.87
728.833	30686.21
729.175	30435.15
729.516	30391.98
729.858	30396.95
730.199	30391.53
730.541	30363.74
730.882	30243.74
731.224	30246
731.565	30175.04
731.906	30236.73
732.248	30198.77
732.589	30041.94
732.93	29796.52
733.271	29848.95
733.612	29795.16
733.953	29914.93
734.294	29770.76
734.635	29610.08
734.976	29871.77
735.317	29641.72
735.658	29652.79
735.999	29528.28
736.339	29462.29
736.68	29580.48
737.021	29535.51
737.361	29378.22
737.702	29492.35
738.042	29499.13
738.383	29406.7
738.723	29372.8
739.063	29248.28
739.404	29386.13
739.744	29129.87
740.084	29010.55
740.424	29135.52
740.764	29117.44
741.104	29147.72
741.444	29096.2
741.784	28875.64
742.124	28959.48
742.464	28793.16
742.804	28757
743.143	28889.42
743.483	28766.26
743.823	28674.51
744.162	28594.97
744.502	28681.29
744.841	28499.15
745.181	28718.81
745.52	28559.49
745.86	28514.07
746.199	28508.42
746.538	28484.69
746.877	28448.76
747.216	28402.21
747.556	28328.76
747.895	28282.43
748.234	28141.42
748.573	28185.71
748.911	28100.07
749.25	28104.59
749.589	28083.57
749.928	27981.88
750.267	28056
750.605	27868.21
750.944	27961.09
751.283	27676.8
751.621	27817.81
751.96	27762.45
752.298	27692.39
752.636	27672.51
752.975	27507.77
753.313	27384.6
753.651	27519.97
753.989	27279.52
754.327	27345.96
754.666	27150.94
755.004	27155.91
755.342	27223.25
755.679	27288.34
756.017	26998.4
756.355	27102.35
756.693	26965.86
757.031	27008.57
757.368	26802.25
757.706	26817.16
758.044	26649.93
