Data from hue_270_FLMS001491_00017.txt Node
Date: Tue Feb 07 15:56:50 GMT 2017
User: dcchb
Spectrometer: FLMS00149
Trigger mode: 0
Integration Time (sec): 2.000000E-2
Scans to average: 10
Electric dark correction enabled: true
Nonlinearity correction enabled: false
Boxcar width: 0
XAxis mode: Wavelengths
Number of Pixels in Spectrum: 2048
>>>>>Begin Spectral Data<<<<<
341.393	-16.2
341.776	-16.2
342.16	-16.2
342.543	-54.39
342.927	-69.31
343.31	-93.94
343.693	-59.14
344.077	-71.34
344.46	-57.55
344.843	-50.78
345.226	-41.74
345.61	-43.54
345.993	1.88
346.376	-10.78
346.759	14.31
347.142	36.91
347.525	41.2
347.908	62.67
348.291	77.81
348.674	77.36
349.057	116.68
349.44	128.2
349.823	149.67
350.206	165.26
350.588	208.88
350.971	189.44
351.354	213.4
351.737	228.77
352.119	248.65
352.502	250.01
352.884	265.83
353.267	264.92
353.65	298.82
354.032	297.69
354.414	308.31
354.797	325.49
355.179	306.73
355.562	318.25
355.944	329.78
356.326	350.12
356.709	331.36
357.091	342.43
357.473	360.29
357.855	344.02
358.238	344.69
358.62	323.23
359.002	330.46
359.384	345.15
359.766	323.23
360.148	331.14
360.53	337.46
360.912	370.46
361.294	337.01
361.676	320.74
362.057	345.15
362.439	315.99
362.821	330.23
363.203	325.71
363.584	349.67
363.966	309.89
364.348	340.4
364.729	301.31
365.111	303.57
365.493	324.81
365.874	313.28
366.256	318.03
366.637	313.96
367.019	313.06
367.4	311.7
367.781	298.14
368.163	338.37
368.544	312.38
368.925	304.92
369.306	310.57
369.688	326.16
370.069	300.85
370.45	321.19
370.831	312.83
371.212	309.89
371.593	323
371.974	311.47
372.355	308.99
372.736	327.29
373.117	309.44
373.498	332.04
373.879	323.68
374.26	305.15
374.641	312.6
375.021	308.09
375.402	319.16
375.783	292.72
376.163	311.7
376.544	319.38
376.925	317.35
377.305	315.32
377.686	308.76
378.066	323.23
378.447	337.46
378.827	338.14
379.208	330.46
379.588	329.33
379.968	336.11
380.349	331.14
380.729	333.85
381.109	360.74
381.489	333.62
381.87	346.05
382.25	342.89
382.63	329.55
383.01	331.14
383.39	346.28
383.77	341.98
384.15	340.17
384.53	373.17
384.91	342.21
385.29	357.58
385.67	365.94
386.049	348.99
386.429	368.65
386.809	346.95
387.189	339.27
387.568	362.77
387.948	340.63
388.328	348.54
388.707	362.09
389.087	358.71
389.466	360.74
389.846	347.18
390.225	353.28
390.605	367.52
390.984	384.47
391.363	360.51
391.743	372.49
392.122	376.56
392.501	362.32
392.881	369.33
393.26	398.7
393.639	384.69
394.018	381.76
394.397	388.99
394.776	371.13
395.155	363.68
395.534	400.51
395.913	401.19
396.292	401.19
396.671	377.01
397.05	396.9
397.429	399.38
397.808	397.12
398.186	415.65
398.565	410.23
398.944	404.35
399.323	395.54
399.701	391.25
400.08	440.06
400.458	427.18
400.837	407.07
401.215	426.5
401.594	421.53
401.972	406.39
402.351	434.86
402.729	419.04
403.107	443.67
403.486	437.8
403.864	423.11
404.242	442.54
404.62	437.8
404.999	444.13
405.377	433.05
405.755	453.62
406.133	486.84
406.511	463.34
406.889	435.54
407.267	479.83
407.645	482.77
408.023	482.54
408.401	497.46
408.779	492.04
409.156	501.07
409.534	490.23
409.912	502.66
410.29	532.03
410.667	525.25
411.045	527.51
411.422	520.73
411.8	519.38
412.178	546.27
412.555	533.39
412.933	547.17
413.31	560.96
413.687	583.33
414.065	569.77
414.442	584.46
414.819	613.16
415.197	600.05
415.574	606.16
415.951	605.03
416.328	615.42
416.705	631.24
417.082	632.82
417.46	630.34
417.837	671.92
418.214	646.38
418.591	651.35
418.967	647.74
419.344	673.27
419.721	677.79
420.098	676.89
420.475	700.62
420.852	726.15
421.228	709.2
421.605	742.65
421.982	722.31
422.358	743.78
422.735	769.54
423.111	776.32
423.488	789.43
423.864	788.52
424.241	794.4
424.617	791.24
424.994	828.52
425.37	832.59
425.746	814.29
426.123	836.43
426.499	854.51
426.875	873.72
427.251	881.86
427.627	880.05
428.003	885.47
428.379	887.28
428.756	891.8
429.132	931.8
429.507	953.27
429.883	929.09
430.259	952.36
430.635	963.66
431.011	930.67
431.387	997.11
431.763	1024
432.138	983.32
432.514	1031.23
432.89	1015.86
433.265	1069.87
433.641	1070.78
434.016	1081.4
434.392	1111.91
434.767	1121.4
435.143	1141.28
435.518	1143.54
435.894	1157.55
436.269	1156.88
436.644	1202.52
437.02	1233.26
437.395	1232.13
437.77	1238.68
438.145	1251.11
438.52	1293.14
438.895	1314.61
439.271	1299.92
439.646	1325.01
440.021	1334.27
440.395	1339.24
440.77	1327.49
441.145	1405.01
441.52	1386.25
441.895	1392.12
442.27	1428.96
442.645	1395.97
443.019	1442.52
443.394	1465.34
443.769	1452.01
444.143	1463.76
444.518	1501.95
444.892	1474.83
445.267	1482.97
445.641	1507.38
446.016	1521.61
446.39	1548.96
446.764	1528.39
447.139	1539.69
447.513	1548.28
447.887	1580.14
448.262	1569.29
448.636	1565
449.01	1580.59
449.384	1641.16
449.758	1619.69
450.132	1632.8
450.506	1650.87
450.88	1682.29
451.254	1654.26
451.628	1687.71
452.002	1682.96
452.376	1694.72
452.75	1723.19
453.123	1708.95
453.497	1725.22
453.871	1738.56
454.244	1775.39
454.618	1766.13
454.992	1795.28
455.365	1819.46
455.739	1850.42
456.112	1845.9
456.486	1871.66
456.859	1914.82
457.232	1911.21
457.606	1907.59
457.979	1945.56
458.352	1959.34
458.725	1977.87
459.099	2001.37
459.472	2061.03
459.845	2049.28
460.218	2061.03
460.591	2082.28
460.964	2091.77
461.337	2127.92
461.71	2123.86
462.083	2160.69
462.456	2155.72
462.829	2186.23
463.201	2185.78
463.574	2221.93
463.947	2230.52
464.32	2269.16
464.692	2289.28
465.065	2284.3
465.438	2302.83
465.81	2351.65
466.183	2366.34
466.555	2414.92
466.928	2405.43
467.3	2441.14
467.672	2472.55
468.045	2508.25
468.417	2498.76
468.789	2539.44
469.161	2531.3
469.534	2605.88
469.906	2592.77
470.278	2650.4
470.65	2683.39
471.022	2708.93
471.394	2763.84
471.766	2766.55
472.138	2777.17
472.51	2810.39
472.882	2836.38
473.253	2887
473.625	2938.75
473.997	2984.17
474.369	3004.29
474.74	2990.5
475.112	3070.95
475.484	3104.62
475.855	3115.02
476.227	3187.33
476.598	3241.57
476.97	3239.53
477.341	3331.28
477.713	3325.86
478.084	3354.33
478.455	3432.3
478.827	3445.4
479.198	3536.93
479.569	3528.34
479.94	3622.8
480.311	3626.42
480.682	3695.11
481.053	3751.84
481.424	3808.11
481.795	3839.29
482.166	3899.4
482.537	3932.17
482.908	3982.79
483.279	4007.87
483.65	4057.14
484.021	4160.87
484.391	4187.53
484.762	4196.8
485.133	4228.21
485.503	4257.13
485.874	4332.61
486.244	4358.6
486.615	4435.66
486.985	4453.29
487.356	4531.7
487.726	4563.57
488.097	4665.71
488.467	4683.56
488.837	4706.61
489.207	4775.54
489.578	4811.02
489.948	4849.89
490.318	4899.83
490.688	4921.52
491.058	4978.92
491.428	5027.96
491.798	5043.55
492.168	5124.23
492.538	5129.88
492.908	5158.13
493.278	5272.02
493.648	5237.22
494.017	5272.25
494.387	5330.55
494.757	5378.69
495.126	5390.44
495.496	5428.85
495.866	5446.93
496.235	5489.87
496.605	5522.86
496.974	5487.38
497.344	5594.73
497.713	5605.12
498.082	5606.02
498.452	5668.4
498.821	5641.5
499.19	5659.58
499.559	5743.2
499.928	5751.11
500.298	5803.76
500.667	5895.06
501.036	5846.7
501.405	5832.46
501.774	5889.18
502.143	5911.78
502.512	5932.57
502.88	5997.88
503.249	5941.61
503.618	6013.47
503.987	6050.31
504.356	6034.04
504.724	6029.52
505.093	6066.8
505.462	6078.33
505.83	6106.8
506.199	6106.58
506.567	6158.33
506.936	6172.56
507.304	6218.21
507.672	6258.89
508.041	6257.53
508.409	6297.53
508.777	6248.27
509.145	6295.05
509.514	6310.87
509.882	6297.98
510.25	6361.26
510.618	6357.42
510.986	6372.78
511.354	6435.38
511.722	6464.76
512.09	6518.54
512.458	6493.91
512.826	6512.89
513.193	6541.37
513.561	6549.73
513.929	6493.23
514.297	6619.78
514.664	6564.64
515.032	6570.75
515.4	6657.75
515.767	6620.91
516.135	6623.4
516.502	6605.55
516.869	6700.91
517.237	6629.73
517.604	6633.12
517.972	6707.46
518.339	6725.32
518.706	6689.39
519.073	6729.39
519.44	6798.76
519.808	6852.32
520.175	6770.06
520.542	6822.94
520.909	6858.2
521.276	6816.16
521.643	6860
522.009	6825.2
522.376	6836.05
522.743	6909.95
523.11	6970.28
523.477	6978.19
523.843	7015.48
524.21	7041.69
524.577	7066.55
524.943	7049.6
525.31	7090.73
525.676	7093.9
526.043	7147.45
526.409	7146.55
526.776	7164.18
527.142	7177.73
527.508	7179.99
527.874	7250.95
528.241	7277.39
528.607	7208.92
528.973	7287.79
529.339	7283.72
529.705	7342.48
530.071	7401.23
530.437	7404.85
530.803	7403.27
531.169	7486.2
531.535	7394.68
531.901	7381.57
532.267	7372.76
532.632	7484.17
532.998	7457.5
533.364	7472.42
533.73	7557.84
534.095	7509.03
534.461	7504.51
534.826	7533.88
535.192	7610.04
535.557	7586.54
535.923	7565.75
536.288	7568.69
536.653	7629.47
537.019	7558.74
537.384	7582.02
537.749	7570.04
538.114	7618.18
538.479	7611.85
538.845	7669.47
539.21	7580.66
539.575	7597.61
539.94	7652.07
540.305	7641.23
540.67	7668.8
541.034	7734.78
541.399	7726.87
541.764	7672.86
542.129	7658.85
542.494	7738.4
542.858	7701.34
543.223	7714.22
543.587	7782.92
543.952	7678.06
544.316	7712.41
544.681	7670.15
545.045	7705.63
545.41	7700.21
545.774	7714.22
546.138	7800.54
546.503	7779.98
546.867	7732.97
547.231	7790.37
547.595	7787.44
547.959	7770.71
548.324	7784.05
548.688	7855.23
549.052	7836.02
549.416	7837.15
549.779	7760.54
550.143	7832.41
550.507	7894.55
550.871	7866.76
551.235	7805.52
551.599	7858.4
551.962	7867.89
552.326	7890.71
552.689	7923.03
553.053	7876.25
553.417	7920.54
553.78	7969.13
554.143	7869.92
554.507	7967.77
554.87	7992.63
555.234	8091.16
555.597	7989.01
555.96	8001.67
556.323	8041.22
556.686	8005.06
557.05	8068.11
557.413	8041.89
557.776	8052.74
558.139	8087.32
558.502	8102.68
558.865	8061.1
559.228	8169.35
559.59	8226.97
559.953	8155.79
560.316	8233.98
560.679	8190.36
561.041	8257.48
561.404	8285.73
561.767	8287.08
562.129	8267.65
562.492	8386.29
562.854	8363.47
563.217	8357.36
563.579	8386.97
563.941	8398.27
564.304	8464.03
564.666	8430.58
565.028	8492.28
565.39	8581.09
565.753	8571.6
566.115	8524.14
566.477	8596.45
566.839	8630.35
567.201	8632.16
567.563	8667.19
567.925	8756
568.287	8740.86
568.648	8750.8
569.01	8816.79
569.372	8780.4
569.734	8774.76
570.095	8879.84
570.457	8891.59
570.819	8958.71
571.18	8884.81
571.542	9039.38
571.903	8960.96
572.265	9010.23
572.626	9073.73
572.987	9067.63
573.349	9083
573.71	9125.03
574.071	9137.01
574.432	9144.01
574.794	9284.12
575.155	9191.02
575.516	9228.75
575.877	9175.2
576.238	9275.31
576.599	9324.8
576.96	9315.53
577.32	9401.41
577.681	9427.39
578.042	9480.95
578.403	9488.41
578.763	9461.29
579.124	9537.67
579.485	9506.04
579.845	9539.48
580.206	9594.39
580.566	9628.97
580.927	9676.88
581.287	9636.65
581.648	9680.27
582.008	9793.26
582.368	9760.49
582.728	9781.28
583.089	9828.51
583.449	9817.21
583.809	9916.87
584.169	9916.19
584.529	9894.5
584.889	10002.07
585.249	9939.47
585.609	9911.45
585.969	9977.89
586.329	10001.62
586.688	9992.35
587.048	10033.71
587.408	9997.32
587.768	10033.03
588.127	10080.71
588.487	10174.94
588.846	10151.89
589.206	10186.02
589.565	10240.25
589.925	10263.76
590.284	10334.94
590.643	10299.01
591.003	10263.08
591.362	10435.95
591.721	10314.6
592.08	10350.31
592.44	10418.1
592.799	10411.1
593.158	10410.64
593.517	10441.38
593.876	10411.1
594.235	10421.04
594.593	10484.09
594.952	10444.99
595.311	10445.9
595.67	10592.11
596.029	10655.38
596.387	10571.77
596.746	10631.88
597.104	10639.56
597.463	10624.88
597.822	10680.02
598.18	10661.94
598.538	10680.69
598.897	10756.85
599.255	10678.66
599.613	10781.26
599.972	10695.61
600.33	10719.34
600.688	10831.88
601.046	10864.87
601.404	10760.01
601.762	10846.11
602.12	10876.39
602.478	10860.8
602.836	10890.86
603.194	10788.71
603.552	10903.96
603.91	10884.76
604.268	10920.46
604.625	10946.9
604.983	10902.16
605.341	10909.61
605.698	10929.5
606.056	10962.04
606.413	11009.5
606.771	10934.7
607.128	10889.95
607.485	10915.94
607.843	11017.18
608.2	10981.7
608.557	11110.51
608.914	10996.84
609.272	11054.02
609.629	11175.82
609.986	11182.6
610.343	11106.9
610.7	11148.93
611.057	11147.57
611.414	11191.64
611.771	11180.79
612.127	11212.88
612.484	11192.32
612.841	11236.84
613.198	11208.59
613.554	11151.87
613.911	11270.73
614.267	11291.3
614.624	11329.49
614.98	11295.59
615.337	11317.97
615.693	11329.49
616.05	11314.8
616.406	11334.91
616.762	11330.17
617.118	11378.08
617.475	11344.41
617.831	11350.05
618.187	11396.16
618.543	11307.34
618.899	11426.21
619.255	11414.01
619.611	11399.54
619.967	11376.95
620.323	11417.17
620.678	11324.29
621.034	11385.53
621.39	11439.32
621.746	11407.45
622.101	11515.47
622.457	11369.94
622.812	11383.05
623.168	11510.05
623.523	11486.55
623.879	11531.07
624.234	11395.03
624.589	11442.48
624.945	11481.58
625.3	11484.29
625.655	11469.37
626.01	11448.13
626.365	11512.31
626.72	11433.89
627.075	11414.46
627.43	11454.46
627.785	11402.93
628.14	11444.97
628.495	11472.76
628.85	11477.51
629.205	11448.13
629.559	11428.7
629.914	11394.12
630.269	11462.82
630.623	11377.62
630.978	11325.2
631.332	11338.76
631.687	11393.22
632.041	11255.37
632.396	11428.02
632.75	11275.71
633.104	11322.71
633.459	11245.42
633.813	11232.09
634.167	11223.5
634.521	11164.97
634.875	11190.74
635.229	11199.1
635.583	11165.43
635.937	11226.89
636.291	11244.97
636.645	11174.69
636.999	11151.64
637.352	11152.32
637.706	11119.78
638.06	11161.81
638.413	11149.38
638.767	11160.91
639.121	11132.89
639.474	11014.92
639.828	11037.97
640.181	11028.93
640.534	11072.1
640.888	10984.41
641.241	11010.18
641.594	10971.08
641.947	10957.07
642.301	11031.87
642.654	11044.75
643.007	10943.74
643.36	10937.86
643.713	10923.4
644.066	10972.44
644.419	10897.86
644.771	10841.82
645.124	10814.93
645.477	10719.79
645.83	10739.22
646.182	10630.75
646.535	10567.7
646.888	10550.08
647.24	10524.09
647.593	10608.38
647.945	10588.04
648.298	10560.7
648.65	10544.88
649.002	10595.5
649.355	10458.1
649.707	10459.91
650.059	10475.5
650.411	10770.18
650.763	10710.75
651.115	10824.42
651.467	10759.56
651.819	10796.62
652.171	10816.51
652.523	10727.92
652.875	10781.71
653.227	10753.46
653.578	10833.46
653.93	10848.15
654.282	10755.04
654.633	10711.2
654.985	10712.33
655.337	10758.43
655.688	10761.6
656.039	10771.54
656.391	10740.58
656.742	10770.41
657.094	10776.96
657.445	10753.01
657.796	10784.42
658.147	10697.19
658.498	10687.02
658.849	10846.11
659.2	10713.01
659.551	10775.15
659.902	10797.53
660.253	10825.77
660.604	10808.15
660.955	10707.59
661.306	10826
661.656	10769.73
662.007	10828.71
662.358	10762.27
662.708	10783.52
663.059	10769.05
663.409	10821.03
663.76	10844.31
664.11	10813.8
664.461	10774.02
664.811	10781.03
665.161	10829.62
665.511	10803.63
665.862	10760.47
666.212	10818.09
666.562	10841.82
666.912	10809.05
667.262	10726.34
667.612	10713.46
667.962	10793.46
668.312	10725.89
668.662	10816.28
669.011	10756.4
669.361	10831.2
669.711	10742.61
670.06	10726.79
670.41	10731.99
670.76	10681.6
671.109	10739.9
671.459	10703.97
671.808	10720.01
672.157	10731.77
672.507	10592.56
672.856	10650.86
673.205	10734.7
673.554	10709.39
673.904	10709.39
674.253	10715.72
674.602	10674.59
674.951	10520.7
675.3	10483.64
675.649	10611.32
675.998	10641.37
676.346	10586.46
676.695	10640.47
677.044	10598.89
677.393	10582.62
677.741	10590.53
678.09	10547.59
678.438	10552.79
678.787	10471.43
679.135	10510.3
679.484	10461.94
679.832	10550.53
680.181	10425.56
680.529	10515.27
680.877	10393.47
681.225	10394.37
681.573	10449.06
681.922	10419.46
682.27	10328.61
682.618	10358.22
682.966	10401.15
683.314	10363.41
683.661	10288.39
684.009	10263.3
684.357	10247.94
684.705	10292.46
685.053	10279.57
685.4	10228.5
685.748	10145.79
686.095	10169.52
686.443	10176.98
686.79	10156.19
687.138	10153.25
687.485	10108.51
687.832	10092.01
688.18	10058.34
688.527	9998.45
688.874	10016.76
689.221	9975.4
689.568	9951.9
689.915	9922.97
690.262	9886.14
690.609	9843.43
690.956	9872.58
691.303	9773.82
691.65	9740.15
691.997	9777.89
692.344	9692.7
692.69	9685.47
693.037	9640.27
693.383	9560.05
693.73	9649.99
694.077	9529.99
694.423	9554.4
694.769	9473.49
695.116	9427.17
695.462	9408.41
695.808	9427.85
696.155	9421.74
696.501	9318.24
696.847	9365.25
697.193	9263.78
697.539	9256.32
697.885	9210.68
698.231	9189.21
698.577	9228.3
698.923	9171.81
699.269	9071.92
699.614	9022.21
699.96	9022.21
700.306	9025.14
700.651	8994.18
700.997	8881.19
701.342	8946.28
701.688	8896.79
702.033	8865.83
702.379	8844.13
702.724	8844.13
703.069	8821.76
703.415	8705.6
703.76	8675.32
704.105	8692.72
704.45	8652.95
704.795	8642.1
705.14	8598.49
705.485	8565.5
705.83	8586.29
706.175	8585.83
706.52	8564.14
706.865	8474.42
707.209	8521.65
707.554	8474.2
707.899	8433.75
708.243	8438.94
708.588	8412.73
708.932	8253.41
709.277	8332.51
709.621	8347.2
709.966	8283.02
710.31	8226.29
710.654	8199.63
710.998	8249.35
711.342	8197.82
711.687	8220.42
712.031	8151.27
712.375	8120.99
712.719	8124.15
713.063	8152.17
713.407	8127.77
713.75	8077.82
714.094	8071.04
714.438	8025.62
714.782	8058.84
715.125	7961.22
715.469	7939.07
715.812	7914.21
716.156	7922.8
716.499	7948.56
716.843	7958.73
717.186	7902.91
717.53	7984.49
717.873	7920.99
718.216	7899.98
718.559	7872.41
718.902	7840.09
719.246	7803.03
719.589	7810.26
719.932	7802.58
720.275	7786.31
720.617	7807.1
720.96	7729.36
721.303	7699.76
721.646	7831.73
721.989	7756.48
722.331	7747.44
722.674	7724.84
723.016	7778.85
723.359	7714.44
723.701	7721.68
724.044	7723.94
724.386	7638.74
724.729	7670.15
725.071	7660.43
725.413	7679.87
725.755	7644.62
726.097	7671.51
726.439	7595.58
726.782	7638.74
727.124	7621.57
727.465	7634.9
727.807	7681
728.149	7606.88
728.491	7611.4
728.833	7611.17
729.175	7590.38
729.516	7575.24
729.858	7581.79
730.199	7562.81
730.541	7522.13
730.882	7584.73
731.224	7614.56
731.565	7528.01
731.906	7575.46
732.248	7521.45
732.589	7537.5
732.93	7564.84
733.271	7531.17
733.612	7534.34
733.953	7570.04
734.294	7573.43
734.635	7532.98
734.976	7512.87
735.317	7495.01
735.658	7554.67
735.999	7506.54
736.339	7544.73
736.68	7591.28
737.021	7542.25
737.361	7505.64
737.702	7506.09
738.042	7531.62
738.383	7547.44
738.723	7529.36
739.063	7514.22
739.404	7666.76
739.744	7591.51
740.084	7563.49
740.424	7601.23
740.764	7589.02
741.104	7611.85
741.444	7643.71
741.784	7611.17
742.124	7652.07
742.464	7637.38
742.804	7690.26
743.143	7608.68
743.483	7713.09
743.823	7667.44
744.162	7685.07
744.502	7757.38
744.841	7699.76
745.181	7797.38
745.52	7776.14
745.86	7862.01
746.199	7915.79
746.538	7878.73
746.877	7981.56
747.216	7971.84
747.556	8038.05
747.895	8020.88
748.234	8092.06
748.573	8047.54
748.911	8165.51
749.25	8232.4
749.589	8264.49
749.928	8291.6
750.267	8385.61
750.605	8373.86
750.944	8552.61
751.283	8513.75
751.621	8686.62
751.96	8682.1
752.298	8728.88
752.636	8864.47
752.975	8879.84
753.313	9005.71
753.651	9135.42
753.989	9177.46
754.327	9314.18
754.666	9358.69
755.004	9496.32
755.342	9584.23
755.679	9668.29
756.017	9726.14
756.355	9959.81
756.693	10064.44
757.031	10190.76
757.368	10253.13
757.706	10442.96
758.044	10566.35
758.381	10695.83
758.719	10834.14
759.056	10952.78
759.394	11114.81
759.731	11176.05
760.068	11358.87
760.405	11551.41
760.743	11783.26
761.08	11882.24
761.417	12004.27
761.754	12080.66
762.091	12282.91
762.428	12354.55
762.765	12439.52
763.102	12701.88
763.438	12820.07
