Data from hue_20_FLMS001491_15.txt Node
Date: Mon Feb 06 15:33:41 GMT 2017
User: dcchb
Spectrometer: FLMS00149
Trigger mode: 0
Integration Time (sec): 2.000000E-2
Scans to average: 10
Electric dark correction enabled: true
Nonlinearity correction enabled: false
Boxcar width: 0
XAxis mode: Wavelengths
Number of Pixels in Spectrum: 2048
>>>>>Begin Spectral Data<<<<<
341.393	-5.14
341.776	-5.14
342.16	-5.14
342.543	-80.39
342.927	-78.81
343.31	-51.47
343.693	-87.85
344.077	-81.07
344.46	-62.09
344.843	-45.59
345.226	-46.72
345.61	-34.74
345.993	-11.47
346.376	-9.66
346.759	6.84
347.142	11.13
347.525	59.72
347.908	61.75
348.291	76.89
348.674	79.38
349.057	134.97
349.44	120.28
349.823	117.34
350.206	158.7
350.588	173.84
350.971	178.58
351.354	213.84
351.737	231.69
352.119	236.43
352.502	251.12
352.884	281.63
353.267	278.47
353.65	288.64
354.032	296.55
354.414	307.85
354.797	299.94
355.179	301.74
355.562	355.53
355.944	343.1
356.326	331.35
356.709	313.72
357.091	342.19
357.473	322.08
357.855	336.09
358.238	357.79
358.62	342.65
359.002	339.93
359.384	323.21
359.766	321.63
360.148	340.61
360.53	327.05
360.912	337.67
361.294	339.48
361.676	326.6
362.057	346.04
362.439	331.57
362.821	324.34
363.203	335.64
363.584	331.8
363.966	321.86
364.348	315.98
364.729	319.14
365.111	327.28
365.493	296.32
365.874	317.34
366.256	312.82
366.637	313.27
367.019	304.23
367.4	320.95
367.781	305.59
368.163	300.16
368.544	340.39
368.925	323.66
369.306	316.43
369.688	287.51
370.069	326.15
370.45	304.23
370.831	292.48
371.212	316.21
371.593	315.3
371.974	290.67
372.355	307.39
372.736	329.09
373.117	307.62
373.498	305.36
373.879	301.52
374.26	328.86
374.641	295.42
375.021	324.12
375.402	306.72
375.783	316.21
376.163	325.7
376.544	308.97
376.925	301.29
377.305	323.44
377.686	301.29
378.066	306.72
378.447	329.54
378.827	327.51
379.208	316.66
379.588	322.53
379.968	320.05
380.349	358.24
380.729	325.47
381.109	332.7
381.489	312.36
381.87	316.88
382.25	332.48
382.63	357.79
383.01	336.54
383.39	349.2
383.77	362.31
384.15	355.98
384.53	364.34
384.91	360.05
385.29	319.37
385.67	359.14
386.049	346.04
386.429	347.39
386.809	362.98
387.189	359.6
387.568	342.87
387.948	341.74
388.328	353.04
388.707	345.13
389.087	338.58
389.466	371.35
389.846	355.75
390.225	360.5
390.605	341.74
390.984	367.5
391.363	347.17
391.743	379.03
392.122	374.51
392.501	369.09
392.881	360.72
393.26	371.35
393.639	366.37
394.018	335.41
394.397	369.99
394.776	364.11
395.155	371.12
395.534	364.11
395.913	378.13
396.292	398.92
396.671	372.48
397.05	364.57
397.429	378.58
397.808	386.49
398.186	372.02
398.565	390.1
398.944	381.97
399.323	377.22
399.701	380.61
400.08	381.52
400.458	373.38
400.837	386.49
401.215	395.53
401.594	407.05
401.972	371.8
402.351	393.94
402.729	391.68
403.107	383.1
403.486	409.76
403.864	395.3
404.242	414.73
404.62	410.89
404.999	405.02
405.377	405.7
405.755	403.89
406.133	418.8
406.511	394.17
406.889	390.1
407.267	410.22
407.645	403.21
408.023	426.03
408.401	445.47
408.779	429.42
409.156	408.86
409.534	418.35
409.912	433.04
410.29	436.66
410.667	447.05
411.045	421.97
411.422	437.79
411.8	438.24
412.178	431.01
412.555	430.1
412.933	451.57
413.31	426.26
413.687	443.21
414.065	448.41
414.442	451.12
414.819	465.13
415.197	461.97
415.574	470.33
415.951	485.24
416.328	475.07
416.705	459.93
417.082	450.89
417.46	487.5
417.837	486.6
418.214	479.82
418.591	494.96
418.967	485.02
419.344	466.94
419.721	477.78
420.098	487.28
420.475	499.7
420.852	484.34
421.228	475.07
421.605	491.79
421.982	499.25
422.358	496.99
422.735	496.09
423.111	503.09
423.488	501.96
423.864	491.34
424.241	532.47
424.617	517.33
424.994	542.64
425.37	516.88
425.746	513.94
426.123	499.25
426.499	530.89
426.875	546.03
427.251	535.18
427.627	535.18
428.003	557.56
428.379	536.77
428.756	553.71
429.132	564.56
429.507	582.87
429.883	563.21
430.259	586.03
430.635	591.23
431.011	570.89
431.387	569.99
431.763	578.35
432.138	588.97
432.514	595.52
432.89	595.07
433.265	585.8
433.641	618.35
434.016	588.97
434.392	625.35
434.767	612.24
435.143	611.79
435.518	637.78
435.894	619.25
436.269	638.23
436.644	644.56
437.02	633.94
437.395	649.08
437.77	656.54
438.145	664.22
438.52	659.02
438.895	660.83
439.271	671.9
439.646	675.29
440.021	665.8
440.395	679.59
440.77	683.43
441.145	685.46
441.52	682.3
441.895	702.86
442.27	709.64
442.645	706.48
443.019	724.11
443.394	696.54
443.769	696.54
444.143	724.56
444.518	707.38
444.892	726.14
445.267	711.9
445.641	728.4
446.016	726.82
446.39	772.24
446.764	740.15
447.139	721.39
447.513	736.08
447.887	743.31
448.262	769.53
448.636	757.78
449.01	778.57
449.384	756.19
449.758	769.53
450.132	783.99
450.506	771.56
450.88	779.7
451.254	801.17
451.628	807.94
452.002	794.39
452.376	806.14
452.75	772.69
453.123	824.44
453.497	808.85
453.871	815.4
454.244	858.79
454.618	823.09
454.992	857.66
455.365	848.17
455.739	870.32
456.112	876.19
456.486	878.23
456.859	896.98
457.232	917.32
457.606	886.81
457.979	909.19
458.352	937.21
458.725	904.21
459.099	941.5
459.472	955.74
459.845	950.99
460.218	955.51
460.591	957.09
460.964	980.14
461.337	993.93
461.71	1003.65
462.083	1037.32
462.456	1008.17
462.829	1024.21
463.201	1049.52
463.574	1054.94
463.947	1054.04
464.32	1085.45
464.692	1096.98
465.065	1080.48
465.438	1112.12
465.81	1120.25
466.183	1099.01
466.555	1141.5
466.928	1132.23
467.3	1140.82
467.672	1167.26
468.045	1184.66
468.417	1171.33
468.789	1212.91
469.161	1208.61
469.534	1252.23
469.906	1252.68
470.278	1258.78
470.65	1296.75
471.022	1307.14
471.394	1342.62
471.766	1313.47
472.138	1357.08
472.51	1387.59
472.882	1389.62
473.253	1412.45
473.625	1457.42
473.997	1467.59
474.369	1463.75
474.74	1488.6
475.112	1517.76
475.484	1549.85
475.855	1571.77
476.227	1589.39
476.598	1612.22
476.97	1610.64
477.341	1682.5
477.713	1716.85
478.084	1713.68
478.455	1763.4
478.827	1740.12
479.198	1816.51
479.569	1853.57
479.94	1897.63
480.311	1887.01
480.682	1957.07
481.053	2010.4
481.424	2004.52
481.795	2066.89
482.166	2085.43
482.537	2110.28
482.908	2167.91
483.279	2194.58
483.65	2254.46
484.021	2250.17
484.391	2317.28
484.762	2340.11
485.133	2351.41
485.503	2415.59
485.874	2482.7
486.244	2496.49
486.615	2502.36
486.985	2550.95
487.356	2597.95
487.726	2632.3
488.097	2736.26
488.467	2722.02
488.837	2810.6
489.207	2811.73
489.578	2870.72
489.948	2862.58
490.318	2931.28
490.688	2976.02
491.058	3040.43
491.428	3048.11
491.798	3079.98
492.168	3125.17
492.538	3154.32
492.908	3209.01
493.278	3224.15
493.648	3248.78
494.017	3283.59
494.387	3343.02
494.757	3351.61
495.126	3426.63
495.496	3433.19
495.866	3438.16
496.235	3512.96
496.605	3518.61
496.974	3564.71
497.344	3612.39
497.713	3583.47
498.082	3648.55
498.452	3670.02
498.821	3738.49
499.19	3715.67
499.559	3750.01
499.928	3768.77
500.298	3825.94
500.667	3845.61
501.036	3822.78
501.405	3880.86
501.774	3892.16
502.143	3927.86
502.512	3941.42
502.88	3960.63
503.249	3966.96
503.618	4022.1
503.987	4032.04
504.356	4110
504.724	4094.19
505.093	4080.63
505.462	4125.82
505.83	4135.99
506.199	4178.48
506.567	4176.22
506.936	4240.17
507.304	4242.66
507.672	4254.63
508.041	4306.61
508.409	4278.59
508.777	4330.34
509.145	4374.63
509.514	4371.47
509.882	4398.36
510.25	4404.91
510.618	4440.84
510.986	4394.07
511.354	4485.36
511.722	4509.77
512.09	4517.23
512.458	4497.57
512.826	4545.47
513.193	4568.98
513.561	4562.42
513.929	4644.45
514.297	4623.66
514.664	4648.97
515.032	4653.04
515.4	4686.26
515.767	4711.35
516.135	4758.12
516.502	4697.79
516.869	4796.31
517.237	4819.36
517.604	4823.43
517.972	4785.02
518.339	4826.82
518.706	4854.17
519.073	4851
519.44	4897.33
519.808	4931.45
520.175	4881.74
520.542	4942.53
520.909	5011.22
521.276	4998.8
521.643	5017.33
522.009	5074.5
522.376	5084.89
522.743	5054.39
523.11	5130.54
523.477	5171.45
523.843	5215.51
524.21	5221.61
524.577	5206.7
524.943	5268.84
525.31	5297.54
525.676	5349.29
526.043	5369.63
526.409	5395.17
526.776	5411.67
527.142	5475.84
527.508	5440.14
527.874	5499.8
528.241	5502.51
528.607	5502.06
528.973	5559.23
529.339	5567.59
529.705	5658.66
530.071	5627.25
530.437	5696.18
530.803	5734.82
531.169	5719
531.535	5745.44
531.901	5798.32
532.267	5781.6
532.632	5845.55
532.998	5849.62
533.364	5970.75
533.73	5919
534.095	5986.57
534.461	5974.81
534.826	5975.27
535.192	6008.26
535.557	6088.03
535.923	6080.12
536.288	6063.4
536.653	6097.3
537.019	6139.1
537.384	6107.24
537.749	6150.86
538.114	6189.72
538.479	6175.26
538.845	6182.04
539.21	6175.04
539.575	6245.09
539.94	6270.63
540.305	6331.64
540.67	6377.74
541.034	6346.1
541.399	6397.63
541.764	6435.59
542.129	6411.87
542.494	6424.97
542.858	6509.26
543.223	6483.73
543.587	6550.84
543.952	6526.66
544.316	6606.66
544.681	6554.01
545.045	6585.19
545.41	6644.18
545.774	6636.72
546.138	6655.93
546.503	6698.64
546.867	6745.42
547.231	6822.48
547.595	6830.61
547.959	6816.83
548.324	6866.32
548.688	6957.16
549.052	6969.14
549.416	6894.56
549.779	6913.1
550.143	6965.75
550.507	6988.8
550.871	7035.13
551.235	7039.19
551.599	7035.8
551.962	7062.92
552.326	7083.03
552.689	7163.48
553.053	7109.47
553.417	7126.42
553.78	7200.09
554.143	7169.13
554.507	7209.36
554.87	7231.5
555.234	7368
555.597	7316.7
555.96	7349.24
556.323	7342.01
556.686	7326.19
557.05	7417.04
557.413	7481.44
557.776	7457.94
558.139	7484.15
558.502	7503.14
558.865	7528.67
559.228	7604.83
559.59	7577.03
559.953	7623.81
560.316	7609.57
560.679	7662.68
561.041	7699.52
561.404	7738.84
561.767	7795.33
562.129	7766.86
562.492	7905.84
562.854	7828.55
563.217	7844.6
563.579	7918.04
563.941	7970.92
564.304	7941.09
564.666	8030.81
565.028	8044.82
565.39	8053.63
565.753	8111.03
566.115	8157.58
566.477	8088.21
566.839	8098.83
567.201	8214.3
567.563	8242.55
567.925	8279.61
568.287	8311.7
568.648	8308.09
569.01	8330.68
569.372	8492.71
569.734	8365.03
570.095	8426.73
570.457	8483.9
570.819	8473.96
571.18	8518.48
571.542	8518.48
571.903	8617.46
572.265	8643.45
572.626	8633.05
572.987	8769.09
573.349	8840.73
573.71	8743.33
574.071	8884.34
574.432	8920.05
574.794	9004.34
575.155	8967.5
575.516	8992.36
575.877	9092.47
576.238	9186.26
576.599	9237.1
576.96	9356.42
577.32	9356.19
577.681	9460.37
578.042	9569.52
578.403	9619.24
578.763	9690.88
579.124	9716.19
579.485	9879.57
579.845	9952.79
580.206	10019.68
580.566	10075.72
580.927	10229.39
581.287	10350.97
581.648	10327.69
582.008	10611.53
582.368	10684.07
582.728	10796.16
583.089	10964.06
583.449	11078.41
583.809	11196.82
584.169	11351.85
584.529	11462.81
584.889	11723.36
585.249	11849.46
585.609	12021.66
585.969	12253.29
586.329	12396.34
586.688	12609.67
587.048	12807.86
587.408	13017.79
587.768	13186.15
588.127	13362.87
588.487	13613.94
588.846	13913.14
589.206	14040.59
589.565	14297.53
589.925	14533.91
590.284	14923.73
590.643	15015.71
591.003	15373.89
591.362	15610.95
591.721	15896.59
592.08	16064.94
592.44	16462.9
592.799	16638.49
593.158	16940.4
593.517	17291.81
593.876	17494.29
594.235	17778.35
594.593	18139.92
594.952	18447.26
595.311	18619.45
595.67	18932.89
596.029	19395.48
596.387	19616.49
596.746	20017.61
597.104	20122.92
597.463	20379.18
597.822	20817.59
598.18	20980.52
598.538	21369.21
598.897	21771.69
599.255	21869.31
599.613	22426.36
599.972	22552.01
600.33	22863.86
600.688	23013.24
601.046	23406.22
601.404	23854.57
601.762	24038.29
602.12	24397.83
602.478	24685.06
602.836	25032.17
603.194	25151.26
603.552	25471.93
603.91	25616.33
604.268	26021.75
604.625	26263.09
604.983	26643.42
605.341	26698.56
605.698	27176.07
606.056	27481.37
606.413	27709.61
606.771	28033.9
607.128	28279.99
607.485	28371.06
607.843	28625.74
608.2	28891.95
608.557	29201.55
608.914	29376.69
609.272	29627.53
609.629	29924.47
609.986	30214.63
610.343	30226.15
610.7	30658.46
611.057	30750.21
611.414	30973.03
611.771	31257.54
612.127	31565.1
612.484	31698.21
612.841	32036.73
613.198	31987.46
613.554	32240.34
613.911	32593.78
614.267	32833.77
614.624	32958.51
614.98	33072.41
615.337	33433.75
615.693	33539.51
616.05	33631.94
616.406	33979.28
616.762	34000.52
617.118	33993.74
617.475	34200.74
617.831	34531.8
618.187	34605.25
618.543	34810.21
618.899	34987.84
619.255	35141.28
619.611	35189.19
619.967	35397.32
620.323	35556.64
620.678	35680.25
621.034	35654.71
621.39	35822.84
621.746	35851.32
622.101	36432.54
622.457	36327.91
622.812	36355.03
623.168	36477.29
623.523	36550.51
623.879	36792.08
624.234	36697.62
624.589	36847.22
624.945	37015.13
625.3	37063.71
625.655	37115.92
626.01	37193.43
626.365	37400.66
626.72	37360.66
627.075	37455.57
627.43	37577.83
627.785	37455.57
628.14	37752.06
628.495	37735.56
628.85	37714.77
629.205	37702.79
629.559	38015.33
629.914	37865.05
630.269	37986.4
630.623	37895.56
630.978	37911.6
631.332	38005.84
631.687	38141.65
632.041	37990.02
632.396	38206.06
632.75	38065.95
633.104	38268.2
633.459	38056.46
633.813	38150.47
634.167	38183.91
634.521	38125.16
634.875	38227.98
635.229	38170.13
635.583	38117.25
635.937	38224.81
636.291	38116.79
636.645	38223.23
636.999	38101.88
637.352	38274.98
637.706	38058.72
638.06	38343.46
638.413	38212.61
638.767	38109.56
639.121	38260.07
639.474	37959.74
639.828	38093.07
640.181	38236.57
640.534	38205.15
640.888	38109.79
641.241	38024.59
641.594	38185.95
641.947	38346.62
642.301	38133.52
642.654	38267.52
643.007	38227.3
643.36	38151.37
643.713	38138.04
644.066	38259.62
644.419	38044.25
644.771	37858.72
645.124	37498.96
645.477	37474.1
645.83	37253.77
646.182	37171.28
646.535	36963.15
646.888	37210.38
647.24	36945.53
647.593	37154.33
647.945	37167.21
648.298	37007.67
648.65	36863.95
649.002	36745.98
649.355	36927
649.707	36922.7
650.059	37073.21
650.411	37578.28
650.763	37599.29
651.115	37848.1
651.467	37926.74
651.819	37814.2
652.171	37841.55
652.523	37663.02
652.875	37812.17
653.227	37534.89
653.578	37852.17
653.93	37724.94
654.282	37636.58
654.633	37480.43
654.985	37811.04
655.337	37580.76
655.688	37715.22
656.039	37687.2
656.391	37480.65
656.742	37583.02
657.094	37652.85
657.445	37540.54
657.796	37610.59
658.147	37550.48
658.498	37526.98
658.849	37641.1
659.2	37614.66
659.551	37435.91
659.902	37646.98
660.253	37504.61
660.604	37538.96
660.955	37435.91
661.306	37520.43
661.656	37389.13
662.007	37570.82
662.358	37573.76
662.708	37532.63
663.059	37557.94
663.409	37360.43
663.76	37559.97
664.11	37444.95
664.461	37524.95
664.811	37513.87
665.161	37502.35
665.511	37381.9
665.862	37569.24
666.212	37602.91
666.562	37678.61
666.912	37582.57
667.262	37461.22
667.612	37489.92
667.962	37528.56
668.312	37364.27
668.662	37627.32
669.011	37446.08
669.361	37507.77
669.711	37369.02
670.06	37399.07
670.41	37329.7
670.76	37346.87
671.109	37404.5
671.459	37448.11
671.808	37388.23
672.157	37446.98
672.507	37297.83
672.856	37079.08
673.205	37283.14
673.554	37378.06
673.904	37167.44
674.253	37478.85
674.602	37430.94
674.951	36786.89
675.3	36628.25
675.649	37257.83
675.998	37335.57
676.346	37273.88
676.695	37331.5
677.044	37012.42
677.393	37209.47
677.741	37302.35
678.09	37234.56
678.438	37144.16
678.787	37090.83
679.135	37283.82
679.484	36880.44
679.832	37151.4
680.181	36938.75
680.529	37043.83
680.877	36996.15
681.225	36805.42
681.573	37025.52
681.922	36852.19
682.27	36890.16
682.618	36863.49
682.966	36665.99
683.314	36723.38
683.661	36638.42
684.009	36442.94
684.357	36454.47
684.705	36444.52
685.053	36352.55
685.4	36350.29
685.748	36155.49
686.095	36165.89
686.443	36094.25
686.79	35970.41
687.138	36154.59
687.485	36127.24
687.832	36041.14
688.18	35995.95
688.527	35759.12
688.874	35750.75
689.221	35817.42
689.568	35684.99
689.915	35555.28
690.262	35617.65
690.609	35457.88
690.956	35400.03
691.303	35382.4
691.65	35120.04
691.997	35243.65
692.344	35014.96
692.69	34831.01
693.037	35012.02
693.383	34706.04
693.73	34800.27
694.077	34602.54
694.423	34737.22
694.769	34520.96
695.116	34505.59
695.462	34464.24
695.808	34290.91
696.155	34424.91
696.501	34141.53
696.847	34170.23
697.193	33935.66
697.539	34126.62
697.885	33847.08
698.231	33709.9
698.577	33767.76
698.923	33815.21
699.269	33460.42
699.614	33472.85
699.96	33418.61
700.306	33308.56
700.651	33267.43
700.997	33074.89
701.342	33037.61
701.688	32931.39
702.033	32907.89
702.379	32907.89
702.724	32706.09
703.069	32835.13
703.415	32545.87
703.76	32600.33
704.105	32564.85
704.45	32374.12
704.795	32238.76
705.14	32268.36
705.485	32146.78
705.83	31998.76
706.175	32092.55
706.52	31888.94
706.865	31931.65
707.209	31861.82
707.554	31779.11
707.899	31740.01
708.243	31756.96
708.588	31596.97
708.932	31353.36
709.277	31318.56
709.621	31412.11
709.966	31105.45
710.31	31291.44
710.654	30913.82
710.998	31073.36
711.342	31070.2
711.687	30918.79
712.031	30765.58
712.375	30686.93
712.719	30747.04
713.063	30686.48
713.407	30834.27
713.75	30675.18
714.094	30714.28
714.438	30519.03
714.782	30462.53
715.125	30338.02
715.469	30443.32
715.812	30257.11
716.156	30086.27
716.499	30161.98
716.843	30100.73
717.186	29904.13
717.53	30164.24
717.873	30010.34
718.216	29988.87
718.559	29919.04
718.902	29677.02
719.246	29781.19
719.589	29672.27
719.932	29589.11
720.275	29514.53
720.617	29481.09
720.96	29605.38
721.303	29491.94
721.646	29489
721.989	29257.59
722.331	29399.51
722.674	29251.72
723.016	29255.33
723.359	29234.09
723.701	29112.29
724.044	29142.79
724.386	28886.3
724.729	28983.93
725.071	28906.19
725.413	28859.64
725.755	28802.91
726.097	28739.64
726.439	28691.28
726.782	28639.3
727.124	28680.66
727.465	28512.3
727.807	28531.51
728.149	28552.75
728.491	28464.62
728.833	28515.24
729.175	28359.99
729.516	28350.05
729.858	28299.88
730.199	28324.96
730.541	28409.93
730.882	28250.39
731.224	28329.71
731.565	28003.61
731.906	28185.08
732.248	28237.28
732.589	28065.76
732.93	27859.44
733.271	27882.71
733.612	28020.11
733.953	27979.43
734.294	27786.67
734.635	27743.96
734.976	27775.82
735.317	27650.85
735.658	27616.73
735.999	27673.91
736.339	27468.03
736.68	27612.89
737.021	27433.91
737.361	27404.53
737.702	27437.53
738.042	27420.35
738.383	27296.97
738.723	27334.03
739.063	27235.27
739.404	27323.18
739.744	27230.07
740.084	27087.25
740.424	27066.92
740.764	27066.92
741.104	27173.81
741.444	26864.43
741.784	26979.69
742.124	26915.28
742.464	26868.95
742.804	26852.23
743.143	26844.55
743.483	26803.42
743.823	26742.4
744.162	26749.64
744.502	26722.74
744.841	26656.08
745.181	26726.81
745.52	26537.44
745.86	26605.68
746.199	26557.78
746.538	26489.76
746.877	26513.48
747.216	26527.04
747.556	26427.84
747.895	26465.12
748.234	26308.29
748.573	26401.62
748.911	26291.12
749.25	26220.16
749.589	26108.07
749.928	26170.44
750.267	26126.6
750.605	26007.06
750.944	25998.69
751.283	25915.99
751.621	25854.07
751.96	25707.86
752.298	25810.23
752.636	25854.29
752.975	25687.74
753.313	25546.5
753.651	25758.25
753.989	25572.72
754.327	25571.14
754.666	25422.44
755.004	25440.52
755.342	25497.92
755.679	25264.25
756.017	25233.97
756.355	25335.66
756.693	25201.43
757.031	25267.64
757.368	25114.65
757.706	25159.39
758.044	24935.45
758.381	24974.54
758.719	24891.83
759.056	24912.4
759.394	24851.38
759.731	24649.13
760.068	24592.86
760.405	24519.64
