Data from hue_320_FLMS001491_38.txt Node
Date: Mon Feb 06 15:47:07 GMT 2017
User: dcchb
Spectrometer: FLMS00149
Trigger mode: 0
Integration Time (sec): 2.000000E-2
Scans to average: 10
Electric dark correction enabled: true
Nonlinearity correction enabled: false
Boxcar width: 0
XAxis mode: Wavelengths
Number of Pixels in Spectrum: 2048
>>>>>Begin Spectral Data<<<<<
341.393	-8.22
341.776	-8.22
342.16	-8.22
342.543	-59.07
342.927	-68.33
343.31	-75.34
343.693	-60.42
344.077	-87.99
344.46	-69.69
344.843	-50.7
345.226	-41.21
345.61	-34.43
345.993	-15.45
346.376	-2.8
346.759	1.05
347.142	34.94
347.525	39.24
347.908	67.94
348.291	70.42
348.674	103.42
349.057	121.04
349.44	144.09
349.823	144.54
350.206	174.15
350.588	206.92
350.971	205.79
351.354	208.05
351.737	217.99
352.119	255.28
352.502	260.47
352.884	251.43
353.267	254.6
353.65	293.01
354.032	287.82
354.414	305.44
354.797	315.39
355.179	326.91
355.562	333.24
355.944	340.25
356.326	316.29
356.709	333.69
357.091	337.08
357.473	344.54
357.855	340.25
358.238	344.76
358.62	326.91
359.002	309.06
359.384	335.05
359.766	348.83
360.148	335.95
360.53	337.31
360.912	323.97
361.294	337.53
361.676	332.34
362.057	337.53
362.439	335.95
362.821	337.76
363.203	317.42
363.584	319.68
363.966	324.2
364.348	315.84
364.729	324.2
365.111	314.94
365.493	326.69
365.874	297.08
366.256	315.61
366.637	331.21
367.019	312.68
367.4	315.84
367.781	318.78
368.163	320.13
368.544	318.78
368.925	298.66
369.306	308.61
369.688	318.78
370.069	308.16
370.45	289.63
370.831	307.93
371.212	314.03
371.593	312.45
371.974	294.6
372.355	306.35
372.736	307.48
373.117	319.91
373.498	307.93
373.879	316.29
374.26	341.6
374.641	292.56
375.021	304.54
375.402	309.74
375.783	322.39
376.163	310.19
376.544	319.23
376.925	306.57
377.305	307.48
377.686	317.42
378.066	324.43
378.447	325.33
378.827	321.71
379.208	325.78
379.588	314.94
379.968	321.04
380.349	342.28
380.729	328.04
381.109	326.69
381.489	347.02
381.87	314.26
382.25	349.06
382.63	337.08
383.01	344.76
383.39	347.93
383.77	322.39
384.15	330.75
384.53	340.47
384.91	332.56
385.29	323.52
385.67	334.82
386.049	339.34
386.429	364.88
386.809	345.44
387.189	357.65
387.568	333.92
387.948	346.12
388.328	350.41
388.707	341.38
389.087	340.7
389.466	367.59
389.846	364.88
390.225	359.45
390.605	375.72
390.984	379.57
391.363	368.04
391.743	360.36
392.122	377.08
392.501	354.26
392.881	363.52
393.26	374.82
393.639	367.36
394.018	382.05
394.397	379.57
394.776	379.34
395.155	387.48
395.534	373.01
395.913	376.63
396.292	371.2
396.671	384.09
397.05	387.48
397.429	403.52
397.808	372.33
398.186	385.89
398.565	388.38
398.944	375.5
399.323	377.53
399.701	379.11
400.08	397.64
400.458	381.6
400.837	384.76
401.215	405.78
401.594	384.54
401.972	415.72
402.351	413.01
402.729	422.73
403.107	400.58
403.486	391.77
403.864	420.47
404.242	427.02
404.62	434.25
404.999	410.07
405.377	416.63
405.755	408.72
406.133	433.8
406.511	422.73
406.889	462.5
407.267	424.76
407.645	439.45
408.023	454.82
408.401	436.06
408.779	458.66
409.156	460.24
409.534	471.32
409.912	455.27
410.29	486.46
410.667	487.59
411.045	494.59
411.422	495.95
411.8	483.52
412.178	487.13
412.555	500.47
412.933	497.53
413.31	502.5
413.687	522.39
414.065	528.04
414.442	523.07
414.819	529.84
415.197	549.51
415.574	549.96
415.951	547.25
416.328	554.48
416.705	567.13
417.082	580.92
417.46	588.83
417.837	586.11
418.214	598.09
418.591	609.16
418.967	593.8
419.344	600.13
419.721	637.19
420.098	638.54
420.475	638.77
420.852	652.55
421.228	640.8
421.605	629.96
421.982	636.96
422.358	672.21
422.735	650.52
423.111	678.99
423.488	686.68
423.864	707.02
424.241	691.2
424.617	691.42
424.994	690.07
425.37	695.72
425.746	707.69
426.123	721.25
426.499	731.65
426.875	736.62
427.251	766.9
427.627	757.18
428.003	743.85
428.379	770.52
428.756	758.99
429.132	771.87
429.507	795.83
429.883	798.76
430.259	806.9
430.635	800.57
431.011	790.63
431.387	836.96
431.763	869.04
432.138	858.2
432.514	843.73
432.89	861.59
433.265	870.63
433.641	877.63
434.016	894.36
434.392	893
434.767	917.18
435.143	900.23
435.518	944.07
435.894	937.97
436.269	950.85
436.644	949.95
437.02	957.18
437.395	931.87
437.77	949.95
438.145	980.68
438.52	994.01
438.895	999.44
439.271	1002.37
439.646	995.37
440.021	1043.73
440.395	1031.98
440.77	1023.17
441.145	1045.99
441.52	1013.9
441.895	1028.59
442.27	1062.71
442.645	1032.43
443.019	1066.78
443.394	1088.25
443.769	1054.35
444.143	1090.96
444.518	1083.28
444.892	1059.77
445.267	1072.66
445.641	1077.85
446.016	1101.36
446.39	1099.55
446.764	1105.65
447.139	1117.4
447.513	1141.13
447.887	1125.31
448.262	1133.9
448.636	1135.93
449.01	1117.85
449.384	1161.92
449.758	1139.77
450.132	1168.25
450.506	1166.89
450.88	1167.79
451.254	1176.16
451.628	1175.7
452.002	1200.11
452.376	1182.48
452.75	1203.05
453.123	1208.02
453.497	1213.22
453.871	1228.81
454.244	1272.65
454.618	1224.97
454.992	1258.87
455.365	1238.07
455.739	1252.31
456.112	1270.16
456.486	1276.94
456.859	1292.76
457.232	1320.33
457.606	1306.55
457.979	1299.09
458.352	1328.02
458.725	1336.83
459.099	1361.69
459.472	1367.34
459.845	1346.09
460.218	1348.35
460.591	1414.12
460.964	1400.78
461.337	1412.53
461.71	1418.18
462.083	1452.53
462.456	1430.84
462.829	1455.24
463.201	1445.07
463.574	1501.12
463.947	1491.18
464.32	1495.47
464.692	1527.56
465.065	1527.78
465.438	1537.5
465.81	1553.09
466.183	1555.58
466.555	1588.57
466.928	1596.26
467.3	1565.3
467.672	1603.94
468.045	1653.43
468.417	1643.04
468.789	1651.62
469.161	1673.09
469.534	1679.87
469.906	1725.07
470.278	1741.56
470.65	1710.38
471.022	1757.16
471.394	1783.15
471.766	1790.38
472.138	1783.6
472.51	1825.18
472.882	1845.52
473.253	1893.2
473.625	1877.38
473.997	1888.91
474.369	1930.03
474.74	1928.9
475.112	1944.95
475.484	1984.72
475.855	2022.01
476.227	2038.05
476.598	2078.05
476.97	2081.44
477.341	2112.63
477.713	2114.89
478.084	2139.75
478.455	2189.46
478.827	2176.81
479.198	2257.48
479.569	2264.26
479.94	2320.31
480.311	2297.03
480.682	2319.85
481.053	2365.95
481.424	2390.13
481.795	2417.7
482.166	2422.9
482.537	2480.53
482.908	2508.32
483.279	2540.41
483.65	2574.31
484.021	2588.32
484.391	2571.15
484.762	2654.53
485.133	2673.07
485.503	2690.92
485.874	2693.4
486.244	2740.18
486.615	2785.38
486.985	2804.36
487.356	2843.91
487.726	2851.59
488.097	2878.71
488.467	2927.52
488.837	2979.27
489.207	3002.77
489.578	3044.81
489.948	3049.1
490.318	3099.49
490.688	3075.54
491.058	3124.58
491.428	3142.88
491.798	3191.92
492.168	3205.71
492.538	3206.61
492.908	3241.19
493.278	3332.93
493.648	3278.02
494.017	3311.01
494.387	3359.6
494.757	3412.25
495.126	3421.07
495.496	3449.99
495.866	3403.89
496.235	3442.76
496.605	3450.22
496.974	3516.43
497.344	3534.06
497.713	3553.04
498.082	3535.42
498.452	3600.27
498.821	3577.22
499.19	3595.75
499.559	3618.8
499.928	3676.43
500.298	3630.33
500.667	3685.69
501.036	3699.25
501.405	3691.8
501.774	3715.52
502.143	3778.57
502.512	3718.24
502.88	3786.93
503.249	3781.74
503.618	3792.36
503.987	3802.98
504.356	3863.32
504.724	3816.09
505.093	3860.15
505.462	3871.9
505.83	3891.56
506.199	3854.28
506.567	3907.84
506.936	3955.29
507.304	3933.15
507.672	4018.34
508.041	3978.79
508.409	3973.37
508.777	4009.75
509.145	4041.16
509.514	4051.33
509.882	4036.42
510.25	4068.28
510.618	4065.57
510.986	4093.82
511.354	4128.17
511.722	4081.62
512.09	4108.51
512.458	4182.63
512.826	4185.79
513.193	4165.91
513.561	4179.69
513.929	4216.75
514.297	4274.15
514.664	4223.76
515.032	4237.09
515.4	4267.6
515.767	4267.6
516.135	4334.72
516.502	4230.76
516.869	4323.42
517.237	4376.3
517.604	4332.23
517.972	4327.94
518.339	4331.55
518.706	4373.36
519.073	4355.51
519.44	4342.17
519.808	4375.17
520.175	4407.71
520.542	4470.08
520.909	4442.96
521.276	4466.24
521.643	4488.16
522.009	4476.41
522.376	4523.86
522.743	4523.86
523.11	4562.06
523.477	4578.55
523.843	4653.8
524.21	4597.76
524.577	4660.36
524.943	4663.97
525.31	4703.97
525.676	4747.59
526.043	4727.47
526.409	4745.1
526.776	4813.35
527.142	4821.48
527.508	4852.44
527.874	4862.16
528.241	4909.39
528.607	4875.72
528.973	4940.8
529.339	4927.47
529.705	4969.28
530.071	5046.56
530.437	4978.54
530.803	5042.04
531.169	5053.57
531.535	5086.34
531.901	5044.08
532.267	5121.59
532.632	5094.92
532.998	5143.96
533.364	5108.93
533.73	5174.02
534.095	5233
534.461	5215.15
534.826	5263.73
535.192	5268.93
535.557	5276.84
535.923	5289.27
536.288	5363.16
536.653	5368.59
537.019	5395.93
537.384	5362.49
537.749	5446.55
538.114	5432.09
538.479	5397.29
538.845	5507.12
539.21	5456.72
539.575	5566.1
539.94	5546.66
540.305	5533.56
540.67	5561.8
541.034	5609.26
541.399	5607
541.764	5639.99
542.129	5624.17
542.494	5707.79
542.858	5670.05
543.223	5702.59
543.587	5781.68
543.952	5782.14
544.316	5786.2
544.681	5726.77
545.045	5789.59
545.41	5894.22
545.774	5905.07
546.138	5886.77
546.503	5926.54
546.867	5908.91
547.231	5952.98
547.595	5932.19
547.959	6033.43
548.324	6069.81
548.688	6072.3
549.052	6086.31
549.416	6077.27
549.779	6120.43
550.143	6085.63
550.507	6185.97
550.871	6202.01
551.235	6244.04
551.599	6190.71
551.962	6276.36
552.326	6228.9
552.689	6269.81
553.053	6190.71
553.417	6232.52
553.78	6367.43
554.143	6342.35
554.507	6379.18
554.87	6368.79
555.234	6446.98
555.597	6423.93
555.96	6465.51
556.323	6453.76
556.686	6463.47
557.05	6499.18
557.413	6496.69
557.776	6528.78
558.139	6575.34
558.502	6581.66
558.865	6582.12
559.228	6599.74
559.59	6589.35
559.953	6699.63
560.316	6677.48
560.679	6719.74
561.041	6744.82
561.404	6794.31
561.767	6799.74
562.129	6746.18
562.492	6792.73
562.854	6791.6
563.217	6827.98
563.579	6899.17
563.941	6963.8
564.304	6921.77
564.666	6991.14
565.028	7002.89
565.39	7020.75
565.753	7001.99
566.115	7073.4
566.477	7029.79
566.839	7115.66
567.201	7142.78
567.563	7156.34
567.925	7189.33
568.287	7215.54
568.648	7200.86
569.01	7273.85
569.372	7243.34
569.734	7272.94
570.095	7338.48
570.457	7388.42
570.819	7394.52
571.18	7366.5
571.542	7492.83
571.903	7465.03
572.265	7507.74
572.626	7592.26
572.987	7627.06
573.349	7653.05
573.71	7706.38
574.071	7773.72
574.432	7751.12
574.794	7870.22
575.155	7927.16
575.516	7898.92
575.877	8031.79
576.238	8042.64
576.599	8121.51
576.96	8124.9
577.32	8281.05
577.681	8314.05
578.042	8406.93
578.403	8459.81
578.763	8557.43
579.124	8636.52
579.485	8765.33
579.845	8847.14
580.206	8878.1
580.566	9090.3
580.927	9169.62
581.287	9315.15
581.648	9391.53
582.008	9488.25
582.368	9687.8
582.728	9822.26
583.089	9879.66
583.449	10102.25
583.809	10271.96
584.169	10388.57
584.529	10616.81
584.889	10822.23
585.249	10893.87
585.609	11112.84
585.969	11360.97
586.329	11489.1
586.688	11751.7
587.048	11911.01
587.408	12178.58
587.768	12375.64
588.127	12637.55
588.487	12776.98
588.846	13129.74
589.206	13248.83
589.565	13563.63
589.925	13838.2
590.284	14119.54
590.643	14399.99
591.003	14738.51
591.362	14943.7
591.721	15172.4
592.08	15439.06
592.44	15739.39
592.799	16099.15
593.158	16178.92
593.517	16469.76
593.876	16822.98
594.235	17147.49
594.593	17483.52
594.952	17730.97
595.311	17981.59
595.67	18257.74
596.029	18734.11
596.387	19038.96
596.746	19270.14
597.104	19476.69
597.463	19727.98
597.822	20131.14
598.18	20404.58
598.538	20524.8
598.897	21179.92
599.255	21152.58
599.613	21761.6
599.972	21779.23
600.33	22254.92
600.688	22351.19
601.046	22819.65
601.404	23053.32
601.762	23376.7
602.12	23728.1
602.478	23865.05
602.836	24179.17
603.194	24366.96
603.552	24695.31
603.91	24806.27
604.268	25115.41
604.625	25213.26
604.983	25770.99
605.341	25836.75
605.698	26199.45
606.056	26490.07
606.413	26588.14
606.771	27058.41
607.128	27293.66
607.485	27262.7
607.843	27669.7
608.2	27978.84
608.557	28267.87
608.914	28318.72
609.272	28609.56
609.629	28752.61
609.986	29078.02
610.343	29231.24
610.7	29556.43
611.057	29692.92
611.414	29827.83
611.771	30111.89
612.127	30359.34
612.484	30569.96
612.841	30826
613.198	30913
613.554	31125.88
613.911	31452.2
614.267	31570.84
614.624	31563.15
614.98	31857.61
615.337	32070.71
615.693	32125.4
616.05	32240.42
616.406	32653.97
616.762	32765.61
617.118	32764.93
617.475	33012.15
617.831	33122.21
618.187	33277.91
618.543	33384.57
618.899	33708.18
619.255	33800.16
619.611	33926.71
619.967	34067.49
620.323	34128.28
620.678	34154.95
621.034	34299.13
621.39	34413.93
621.746	34453.47
622.101	34892.33
622.457	34855.72
622.812	34864.08
623.168	34989.28
623.523	35180.91
623.879	35410.51
624.234	35211.87
624.589	35434.69
624.945	35582.03
625.3	35535.03
625.655	35717.39
626.01	35735.02
626.365	35855.24
626.72	35831.52
627.075	35874
627.43	36005.52
627.785	35805.53
628.14	36089.81
628.495	36053.2
628.85	36356.25
629.205	36102.47
629.559	36363.48
629.914	36387.89
630.269	36446.19
630.623	36383.82
630.978	36340.88
631.332	36556.47
631.687	36658.84
632.041	36597.6
632.396	36621.1
632.75	36640.08
633.104	36647.99
633.459	36613.87
633.813	36614.77
634.167	36512.18
634.521	36579.07
634.875	36670.36
635.229	36676.69
635.583	36556.02
635.937	36768.44
636.291	36665.84
636.645	36658.61
636.999	36620.42
637.352	36693.41
637.706	36625.84
638.06	36746.29
638.413	36760.08
638.767	36470.82
639.121	36681.89
639.474	36520.31
639.828	36686.86
640.181	36640.76
640.534	36675.34
640.888	36458.84
641.241	36432.4
641.594	36497.94
641.947	36639.18
642.301	36584.26
642.654	36450.03
643.007	36458.62
643.36	36667.88
643.713	36476.7
644.066	36726.63
644.419	36392.63
644.771	36353.99
645.124	36025.63
645.477	35921.46
645.83	35646.21
646.182	35667.45
646.535	35451.64
646.888	35646.21
647.24	35378.65
647.593	35718.75
647.945	35514.91
648.298	35354.47
648.65	35473.11
649.002	35211.19
649.355	35342.04
649.707	35421.81
650.059	35530.73
650.411	35917.61
650.763	36066.09
651.115	36347.43
651.467	36333.88
651.819	36284.61
652.171	36255.23
652.523	36054.33
652.875	36124.16
653.227	35909.71
653.578	36226.76
653.93	36163.26
654.282	36097.27
654.633	35884.62
654.985	36035.58
655.337	36061.34
655.688	35977.05
656.039	36090.49
656.391	35838.29
656.742	35932.53
657.094	35944.96
657.445	36100.89
657.796	35904.06
658.147	35836.04
658.498	35939.99
658.849	35941.12
659.2	35935.69
659.551	35835.58
659.902	35971.4
660.253	35892.98
660.604	35965.98
660.955	35648.02
661.306	35810.73
661.656	35842.36
662.007	35681.69
662.358	35900.44
662.708	35865.41
663.059	35766.88
663.409	35601.01
663.76	35823.83
664.11	35807.11
664.461	35793.1
664.811	35881.46
665.161	35769.82
665.511	35708.35
665.862	35849.37
666.212	35837.62
666.562	35823.61
666.912	35654.34
667.262	35698.41
667.612	35705.64
667.962	35642.14
668.312	35662.03
668.662	35824.74
669.011	35705.64
669.361	35663.84
669.711	35650.28
670.06	35611.41
670.41	35580.45
670.76	35579.32
671.109	35714
671.459	35579.09
671.808	35534.35
672.157	35668.58
672.507	35509.26
672.856	35438.76
673.205	35719.43
673.554	35674.91
673.904	35467.01
674.253	35699.32
674.602	35464.52
674.951	35025.89
675.3	34796.74
675.649	35453.9
675.998	35450.51
676.346	35418.42
676.695	35514.69
677.044	35159.22
677.393	35379.78
677.741	35360.57
678.09	35328.93
678.438	35092.33
678.787	35137.07
679.135	35235.15
679.484	35115.15
679.832	35201.02
680.181	35007.58
680.529	35099.78
680.877	34944.31
681.225	34926.23
681.573	35165.77
681.922	35007.58
682.27	34853.01
682.618	34817.53
682.966	34848.26
683.314	34684.88
683.661	34709.29
684.009	34501.38
684.357	34415.06
684.705	34458.44
685.053	34544.77
685.4	34339.8
685.748	34279.47
686.095	34184.78
686.443	34152.46
686.79	34112.69
687.138	34281.27
687.485	34217.55
687.832	34021.85
688.18	34042.86
688.527	33813.72
688.874	33912.24
689.221	33966.93
689.568	33858.91
689.915	33698.01
690.262	33761.06
690.609	33528.3
690.956	33391.13
691.303	33394.97
691.65	33334.86
691.997	33266.39
692.344	33068.42
692.69	33076.56
693.037	33092.6
693.383	32770.58
693.73	33003.12
694.077	32767.19
694.423	32701.88
694.769	32697.59
695.116	32561.77
695.462	32458.72
695.808	32374.88
696.155	32475.67
696.501	32229.35
696.847	32293.76
697.193	32129.69
697.539	32117.04
697.885	31834.33
698.231	31858.29
698.577	31845.86
698.923	31761.34
699.269	31624.39
699.614	31595.92
699.96	31475.47
700.306	31572.19
700.651	31367.45
700.997	31342.37
701.342	31122.03
701.688	31219.43
702.033	30970.4
702.379	30992.09
702.724	30923.17
703.069	30908.93
703.415	30662.16
703.76	30701.25
704.105	30630.3
704.45	30600.92
704.795	30393.92
705.14	30373.13
705.485	30332
705.83	30189.63
706.175	30327.25
706.52	30167.94
706.865	30107.37
707.209	30067.37
707.554	29963.2
707.899	29965
708.243	29748.96
708.588	29801.84
708.932	29550.78
709.277	29550.1
709.621	29557.1
709.966	29320.5
710.31	29463.32
710.654	29257.45
710.998	29243.44
711.342	29209.99
711.687	28985.59
712.031	28953.5
712.375	28928.87
712.719	28980.85
713.063	28835.77
713.407	28958.7
713.75	28796.22
714.094	28748.09
714.438	28769.33
714.782	28604.81
715.125	28584.47
715.469	28523.46
715.812	28458.15
716.156	28394.65
716.499	28302.67
716.843	28392.39
717.186	28282.34
717.53	28257.48
717.873	28277.14
718.216	28208.44
718.559	28045.51
718.902	27862.46
719.246	27872.4
719.589	27926.19
719.932	27868.56
720.275	27791.5
720.617	27716.02
720.96	27727.1
721.303	27687.55
721.646	27759.19
721.989	27461.34
722.331	27533.43
722.674	27591.51
723.016	27525.97
723.359	27410.95
723.701	27446.88
724.044	27264.96
724.386	27127.56
724.729	27265.41
725.071	27222.7
725.413	27110.61
725.755	27243.72
726.097	26977.74
726.439	26843.73
726.782	26878.08
727.124	26975.03
727.465	26869.49
727.807	26807.8
728.149	26849.83
728.491	26694.81
728.833	26835.82
729.175	26690.51
729.516	26649.16
729.858	26628.37
730.199	26644.19
730.541	26459.78
730.882	26379.79
731.224	26519.44
731.565	26290.52
731.906	26297.08
732.248	26461.82
732.589	26271.09
732.93	26177.98
733.271	26196.74
733.612	26209.85
733.953	26186.57
734.294	26022.28
734.635	26123.07
734.976	26184.09
735.317	25867.48
735.658	25955.39
735.999	26027.03
736.339	25898.44
736.68	25990.42
737.021	25795.4
737.361	25768.73
737.702	25688.05
738.042	25716.75
738.383	25769.18
738.723	25617.32
739.063	25602.63
739.404	25695.06
739.744	25402.86
740.084	25470.43
740.424	25621.16
740.764	25356.76
741.104	25473.82
741.444	25307.72
741.784	25260.27
742.124	25382.3
742.464	25234.73
742.804	25236.09
743.143	25133.27
743.483	25069.31
743.823	25099.59
744.162	24988.86
744.502	25064.79
744.841	24846.27
745.181	25103.89
745.52	24892.37
745.86	24962.87
746.199	24821.64
746.538	24731.24
746.877	24889.2
747.216	24801.75
747.556	24778.7
747.895	24737.12
748.234	24621.19
748.573	24574.41
748.911	24575.77
749.25	24412.15
749.589	24520.17
749.928	24481.31
750.267	24508.88
750.605	24476.11
750.944	24445.83
751.283	24208.09
751.621	24357.92
751.96	24258.26
752.298	24173.06
752.636	24128.77
752.975	24074.99
753.313	23968.1
753.651	24148.21
753.989	24020.75
754.327	23989.79
754.666	23762
755.004	23828.89
755.342	23832.28
755.679	23813.3
756.017	23492.18
756.355	23754.32
756.693	23570.59
757.031	23679.29
757.368	23434.33
757.706	23395.91
758.044	23363.59
758.381	23390.71
758.719	23324.27
759.056	23343.71
759.394	23171.74
759.731	22975.36
