Data from hue_350_FLMS001491_41.txt Node
Date: Mon Feb 06 15:38:04 GMT 2017
User: dcchb
Spectrometer: FLMS00149
Trigger mode: 0
Integration Time (sec): 2.000000E-2
Scans to average: 10
Electric dark correction enabled: true
Nonlinearity correction enabled: false
Boxcar width: 0
XAxis mode: Wavelengths
Number of Pixels in Spectrum: 2048
>>>>>Begin Spectral Data<<<<<
341.393	-5.58
341.776	-5.58
342.16	-5.58
342.543	-60.04
342.927	-83.32
343.31	-78.57
343.693	-66.82
344.077	-74.28
344.46	-64.79
344.843	-62.98
345.226	-38.8
345.61	-24.11
345.993	-20.72
346.376	-13.49
346.759	2.78
347.142	28.77
347.525	39.39
347.908	57.92
348.291	111.25
348.674	78.49
349.057	125.94
349.44	126.85
349.823	133.63
350.206	158.03
350.588	181.31
350.971	195.77
351.354	224.47
351.737	230.8
352.119	257.92
352.502	257.92
352.884	248.65
353.267	286.16
353.65	294.3
354.032	296.33
354.414	330.46
354.797	309.89
355.179	296.56
355.562	335.88
355.944	331.14
356.326	338.37
356.709	343.11
357.091	327.29
357.473	347.18
357.855	343.56
358.238	318.93
358.62	331.59
359.002	352.6
359.384	330.91
359.766	336.56
360.148	348.54
360.53	323.23
360.912	345.6
361.294	349.89
361.676	330.01
362.057	332.72
362.439	353.96
362.821	336.56
363.203	319.61
363.584	337.24
363.966	313.51
364.348	321.19
364.729	311.02
365.111	314.41
365.493	334.98
365.874	324.13
366.256	308.99
366.637	326.84
367.019	327.29
367.4	301.31
367.781	310.12
368.163	299.95
368.544	308.99
368.925	308.54
369.306	315.32
369.688	318.48
370.069	299.95
370.45	312.83
370.831	321.64
371.212	316.45
371.593	309.44
371.974	280.06
372.355	313.51
372.736	301.98
373.117	337.91
373.498	293.17
373.879	330.46
374.26	305.83
374.641	314.86
375.021	325.71
375.402	307.18
375.783	343.79
376.163	294.07
376.544	328.2
376.925	337.91
377.305	325.03
377.686	335.2
378.066	335.66
378.447	309.89
378.827	337.24
379.208	323
379.588	327.29
379.968	328.2
380.349	325.71
380.729	324.58
381.109	324.58
381.489	341.98
381.87	331.59
382.25	341.53
382.63	334.3
383.01	334.75
383.39	332.27
383.77	324.81
384.15	322.1
384.53	326.16
384.91	337.24
385.29	346.95
385.67	328.2
386.049	338.59
386.429	329.33
386.809	346.73
387.189	340.4
387.568	346.05
387.948	345.37
388.328	354.64
388.707	362.77
389.087	340.17
389.466	338.37
389.846	327.07
390.225	372.94
390.605	342.21
390.984	352.38
391.363	352.83
391.743	358.93
392.122	378.14
392.501	360.06
392.881	370.23
393.26	359.38
393.639	352.38
394.018	367.07
394.397	348.76
394.776	355.54
395.155	358.71
395.534	373.17
395.913	374.98
396.292	347.41
396.671	350.34
397.05	374.98
397.429	365.71
397.808	392.15
398.186	363.68
398.565	389.66
398.944	380.63
399.323	373.17
399.701	381.08
400.08	386.73
400.458	389.89
400.837	405.71
401.215	385.37
401.594	387.41
401.972	388.08
402.351	370.91
402.729	389.21
403.107	386.73
403.486	401.87
403.864	406.61
404.242	410.23
404.62	408.42
404.999	410.91
405.377	391.25
405.755	401.42
406.133	399.16
406.511	395.77
406.889	416.56
407.267	392.38
407.645	413.85
408.023	427.86
408.401	415.43
408.779	433.28
409.156	447.06
409.534	412.94
409.912	430.79
410.29	419.72
410.667	448.65
411.045	441.87
411.422	436.9
411.8	443.9
412.178	467.85
412.555	443.22
412.933	442.54
413.31	467.4
413.687	449.1
414.065	477.35
414.442	460.85
414.819	464.01
415.197	490.91
415.574	478.02
415.951	466.73
416.328	465.37
416.705	488.42
417.082	492.94
417.46	490.91
417.837	503.56
418.214	489.55
418.591	490.91
418.967	497.46
419.344	498.14
419.721	510.11
420.098	519.83
420.475	501.3
420.852	543.11
421.228	524.12
421.605	511.92
421.982	504.24
422.358	548.98
422.735	519.83
423.111	549.89
423.488	540.4
423.864	547.63
424.241	576.1
424.617	578.13
424.994	555.31
425.37	560.73
425.746	520.73
426.123	561.86
426.499	559.15
426.875	560.28
427.251	564.12
427.627	565.71
428.003	573.61
428.379	609.32
428.756	603.67
429.132	590.56
429.507	593.5
429.883	606.61
430.259	610.45
430.635	597.34
431.011	637.79
431.387	619.49
431.763	643.9
432.138	664.01
432.514	646.61
432.89	663.56
433.265	661.07
433.641	646.61
434.016	655.65
434.392	658.13
434.767	667.62
435.143	701.97
435.518	670.11
435.894	700.17
436.269	703.33
436.644	702.65
437.02	696.78
437.395	709.66
437.77	717.11
438.145	717.34
438.52	721.63
438.895	715.98
439.271	753.72
439.646	732.03
440.021	755.08
440.395	748.3
440.77	737.45
441.145	742.65
441.52	751.24
441.895	746.49
442.27	769.77
442.645	762.08
443.019	778.36
443.394	772.93
443.769	779.26
444.143	789.88
444.518	793.5
444.892	754.63
445.267	805.02
445.641	797.56
446.016	791.24
446.39	800.95
446.764	808.18
447.139	821.29
447.513	795.08
447.887	813.83
448.262	828.07
448.636	803.89
449.01	826.49
449.384	848.41
449.758	826.26
450.132	853.61
450.506	830.11
450.88	851.8
451.254	846.15
451.628	868.52
452.002	854.51
452.376	848.41
452.75	862.87
453.123	874.17
453.497	895.41
453.871	904.23
454.244	902.42
454.618	913.27
454.992	918.01
455.365	919.82
455.739	930.44
456.112	936.54
456.486	939.48
456.859	959.14
457.232	978.35
457.606	959.82
457.979	973.15
458.352	972.02
458.725	973.6
459.099	1014.28
459.472	992.59
459.845	989.65
460.218	1022.64
460.591	1026.26
460.964	1044.11
461.337	1064.9
461.71	1043.88
462.083	1050.44
462.456	1094.73
462.829	1060.83
463.201	1100.15
463.574	1094.28
463.947	1138.35
464.32	1152.81
464.692	1145.8
465.065	1151.68
465.438	1155.29
465.81	1178.57
466.183	1178.12
466.555	1234.16
466.928	1205.91
467.3	1202.52
467.672	1244.33
468.045	1266.48
468.417	1280.04
468.789	1261.51
469.161	1290.43
469.534	1292.24
469.906	1343.99
470.278	1349.41
470.65	1336.31
471.022	1366.81
471.394	1412.69
471.766	1376.08
472.138	1435.06
472.51	1476.19
472.882	1454.27
473.253	1477.09
473.625	1470.31
473.997	1537.21
474.369	1536.3
474.74	1560.71
475.112	1560.26
475.484	1592.57
475.855	1627.15
476.227	1621.04
476.598	1699.46
476.97	1676.64
477.341	1728.61
477.713	1765.67
478.084	1767.26
478.455	1803.41
478.827	1828.27
479.198	1855.84
479.569	1874.6
479.94	1960.47
480.311	1953.69
480.682	2023.52
481.053	2021.03
481.424	2086.12
481.795	2097.87
482.166	2098.09
482.537	2161.14
482.908	2176.51
483.279	2198.66
483.65	2269.39
484.021	2272.33
484.391	2307.35
484.762	2348.94
485.133	2376.51
485.503	2409.72
485.874	2466.9
486.244	2475.03
486.615	2514.35
486.985	2539.66
487.356	2570.62
487.726	2629.61
488.097	2645.42
488.467	2695.14
488.837	2726.78
489.207	2773.56
489.578	2810.62
489.948	2853.78
490.318	2897.17
490.688	2892.88
491.058	2925.42
491.428	2985.75
491.798	3023.27
492.168	3025.3
492.538	3077.96
492.908	3122.47
493.278	3156.6
493.648	3154.79
494.017	3192.98
494.387	3220.1
494.757	3296.26
495.126	3295.13
495.496	3349.14
495.866	3370.15
496.235	3379.64
496.605	3383.94
496.974	3406.31
497.344	3452.18
497.713	3438.17
498.082	3490.83
498.452	3549.36
498.821	3564.95
499.19	3621.67
499.559	3582.58
499.928	3601.33
500.298	3618.73
500.667	3655.79
501.036	3688.56
501.405	3701.22
501.774	3697.83
502.143	3727.66
502.512	3756.36
502.88	3788.22
503.249	3783.7
503.618	3787.09
503.987	3789.8
504.356	3831.61
504.724	3858.27
505.093	3872.74
505.462	3894.21
505.83	3876.35
506.199	3958.61
506.567	3952.74
506.936	4004.94
507.304	3987.31
507.672	4019.4
508.041	4036.12
508.409	4068.21
508.777	4117.25
509.145	4126.29
509.514	4126.06
509.882	4140.75
510.25	4128.78
510.618	4145.27
510.986	4142.11
511.354	4171.49
511.722	4264.14
512.09	4250.81
512.458	4215.78
512.826	4226.4
513.193	4227.76
513.561	4285.16
513.929	4314.31
514.297	4373.97
514.664	4337.58
515.032	4343.91
515.4	4342.1
515.767	4380.07
516.135	4396.11
516.502	4384.81
516.869	4464.13
517.237	4465.94
517.604	4453.06
517.972	4483.34
518.339	4527.41
518.706	4477.69
519.073	4509.56
519.44	4544.58
519.808	4525.83
520.175	4574.41
520.542	4594.98
520.909	4584.36
521.276	4608.54
521.643	4668.42
522.009	4643.11
522.376	4656.22
522.743	4722.43
523.11	4689.66
523.477	4752.04
523.843	4776.67
524.21	4825.25
524.577	4870
524.943	4845.82
525.31	4866.84
525.676	4878.36
526.043	4908.87
526.409	4947.06
526.776	5001.07
527.142	4948.42
527.508	4967.85
527.874	5038.13
528.241	5108.64
528.607	5062.99
528.973	5158.81
529.339	5119.03
529.705	5182.31
530.071	5202.42
530.437	5172.82
530.803	5276.77
531.169	5215.07
531.535	5214.62
531.901	5257.56
532.267	5334.85
532.632	5375.97
532.998	5376.88
533.364	5401.74
533.73	5382.98
534.095	5452.58
534.461	5452.58
534.826	5470.66
535.192	5453.94
535.557	5551.79
535.923	5563.99
536.288	5578.68
536.653	5573.26
537.019	5571.22
537.384	5593.82
537.749	5657.1
538.114	5609.41
538.479	5627.72
538.845	5695.51
539.21	5705.91
539.575	5730.99
539.94	5779.81
540.305	5759.24
540.67	5782.29
541.034	5834.27
541.399	5814.83
541.764	5868.39
542.129	5867.03
542.494	5924.89
542.858	5907.03
543.223	5927.82
543.587	5988.61
543.952	5919.91
544.316	5995.17
544.681	6016.18
545.045	6039.46
545.41	6148.61
545.774	6130.98
546.138	6135.95
546.503	6132.56
546.867	6208.95
547.231	6213.69
547.595	6253.01
547.959	6231.77
548.324	6264.09
548.688	6283.75
549.052	6283.3
549.416	6316.06
549.779	6322.62
550.143	6368.26
550.507	6411.65
550.871	6451.43
551.235	6434.25
551.599	6518.54
551.962	6503.4
552.326	6510.86
552.689	6536.17
553.053	6587.47
553.417	6568.94
553.78	6624.76
554.143	6619.56
554.507	6618.2
554.87	6658.43
555.234	6675.83
555.597	6666.56
555.96	6668.82
556.323	6692.78
556.686	6791.98
557.05	6779.78
557.413	6768.93
557.776	6755.37
558.139	6832.21
558.502	6877.18
558.865	6887.35
559.228	6823.17
559.59	6922.83
559.953	6961.92
560.316	6945.42
560.679	6950.62
561.041	7066.33
561.404	7076.49
561.767	7085.76
562.129	7085.76
562.492	7123.27
562.854	7159.66
563.217	7102.26
563.579	7142.71
563.941	7170.28
564.304	7203.05
564.666	7307.45
565.028	7272.2
565.39	7245.08
565.753	7300.44
566.115	7341.12
566.477	7371.63
566.839	7344.74
567.201	7473.09
567.563	7467.22
567.925	7478.97
568.287	7501.79
568.648	7521.68
569.01	7575.69
569.372	7621.34
569.734	7596.93
570.095	7650.72
570.457	7678.51
570.819	7696.14
571.18	7750.83
571.542	7757.83
571.903	7833.99
572.265	7819.75
572.626	7875.57
572.987	7887.32
573.349	7992.4
573.71	8067.66
574.071	8079.41
574.432	8130.7
574.794	8177.26
575.155	8199.4
575.516	8274.2
575.877	8368.89
576.238	8388.1
576.599	8483.46
576.96	8542.9
577.32	8545.83
577.681	8663.35
578.042	8718.71
578.403	8751.48
578.763	8852.27
579.124	8955.77
579.485	9097.23
579.845	9203.22
580.206	9249.09
580.566	9275.31
580.927	9437.34
581.287	9611.8
581.648	9652.47
582.008	9784.9
582.368	9920.49
582.728	10128.17
583.089	10170.2
583.449	10286.35
583.809	10467.82
584.169	10618.55
584.529	10791.88
584.889	10958.65
585.249	11146.22
585.609	11263.73
585.969	11540.33
586.329	11610.84
586.688	11908.23
587.048	12089.24
587.408	12189.81
587.768	12491.95
588.127	12764.25
588.487	12964.48
588.846	13095.55
589.206	13394.52
589.565	13651.24
589.925	13901.85
590.284	14061.85
590.643	14373.93
591.003	14674.04
591.362	15018.88
591.721	15144.53
592.08	15424.98
592.44	15747.45
592.799	16052.76
593.158	16237.84
593.517	16461.78
593.876	16876.69
594.235	17041.2
594.593	17372.95
594.952	17766.84
595.311	17957.79
595.67	18229.2
596.029	18756.64
596.387	18920.03
596.746	19180.13
597.104	19435.04
597.463	19682.72
597.822	20080.67
598.18	20329.93
598.538	20571.06
598.897	20869.13
599.255	21068.9
599.613	21560.41
599.972	21703
600.33	22194.97
600.688	22239.03
601.046	22691.45
601.404	23041.27
601.762	23343.41
602.12	23580.02
602.478	23836.05
602.836	24104.3
603.194	24255.93
603.552	24712.64
603.91	24847.55
604.268	25183.82
604.625	25381.78
604.983	25679.17
605.341	25831.26
605.698	26185.14
606.056	26527.06
606.413	26650.22
606.771	26947.16
607.128	27225.8
607.485	27434.15
607.843	27588.72
608.2	27915.27
608.557	28312.09
608.914	28309.61
609.272	28791.18
609.629	28877.96
609.986	29277.72
610.343	29259.41
610.7	29729.46
611.057	29801.32
611.414	29961.77
611.771	30136.23
612.127	30517.91
612.484	30638.36
612.841	31006.94
613.198	30933.95
613.554	31236.31
613.911	31438.57
614.267	31697.54
614.624	31697.09
614.98	32044.2
615.337	32311.99
615.693	32368.49
616.05	32449.84
616.406	32744.07
616.762	32764.63
617.118	33089.14
617.475	33109.48
617.831	33309.7
618.187	33556.93
618.543	33647.32
618.899	33983.36
619.255	34094.77
619.611	34195.56
619.967	34341.31
620.323	34436.91
620.678	34396.91
621.034	34535.66
621.39	34650.68
621.746	34617.69
622.101	35175.64
622.457	35075.76
622.812	35012.26
623.168	35255.19
623.523	35414.28
623.879	35425.58
624.234	35390.55
624.589	35592.36
624.945	35678.68
625.3	35864.44
625.655	35901.27
626.01	35994.38
626.365	36021.04
626.72	36163.64
627.075	36248.84
627.43	36129.06
627.785	36257.42
628.14	36294.03
628.495	36484.99
628.85	36464.42
629.205	36332
629.559	36739.44
629.914	36566.11
630.269	36704.64
630.623	36549.39
630.978	36539.9
631.332	36744.64
631.687	36971.3
632.041	36762.49
632.396	36854.02
632.75	36678.65
633.104	36836.62
633.459	36789.16
633.813	36845.66
634.167	36864.19
634.521	36850.18
634.875	36928.59
635.229	36878.87
635.583	36809.5
635.937	36881.59
636.291	36969.49
636.645	36924.52
636.999	36870.29
637.352	37009.94
637.706	36830.06
638.06	36956.39
638.413	36873.68
638.767	36776.28
639.121	36931.98
639.474	36672.55
639.828	36848.37
640.181	36776.73
640.534	36802.72
640.888	36690.41
641.241	36710.52
641.594	36805.88
641.947	36810.63
642.301	36723.4
642.654	36812.21
643.007	36789.16
643.36	36742.38
643.713	36751.87
644.066	36951.87
644.419	36814.47
644.771	36395.72
645.124	36240.93
645.477	36137.2
645.83	35967.03
646.182	35853.14
646.535	35786.93
646.888	35806.36
647.24	35614.73
647.593	35821.95
647.945	35798
648.298	35527.95
648.65	35515.07
649.002	35508.29
649.355	35634.16
649.707	35553.26
650.059	35670.09
650.411	36147.59
650.763	36263.07
651.115	36533.12
651.467	36304.2
651.819	36416.97
652.171	36360.24
652.523	36186.92
652.875	36157.99
653.227	36221.94
653.578	36369.74
653.93	36372.67
654.282	36141.27
654.633	36080.48
654.985	36231.89
655.337	36262.17
655.688	36239.57
656.039	36299.91
656.391	36000.71
656.742	36154.37
657.094	36153.02
657.445	36229.17
657.796	36115.05
658.147	36089.74
658.498	35905.12
658.849	36207.48
659.2	36180.36
659.551	35896.98
659.902	36133.81
660.253	36060.14
660.604	36186.46
660.955	36047.71
661.306	36103.08
661.656	35973.14
662.007	36065.11
662.358	36018.78
662.708	36165.9
663.059	36030.76
663.409	35832.12
663.76	36019.01
664.11	36016.75
664.461	35968.84
664.811	36035.51
665.161	35962.06
665.511	35884.1
665.862	35870.09
666.212	35954.61
666.562	36029.86
666.912	35968.39
667.262	36028.28
667.612	35930.65
667.962	36021.04
668.312	35906.47
668.662	36062.85
669.011	35925.68
669.361	35898.56
669.711	35886.13
670.06	35785.8
670.41	35775.4
670.76	35881.84
671.109	35863.31
671.459	35915.28
671.808	35729.98
672.157	35877.55
672.507	35560.27
672.856	35681.62
673.205	35739.24
673.554	35782.41
673.904	35655.18
674.253	35824.21
674.602	35653.82
674.951	35214.29
675.3	35119.6
675.649	35701.28
675.998	35575.18
676.346	35625.8
676.695	35578.57
677.044	35360.5
677.393	35459.7
677.741	35431
678.09	35483.43
678.438	35320.72
678.787	35437.33
679.135	35520.49
679.484	35144.68
679.832	35442.3
680.181	35203.66
680.529	35268.07
680.877	35147.4
681.225	35053.16
681.573	35379.93
681.922	35036.21
682.27	34881.87
682.618	34934.29
682.966	35032.6
683.314	34946.72
683.661	34922.54
684.009	34597.8
684.357	34610.23
684.705	34608.65
685.053	34562.78
685.4	34561.87
685.748	34322.11
686.095	34334.08
686.443	34281.88
686.79	34314.42
687.138	34326.4
687.485	34237.14
687.832	34141.77
688.18	34163.01
688.527	33997.82
688.874	34079.85
689.221	33918.27
689.568	33876.47
689.915	33838.95
690.262	33719.18
690.609	33681.22
690.956	33560.32
691.303	33451.62
691.65	33478.74
691.997	33414.79
692.344	33232.64
692.69	33247.56
693.037	33236.48
693.383	32987.45
693.73	33101.8
694.077	32873.78
694.423	32959.43
694.769	32716.72
695.116	32741.13
695.462	32670.17
695.808	32582.72
696.155	32549.27
696.501	32350.63
696.847	32440.8
697.193	32068.38
697.539	32237.64
697.885	31957.2
698.231	31867.93
698.577	31922.4
698.923	31749.97
699.269	31707.94
699.614	31589.52
699.96	31551.33
700.306	31559.01
700.651	31439.24
700.997	31333.48
701.342	31197.44
701.688	31225.46
702.033	31149.31
702.379	31073.83
702.724	30996.77
703.069	31058.91
703.415	30789.77
703.76	30689.89
704.105	30847.4
704.45	30572.6
704.795	30474.52
705.14	30388.2
705.485	30338.48
705.83	30245.6
706.175	30259.61
706.52	30322.89
706.865	30112.5
707.209	30110.92
707.554	29893.97
707.899	30051.26
708.243	29832.96
708.588	29836.35
708.932	29509.13
709.277	29669.12
709.621	29630.03
709.966	29419.41
710.31	29511.39
710.654	29281.33
710.998	29253.09
711.342	29377.15
711.687	29256.48
712.031	29135.12
712.375	29101.68
712.719	29048.12
713.063	29007.44
713.407	29194.33
713.75	28997.73
714.094	28795.25
714.438	28769.03
714.782	28687
715.125	28592.09
715.469	28661.46
715.812	28485.88
716.156	28330.17
716.499	28451.3
716.843	28451.75
717.186	28168.37
717.53	28423.73
717.873	28359.32
718.216	28247.01
718.559	28199.78
718.902	28078.65
719.246	27901.48
719.589	27889.73
719.932	27991.65
720.275	27840.92
720.617	27865.55
720.96	27769.96
721.303	27875.04
721.646	27789.62
721.989	27578.78
722.331	27535.17
722.674	27662.17
723.016	27616.29
723.359	27620.81
723.701	27586.69
724.044	27324.78
724.386	27193.03
724.729	27243.87
725.071	27245.68
725.413	27175.4
725.755	27214.5
726.097	27254.95
726.439	26968.18
726.782	27095.86
727.124	27154.84
727.465	26902.41
727.807	26803.66
728.149	26787.16
728.491	26826.94
728.833	26921.4
729.175	26645.92
729.516	26678.01
729.858	26707.84
730.199	26624.23
730.541	26626.94
730.882	26584.68
731.224	26612.93
731.565	26361.19
731.906	26381.75
732.248	26477.11
732.589	26269.44
732.93	26290.23
733.271	26283.9
733.612	26204.58
733.953	26073.96
734.294	26122.77
734.635	26085.71
734.976	26127.75
735.317	25925.72
735.658	25941.08
735.999	25875.32
736.339	25821.76
736.68	25916.68
737.021	25870.12
737.361	25714.65
737.702	25992.38
738.042	25789.9
738.383	25604.82
738.723	25779.51
739.063	25596.91
739.404	25690.47
739.744	25646.85
740.084	25483.47
740.424	25556.91
740.764	25489.57
741.104	25559.62
741.444	25399.63
741.784	25300.2
742.124	25440.08
742.464	25276.92
742.804	25207.77
743.143	25304.49
743.483	25267.65
743.823	25030.15
744.162	25064.04
744.502	25046.64
744.841	25036.02
745.181	24983.37
745.52	24981.11
745.86	24975.91
746.199	24892.75
746.538	24865.63
746.877	24779.98
747.216	24888.91
747.556	24824.95
747.895	24747.89
748.234	24665.86
748.573	24636.71
748.911	24703.83
749.25	24667.22
749.589	24517.39
749.928	24582.93
750.267	24605.07
750.605	24370.73
750.944	24516.49
751.283	24305.19
751.621	24427.68
751.96	24322.37
752.298	24235.59
752.636	24176.16
752.975	24125.76
753.313	24018.65
753.651	24020.68
753.989	24060
754.327	23966.9
754.666	23877.86
755.004	23859.1
755.342	23916.5
755.679	23875.15
756.017	23680.8
756.355	23829.95
756.693	23610.07
757.031	23679.22
757.368	23507.7
757.706	23423.64
758.044	23440.36
758.381	23400.81
758.719	23295.28
759.056	23330.3
759.394	23257.31
759.731	22989.07
760.068	23074.27
760.405	22931.67
760.743	23008.96
