Data from hue_300_FLMS001491_00097.txt Node
Date: Tue Feb 07 15:51:28 GMT 2017
User: dcchb
Spectrometer: FLMS00149
Trigger mode: 0
Integration Time (sec): 2.000000E-2
Scans to average: 10
Electric dark correction enabled: true
Nonlinearity correction enabled: false
Boxcar width: 0
XAxis mode: Wavelengths
Number of Pixels in Spectrum: 2048
>>>>>Begin Spectral Data<<<<<
341.393	-23.25
341.776	-23.25
342.16	-23.25
342.543	-63.25
342.927	-59.18
343.31	-60.08
343.693	-62.12
344.077	-60.99
344.46	-66.86
344.843	-56.92
345.226	-47.43
345.61	-11.5
345.993	-19.86
346.376	-8.11
346.759	11.55
347.142	24.43
347.525	27.6
347.908	64.66
348.291	74.15
348.674	89.29
349.057	102.17
349.44	113.25
349.823	124.09
350.206	158.89
350.588	190.08
350.971	203.64
351.354	212
351.737	249.74
352.119	239.34
352.502	247.25
352.884	232.34
353.267	280.02
353.65	308.72
354.032	284.99
354.414	298.33
354.797	311.88
355.179	284.77
355.562	301.94
355.944	315.5
356.326	329.29
356.709	320.02
357.091	346.46
357.473	350.75
357.855	336.97
358.238	318.21
358.62	311.66
359.002	344.43
359.384	337.65
359.766	325.67
360.148	328.61
360.53	348.04
360.912	327.25
361.294	319.34
361.676	342.17
362.057	342.62
362.439	328.38
362.821	353.69
363.203	337.65
363.584	338.78
363.966	331.32
364.348	321.83
364.729	303.52
365.111	310.08
365.493	294.94
365.874	302.17
366.256	284.99
366.637	280.92
367.019	324.77
367.4	319.34
367.781	301.94
368.163	294.71
368.544	310.98
368.925	304.65
369.306	310.75
369.688	313.47
370.069	297.42
370.45	315.5
370.831	300.13
371.212	312.11
371.593	306.46
371.974	310.53
372.355	302.17
372.736	284.31
373.117	292
373.498	297.87
373.879	289.51
374.26	320.02
374.641	301.26
375.021	293.81
375.402	310.98
375.783	311.43
376.163	313.01
376.544	316.18
376.925	300.81
377.305	307.82
377.686	321.6
378.066	301.72
378.447	320.47
378.827	311.66
379.208	320.7
379.588	331.54
379.968	319.12
380.349	324.54
380.729	335.39
381.109	321.38
381.489	320.92
381.87	317.08
382.25	327.03
382.63	319.57
383.01	336.97
383.39	310.75
383.77	329.51
384.15	315.73
384.53	340.13
384.91	339.23
385.29	335.61
385.67	339.23
386.049	340.36
386.429	327.25
386.809	334.48
387.189	348.95
387.568	343.52
387.948	341.94
388.328	334.71
388.707	345.1
389.087	345.56
389.466	339.91
389.846	353.47
390.225	350.08
390.605	346.46
390.984	360.7
391.363	364.31
391.743	372.9
392.122	355.73
392.501	358.44
392.881	371.09
393.26	371.32
393.639	382.84
394.018	359.79
394.397	369.06
394.776	387.14
395.155	371.32
395.534	366.12
395.913	383.75
396.292	383.97
396.671	367.25
397.05	382.62
397.429	362.96
397.808	382.62
398.186	382.17
398.565	365.22
398.944	396.63
399.323	386.91
399.701	388.04
400.08	395.72
400.458	404.09
400.837	386.01
401.215	406.35
401.594	410.64
401.972	416.74
402.351	394.59
402.729	395.95
403.107	412.45
403.486	415.61
403.864	426.01
404.242	435.95
404.62	427.14
404.999	435.5
405.377	433.24
405.755	430.07
406.133	438.89
406.511	451.99
406.889	433.92
407.267	425.33
407.645	446.34
408.023	487.02
408.401	470.98
408.779	461.03
409.156	481.15
409.534	496.96
409.912	494.7
410.29	510.3
410.667	485.44
411.045	508.72
411.422	510.52
411.8	510.98
412.178	541.71
412.555	528.83
412.933	527.7
413.31	535.61
413.687	538.77
414.065	555.72
414.442	581.03
414.819	573.8
415.197	594.59
415.574	588.94
415.951	610.41
416.328	621.71
416.705	624.19
417.082	624.42
417.46	626.9
417.837	658.32
418.214	642.95
418.591	642.05
418.967	659.22
419.344	684.76
419.721	676.39
420.098	685.89
420.475	702.38
420.852	696.73
421.228	701.93
421.605	713.91
421.982	718.65
422.358	739.9
422.735	751.42
423.111	774.92
423.488	768.37
423.864	788.03
424.241	754.36
424.617	770.18
424.994	795.94
425.37	818.99
425.746	805.66
426.123	818.76
426.499	823.96
426.875	826.9
427.251	842.94
427.627	852.21
428.003	862.83
428.379	889.95
428.756	890.85
429.132	908.48
429.507	902.83
429.883	907.35
430.259	932.21
430.635	935.6
431.011	947.8
431.387	948.93
431.763	996.61
432.138	968.59
432.514	980.57
432.89	1005.65
433.265	1009.49
433.641	1016.95
434.016	1012.21
434.392	1014.01
434.767	1074.35
435.143	1033.22
435.518	1064.63
435.894	1088.59
436.269	1133.78
436.644	1122.71
437.02	1102.15
437.395	1134.46
437.77	1153.67
438.145	1161.35
438.52	1160.45
438.895	1150.05
439.271	1155.93
439.646	1197.28
440.021	1213.1
440.395	1203.16
440.77	1200.45
441.145	1201.8
441.52	1211.97
441.895	1249.49
442.27	1240
442.645	1240.22
443.019	1236.15
443.394	1258.53
443.769	1259.66
444.143	1249.94
444.518	1288.36
444.892	1273.44
445.267	1287.23
445.641	1296.94
446.016	1270.28
446.39	1281.35
446.764	1284.74
447.139	1303.5
447.513	1309.37
447.887	1310.5
448.262	1287.9
448.636	1341.24
449.01	1328.81
449.384	1340.56
449.758	1362.48
450.132	1374.68
450.506	1358.41
450.88	1353.89
451.254	1339.43
451.628	1365.87
452.002	1359.09
452.376	1395.92
452.75	1388.47
453.123	1371.07
453.497	1393.66
453.871	1432.76
454.244	1415.58
454.618	1438.18
454.992	1458.97
455.365	1456.04
455.739	1509.59
456.112	1474.79
456.486	1471.85
456.859	1478.63
457.232	1487.67
457.606	1515.24
457.979	1530.38
458.352	1563.6
458.725	1564.51
459.099	1549.37
459.472	1556.15
459.845	1583.49
460.218	1619.19
460.591	1568.8
460.964	1585.07
461.337	1620.55
461.71	1648.35
462.083	1640.21
462.456	1683.37
462.829	1679.76
463.201	1670.94
463.574	1703.26
463.947	1686.76
464.32	1711.62
464.692	1753.65
465.065	1727.67
465.438	1749.81
465.81	1789.81
466.183	1774.22
466.555	1794.78
466.928	1801.56
467.3	1822.35
467.672	1834.33
468.045	1883.37
468.417	1860.54
468.789	1859.41
469.161	1870.04
469.534	1875.23
469.906	1928.57
470.278	1929.02
470.65	1924.5
471.022	1934.21
471.394	1966.98
471.766	2012.63
472.138	1989.81
472.51	2056.02
472.882	2066.19
473.253	2064.38
473.625	2091.05
473.997	2129.69
474.369	2149.12
474.74	2140.76
475.112	2173.53
475.484	2166.07
475.855	2228.9
476.227	2225.51
476.598	2249.23
476.97	2303.92
477.341	2306.18
477.713	2316.58
478.084	2320.42
478.455	2415.11
478.827	2362.9
479.198	2426.41
479.569	2424.82
479.94	2458.72
480.311	2479.06
480.682	2504.37
481.053	2554.76
481.424	2543.24
481.795	2576.46
482.166	2599.06
482.537	2675.44
482.908	2650.81
483.279	2680.64
483.65	2753.18
484.021	2744.36
484.391	2748.88
484.762	2806.28
485.133	2785.04
485.503	2828.65
485.874	2855.09
486.244	2903.23
486.615	2931.02
486.985	2931.7
487.356	2962.44
487.726	2989.1
488.097	3030.01
488.467	3032.49
488.837	3094.18
489.207	3085.82
489.578	3127.63
489.948	3145.03
490.318	3175.99
490.688	3169.89
491.058	3177.57
491.428	3263.45
491.798	3236.55
492.168	3315.2
492.538	3333.27
492.908	3295.99
493.278	3362.2
493.648	3388.19
494.017	3413.27
494.387	3421.18
494.757	3412.14
495.126	3444.68
495.496	3486.04
495.866	3460.5
496.235	3499.37
496.605	3500.95
496.974	3549.99
497.344	3539.14
497.713	3573.04
498.082	3534.17
498.452	3618.24
498.821	3603.32
499.19	3601.29
499.559	3602.87
499.928	3617.33
500.298	3665.24
500.667	3676.54
501.036	3688.29
501.405	3710.21
501.774	3700.04
502.143	3715.86
502.512	3738.91
502.88	3784.34
503.249	3747.5
503.618	3769.19
503.987	3818.68
504.356	3793.83
504.724	3822.3
505.093	3777.56
505.462	3822.75
505.83	3838.35
506.199	3830.89
506.567	3897.33
506.936	3884.22
507.304	3908.85
507.672	3920.38
508.041	3928.96
508.409	3935.07
508.777	3924.44
509.145	3963.77
509.514	3960.38
509.882	4016.19
510.25	4014.39
510.618	3997.89
510.986	4003.76
511.354	4035.63
511.722	4055.97
512.09	4074.95
512.458	4134.38
512.826	4120.37
513.193	4086.7
513.561	4084.89
513.929	4097.77
514.297	4118.34
514.664	4156.76
515.032	4121.28
515.4	4165.12
515.767	4204.21
516.135	4173.03
516.502	4147.72
516.869	4174.38
517.237	4210.99
517.604	4209.64
517.972	4243.08
518.339	4225.45
518.706	4258.45
519.073	4197.66
519.44	4286.02
519.808	4290.31
520.175	4241.05
520.542	4306.58
520.909	4310.2
521.276	4306.36
521.643	4357.2
522.009	4340.25
522.376	4376.41
522.743	4365.56
523.11	4403.53
523.477	4406.47
523.843	4409.86
524.21	4464.77
524.577	4496.41
524.943	4456.41
525.31	4522.4
525.676	4603.3
526.043	4533.69
526.409	4561.26
526.776	4588.83
527.142	4630.64
527.508	4669.28
527.874	4650.98
528.241	4678.78
528.607	4702.96
528.973	4721.71
529.339	4782.05
529.705	4714.93
530.071	4788.83
530.437	4818.88
530.803	4855.27
531.169	4848.71
531.535	4812.33
531.901	4884.42
532.267	4891.43
532.632	4922.38
532.998	4915.15
533.364	4980.91
533.73	4920.8
534.095	4972.1
534.461	5006.45
534.826	5081.93
535.192	4998.99
535.557	5051.65
535.923	5074.47
536.288	5090.29
536.653	5092.1
537.019	5115.6
537.384	5161.25
537.749	5150.4
538.114	5223.17
538.479	5178.42
538.845	5184.3
539.21	5196.5
539.575	5324.86
539.94	5279.21
540.305	5278.76
540.67	5324.41
541.034	5319.66
541.399	5362.15
541.764	5369.6
542.129	5382.49
542.494	5417.51
542.858	5402.15
543.223	5406.21
543.587	5508.13
543.952	5511.52
544.316	5444.4
544.681	5505.65
545.045	5556.04
545.41	5615.7
545.774	5591.29
546.138	5614.8
546.503	5644.63
546.867	5648.24
547.231	5727.34
547.595	5725.08
547.959	5708.8
548.324	5696.15
548.688	5763.49
549.052	5733.44
549.416	5774.57
549.779	5804.17
550.143	5824.96
550.507	5851.85
550.871	5885.52
551.235	5830.16
551.599	5850.04
551.962	5878.74
552.326	5920.55
552.689	5938.63
553.053	5928.23
553.417	5907.67
553.78	6057.95
554.143	6011.17
554.507	6048.68
554.87	6036.48
555.234	6112.41
555.597	6083.94
555.96	6096.59
556.323	6099.3
556.686	6045.52
557.05	6212.97
557.413	6192.18
557.776	6205.06
558.139	6210.26
558.502	6175.69
558.865	6231.73
559.228	6299.3
559.59	6283.25
559.953	6299.07
560.316	6357.38
560.679	6301.78
561.041	6333.2
561.404	6349.92
561.767	6378.62
562.129	6382.46
562.492	6456.36
562.854	6437.15
563.217	6384.95
563.579	6466.3
563.941	6491.61
564.304	6527.77
564.666	6534.55
565.028	6580.42
565.39	6591.27
565.753	6572.06
566.115	6618.61
566.477	6619.74
566.839	6624.49
567.201	6685.05
567.563	6721.66
567.925	6785.84
568.287	6702.45
568.648	6746.97
569.01	6785.16
569.372	6868.32
569.734	6830.58
570.095	6890.69
570.457	6962.78
570.819	6996.23
571.18	6935.21
571.542	6999.17
571.903	7087.07
572.265	7105.38
572.626	7099.5
572.987	7170.24
573.349	7241.65
573.71	7292.04
574.071	7293.17
574.432	7339.04
574.794	7416.33
575.155	7439.38
575.516	7492.94
575.877	7555.99
576.238	7625.82
576.599	7698.81
576.96	7741.97
577.32	7825.36
577.681	7871.46
578.042	7982.87
578.403	7994.85
578.763	8091.34
579.124	8231
579.485	8390.99
579.845	8491.56
580.206	8577.66
580.566	8688.16
580.927	8776.29
581.287	8961.83
581.648	9082.28
582.008	9233.68
582.368	9299.9
582.728	9520.23
583.089	9570.62
583.449	9757.29
583.809	9952.31
584.169	10094.9
584.529	10262.58
584.889	10543.25
585.249	10654.44
585.609	10802.91
585.969	11079.51
586.329	11248.55
586.688	11480.18
587.048	11757.91
587.408	11885.59
587.768	12174.4
588.127	12456.2
588.487	12595.63
588.846	12929.86
589.206	13119.68
589.565	13399.9
589.925	13727.58
590.284	13865.88
590.643	14293.44
591.003	14464.05
591.362	14839.86
591.721	15062.68
592.08	15404.37
592.44	15685.94
592.799	15919.38
593.158	16221.07
593.517	16549.88
593.876	16730.21
594.235	17102.18
594.593	17406.35
594.952	17663.29
595.311	17963.17
595.67	18326.78
596.029	18558.64
596.387	18937.38
596.746	19261.67
597.104	19472.51
597.463	19775.1
597.822	20133.28
598.18	20291.92
598.538	20681.07
598.897	21066.37
599.255	21132.13
599.613	21726.01
599.972	21998.77
600.33	22237.64
600.688	22516.72
601.046	22850.95
601.404	23093.88
601.762	23295.69
602.12	23673.3
602.478	23906.74
602.836	24205.27
603.194	24378.6
603.552	24704.24
603.91	24896.55
604.268	25216.77
604.625	25357.78
604.983	25747.15
605.341	25913.7
605.698	26283.4
606.056	26501.03
606.413	26658.08
606.771	26935.14
607.128	27329.03
607.485	27283.38
607.843	27528.34
608.2	27986.19
608.557	28276.12
608.914	28239.51
609.272	28584.36
609.629	28829.78
609.986	29146.61
610.343	29264.57
610.7	29584.11
611.057	29679.47
611.414	29916.76
611.771	30069.07
612.127	30480.36
612.484	30472.9
612.841	30778.88
613.198	30768.03
613.554	30989.04
613.911	31312.2
614.267	31422.48
614.624	31540.44
614.98	31722.58
615.337	32002.12
615.693	32171.61
616.05	32115.79
616.406	32443.69
616.762	32576.12
617.118	32604.14
617.475	32805.95
617.831	33039.61
618.187	33067.63
618.543	33300.85
618.899	33383.11
619.255	33602.76
619.611	33530.9
619.967	33818.8
620.323	34140.83
620.678	33948.74
621.034	34090.21
621.39	34289.3
621.746	34269.41
622.101	34802.28
622.457	34516.18
622.812	34613.36
623.168	34908.26
623.523	34927.7
623.879	35102.83
624.234	34962.72
624.589	35119.56
624.945	35265.77
625.3	35206.56
625.655	35322.26
626.01	35449.72
626.365	35589.15
626.72	35453.11
627.075	35648.81
627.43	35573.33
627.785	35647.9
628.14	35784.62
628.495	35841.57
628.85	35856.03
629.205	35780.56
629.559	36157.04
629.914	35808.58
630.269	36084.96
630.623	35954.34
630.978	35850.61
631.332	36046.31
631.687	36282.92
632.041	36143.03
632.396	36251.96
632.75	36210.83
633.104	36130.38
633.459	36103.26
633.813	36230.94
634.167	36226.19
634.521	36089.7
634.875	36252.86
635.229	36349.81
635.583	36157.72
635.937	36166.53
636.291	36130.83
636.645	36248.79
636.999	36063.71
637.352	36231.84
637.706	36213.77
638.06	36439.52
638.413	36281.79
638.767	36178.06
639.121	36305.74
639.474	36058.74
639.828	36099.87
640.181	36235.01
640.534	36278.62
640.888	36144.16
641.241	35954.79
641.594	36121.79
641.947	36051.96
642.301	36106.65
642.654	36147.1
643.007	36175.57
643.36	36208.57
643.713	36054.22
644.066	36263.26
644.419	36091.06
644.771	35832.53
645.124	35602.03
645.477	35470.06
645.83	35226.45
646.182	35167.69
646.535	35076.17
646.888	35284.52
647.24	34962.05
647.593	35310.29
647.945	35037.07
648.298	34992.33
648.65	34982.61
649.002	34946.91
649.355	35009.73
649.707	34941.48
650.059	35166.56
650.411	35574.23
650.763	35527
651.115	35955.47
651.467	35765.64
651.819	35889.71
652.171	35729.26
652.523	35725.87
652.875	35725.64
653.227	35593.67
653.578	35826.88
653.93	35741.91
654.282	35538.75
654.633	35523.39
654.985	35566.55
655.337	35662.82
655.688	35638.64
656.039	35799.76
656.391	35425.09
656.742	35472.32
657.094	35531.07
657.445	35761.35
657.796	35583.73
658.147	35568.36
658.498	35515.25
658.849	35606.55
659.2	35626.89
659.551	35486.33
659.902	35685.19
660.253	35440.9
660.604	35604.52
660.955	35372.66
661.306	35595.7
661.656	35536.72
662.007	35596.15
662.358	35520.68
662.708	35585.99
663.059	35414.46
663.409	35385.76
663.76	35652.88
664.11	35565.65
664.461	35449.94
664.811	35415.82
665.161	35566.55
665.511	35451.53
665.862	35392.77
666.212	35509.38
666.562	35461.92
666.912	35344.41
667.262	35559.32
667.612	35364.52
667.962	35425.31
668.312	35461.47
668.662	35612.88
669.011	35484.97
669.361	35270.06
669.711	35379.21
670.06	35315.71
670.41	35186.9
670.76	35254.24
671.109	35349.38
671.459	35427.8
671.808	35214.7
672.157	35301.25
672.507	35065.55
672.856	35105.55
673.205	35254.47
673.554	35293.11
673.904	35100.35
674.253	35222.15
674.602	35111.42
674.951	34753.69
675.3	34599.57
675.649	35117.3
675.998	34948.49
676.346	35080.46
676.695	35164.75
677.044	34921.37
677.393	35119.56
677.741	34940.35
678.09	34950.07
678.438	34863.97
678.787	34974.7
679.135	34985.78
679.484	34725.22
679.832	34627.59
680.181	34574.26
680.529	34717.99
680.877	34685.44
681.225	34578.78
681.573	34779
681.922	34515.96
682.27	34412.23
682.618	34612.9
682.966	34486.13
683.314	34538.78
683.661	34310.09
684.009	34192.12
684.357	34119.36
684.705	34139.24
685.053	34163.42
685.4	34075.74
685.748	34085.23
686.095	33999.36
686.443	33801.17
686.79	33673.27
687.138	33711.23
687.485	33813.38
687.832	33653.61
688.18	33667.39
688.527	33409.32
688.874	33464.91
689.221	33482.09
689.568	33244.8
689.915	33279.38
690.262	33226.5
690.609	33121.42
690.956	33148.54
691.303	32988.54
691.65	32915.55
691.997	33026.5
692.344	32561.88
692.69	32615.44
693.037	32699.06
693.383	32368.22
693.73	32533.86
694.077	32345.17
694.423	32384.94
694.769	32230.37
695.116	32234.21
695.462	32027.43
695.808	31972.07
696.155	32156.02
696.501	31809.14
696.847	31833.32
697.193	31687.78
697.539	31784.28
697.885	31452.08
698.231	31469.48
698.577	31290.28
698.923	31349.03
699.269	31252.77
699.614	31173.45
699.96	31129.15
700.306	31205.54
700.651	30934.58
700.997	30952.66
701.342	30806.22
701.688	30787.02
702.033	30676.74
702.379	30549.06
702.724	30552.22
703.069	30697.07
703.415	30223.64
703.76	30268.16
704.105	30269.51
704.45	30141.16
704.795	30081.05
705.14	29926.47
705.485	29892.35
705.83	29729.87
706.175	29832.46
706.52	29672.47
706.865	29608.06
707.209	29492.81
707.554	29476.54
707.899	29569.19
708.243	29381.18
708.588	29336.88
708.932	29043.11
709.277	29204.91
709.621	29174.18
709.966	28945.26
710.31	28987.97
710.654	28812.38
710.998	28811.93
711.342	28824.81
711.687	28657.35
712.031	28541.88
712.375	28494.19
712.719	28498.26
713.063	28401.32
713.407	28500.52
713.75	28368.1
714.094	28343.92
714.438	28242.68
714.782	28317.7
715.125	28120.64
715.469	28242.9
715.812	28016.92
716.156	27892.18
716.499	27959.52
716.843	27973.53
717.186	27749.36
717.53	27900.09
717.873	27793.65
718.216	27944.38
718.559	27820.31
718.902	27456.03
719.246	27633.65
719.589	27454
719.932	27371.74
720.275	27408.57
720.617	27449.25
720.96	27351.17
721.303	27338.97
721.646	27277.5
721.989	27077.51
722.331	27184.17
722.674	27065.53
723.016	27092.88
723.359	27125.42
723.701	27040.9
724.044	26891.52
724.386	26768.59
724.729	26875.25
725.071	26713.68
725.413	26790.28
725.755	26802.71
726.097	26714.13
726.439	26483.4
726.782	26568.14
727.124	26655.82
727.465	26535.6
727.807	26517.75
728.149	26327.7
728.491	26356.17
728.833	26492.89
729.175	26375.38
729.516	26324.99
729.858	26211.09
730.199	26318.43
730.541	26249.73
730.882	26111.43
731.224	26287.02
731.565	26080.92
731.906	25997.76
732.248	26101.26
732.589	25922.74
732.93	25823.08
733.271	25884.32
733.612	25927.03
733.953	25930.65
734.294	25737.2
734.635	25831.67
734.976	25903.75
735.317	25603.2
735.658	25722.74
735.999	25695.17
736.339	25578.56
736.68	25675.51
737.021	25659.01
737.361	25508.74
737.702	25645.91
738.042	25516.42
738.383	25453.14
738.723	25478.45
739.063	25334.73
739.404	25402.07
739.744	25349.87
740.084	25290.66
740.424	25361.4
740.764	25206.6
741.104	25328.85
741.444	25162.3
741.784	25151.23
742.124	25070.56
742.464	24929.77
742.804	25145.81
743.143	24986.94
743.483	24976.32
743.823	24833.05
744.162	24854.74
744.502	24910.56
744.841	24773.39
745.181	24932.93
745.52	24719.6
745.86	24788.98
746.199	24719.15
746.538	24709.89
746.877	24847.28
747.216	24731.36
747.556	24640.96
747.895	24657.46
748.234	24475.77
748.573	24479.16
748.911	24456.56
749.25	24466.96
749.589	24410.46
749.928	24452.04
750.267	24477.58
750.605	24353.74
750.944	24381.31
751.283	24229
751.621	24375.66
751.96	24155.1
752.298	24207.75
752.636	24246.62
752.975	24141.54
753.313	24057.93
753.651	24143.57
753.989	24033.52
754.327	24076.23
754.666	23899.51
755.004	23982
755.342	24002.11
755.679	23948.1
756.017	23836.24
756.355	23835.11
756.693	23744.71
757.031	23782.45
757.368	23658.16
757.706	23564.38
758.044	23553.99
758.381	23610.93
758.719	23408.23
759.056	23611.38
759.394	23360.54
