Data from hue_200_FLMS001491_00055.txt Node
Date: Tue Feb 07 16:43:38 GMT 2017
User: dcchb
Spectrometer: FLMS00149
Trigger mode: 0
Integration Time (sec): 2.000000E-2
Scans to average: 10
Electric dark correction enabled: true
Nonlinearity correction enabled: false
Boxcar width: 0
XAxis mode: Wavelengths
Number of Pixels in Spectrum: 2048
>>>>>Begin Spectral Data<<<<<
341.393	-8.98
341.776	-8.98
342.16	-8.98
342.543	-67.29
342.927	-73.39
343.31	-63.22
343.693	-63.22
344.077	-67.96
344.46	-64.8
344.843	-51.02
345.226	-22.32
345.61	-30.45
345.993	-10.79
346.376	-10.79
346.759	3.67
347.142	13.39
347.525	25.14
347.908	61.3
348.291	73.95
348.674	102.88
349.057	104.23
349.44	114.18
349.823	145.82
350.206	163.22
350.588	203.89
350.971	200.73
351.354	210.67
351.737	221.97
352.119	240.05
352.502	248.64
352.884	264.68
353.267	277.11
353.65	280.73
354.032	306.04
354.414	306.94
354.797	323.89
355.179	324.34
355.562	314.85
355.944	318.92
356.326	329.77
356.709	346.26
357.091	333.61
357.473	313.72
357.855	344
358.238	340.39
358.62	313.04
359.002	339.26
359.384	332.93
359.766	339.48
360.148	332.7
360.53	331.35
360.912	347.62
361.294	336.54
361.676	310.56
362.057	337.22
362.439	328.41
362.821	332.7
363.203	322.99
363.584	318.01
363.966	322.53
364.348	330.9
364.729	311.01
365.111	308.07
365.493	332.03
365.874	315.75
366.256	289.77
366.637	313.72
367.019	302.65
367.4	332.48
367.781	299.48
368.163	301.29
368.544	311.69
368.925	308.52
369.306	309.2
369.688	315.3
370.069	320.05
370.45	301.52
370.831	316.43
371.212	314.62
371.593	322.99
371.974	296.09
372.355	301.74
372.736	322.53
373.117	312.14
373.498	307.85
373.879	328.41
374.26	301.74
374.641	308.52
375.021	318.92
375.402	319.14
375.783	319.82
376.163	315.75
376.544	339.03
376.925	322.31
377.305	319.14
377.686	321.63
378.066	325.47
378.447	313.49
378.827	334.96
379.208	332.93
379.588	294.74
379.968	328.86
380.349	315.08
380.729	325.25
381.109	317.34
381.489	295.42
381.87	348.75
382.25	320.05
382.63	319.14
383.01	333.38
383.39	337.22
383.77	334.74
384.15	351.23
384.53	352.59
384.91	356.21
385.29	352.82
385.67	337.45
386.049	347.84
386.429	338.58
386.809	327.96
387.189	365.02
387.568	360.5
387.948	328.41
388.328	351.46
388.707	357.34
389.087	339.26
389.466	352.82
389.846	371.35
390.225	363.89
390.605	362.98
390.984	385.81
391.363	375.19
391.743	363.44
392.122	383.55
392.501	370.89
392.881	362.08
393.26	381.29
393.639	382.65
394.018	374.96
394.397	396.2
394.776	384
395.155	377.9
395.534	372.02
395.913	393.94
396.292	377.9
396.671	401.4
397.05	381.52
397.429	376.09
397.808	392.81
398.186	386.94
398.565	401.63
398.944	384.91
399.323	410.89
399.701	428.97
400.08	409.09
400.458	411.35
400.837	394.4
401.215	416.77
401.594	399.59
401.972	422.64
402.351	429.65
402.729	422.64
403.107	432.14
403.486	421.51
403.864	432.36
404.242	431.68
404.62	469.2
404.999	442.08
405.377	444.56
405.755	456.09
406.133	472.81
406.511	472.36
406.889	463.55
407.267	491.57
407.645	500.38
408.023	485.69
408.401	496.99
408.779	513.94
409.156	496.09
409.534	525.69
409.912	527.95
410.29	544.45
410.667	503.77
411.045	546.03
411.422	518.91
411.8	560.04
412.178	572.92
412.555	577.67
412.933	567.95
413.31	579.7
413.687	615.86
414.065	614.28
414.442	593.04
414.819	642.53
415.197	619.02
415.574	642.07
415.951	648.18
416.328	695.18
416.705	672.58
417.082	679.81
417.46	701.51
417.837	700.38
418.214	703.31
418.591	710.55
418.967	732.01
419.344	742.18
419.721	765.46
420.098	752.35
420.475	750.55
420.852	785.57
421.228	797.55
421.605	803.2
421.982	817.89
422.358	837.77
422.735	866.25
423.111	852.92
423.488	872.12
423.864	891.56
424.241	895.17
424.617	927.72
424.994	948.96
425.37	953.25
425.746	956.42
426.123	962.97
426.499	980.37
426.875	1000.26
427.251	1017.88
427.627	1027.37
428.003	1043.87
428.379	1058.11
428.756	1063.76
429.132	1089.97
429.507	1098.33
429.883	1096.75
430.259	1139.24
430.635	1120.03
431.011	1148.27
431.387	1166.35
431.763	1168.84
432.138	1197.31
432.514	1243.19
432.89	1239.35
433.265	1294.94
433.641	1297.88
434.016	1313.24
434.392	1313.92
434.767	1369.51
435.143	1377.65
435.518	1402.28
435.894	1430.98
436.269	1436.18
436.644	1484.76
437.02	1515.27
437.395	1528.6
437.77	1551.2
438.145	1560.69
438.52	1604.08
438.895	1628.04
439.271	1632.1
439.646	1706.68
440.021	1699.9
440.395	1722.27
440.77	1724.76
441.145	1790.29
441.52	1803.4
441.895	1822.83
442.27	1813.57
442.645	1867.58
443.019	1890.85
443.394	1874.58
443.769	1941.47
444.143	1936.73
444.518	1975.37
444.892	1950.97
445.267	1969.04
445.641	2013.79
446.016	2022.6
446.39	2026.44
446.764	2061.47
447.139	2031.19
447.513	2098.53
447.887	2121.58
448.262	2104.86
448.636	2096.95
449.01	2139.21
449.384	2214.69
449.758	2191.86
450.132	2221.92
450.506	2242.03
450.88	2287.91
451.254	2263.73
451.628	2293.78
452.002	2335.59
452.376	2362.71
452.75	2400.9
453.123	2380.56
453.497	2444.96
453.871	2461.91
454.244	2494.23
454.618	2523.38
454.992	2535.81
455.365	2510.27
455.739	2594.56
456.112	2643.15
456.486	2659.42
456.859	2683.6
457.232	2686.54
457.606	2745.3
457.979	2767.44
458.352	2820.77
458.725	2834.11
459.099	2866.2
459.472	2883.37
459.845	2939.41
460.218	2943.48
460.591	2966.76
460.964	2986.64
461.337	3063.7
461.71	3138.51
462.083	3189.58
462.456	3173.08
462.829	3171.72
463.201	3250.37
463.574	3246.3
463.947	3310.03
464.32	3386.86
464.692	3405.62
465.065	3436.35
465.438	3446.29
465.81	3502.34
466.183	3556.35
466.555	3614.42
466.928	3639.51
467.3	3646.74
467.672	3658.49
468.045	3766.74
468.417	3771.26
468.789	3826.17
469.161	3897.58
469.534	3932.61
469.906	4050.12
470.278	4037.92
470.65	4093.51
471.022	4119.5
471.394	4192.71
471.766	4219.15
472.138	4309.55
472.51	4389.55
472.882	4430.45
473.253	4509.99
473.625	4526.72
473.997	4656.66
474.369	4667.73
474.74	4707.28
475.112	4827.27
475.484	4834.28
475.855	4891
476.227	4942.07
476.598	5107.04
476.97	5087.83
477.341	5263.42
477.713	5310.65
478.084	5333.02
478.455	5445.56
478.827	5526.69
479.198	5683.75
479.569	5633.13
479.94	5824.08
480.311	5842.39
480.682	5963.06
481.053	6070.18
481.424	6198.09
481.795	6195.37
482.166	6281.25
482.537	6380
482.908	6448.47
483.279	6544.29
483.65	6638.3
484.021	6747.68
484.391	6789.48
484.762	6885.53
485.133	6921.68
485.503	7051.17
485.874	7117.84
486.244	7182.47
486.615	7283.48
486.985	7345.4
487.356	7526.64
487.726	7596.24
488.097	7720.53
488.467	7734.09
488.837	7910.81
489.207	7982.45
489.578	8043.23
489.948	8113.74
490.318	8205.94
490.688	8247.75
491.058	8299.95
491.428	8461.3
491.798	8487.74
492.168	8613.62
492.538	8634.63
492.908	8739.26
493.278	8798.02
493.648	8849.54
494.017	8958.01
494.387	9034.4
494.757	8985.58
495.126	9153.04
495.496	9130.44
495.866	9167.27
496.235	9276.2
496.605	9375.63
496.974	9406.81
497.344	9406.59
497.713	9462.86
498.082	9499.92
498.452	9587.38
498.821	9607.26
499.19	9574.04
499.559	9696.07
499.928	9741.72
500.298	9749.86
500.667	9791.66
501.036	9799.8
501.405	9923.41
501.774	9763.64
502.143	9915.73
502.512	9910.76
502.88	10002.51
503.249	9998.66
503.618	10048.38
503.987	10080.24
504.356	10118.89
504.724	10103.07
505.093	10102.39
505.462	10149.17
505.83	10176.06
506.199	10214.48
506.567	10342.38
506.936	10370.63
507.304	10372.67
507.672	10385.09
508.041	10412.66
508.409	10524.98
508.777	10482.27
509.145	10550.97
509.514	10521.36
509.882	10562.94
510.25	10571.3
510.618	10585.54
510.986	10565.43
511.354	10691.53
511.722	10703.28
512.09	10716.61
512.458	10714.8
512.826	10698.08
513.193	10704.41
513.561	10785.31
513.929	10825.31
514.297	10846.78
514.664	10899.43
515.032	10871.41
515.4	10887
515.767	10964.06
516.135	10910.96
516.502	10811.52
516.869	10939.43
517.237	10977.85
517.604	10944.4
517.972	10941.92
518.339	11057.84
518.706	10952.99
519.073	10923.84
519.44	11047.9
519.808	11106.88
520.175	11037.28
520.542	11049.48
520.909	11046.32
521.276	11054.23
521.643	11125.64
522.009	11106.88
522.376	11088.58
522.743	11113.21
523.11	11126.09
523.477	11201.12
523.843	11260.78
524.21	11286.31
524.577	11280.21
524.943	11286.31
525.31	11293.32
525.676	11301.91
526.043	11316.14
526.409	11302.81
526.776	11345.29
527.142	11314.11
527.508	11264.85
527.874	11275.92
528.241	11272.08
528.607	11260.1
528.973	11285.18
529.339	11212.19
529.705	11362.7
530.071	11270.72
530.437	11314.56
530.803	11343.26
531.169	11240.21
531.535	11234.11
531.901	11214.45
532.267	11143.94
532.632	11135.13
532.998	11174.68
533.364	11204.96
533.73	11079.99
534.095	11108.46
534.461	11115.24
534.826	11145.98
535.192	11109.59
535.557	11112.53
535.923	10945.08
536.288	11019.88
536.653	10950.95
537.019	10927.9
537.384	10899.43
537.749	10868.47
538.114	10797.06
538.479	10847.91
538.845	10709.83
539.21	10722.71
539.575	10654.69
539.94	10614.01
540.305	10601.81
540.67	10575.15
541.034	10552.55
541.399	10547.58
541.764	10459.44
542.129	10463.74
542.494	10362.95
542.858	10404.3
543.223	10249.05
543.587	10374.02
543.952	10193.91
544.316	10173.12
544.681	10152.33
545.045	10046.8
545.41	10148.72
545.774	10088.15
546.138	10068.27
546.503	10021.94
546.867	9917.08
547.231	9916.41
547.595	9888.84
547.959	9808.61
548.324	9871.21
548.688	9749.4
549.052	9737.65
549.416	9695.62
549.779	9625.57
550.143	9572.91
550.507	9639.35
550.871	9616.53
551.235	9511.67
551.599	9568.84
551.962	9459.47
552.326	9440.71
552.689	9404.78
553.053	9353.71
553.417	9337.66
553.78	9447.49
554.143	9301.28
554.507	9263.32
554.87	9269.19
555.234	9344.44
555.597	9231.68
555.96	9207.95
556.323	9183.09
556.686	9127.73
557.05	9111.23
557.413	9073.04
557.776	9015.41
558.139	9021.97
558.502	9067.16
558.865	8978.8
559.228	9010.22
559.59	9003.21
559.953	8964.11
560.316	9067.84
560.679	9022.19
561.041	8943.1
561.404	9027.62
561.767	9001.18
562.129	8928.64
562.492	9012.02
562.854	8953.72
563.217	8963.21
563.579	8940.84
563.941	8944.23
564.304	8967.5
564.666	8969.31
565.028	8964.34
565.39	8926.15
565.753	8992.59
566.115	9000.72
566.477	8927.73
566.839	8936.32
567.201	8970.67
567.563	8926.6
567.925	8988.07
568.287	8968.18
568.648	8943.1
569.01	8963.66
569.372	8980.16
569.734	8940.16
570.095	9056.99
570.457	8917.11
570.819	8977.9
571.18	8913.49
571.542	8954.17
571.903	8981.52
572.265	9049.08
572.626	8949.88
572.987	9021.51
573.349	9046.37
573.71	9004.79
574.071	9059.48
574.432	9045.47
574.794	9040.95
575.155	9041.4
575.516	9020.61
575.877	8984.45
576.238	9046.37
576.599	9073.49
576.96	9043.89
577.32	9072.13
577.681	9084.34
578.042	9072.59
578.403	9031.91
578.763	9154.39
579.124	9067.16
579.485	9090.44
579.845	9080.5
580.206	9084.11
580.566	9086.15
580.927	9066.71
581.287	9055.19
581.648	9016.99
582.008	9081.4
582.368	9160.04
582.728	9034.85
583.089	9070.55
583.449	9065.58
583.809	9027.62
584.169	9078.24
584.529	9049.76
584.889	9086.15
585.249	9008.18
585.609	9015.41
585.969	9053.15
586.329	8992.36
586.688	8971.57
587.048	9032.59
587.408	8937.9
587.768	9024.68
588.127	8950.1
588.487	8969.54
588.846	9032.81
589.206	8938.58
589.565	9001.85
589.925	8956.43
590.284	8954.85
590.643	8904.91
591.003	9005.02
591.362	9027.16
591.721	8924.57
592.08	8975.19
592.44	9004.11
592.799	8986.26
593.158	8981.97
593.517	8950.33
593.876	8892.93
594.235	8885.7
594.593	8933.61
594.952	8896.32
595.311	8875.98
595.67	8897.68
596.029	8965.47
596.387	8939.48
596.746	8908.75
597.104	8873.27
597.463	8948.3
597.822	8909.2
598.18	8872.14
598.538	8871.91
598.897	8941.97
599.255	8886.15
599.613	8941.97
599.972	8871.69
600.33	8889.31
600.688	8932.93
601.046	8855.87
601.404	8912.82
601.762	8880.5
602.12	8925.47
602.478	8882.08
602.836	8903.55
603.194	8833.04
603.552	8833.04
603.91	8837.34
604.268	8842.08
604.625	8832.14
604.983	8873.5
605.341	8864.23
605.698	8881.63
606.056	8894.96
606.413	8878.02
606.771	8894.96
607.128	8863.1
607.485	8870.78
607.843	8852.48
608.2	8908.3
608.557	8902.42
608.914	8897.45
609.272	8956.66
609.629	8943.1
609.986	8950.78
610.343	8920.5
610.7	8964.79
611.057	8941.97
611.414	8929.31
611.771	8925.25
612.127	8903.78
612.484	8981.52
612.841	8960.27
613.198	8965.24
613.554	8944.23
613.911	9017.45
614.267	9016.09
614.624	8950.56
614.98	8937
615.337	9005.02
615.693	8992.81
616.05	9026.26
616.406	8981.97
616.762	8984
617.118	8978.35
617.475	9041.63
617.831	9016.32
618.187	9035.3
618.543	8982.87
618.899	9067.16
619.255	9064
619.611	9044.11
619.967	9087.05
620.323	9060.84
620.678	9054.51
621.034	9047.05
621.39	9066.71
621.746	9043.21
622.101	9120.95
622.457	9042.53
622.812	9080.04
623.168	9098.8
623.523	9043.66
623.879	9186.03
624.234	9085.92
624.589	9082.08
624.945	9103.55
625.3	9099.03
625.655	9033.72
626.01	9008.63
626.365	8996.43
626.72	9028.29
627.075	9047.28
627.43	9063.55
627.785	9033.49
628.14	9079.14
628.495	8990.1
628.85	8950.56
629.205	8993.27
629.559	8994.17
629.914	8991.23
630.269	8994.4
630.623	8966.37
630.978	8953.95
631.332	8944.68
631.687	8979.93
632.041	8927.51
632.396	8953.04
632.75	8898.13
633.104	8924.12
633.459	8881.18
633.813	8861.74
634.167	8812.93
634.521	8853.61
634.875	8878.69
635.229	8847.96
635.583	8769.77
635.937	8808.19
636.291	8845.25
636.645	8817.68
636.999	8803.44
637.352	8788.53
637.706	8752.37
638.06	8735.42
638.413	8715.53
638.767	8764.8
639.121	8811.12
639.474	8690
639.828	8729.09
640.181	8706.49
640.534	8699.04
640.888	8686.61
641.241	8624.46
641.594	8684.8
641.947	8717.57
642.301	8689.09
642.654	8656.33
643.007	8670.34
643.36	8593.5
643.713	8589.21
644.066	8628.53
644.419	8605.03
644.771	8577.23
645.124	8478.25
645.477	8464.69
645.83	8452.94
646.182	8470.12
646.535	8312.83
646.888	8395.09
647.24	8313.74
647.593	8374.53
647.945	8298.37
648.298	8297.69
648.65	8215.43
649.002	8311.48
649.355	8330.91
649.707	8302.44
650.059	8372.72
650.411	8468.99
650.763	8458.82
651.115	8532.94
651.467	8516.67
651.819	8504.92
652.171	8472.38
652.523	8523
652.875	8565.48
653.227	8504.01
653.578	8493.84
653.93	8503.34
654.282	8441.87
654.633	8511.02
654.985	8427.86
655.337	8566.38
655.688	8495.65
656.039	8569.55
656.391	8486.61
656.742	8436.44
657.094	8417.69
657.445	8571.36
657.796	8496.78
658.147	8507.18
658.498	8538.59
658.849	8548.76
659.2	8503.56
659.551	8435.09
659.902	8550.34
660.253	8517.8
660.604	8554.86
660.955	8476.67
661.306	8494.52
661.656	8584.92
662.007	8534.75
662.358	8519.61
662.708	8509.21
663.059	8448.42
663.409	8473.51
663.76	8605.25
664.11	8523.9
664.461	8593.28
664.811	8534.07
665.161	8541.98
665.511	8513.05
665.862	8495.2
666.212	8528.42
666.562	8533.62
666.912	8487.52
667.262	8534.52
667.612	8548.31
667.962	8613.84
668.312	8515.09
668.662	8592.82
669.011	8547.85
669.361	8523
669.711	8517.57
670.06	8494.97
670.41	8523.45
670.76	8440.96
671.109	8504.69
671.459	8537.46
671.808	8493.84
672.157	8477.12
672.507	8490.45
672.856	8468.53
673.205	8447.52
673.554	8492.04
673.904	8508.76
674.253	8499.95
674.602	8440.96
674.951	8311.93
675.3	8381.53
675.649	8418.59
675.998	8399.38
676.346	8436.22
676.695	8382.66
677.044	8302.89
677.393	8360.29
677.741	8453.62
678.09	8360.97
678.438	8316.9
678.787	8398.71
679.135	8275.09
679.484	8270.12
679.832	8304.47
680.181	8244.81
680.529	8305.83
680.877	8237.81
681.225	8238.71
681.573	8217.69
681.922	8205.04
682.27	8195.1
682.618	8184.93
682.966	8218.15
683.314	8179.05
683.661	8116.23
684.009	8087.53
684.357	8082.78
684.705	8083.69
685.053	8126.4
685.4	8045.04
685.748	8014.54
686.095	8025.61
686.443	7970.24
686.79	7974.99
687.138	8028.55
687.485	7973.86
687.832	7938.83
688.18	7957.81
688.527	7934.99
688.874	7918.72
689.221	7898.15
689.568	7829.23
689.915	7818.38
690.262	7755.56
690.609	7761.66
690.956	7727.99
691.303	7768.89
691.65	7697.03
691.997	7693.87
692.344	7625.62
692.69	7666.3
693.037	7631.72
693.383	7510.82
693.73	7615.22
694.077	7473.98
694.423	7543.13
694.769	7458.62
695.116	7368.45
695.462	7426.75
695.808	7391.27
696.155	7383.82
696.501	7357.83
696.847	7330.03
697.193	7273.54
697.539	7299.3
697.885	7229.02
698.231	7223.6
698.577	7223.37
698.923	7132.3
699.269	7146.54
699.614	7083.49
699.96	7076.93
700.306	7062.92
700.651	7031.06
700.997	7012.3
701.342	7009.14
701.688	6932.76
702.033	6896.37
702.379	6952.87
702.724	6944.73
703.069	6900.44
703.415	6758.75
703.76	6834.68
704.105	6815.47
704.45	6799.65
704.795	6760.1
705.14	6735.92
705.485	6715.13
705.83	6730.95
706.175	6652.99
706.52	6665.19
706.865	6601.69
707.209	6625.64
707.554	6570.51
707.899	6595.14
708.243	6549.04
708.588	6565.31
708.932	6447.8
709.277	6488.7
709.621	6484.63
709.966	6464.29
710.31	6439.44
710.654	6390.4
710.998	6428.14
711.342	6452.09
711.687	6377.29
712.031	6339.55
712.375	6344.75
712.719	6351.08
713.063	6375.93
713.407	6334.58
713.75	6309.27
714.094	6352.66
714.438	6278.76
714.782	6293
715.125	6321.47
715.469	6283.96
715.812	6236.5
716.156	6233.79
716.499	6195.6
716.843	6189.95
717.186	6226.11
717.53	6229.27
717.873	6214.13
718.216	6184.53
718.559	6106.56
718.902	6053.68
719.246	6186.11
719.589	6095.26
719.932	6077.86
720.275	6087.13
720.617	6077.41
720.96	6082.83
721.303	6064.3
721.646	6123.51
721.989	6041.25
722.331	6062.27
722.674	6068.15
723.016	6043.97
723.359	6050.97
723.701	6068.6
724.044	6061.59
724.386	5978.2
724.729	6048.26
725.071	6059.78
725.413	6039.45
725.755	5961.48
726.097	5981.59
726.439	5983.63
726.782	5994.7
727.124	5997.64
727.465	5987.47
727.807	5902.73
728.149	5945.44
728.491	5956.06
728.833	5905.21
729.175	5951.99
729.516	5942.05
729.858	5913.8
730.199	5941.82
730.541	5987.24
730.882	5902.73
731.224	5957.41
731.565	5934.36
731.906	5991.31
732.248	5975.94
732.589	5960.13
732.93	5904.31
733.271	5975.04
733.612	5959.67
733.953	5955.38
734.294	5972.1
734.635	5938.66
734.976	5987.47
735.317	5895.27
735.658	5931.88
735.999	5946.79
736.339	5940.01
736.68	5985.21
737.021	5962.84
737.361	5896.85
737.702	6010.52
738.042	5967.36
738.383	5987.92
738.723	5984.76
739.063	6021.59
739.404	6012.1
739.744	6017.98
740.084	5990.41
740.424	6062.04
740.764	6053.23
741.104	6068.6
741.444	6044.64
741.784	6056.17
742.124	6093.68
742.464	6066.79
742.804	6110.63
743.143	6089.39
743.483	6128.71
743.823	6177.07
744.162	6167.58
744.502	6213.9
744.841	6222.49
745.181	6230.85
745.52	6302.26
745.86	6328.7
746.199	6339.32
746.538	6344.3
746.877	6433.11
747.216	6461.58
747.556	6461.36
747.895	6550.62
748.234	6572.09
748.573	6572.09
748.911	6718.3
749.25	6669.94
749.589	6742.25
749.928	6863.15
750.267	6924.85
750.605	6965.98
750.944	7000.55
751.283	7042.58
751.621	7184.05
751.96	7209.58
752.298	7327.55
752.636	7391.95
752.975	7417.94
753.313	7547.43
753.651	7644.6
753.989	7724.15
754.327	7868.32
754.666	7929.57
755.004	8031.48
755.342	8238.48
755.679	8337.24
756.017	8390.8
756.355	8553.05
756.693	8657.68
757.031	8809.09
757.368	8941.06
757.706	9087.28
758.044	9230.55
758.381	9387.83
758.719	9506.47
759.056	9668.73
759.394	9879.8
759.731	9960.25
760.068	10129.51
760.405	10331.54
760.743	10370.63
761.08	10568.37
761.417	10757.51
761.754	10864.86
762.091	11128.13
762.428	11265.3
762.765	11351.62
763.102	11578.06
763.438	11759.75
763.775	11852.4
764.112	12078.38
764.449	12289.22
764.785	12418.04
765.122	12496.68
765.458	12692.83
765.795	12882.2
766.131	13071.58
766.467	13170.11
766.804	13357.67
