Data from hue_100_FLMS001491_00052.txt Node
Date: Tue Feb 07 17:03:21 GMT 2017
User: dcchb
Spectrometer: FLMS00149
Trigger mode: 0
Integration Time (sec): 2.000000E-2
Scans to average: 10
Electric dark correction enabled: true
Nonlinearity correction enabled: false
Boxcar width: 0
XAxis mode: Wavelengths
Number of Pixels in Spectrum: 2048
>>>>>Begin Spectral Data<<<<<
341.393	-16.34
341.776	-16.34
342.16	-16.34
342.543	-36.91
342.927	-66.28
343.31	-78.71
343.693	-88.88
344.077	-69.45
344.46	-39.39
344.843	-77.13
345.226	-27.19
345.61	-26.96
345.993	-19.51
346.376	-11.37
346.759	6.48
347.142	25.69
347.525	40.15
347.908	64.79
348.291	75.86
348.674	98.23
349.057	127.38
349.44	116.08
349.823	140.04
350.206	159.93
350.588	194.05
350.971	205.12
351.354	215.74
351.737	244.67
352.119	257.32
352.502	269.98
352.884	274.05
353.267	276.31
353.65	310.88
354.032	314.5
354.414	303.65
354.797	305.23
355.179	325.12
355.562	317.89
355.944	326.47
356.326	329.19
356.709	334.61
357.091	338
357.473	334.84
357.855	353.59
358.238	328.51
358.62	339.13
359.002	347.49
359.384	341.39
359.766	340.26
360.148	352.69
360.53	345.68
360.912	344.55
361.294	331.45
361.676	333.71
362.057	340.71
362.439	327.6
362.821	340.71
363.203	331.22
363.584	315.85
363.966	335.29
364.348	334.61
364.729	326.02
365.111	331.45
365.493	303.2
365.874	298.23
366.256	318.79
366.637	315.63
367.019	309.07
367.4	319.02
367.781	329.41
368.163	310.88
368.544	323.08
368.925	320.82
369.306	319.02
369.688	322.41
370.069	310.43
370.45	335.74
370.831	311.79
371.212	341.62
371.593	325.12
371.974	312.01
372.355	307.94
372.736	314.5
373.117	329.86
373.498	322.63
373.879	325.8
374.26	310.88
374.641	305.68
375.021	334.38
375.402	321.05
375.783	312.24
376.163	337.55
376.544	316.98
376.925	323.31
377.305	321.5
377.686	340.94
378.066	333.93
378.447	326.47
378.827	343.65
379.208	334.84
379.588	357.21
379.968	331.22
380.349	324.44
380.729	349.75
381.109	346.13
381.489	349.75
381.87	340.26
382.25	336.87
382.63	363.99
383.01	330.32
383.39	353.14
383.77	343.42
384.15	373.25
384.53	345.46
384.91	356.3
385.29	351.56
385.67	363.31
386.049	354.04
386.429	366.47
386.809	362.18
387.189	363.08
387.568	383.42
387.948	378.45
388.328	361.5
388.707	348.62
389.087	366.02
389.466	373.03
389.846	360.37
390.225	352.69
390.605	362.86
390.984	384.55
391.363	384.78
391.743	373.93
392.122	372.8
392.501	370.32
392.881	382.07
393.26	388.62
393.639	379.81
394.018	374.16
394.397	406.92
394.776	400.14
395.155	380.94
395.534	407.83
395.913	384.1
396.292	405.57
396.671	389.52
397.05	407.38
397.429	407.6
397.808	389.07
398.186	392.46
398.565	377.77
398.944	394.5
399.323	405.34
399.701	414.16
400.08	404.44
400.458	404.66
400.837	406.02
401.215	408.28
401.594	430.43
401.972	408.28
402.351	403.08
402.729	404.44
403.107	422.74
403.486	410.99
403.864	439.92
404.242	451.89
404.62	427.94
404.999	425.68
405.377	446.92
405.755	443.31
406.133	451.22
406.511	425
406.889	455.28
407.267	435.85
407.645	446.02
408.023	443.31
408.401	444.89
408.779	444.21
409.156	472.91
409.534	437.43
409.912	463.87
410.29	470.2
410.667	470.88
411.045	484.44
411.422	476.98
411.8	487.6
412.178	461.84
412.555	520.59
412.933	489.86
413.31	497.54
413.687	516.3
414.065	488.73
414.442	493.93
414.819	495.28
415.197	531.89
415.574	515.4
415.951	530.99
416.328	522.85
416.705	541.61
417.082	543.87
417.46	528.73
417.837	523.31
418.214	529.18
418.591	551.1
418.967	545.23
419.344	549.97
419.721	543.87
420.098	562.85
420.475	549.75
420.852	554.49
421.228	557.88
421.605	558.33
421.982	548.16
422.358	570.31
422.735	566.47
423.111	569.86
423.488	585.22
423.864	589.74
424.241	603.53
424.617	583.64
424.994	606.24
425.37	597.88
425.746	607.15
426.123	594.72
426.499	598.78
426.875	604.66
427.251	626.81
427.627	631.1
428.003	638.78
428.379	617.54
428.756	653.47
429.132	655.28
429.507	664.54
429.883	668.61
430.259	668.61
430.635	667.93
431.011	670.87
431.387	664.09
431.763	693.47
432.138	698.22
432.514	702.74
432.89	698.22
433.265	731.21
433.641	716.29
434.016	719.23
434.392	727.14
434.767	724.66
435.143	732.11
435.518	749.97
435.894	747.03
436.269	737.54
436.644	780.02
437.02	782.28
437.395	773.69
437.77	759.01
438.145	794.48
438.52	805.78
438.895	788.61
439.271	826.35
439.646	814.15
440.021	829.74
440.395	832.45
440.77	816.18
441.145	838.78
441.52	840.81
441.895	839
442.27	847.82
442.645	836.29
443.019	861.38
443.394	876.29
443.769	861.38
444.143	887.59
444.518	885.56
444.892	873.58
445.267	896.85
445.641	903.63
446.016	905.67
446.39	893.69
446.764	905.44
447.139	885.33
447.513	902.96
447.887	932.79
448.262	913.58
448.636	938.21
449.01	954.48
449.384	946.57
449.758	955.84
450.132	969.85
450.506	965.55
450.88	986.34
451.254	983.41
451.628	1001.26
452.002	1039
452.376	1021.6
452.75	990.19
453.123	1004.87
453.497	1069.28
453.871	1050.98
454.244	1062.73
454.618	1083.06
454.992	1085.78
455.365	1078.55
455.739	1097.3
456.112	1129.39
456.486	1122.61
456.859	1142.72
457.232	1140.01
457.606	1165.32
457.979	1134.59
458.352	1186.11
458.725	1225.43
459.099	1234.25
459.472	1237.64
459.845	1262.04
460.218	1255.94
460.591	1279.9
460.964	1295.26
461.337	1295.26
461.71	1327.35
462.083	1358.99
462.456	1353.34
462.829	1341.36
463.201	1353.34
463.574	1380.01
463.947	1402.38
464.32	1422.26
464.692	1434.92
465.065	1463.39
465.438	1485.99
465.81	1495.48
466.183	1506.1
466.555	1555.37
466.928	1586.55
467.3	1580
467.672	1605.99
468.045	1648.47
468.417	1658.87
468.789	1688.47
469.161	1689.83
469.534	1709.49
469.906	1761.92
470.278	1791.75
470.65	1856.6
471.022	1879.88
471.394	1927.11
471.766	1940.9
472.138	1963.49
472.51	2028.35
472.882	2061.8
473.253	2082.36
473.625	2119.87
473.997	2203.94
474.369	2201.91
474.74	2231.28
475.112	2285.07
475.484	2357.38
475.855	2408.68
476.227	2452.07
476.598	2524.16
476.97	2583.82
477.341	2671.05
477.713	2710.14
478.084	2731.16
478.455	2855
478.827	2890.25
479.198	3022.9
479.569	3059.28
479.94	3174.08
480.311	3261.54
480.682	3303.57
481.053	3484.13
481.424	3514.19
481.795	3568.2
482.166	3677.12
482.537	3767.51
482.908	3883.22
483.279	3984.46
483.65	4099.03
484.021	4212.7
484.391	4312.13
484.762	4451.11
485.133	4507.83
485.503	4598.68
485.874	4768.17
486.244	4875.96
486.615	5009.29
486.985	5087.71
487.356	5268.04
487.726	5342.84
488.097	5507.36
488.467	5634.81
488.837	5777.4
489.207	5907.34
489.578	6031.18
489.948	6209.94
490.318	6303.72
490.688	6437.27
491.058	6605.63
491.428	6774.67
491.798	6896.02
492.168	7064.38
492.538	7162
492.908	7312.51
493.278	7439.96
493.648	7572.39
494.017	7775.09
494.387	7872.72
494.757	8047.63
495.126	8190.67
495.496	8212.59
495.866	8333.5
496.235	8511.8
496.605	8662.3
496.974	8773.48
497.344	8919.24
497.713	8995.17
498.082	9213.47
498.452	9357.2
498.821	9407.59
499.19	9441.04
499.559	9618.43
499.928	9687.13
500.298	9852.55
500.667	9923.06
501.036	10028.14
501.405	10153.11
501.774	10205.08
502.143	10400.11
502.512	10471.07
502.88	10575.02
503.249	10577.73
503.618	10741.12
503.987	10776.14
504.356	10868.34
504.724	10933.65
505.093	11021.56
505.462	11139.07
505.83	11223.59
506.199	11338.84
506.567	11472.4
506.936	11523.69
507.304	11611.83
507.672	11730.92
508.041	11758.72
508.409	11823.8
508.777	11901.76
509.145	12033.96
509.514	11953.74
509.882	12077.58
510.25	12133.62
510.618	12221.53
510.986	12287.06
511.354	12355.99
511.722	12470.11
512.09	12485.25
512.458	12545.36
512.826	12694.51
513.193	12693.61
513.561	12770.44
513.929	12829.87
514.297	12885.24
514.664	12950.55
515.032	13021.73
515.4	12999.14
515.767	13084.11
516.135	13146.48
516.502	13110.77
516.869	13212.01
517.237	13271.67
517.604	13209.98
517.972	13357.09
518.339	13385.34
518.706	13372.23
519.073	13428.28
519.44	13453.36
519.808	13613.36
520.175	13506.01
520.542	13709.17
520.909	13666.46
521.276	13667.14
521.643	13777.87
522.009	13716.63
522.376	13857.42
522.743	13918.66
523.11	14044.31
523.477	14138.99
523.843	14046.57
524.21	14142.16
524.577	14228.48
524.943	14195.49
525.31	14251.98
525.676	14320.46
526.043	14298.54
526.409	14439.32
526.776	14412.88
527.142	14487.23
527.508	14490.85
527.874	14467.8
528.241	14491.98
528.607	14506.44
528.973	14509.38
529.339	14460.11
529.705	14565.2
530.071	14697.17
530.437	14657.4
530.803	14691.07
531.169	14730.62
531.535	14673.67
531.901	14629.83
532.267	14569.49
532.632	14712.54
532.998	14595.7
533.364	14714.8
533.73	14594.8
534.095	14717.51
534.461	14680.22
534.826	14696.94
535.192	14643.16
535.557	14777.17
535.923	14604.29
536.288	14649.04
536.653	14643.61
537.019	14584.18
537.384	14614.69
537.749	14650.62
538.114	14536.5
538.479	14541.92
538.845	14551.86
539.21	14446.78
539.575	14466.67
539.94	14443.84
540.305	14470.96
540.67	14420.57
541.034	14328.14
541.399	14408.14
541.764	14328.59
542.129	14206.56
542.494	14324.52
542.858	14298.99
543.223	14213.79
543.587	14217.41
543.952	14148.03
544.316	14131.31
544.681	14099.45
545.045	14114.36
545.41	14117.3
545.774	14005.44
546.138	13998.21
546.503	14016.96
546.867	13965.21
547.231	14005.89
547.595	13966.57
547.959	13876.4
548.324	13891.09
548.688	13817.19
549.052	13881.82
549.416	13813.13
549.779	13769.96
550.143	13784.2
550.507	13725.44
550.871	13788.49
551.235	13680.25
551.599	13753.47
551.962	13625.11
552.326	13634.83
552.689	13667.59
553.053	13558.89
553.417	13466.02
553.78	13677.08
554.143	13528.84
554.507	13559.12
554.87	13522.96
555.234	13626.01
555.597	13518.67
555.96	13532.23
556.323	13549.18
556.686	13526.35
557.05	13573.13
557.413	13525.9
557.776	13497.88
558.139	13595.28
558.502	13500.82
558.865	13447.03
559.228	13502.17
559.59	13496.3
559.953	13491.1
560.316	13623.07
560.679	13567.71
561.041	13542.17
561.404	13540.36
561.767	13609.74
562.129	13530.87
562.492	13647.71
562.854	13625.56
563.217	13559.57
563.579	13607.26
563.941	13566.58
564.304	13691.55
564.666	13616.07
565.028	13642.51
565.39	13679.57
565.753	13657.65
566.115	13662.62
566.477	13660.14
566.839	13700.81
567.201	13748.95
567.563	13800.47
567.925	13826.46
568.287	13852.67
568.648	13841.6
569.01	13850.19
569.372	13896.29
569.734	13829.4
570.095	13931.54
570.457	13946.68
570.819	13983.06
571.18	13907.36
571.542	13995.04
571.903	13956.62
572.265	14064.87
572.626	14028.49
572.987	14070.29
573.349	14033.01
573.71	14097.41
574.071	14070.97
574.432	14123.17
574.794	14147.81
575.155	14103.29
575.516	14053.8
575.877	14091.99
576.238	14029.39
576.599	14078.43
576.96	14157.75
577.32	14037.98
577.681	14061.71
578.042	14134.02
578.403	14156.39
578.763	14125.43
579.124	14102.61
579.485	14176.96
579.845	14223.74
580.206	14154.13
580.566	14218.99
580.927	14236.39
581.287	14121.14
581.648	14171.31
582.008	14199.78
582.368	14178.09
582.728	14191.19
583.089	14182.16
583.449	14196.17
583.809	14154.59
584.169	14196.62
584.529	14153.23
584.889	14189.39
585.249	14116.39
585.609	14040.92
585.969	14180.8
586.329	14070.29
586.688	14112.33
587.048	14032.1
587.408	14000.92
587.768	14093.57
588.127	14093.34
588.487	14039.11
588.846	14153.46
589.206	14030.97
589.565	13957.98
589.925	14007.02
590.284	14074.81
590.643	13959.56
591.003	14002.05
591.362	14060.8
591.721	14063.97
592.08	14068.49
592.44	14087.92
592.799	13995.72
593.158	13913.24
593.517	14040.24
593.876	13979
594.235	13864.2
594.593	13915.27
594.952	13936.51
595.311	13883.86
595.67	13916.4
596.029	14038.43
596.387	13975.16
596.746	14023.97
597.104	13907.59
597.463	13882.95
597.822	13947.36
598.18	13756.63
598.538	13912.33
598.897	13981.26
599.255	13774.71
599.613	14028.71
599.972	13867.36
600.33	13956.4
600.688	13877.76
601.046	13922.28
601.404	13944.42
601.762	13867.81
602.12	13945.33
602.478	13981.03
602.836	13994.36
603.194	13820.58
603.552	13847.7
603.91	13803.86
604.268	13940.13
604.625	13877.3
604.983	13854.48
605.341	13806.35
605.698	13954.82
606.056	13938.77
606.413	13915.72
606.771	13877.3
607.128	13965.44
607.485	13965.21
607.843	13908.49
608.2	13918.89
608.557	14003.4
608.914	13873.01
609.272	14002.73
609.629	13985.32
609.986	14021.03
610.343	14078.43
610.7	14077.98
611.057	14064.42
611.414	14037.75
611.771	14085.89
612.127	14195.26
612.484	14171.31
612.841	14140.35
613.198	14047.24
613.554	14082.27
613.911	14202.04
614.267	14167.47
614.624	14179.44
614.98	14202.27
615.337	14202.95
615.693	14179.67
616.05	14183.29
616.406	14347.57
616.762	14256.73
617.118	14226.9
617.475	14297.18
617.831	14244.98
618.187	14289.27
618.543	14284.53
618.899	14349.61
619.255	14323.39
619.611	14320
619.967	14396.84
620.323	14331.76
620.678	14351.64
621.034	14318.2
621.39	14347.35
621.746	14347.12
622.101	14421.02
622.457	14342.38
622.812	14345.31
623.168	14400.45
623.523	14438.42
623.879	14405.65
624.234	14315.26
624.589	14333.11
624.945	14392.32
625.3	14371.53
625.655	14364.52
626.01	14350.96
626.365	14357.29
626.72	14265.32
627.075	14338.54
627.43	14284.75
627.785	14290.63
628.14	14308.71
628.495	14332.89
628.85	14288.14
629.205	14243.17
629.559	14376.27
629.914	14234.58
630.269	14305.77
630.623	14272.32
630.978	14156.85
631.332	14240.01
631.687	14324.52
632.041	14238.65
632.396	14212.66
632.75	14187.13
633.104	14190.74
633.459	14095.83
633.813	14123.4
634.167	14134.25
634.521	14146
634.875	14079.11
635.229	14135.6
635.583	14021.48
635.937	14068.49
636.291	13985.55
636.645	14019
636.999	13910.75
637.352	14025.55
637.706	13887.93
638.06	13928.15
638.413	13926.57
638.767	13907.59
639.121	13901.03
639.474	13830.98
639.828	13837.53
640.181	13859.9
640.534	13924.31
640.888	13870.98
641.241	13728.38
641.594	13693.35
641.947	13737.2
642.301	13812.67
642.654	13799.11
643.007	13769.74
643.36	13779.45
643.713	13736.52
644.066	13802.28
644.419	13641.6
644.771	13574.04
645.124	13482.51
645.477	13371.56
645.83	13407.49
646.182	13319.58
646.535	13299.01
646.888	13302.4
647.24	13282.74
647.593	13233.25
647.945	13271.22
648.298	13205.91
648.65	13229.64
649.002	13170.43
649.355	13268.06
649.707	13258.11
650.059	13346.47
650.411	13470.54
650.763	13489.52
651.115	13599.57
651.467	13513.7
651.819	13538.33
652.171	13573.58
652.523	13485.68
652.875	13572.45
653.227	13507.82
653.578	13628.5
653.93	13544.88
654.282	13501.5
654.633	13452.23
654.985	13530.87
655.337	13590.98
655.688	13592.11
656.039	13532.91
656.391	13472.8
656.742	13467.37
657.094	13590.53
657.445	13550.99
657.796	13446.36
658.147	13444.32
658.498	13488.16
658.849	13489.97
659.2	13524.09
659.551	13375.17
659.902	13559.8
660.253	13575.39
660.604	13595.5
660.955	13492.46
661.306	13589.85
661.656	13508.5
662.007	13559.57
662.358	13557.76
662.708	13586.69
663.059	13582.17
663.409	13483.42
663.76	13559.8
664.11	13612.23
664.461	13630.53
664.811	13569.74
665.161	13609.29
665.511	13535.39
665.862	13548.05
666.212	13562.28
666.562	13642.06
666.912	13551.66
667.262	13571.32
667.612	13557.54
667.962	13612.68
668.312	13613.58
668.662	13616.52
669.011	13549.18
669.361	13568.39
669.711	13522.74
670.06	13494.49
670.41	13556.41
670.76	13497.65
671.109	13605.45
671.459	13533.13
671.808	13449.97
672.157	13544.88
672.507	13397.32
672.856	13437.32
673.205	13459.46
673.554	13568.16
673.904	13441.61
674.253	13511.66
674.602	13409.97
674.951	13223.76
675.3	13193.48
675.649	13337.66
675.998	13292.69
676.346	13356.41
676.695	13468.5
677.044	13327.71
677.393	13344.21
677.741	13390.09
678.09	13417.43
678.438	13252.01
678.787	13265.57
679.135	13299.01
679.484	13261.95
679.832	13251.78
680.181	13172.46
680.529	13164.1
680.877	13179.47
681.225	13071.9
681.573	13137.21
681.922	13063.99
682.27	13079.13
682.618	13097.21
682.966	13000.04
683.314	13020.38
683.661	12899.48
684.009	12971.79
684.357	12866.03
684.705	12867.84
685.053	12834.62
685.4	12854.73
685.748	12790.55
686.095	12833.26
686.443	12717.79
686.79	12676.88
687.138	12714.85
687.485	12713.72
687.832	12693.61
688.18	12676.21
688.527	12578.36
688.874	12599.82
689.221	12582.2
689.568	12505.36
689.915	12516.44
690.262	12440.73
690.609	12389.21
690.956	12320.28
691.303	12359.38
691.65	12378.81
691.997	12250.91
692.344	12155.77
692.69	12187.18
693.037	12191.93
693.383	12051.36
693.73	12050.01
694.077	11961.42
694.423	12008.2
694.769	11954.19
695.116	11814.08
695.462	11835.78
695.808	11930.92
696.155	11899.73
696.501	11765.95
696.847	11824.48
697.193	11694.99
697.539	11693.63
697.885	11570.02
698.231	11511.27
698.577	11551.94
698.923	11526.63
699.269	11392.4
699.614	11349.24
699.96	11388.56
700.306	11352.17
700.651	11281.44
700.997	11205.28
701.342	11192.86
701.688	11195.34
702.033	11113.76
702.379	11079.64
702.724	11127.55
703.069	11075.8
703.415	10921.68
703.76	10906.76
704.105	10937.04
704.45	10923.03
704.795	10864.5
705.14	10747.44
705.485	10732.98
705.83	10642.36
706.175	10750.83
706.52	10675.58
706.865	10690.5
707.209	10629.71
707.554	10598.97
707.899	10666.54
708.243	10568.01
708.588	10572.76
708.932	10454.34
709.277	10409.15
709.621	10472.42
709.966	10415.93
710.31	10361.46
710.654	10377.74
710.998	10379.77
711.342	10341.35
711.687	10281.92
712.031	10267
712.375	10146.1
712.719	10213.45
713.063	10243.73
713.407	10190.4
713.75	10121.7
714.094	10177.51
714.438	10047.12
714.782	10031.53
715.125	10018.65
715.469	10055.94
715.812	10025.43
716.156	9901.36
716.499	9948.14
716.843	9965.77
717.186	9893.68
717.53	9931.19
717.873	10001.02
718.216	9872.66
718.559	9875.6
718.902	9827.02
719.246	9879.67
719.589	9780.01
719.932	9776.62
720.275	9791.76
720.617	9739.79
720.96	9701.6
721.303	9728.26
721.646	9737.07
721.989	9676.29
722.331	9716.28
722.674	9642.61
723.016	9704.98
723.359	9686.91
723.701	9776.4
724.044	9677.42
724.386	9592.22
724.729	9716.06
725.071	9637.64
725.413	9646.46
725.755	9573.01
726.097	9551.54
726.439	9492.79
726.782	9528.72
727.124	9575.27
727.465	9555.84
727.807	9547.25
728.149	9563.29
728.491	9481.04
728.833	9526.46
729.175	9450.3
729.516	9500.92
729.858	9508.83
730.199	9495.5
730.541	9458.66
730.882	9536.63
731.224	9541.6
731.565	9422.73
731.906	9456.86
732.248	9523.75
732.589	9446.69
732.93	9387.03
733.271	9432
733.612	9513.35
733.953	9454.37
734.294	9431.32
734.635	9449.17
734.976	9482.17
735.317	9434.94
735.658	9388.16
735.999	9431.09
736.339	9395.16
736.68	9499.57
737.021	9434.03
737.361	9451.21
737.702	9429.96
738.042	9464.09
738.383	9464.99
738.723	9484.65
739.063	9466.35
739.404	9521.49
739.744	9472.67
740.084	9537.53
740.424	9521.94
740.764	9478.32
741.104	9558.55
741.444	9528.49
741.784	9573.01
742.124	9524.42
742.464	9626.79
742.804	9563.29
743.143	9594.03
743.483	9657.3
743.823	9591.77
744.162	9668.83
744.502	9672.9
744.841	9721.03
745.181	9775.27
745.52	9793.12
745.86	9800.35
746.199	9856.62
746.538	9920.8
746.877	10028.82
747.216	9944.98
747.556	10024.52
747.895	10092.55
748.234	10128.93
748.573	10191.75
748.911	10234.69
749.25	10207.57
749.589	10347.23
749.928	10429.94
750.267	10473.78
750.605	10477.17
750.944	10596.71
751.283	10681.46
751.621	10739.53
751.96	10779.76
752.298	10871.73
752.636	11045.06
752.975	11091.84
753.313	11198.28
753.651	11295.23
753.989	11379.97
754.327	11495.67
754.666	11564.82
755.004	11779.51
755.342	11843.46
755.679	11981.31
756.017	11993.06
756.355	12231.02
756.693	12349.21
757.031	12480.73
757.368	12572.03
757.706	12701.29
758.044	12916.2
