Data from hue_230_FLMS001491_00004.txt Node
Date: Tue Feb 07 16:36:43 GMT 2017
User: dcchb
Spectrometer: FLMS00149
Trigger mode: 0
Integration Time (sec): 2.000000E-2
Scans to average: 10
Electric dark correction enabled: true
Nonlinearity correction enabled: false
Boxcar width: 0
XAxis mode: Wavelengths
Number of Pixels in Spectrum: 2048
>>>>>Begin Spectral Data<<<<<
341.393	-27.64
341.776	-27.64
342.16	-27.64
342.543	-44.36
342.927	-63.8
343.31	-71.03
343.693	-78.26
344.077	-65.15
344.46	-76
344.843	-46.62
345.226	-45.49
345.61	-11.37
345.993	-16.12
346.376	-19.96
346.759	24.79
347.142	30.66
347.525	30.66
347.908	55.07
348.291	89.42
348.674	91.45
349.057	107.95
349.44	115.86
349.823	161.06
350.206	178
350.588	205.12
350.971	200.15
351.354	234.27
351.737	232.69
352.119	257.1
352.502	239.47
352.884	266.14
353.267	277.44
353.65	292.58
354.032	288.28
354.414	306.14
354.797	317.44
355.179	328.96
355.562	335.51
355.944	317.66
356.326	324.89
356.709	320.37
357.091	308.85
357.473	324.89
357.855	326.02
358.238	349.75
358.62	327.6
359.002	329.64
359.384	335.06
359.766	345.46
360.148	327.6
360.53	350.65
360.912	337.77
361.294	338.9
361.676	333.03
362.057	335.97
362.439	356.08
362.821	337.77
363.203	331.67
363.584	330.77
363.966	312.69
364.348	317.44
364.729	314.95
365.111	331.45
365.493	332.8
365.874	313.59
366.256	305.23
366.637	312.46
367.019	324.44
367.4	319.47
367.781	307.94
368.163	317.44
368.544	312.92
368.925	313.82
369.306	303.2
369.688	308.17
370.069	308.62
370.45	310.43
370.831	314.05
371.212	312.46
371.593	308.85
371.974	300.49
372.355	310.66
372.736	330.09
373.117	312.69
373.498	292.58
373.879	309.53
374.26	323.99
374.641	337.55
375.021	312.69
375.402	333.93
375.783	319.69
376.163	317.21
376.544	354.04
376.925	331.9
377.305	333.48
377.686	345.01
378.066	336.42
378.447	316.53
378.827	334.38
379.208	334.38
379.588	346.36
379.968	339.13
380.349	330.77
380.729	348.85
381.109	343.88
381.489	319.47
381.87	332.58
382.25	323.76
382.63	347.49
383.01	335.97
383.39	344.33
383.77	337.1
384.15	336.42
384.53	357.43
384.91	357.21
385.29	343.88
385.67	340.71
386.049	368.28
386.429	352.01
386.809	361.28
387.189	327.38
387.568	364.44
387.948	377.77
388.328	345.01
388.707	357.89
389.087	361.73
389.466	380.71
389.846	385
390.225	378.68
390.605	360.37
390.984	369.19
391.363	363.08
391.743	381.61
392.122	389.98
392.501	375.06
392.881	390.88
393.26	378.45
393.639	396.53
394.018	384.1
394.397	388.85
394.776	398.11
395.155	390.65
395.534	399.24
395.913	375.29
396.292	380.71
396.671	396.3
397.05	390.65
397.429	396.98
397.808	393.59
398.186	409.86
398.565	425
398.944	409.41
399.323	392.69
399.701	410.99
400.08	395.85
400.458	426.58
400.837	430.88
401.215	426.36
401.594	410.09
401.972	413.7
402.351	425.68
402.729	435.62
403.107	419.13
403.486	423.65
403.864	436.53
404.242	451.67
404.62	474.04
404.999	415.51
405.377	435.17
405.755	467.26
406.133	476.3
406.511	472.46
406.889	469.07
407.267	475.85
407.645	457.77
408.023	467.71
408.401	487.6
408.779	485.79
409.156	502.52
409.534	494.61
409.912	543.87
410.29	512.01
410.667	510.88
411.045	521.72
411.422	546.81
411.8	534.83
412.178	534.15
412.555	562.63
412.933	558.78
413.31	589.52
413.687	571.89
414.065	566.24
414.442	582.29
414.819	575.06
415.197	628.16
415.574	601.5
415.951	632.46
416.328	605.11
416.705	605.56
417.082	638.1
417.46	639.46
417.837	645.56
418.214	670.42
418.591	659.8
418.967	665.67
419.344	658.9
419.721	722.62
420.098	680.59
420.475	693.47
420.852	711.32
421.228	712.23
421.605	715.16
421.982	717.42
422.358	758.55
422.735	759.23
423.111	775.05
423.488	770.98
423.864	786.12
424.241	804.88
424.617	813.02
424.994	827.48
425.37	830.87
425.746	831.55
426.123	839.46
426.499	865.22
426.875	846.91
427.251	879.23
427.627	893.24
428.003	898.44
428.379	908.38
428.756	940.7
429.132	931.43
429.507	936.85
429.883	931.43
430.259	990.86
430.635	981.37
431.011	975.5
431.387	1022.95
431.763	1033.35
432.138	1022.5
432.514	1032.67
432.89	1046.23
433.265	1073.12
433.641	1080.35
434.016	1098.21
434.392	1115.15
434.767	1161.93
435.143	1139.79
435.518	1171.42
435.894	1197.64
436.269	1196.28
436.644	1230.41
437.02	1245.09
437.395	1267.69
437.77	1270.86
438.145	1301.36
438.52	1314.47
438.895	1298.2
439.271	1358.76
439.646	1386.11
440.021	1368.03
440.395	1401.02
440.77	1376.39
441.145	1415.26
441.52	1418.2
441.895	1451.87
442.27	1459.33
442.645	1464.3
443.019	1495.71
443.394	1485.99
443.769	1531.87
444.143	1510.4
444.518	1559.21
444.892	1538.19
445.267	1586.78
445.641	1595.82
446.016	1585.65
446.39	1615.93
446.764	1606.44
447.139	1612.77
447.513	1617.51
447.887	1636.27
448.262	1620.45
448.636	1648.47
449.01	1675.14
449.384	1707.68
449.758	1691.64
450.132	1695.25
450.506	1736.61
450.88	1742.71
451.254	1749.94
451.628	1725.08
452.002	1803.05
452.376	1816.15
452.75	1783.84
453.123	1832.2
453.497	1857.96
453.871	1860.67
454.244	1893.21
454.618	1911.07
454.992	1922.82
455.365	1941.12
455.739	1993.78
456.112	2010.72
456.486	1990.39
456.859	2045.3
457.232	2038.75
457.606	2088.01
457.979	2100.44
458.352	2102.25
458.725	2125.52
459.099	2144.96
459.472	2210.04
459.845	2184.5
460.218	2226.09
460.591	2242.81
460.964	2223.6
461.337	2283.03
461.71	2327.78
462.083	2361.45
462.456	2358.74
462.829	2347.21
463.201	2382.01
463.574	2426.53
463.947	2488
464.32	2478.28
464.692	2520.09
465.065	2539.52
465.438	2570.26
465.81	2619.07
466.183	2636.7
466.555	2704.27
466.928	2690.03
467.3	2680.76
467.672	2747.2
468.045	2754.43
468.417	2796.92
468.789	2848.89
469.161	2827.65
469.534	2867.65
469.906	2942.68
470.278	2959.85
470.65	2990.81
471.022	3032.62
471.394	3117.81
471.766	3102.67
472.138	3120.07
472.51	3203.91
472.882	3226.06
473.253	3260.86
473.625	3305.38
473.997	3412.72
474.369	3425.83
474.74	3447.75
475.112	3457.92
475.484	3564.81
475.855	3589.44
476.227	3590.12
476.598	3693.84
476.97	3724.58
477.341	3781.07
477.713	3809.32
478.084	3791.69
478.455	3976.55
478.827	3956.66
479.198	4057.22
479.569	4070.56
479.94	4168.63
480.311	4205.24
480.682	4269.87
481.053	4368.18
481.424	4411.34
481.795	4388.29
482.166	4524.56
482.537	4561.17
482.908	4628.06
483.279	4693.14
483.65	4767.04
484.021	4834.38
484.391	4856.07
484.762	4885
485.133	4957.99
485.503	4992.57
485.874	5091.09
486.244	5124.99
486.615	5224.42
486.985	5282.5
487.356	5329.73
487.726	5385.55
488.097	5499.9
488.467	5491.08
488.837	5522.5
489.207	5595.04
489.578	5691.53
489.948	5750.74
490.318	5777.4
490.688	5830.96
491.058	5882.94
491.428	5942.37
491.798	6004.07
492.168	6119.77
492.538	6103.05
492.908	6188.69
493.278	6220.1
493.648	6259.2
494.017	6357.28
494.387	6351.17
494.757	6428.69
495.126	6466.88
495.496	6485.63
495.866	6539.64
496.235	6575.58
496.605	6603.15
496.974	6601.79
497.344	6784.16
497.713	6725.85
498.082	6750.49
498.452	6771.95
498.821	6848.34
499.19	6878.62
499.559	6948.9
499.928	6949.35
500.298	6968.33
500.667	6988.9
501.036	7054.89
501.405	7060.53
501.774	7070.7
502.143	7165.84
502.512	7092.62
502.88	7184.83
503.249	7245.61
503.618	7205.39
503.987	7244.71
504.356	7262.34
504.724	7374.2
505.093	7340.08
505.462	7353.18
505.83	7322.45
506.199	7394.54
506.567	7461.43
506.936	7462.78
507.304	7539.39
507.672	7456.68
508.041	7585.94
508.409	7568.32
508.777	7563.35
509.145	7620.75
509.514	7602.89
509.882	7795.43
510.25	7726.51
510.618	7710.01
510.986	7690.8
511.354	7812.83
511.722	7778.93
512.09	7770.8
512.458	7902.09
512.826	7896.9
513.193	7942.32
513.561	7902.09
513.929	7966.05
514.297	7983.22
514.664	7966.05
515.032	8044.24
515.4	8011.24
515.767	8045.59
516.135	8047.85
516.502	8003.79
516.869	8073.39
517.237	8138.02
517.604	8067.74
517.972	8116.55
518.339	8147.96
518.706	8150.68
519.073	8158.13
519.44	8176.89
519.808	8282.42
520.175	8224.8
520.542	8356.09
520.909	8297.11
521.276	8262.09
521.643	8321.07
522.009	8351.35
522.376	8352.48
522.743	8389.09
523.11	8369.43
523.477	8488.75
523.843	8455.75
524.21	8509.99
524.577	8488.52
524.943	8550.44
525.31	8574.85
525.676	8576.2
526.043	8568.07
526.409	8602.19
526.776	8667.05
527.142	8680.83
527.508	8715.63
527.874	8672.02
528.241	8716.76
528.607	8725.35
528.973	8730.32
529.339	8687.84
529.705	8816.19
530.071	8839.02
530.437	8797.44
530.803	8808.96
531.169	8838.12
531.535	8787.72
531.901	8742.98
532.267	8800.6
532.632	8827.49
532.998	8828.85
533.364	8841.96
533.73	8844.44
534.095	8872.01
534.461	8873.14
534.826	8822.3
535.192	8795.86
535.557	8854.39
535.923	8871.56
536.288	8882.18
536.653	8881.73
537.019	8792.01
537.384	8858
537.749	8852.58
538.114	8854.61
538.479	8875.85
538.845	8867.94
539.21	8765.35
539.575	8780.04
539.94	8840.37
540.305	8815.06
540.67	8722.41
541.034	8754.5
541.399	8771.45
541.764	8789.08
542.129	8801.73
542.494	8767.61
542.858	8720.15
543.223	8737.1
543.587	8784.56
543.952	8741.85
544.316	8782.07
544.681	8720.38
545.045	8698.46
545.41	8765.12
545.774	8692.36
546.138	8702.75
546.503	8712.69
546.867	8737.33
547.231	8686.93
547.595	8761.73
547.959	8673.15
548.324	8623.43
548.688	8683.32
549.052	8654.17
549.416	8621.4
549.779	8612.81
550.143	8643.09
550.507	8610.55
550.871	8615.07
551.235	8636.99
551.599	8712.69
551.962	8636.54
552.326	8649.42
552.689	8684.45
553.053	8556.54
553.417	8610.55
553.78	8689.42
554.143	8659.36
554.507	8595.86
554.87	8679.25
555.234	8669.53
555.597	8598.8
555.96	8645.13
556.323	8612.36
556.686	8579.36
557.05	8678.57
557.413	8634.05
557.776	8638.35
558.139	8661.62
558.502	8599.03
558.865	8613.94
559.228	8666.14
559.59	8665.01
559.953	8686.48
560.316	8724.9
560.679	8753.37
561.041	8717.44
561.404	8760.83
561.767	8772.13
562.129	8766.48
562.492	8861.84
562.854	8840.15
563.217	8764.67
563.579	8792.24
563.941	8857.32
564.304	8901.16
564.666	8923.54
565.028	8952.01
565.39	8929.41
565.753	8979.81
566.115	8933.25
566.477	8956.76
566.839	8994.95
567.201	9029.3
567.563	9032.01
567.925	9054.38
568.287	9074.49
568.648	9045.34
569.01	9150.2
569.372	9096.41
569.734	9133.47
570.095	9202.63
570.457	9217.99
570.819	9254.6
571.18	9187.94
571.542	9233.58
571.903	9216.86
572.265	9280.59
572.626	9349.51
572.987	9311.1
573.349	9373.47
573.71	9379.8
574.071	9373.92
574.432	9343.19
574.794	9430.87
575.155	9499.57
575.516	9382.51
575.877	9475.61
576.238	9501.15
576.599	9495.95
576.96	9501.6
577.32	9563.75
577.681	9627.25
578.042	9594.71
578.403	9592.9
578.763	9628.6
579.124	9620.24
579.485	9649.17
579.845	9730.07
580.206	9665.21
580.566	9638.77
580.927	9700.69
581.287	9779.79
581.648	9698.21
582.008	9778.2
582.368	9779.56
582.728	9834.7
583.089	9815.26
583.449	9847.81
583.809	9867.69
584.169	9811.42
584.529	9791.31
584.889	9956.5
585.249	9829.05
585.609	9882.38
585.969	9961.25
586.329	9933.91
586.688	9959.44
587.048	9933.45
587.408	9876.96
587.768	9886
588.127	9980.46
588.487	9921.93
588.846	10013.68
589.206	9964.64
589.565	9968.71
589.925	9991.31
590.284	10011.19
590.643	10022.72
591.003	10100.91
591.362	10033.56
591.721	10046.22
592.08	10069.5
592.44	10064.75
592.799	10066.78
593.158	10132.09
593.517	10067.69
593.876	10107.91
594.235	10119.44
594.593	10124.18
594.952	10158.98
595.311	10118.99
595.67	10118.31
596.029	10175.03
596.387	10210.96
596.746	10243.5
597.104	10122.6
597.463	10204.18
597.822	10152.2
598.18	10205.31
598.538	10182.03
598.897	10186.1
599.255	10120.57
599.613	10264.07
599.972	10236.72
600.33	10232.88
600.688	10207.34
601.046	10287.79
601.404	10271.98
601.762	10292.99
602.12	10354.01
602.478	10333.22
602.836	10307
603.194	10279.43
603.552	10283.5
603.91	10238.98
604.268	10352.88
604.625	10296.61
604.983	10335.93
605.341	10249.6
605.698	10315.14
606.056	10294.35
606.413	10325.99
606.771	10413.21
607.128	10330.73
607.485	10327.57
607.843	10405.98
608.2	10385.87
608.557	10367.34
608.914	10412.31
609.272	10434.68
609.629	10449.6
609.986	10524.17
610.343	10459.54
610.7	10502.7
611.057	10401.01
611.414	10469.71
611.771	10445.98
612.127	10427.45
612.484	10521.23
612.841	10512.42
613.198	10501.12
613.554	10515.36
613.911	10539.31
614.267	10580.44
614.624	10555.13
614.98	10554.91
615.337	10644.4
615.693	10618.41
616.05	10546.09
616.406	10613.44
616.762	10569.14
617.118	10599.88
617.475	10577.28
617.831	10642.14
618.187	10598.52
618.543	10597.39
618.899	10726.65
619.255	10604.17
619.611	10671.06
619.967	10732.53
620.323	10686.2
620.678	10728.69
621.034	10658.63
621.39	10632.87
621.746	10627.22
622.101	10681.91
622.457	10687.11
622.812	10595.13
623.168	10699.99
623.523	10756.26
623.879	10744.73
624.234	10563.95
624.589	10638.29
624.945	10699.31
625.3	10700.21
625.655	10727.56
626.01	10754.45
626.365	10739.76
626.72	10693.89
627.075	10694.11
627.43	10655.02
627.785	10671.74
628.14	10665.19
628.495	10685.07
628.85	10695.47
629.205	10669.93
629.559	10645.3
629.914	10647.11
630.269	10607.56
630.623	10615.7
630.978	10647.79
631.332	10643.27
631.687	10590.39
632.041	10578.18
632.396	10553.78
632.75	10511.52
633.104	10521.91
633.459	10579.31
633.813	10533.89
634.167	10450.5
634.521	10520.56
634.875	10467.22
635.229	10482.59
635.583	10382.93
635.937	10507.22
636.291	10441.46
636.645	10429.71
636.999	10384.52
637.352	10418.19
637.706	10370.73
638.06	10410.05
638.413	10334.35
638.767	10323.95
639.121	10327.79
639.474	10312.88
639.828	10281.24
640.181	10308.36
640.534	10325.76
640.888	10262.03
641.241	10136.84
641.594	10220
641.947	10255.48
642.301	10217.06
642.654	10262.48
643.007	10209.83
643.36	10229.94
643.713	10170.28
644.066	10218.42
644.419	10151.3
644.771	10110.62
645.124	10017.97
645.477	10006.67
645.83	9893.23
646.182	9940.68
646.535	9869.27
646.888	9896.17
647.24	9805.1
647.593	9859.78
647.945	9874.02
648.298	9798.32
648.65	9768.03
649.002	9758.99
649.355	9831.54
649.707	9758.54
650.059	9898.65
650.411	9987.46
650.763	9960.35
651.115	10053.22
651.467	10036.73
651.819	10063.39
652.171	9987.92
652.523	10008.71
652.875	9966
653.227	9980.23
653.578	10064.75
653.93	10052.55
654.282	10003.28
654.633	9884.64
654.985	9999.21
655.337	10042.15
655.688	9970.74
656.039	10074.69
656.391	9931.42
656.742	9950.18
657.094	9984.98
657.445	10037.18
657.796	10039.89
658.147	9994.24
658.498	9983.62
658.849	9974.36
659.2	9954.92
659.551	9944.53
659.902	9974.58
660.253	9982.49
660.604	10026.56
660.955	9963.96
661.306	10014.58
661.656	9918.99
662.007	10008.71
662.358	10002.6
662.708	10007.35
663.059	9959.44
663.409	9968.71
663.76	9966.67
664.11	10042.6
664.461	10036.05
664.811	10063.62
665.161	9985.2
665.511	9989.05
665.862	9985.43
666.212	10057.29
666.562	10042.6
666.912	10018.2
667.262	9932.1
667.612	9989.95
667.962	9976.16
668.312	9974.58
668.662	9956.05
669.011	9946.33
669.361	10055.71
669.711	10016.39
670.06	9965.09
670.41	9912.21
670.76	9969.84
671.109	9956.73
671.459	9987.92
671.808	9875.38
672.157	9934.58
672.507	9942.49
672.856	9876.28
673.205	9907.47
673.554	9973.9
673.904	9925.32
674.253	9966.9
674.602	9914.92
674.951	9804.87
675.3	9739.11
675.649	9815.72
675.998	9894.81
676.346	9878.09
676.695	9876.73
677.044	9769.39
677.393	9848.48
677.741	9833.12
678.09	9738.2
678.438	9837.41
678.787	9860.69
679.135	9727.36
679.484	9731.2
679.832	9770.97
680.181	9675.38
680.529	9708.15
680.877	9624.99
681.225	9647.81
681.573	9685.78
681.922	9559.68
682.27	9574.59
682.618	9564.2
682.966	9564.42
683.314	9616.17
683.661	9486.23
684.009	9445.78
684.357	9400.81
684.705	9457.08
685.053	9431.77
685.4	9408.27
685.748	9361.94
686.095	9344.09
686.443	9371.43
686.79	9342.51
687.138	9381.83
687.485	9279.01
687.832	9260.7
688.18	9307.71
688.527	9246.69
688.874	9207.82
689.221	9216.64
689.568	9164.66
689.915	9175.28
690.262	9132.8
690.609	9130.31
690.956	9095.28
691.303	9090.09
691.65	8998.79
691.997	8974.38
692.344	9024.55
692.69	8948.39
693.037	9022.74
693.383	8865.91
693.73	8900.03
694.077	8868.62
694.423	8832.24
694.769	8850.09
695.116	8795.86
695.462	8749.98
695.808	8725.12
696.155	8769.64
696.501	8694.39
696.847	8622.75
697.193	8568.52
697.539	8575.07
697.885	8532.36
698.231	8477.9
698.577	8537.11
698.923	8492.14
699.269	8464.34
699.614	8431.57
699.96	8362.65
700.306	8371.46
700.651	8243.33
700.997	8258.24
701.342	8244.68
701.688	8274.51
702.033	8253.05
702.379	8233.16
702.724	8131.24
703.069	8199.04
703.415	8051.02
703.76	8145.25
704.105	8108.64
704.45	8009.44
704.795	8011.92
705.14	7961.3
705.485	8015.54
705.83	7961.53
706.175	8003.33
706.52	7928.31
706.865	7948.65
707.209	7872.49
707.554	7886.5
707.899	7834.98
708.243	7718.37
708.588	7805.37
708.932	7763.57
709.277	7749.33
709.621	7763.57
709.966	7696.22
710.31	7677.47
710.654	7618.49
710.998	7629.56
711.342	7676.11
711.687	7567.64
712.031	7555.89
712.375	7601.99
712.719	7509.34
713.063	7566.51
713.407	7522.67
713.75	7491.71
714.094	7513.4
714.438	7480.18
714.782	7518.15
715.125	7501.43
715.469	7467.53
715.812	7361.54
716.156	7318.83
716.499	7408.55
716.843	7331.49
717.186	7312.96
717.53	7362
717.873	7344.37
718.216	7301.43
718.559	7254.65
718.902	7216.91
719.246	7308.44
719.589	7279.74
719.932	7243.13
720.275	7199.29
720.617	7249.68
720.96	7244.71
721.303	7234.54
721.646	7215.33
721.989	7211.04
722.331	7163.36
722.674	7215.33
723.016	7218.27
723.359	7135.79
723.701	7239.97
724.044	7118.61
724.386	7143.92
724.729	7155.45
725.071	7051.04
725.413	7135.33
725.755	7121.32
726.097	7077.94
726.439	7069.57
726.782	7063.02
727.124	7141.21
727.465	7027.99
727.807	7032.74
728.149	7038.61
728.491	7040.87
728.833	7081.78
729.175	7047.43
729.516	6994.32
729.858	6944.15
730.199	6987.77
730.541	7016.24
730.882	7043.81
731.224	7062.12
731.565	6985.28
731.906	6971.5
732.248	6985.96
732.589	6979.86
732.93	6934.89
733.271	6955.45
733.612	6922.46
733.953	6975.34
734.294	6963.81
734.635	7005.85
734.976	7013.08
735.317	7000.88
735.658	6976.02
735.999	6926.07
736.339	6984.83
736.68	6991.16
737.021	6992.74
737.361	7002.46
737.702	7011.72
738.042	6912.06
738.383	6944.61
738.723	7034.09
739.063	6988.9
739.404	7013.08
739.744	7007.43
740.084	7020.31
740.424	7020.31
740.764	7022.34
741.104	7032.51
741.444	7049.01
741.784	7026.86
742.124	7044.94
742.464	7039.97
742.804	7050.59
743.143	7093.98
743.483	7108.22
743.823	7078.39
744.162	7116.35
744.502	7121.32
744.841	7139.18
745.181	7198.16
745.52	7137.14
745.86	7243.13
746.199	7254.65
746.538	7272.96
746.877	7372.62
747.216	7346.63
747.556	7399.73
747.895	7385.5
748.234	7417.14
748.573	7448.32
748.911	7482.9
749.25	7496.23
749.589	7570.58
749.928	7614.19
750.267	7671.82
750.605	7688.54
750.944	7800.85
751.283	7847.63
751.621	7903.22
751.96	7999.72
752.298	7947.97
752.636	8078.36
752.975	8136.21
753.313	8144.35
753.651	8287.17
753.989	8341.18
754.327	8383.66
754.666	8427.05
755.004	8596.54
755.342	8672.02
755.679	8751.79
756.017	8868.17
756.355	8950.88
756.693	9018.45
757.031	9138.45
757.368	9235.62
757.706	9301.15
758.044	9377.76
758.381	9658.43
758.719	9632.22
759.056	9847.81
759.394	9950.85
759.731	9985.66
760.068	10113.34
760.405	10255.93
760.743	10301.81
761.08	10475.13
761.417	10557.17
761.754	10684.62
762.091	10778.18
762.428	10940.66
762.765	10989.02
763.102	11214.78
763.438	11275.57
763.775	11403.02
764.112	11465.84
764.449	11727.08
764.785	11739.28
765.122	11827.19
765.458	11930.69
