Data from hue_290_FLMS001491_00070.txt Node
Date: Tue Feb 07 15:53:05 GMT 2017
User: dcchb
Spectrometer: FLMS00149
Trigger mode: 0
Integration Time (sec): 2.000000E-2
Scans to average: 10
Electric dark correction enabled: true
Nonlinearity correction enabled: false
Boxcar width: 0
XAxis mode: Wavelengths
Number of Pixels in Spectrum: 2048
>>>>>Begin Spectral Data<<<<<
341.393	-43.46
341.776	-43.46
342.16	-43.46
342.543	-43.69
342.927	-48.43
343.31	-41.65
343.693	-59.96
344.077	-55.66
344.46	-72.39
344.843	-64.48
345.226	-34.65
345.61	-49.33
345.993	-23.57
346.376	-3.46
346.759	9.87
347.142	28.63
347.525	39.48
347.908	52.81
348.291	64.11
348.674	110.66
349.057	99.59
349.44	139.13
349.823	143.2
350.206	164.9
350.588	192.01
350.971	190.88
351.354	228.4
351.737	242.63
352.119	239.47
352.502	269.75
352.884	267.04
353.267	274.27
353.65	285.35
354.032	285.12
354.414	315.63
354.797	313.14
355.179	336.64
355.562	306.59
355.944	319.02
356.326	313.59
356.709	317.89
357.091	342.29
357.473	339.13
357.855	326.25
358.238	342.52
358.62	332.35
359.002	335.74
359.384	338.68
359.766	348.17
360.148	327.6
360.53	326.02
360.912	342.75
361.294	323.08
361.676	317.66
362.057	322.41
362.439	332.12
362.821	312.01
363.203	318.79
363.584	311.33
363.966	330.32
364.348	306.81
364.729	288.74
365.111	295.97
365.493	321.95
365.874	311.11
366.256	317.89
366.637	305.23
367.019	314.95
367.4	318.57
367.781	307.49
368.163	328.51
368.544	319.47
368.925	294.61
369.306	338.9
369.688	320.37
370.069	303.42
370.45	323.99
370.831	321.73
371.212	312.92
371.593	299.58
371.974	293.26
372.355	319.24
372.736	303.42
373.117	328.96
373.498	328.51
373.879	314.27
374.26	305.23
374.641	322.86
375.021	329.86
375.402	320.6
375.783	319.24
376.163	336.64
376.544	328.06
376.925	325.8
377.305	338.23
377.686	303.2
378.066	333.03
378.447	341.84
378.827	341.62
379.208	336.64
379.588	346.13
379.968	340.71
380.349	324.89
380.729	349.3
381.109	350.88
381.489	358.79
381.87	355.4
382.25	333.48
382.63	346.81
383.01	363.54
383.39	330.54
383.77	356.53
384.15	342.07
384.53	348.39
384.91	375.74
385.29	362.18
385.67	348.17
386.049	344.78
386.429	366.93
386.809	356.53
387.189	342.97
387.568	366.02
387.948	346.36
388.328	351.56
388.707	370.09
389.087	373.7
389.466	371.67
389.846	403.53
390.225	362.63
390.605	366.25
390.984	379.35
391.363	366.47
391.743	396.98
392.122	370.32
392.501	390.2
392.881	396.98
393.26	378.45
393.639	405.57
394.018	397.89
394.397	395.63
394.776	399.69
395.155	413.7
395.534	392.69
395.913	394.04
396.292	390.2
396.671	411.67
397.05	416.64
397.429	406.02
397.808	418.22
398.186	416.64
398.565	410.99
398.944	456.41
399.323	436.75
399.701	438.11
400.08	436.53
400.458	437.88
400.837	450.31
401.215	441.05
401.594	467.26
401.972	449.64
402.351	448.73
402.729	449.64
403.107	438.34
403.486	446.47
403.864	477.43
404.242	446.7
404.62	453.25
404.999	478.11
405.377	485.79
405.755	486.24
406.133	498.22
406.511	483.98
406.889	501.61
407.267	460.71
407.645	495.06
408.023	515.17
408.401	514.27
408.779	509.97
409.156	529.63
409.534	545.9
409.912	541.84
410.29	564.66
410.667	556.75
411.045	563.53
411.422	561.27
411.8	588.84
412.178	601.72
412.555	583.64
412.933	600.14
413.31	591.33
413.687	605.34
414.065	620.93
414.442	635.62
414.819	620.93
415.197	652.57
415.574	649.4
415.951	671.78
416.328	666.13
416.705	683.08
417.082	663.41
417.46	666.58
417.837	695.96
418.214	713.36
418.591	706.13
418.967	732.57
419.344	746.12
419.721	730.98
420.098	742.06
420.475	777.54
420.852	766.69
421.228	783.19
421.605	770.08
421.982	813.92
422.358	823.86
422.735	823.41
423.111	827.7
423.488	836.07
423.864	858.44
424.241	837.65
424.617	874.48
424.994	883.75
425.37	903.63
425.746	900.24
426.123	913.13
426.499	910.41
426.875	927.59
427.251	936.4
427.627	956.97
428.003	970.3
428.379	986.57
428.756	1002.61
429.132	994.71
429.507	1029.96
429.883	1005.33
430.259	1042.39
430.635	1043.52
431.011	1077.87
431.387	1066.79
431.763	1086.91
432.138	1102.05
432.514	1120.35
432.89	1109.96
433.265	1145.21
433.641	1177.75
434.016	1168.26
434.392	1191.31
434.767	1194.02
435.143	1238.99
435.518	1212.33
435.894	1247.81
436.269	1260.24
436.644	1272.21
437.02	1276.28
437.395	1309.27
437.77	1323.74
438.145	1316.96
438.52	1333
438.895	1391.53
439.271	1364.64
439.646	1363.51
440.021	1419.55
440.395	1406.67
440.77	1410.29
441.145	1412.77
441.52	1451.87
441.895	1453.45
442.27	1476.95
442.645	1462.04
443.019	1483.28
443.394	1500.68
443.769	1468.14
444.143	1489.16
444.518	1520.34
444.892	1518.31
445.267	1523.51
445.641	1551.75
446.016	1534.35
446.39	1537.97
446.764	1555.82
447.139	1568.25
447.513	1559.89
447.887	1560.34
448.262	1603.5
448.636	1561.92
449.01	1604.18
449.384	1595.37
449.758	1623.84
450.132	1634.01
450.506	1631.52
450.88	1652.99
451.254	1676.27
451.628	1657.96
452.002	1699.55
452.376	1680.34
452.75	1683.73
453.123	1729.6
453.497	1711.97
453.871	1728.92
454.244	1755.59
454.618	1786.55
454.992	1769.37
455.365	1795.59
455.739	1831.07
456.112	1825.42
456.486	1867
456.859	1838.75
457.232	1881.01
457.606	1893.21
457.979	1918.07
458.352	1921.23
458.725	1952.42
459.099	1967.11
459.472	1981.12
459.845	2002.36
460.218	2000.78
460.591	2056.82
460.964	2033.32
461.337	2093.21
461.71	2059.99
462.083	2130.49
462.456	2121.68
462.829	2138.18
463.201	2171.85
463.574	2168.23
463.947	2168.23
464.32	2184.28
464.692	2249.36
465.065	2262.92
465.438	2269.25
465.81	2287.78
466.183	2309.7
466.555	2351.96
466.928	2355.12
467.3	2344.05
467.672	2393.31
468.045	2438.51
468.417	2433.09
468.789	2514.44
469.161	2496.81
469.534	2500.88
469.906	2542.69
470.278	2559.41
470.65	2578.84
471.022	2645.74
471.394	2643.7
471.766	2685.06
472.138	2688.9
472.51	2743.13
472.882	2764.83
473.253	2762.57
473.625	2852.74
473.997	2872.62
474.369	2894.09
474.74	2921.43
475.112	2947.2
475.484	2963.92
475.855	2984.03
476.227	2991.26
476.598	3094.54
476.97	3091.37
477.341	3150.58
477.713	3253.63
478.084	3257.47
478.455	3278.71
478.827	3312.16
479.198	3408.2
479.569	3378.15
479.94	3446.62
480.311	3482.1
480.682	3579.95
481.053	3598.25
481.424	3660.85
481.795	3659.72
482.166	3699.95
482.537	3774.75
482.908	3810.45
483.279	3824.01
483.65	3884.8
484.021	3944.91
484.391	3958.02
484.762	4013.84
485.133	4058.35
485.503	4054.29
485.874	4140.84
486.244	4168.18
486.615	4277.11
486.985	4299.7
487.356	4326.37
487.726	4368.63
488.097	4398.68
488.467	4411.34
488.837	4462.41
489.207	4543.31
489.578	4557.78
489.948	4598
490.318	4697.21
490.688	4645.23
491.058	4759.8
491.428	4732.69
491.798	4774.72
492.168	4942.85
492.538	4899.46
492.908	4959.57
493.278	4963.87
493.648	5006.35
494.017	5053.81
494.387	5154.14
494.757	5123.41
495.126	5157.08
495.496	5183.52
495.866	5220.36
496.235	5217.87
496.605	5242.28
496.974	5349.62
497.344	5362.05
497.713	5375.61
498.082	5395.49
498.452	5458.99
498.821	5460.8
499.19	5456.06
499.559	5537.64
499.928	5507.81
500.298	5591.19
500.667	5617.41
501.036	5563.17
501.405	5659.67
501.774	5629.84
502.143	5736.5
502.512	5685.66
502.88	5744.86
503.249	5729.27
503.618	5826.22
503.987	5815.14
504.356	5821.92
504.724	5842.94
505.093	5875.93
505.462	5832.54
505.83	5891.75
506.199	5976.04
506.567	5987.79
506.936	6012.2
507.304	6044.97
507.672	6031.41
508.041	6087.9
508.409	6097.4
508.777	6109.37
509.145	6197.05
509.514	6177.17
509.882	6191.18
510.25	6187.11
510.618	6271.63
510.986	6280.67
511.354	6307.56
511.722	6366.77
512.09	6347.11
512.458	6316.6
512.826	6345.53
513.193	6385.98
513.561	6462.81
513.929	6500.55
514.297	6569.47
514.664	6571.28
515.032	6590.26
515.4	6552.3
515.767	6602.92
516.135	6608.34
516.502	6595.91
516.869	6711.39
517.237	6742.12
517.604	6606.99
517.972	6788.9
518.339	6766.31
518.706	6778.51
519.073	6743.71
519.44	6843.82
519.808	6860.09
520.175	6814.21
520.542	6860.77
520.909	6935.79
521.276	6939.86
521.643	6977.15
522.009	6994.55
522.376	7061.44
522.743	7083.58
523.11	7122.23
523.477	7167.2
523.843	7207.42
524.21	7312.73
524.577	7298.04
524.943	7388.66
525.31	7359.28
525.676	7398.83
526.043	7457.59
526.409	7483.8
526.776	7542.1
527.142	7552.27
527.508	7588.66
527.874	7610.35
528.241	7624.14
528.607	7670.01
528.973	7712.04
529.339	7777.8
529.705	7784.81
530.071	7789.56
530.437	7814.87
530.803	7852.15
531.169	7931.25
531.535	7855.99
531.901	7973.96
532.267	7960.17
532.632	7996.78
532.998	8066.61
533.364	8096.44
533.73	8067.06
534.095	8213.72
534.461	8136.44
534.826	8198.58
535.192	8224.57
535.557	8280.39
535.923	8270.45
536.288	8311.12
536.653	8318.81
537.019	8239.26
537.384	8337.34
537.749	8379.37
538.114	8338.47
538.479	8346.38
538.845	8458.46
539.21	8441.97
539.575	8415.53
539.94	8466.83
540.305	8552.02
540.67	8583.88
541.034	8522.64
541.399	8623.21
541.764	8605.58
542.129	8676.99
542.494	8779.13
542.858	8710.66
543.223	8734.61
543.587	8775.52
543.952	8796.08
544.316	8718.12
544.681	8871.11
545.045	8855.74
545.41	8869.75
545.774	8967.38
546.138	8901.62
546.503	8974.16
546.867	8953.82
547.231	8928.96
547.595	9033.82
547.959	9058.9
548.324	9074.72
548.688	9051.22
549.052	9161.95
549.416	9110.88
549.779	9131.44
550.143	9195.39
550.507	9216.41
550.871	9219.35
551.235	9187.26
551.599	9241.27
551.962	9269.74
552.326	9294.37
552.689	9360.36
553.053	9255.73
553.417	9383.41
553.78	9550.86
554.143	9419.57
554.507	9429.29
554.87	9423.41
555.234	9608.94
555.597	9413.02
555.96	9500.92
556.323	9630.18
556.686	9573.24
557.05	9624.08
557.413	9637.64
557.776	9631.09
558.139	9741.59
558.502	9745.89
558.865	9702.95
559.228	9791.31
559.59	9863.62
559.953	9834.47
560.316	9919.67
560.679	9867.92
561.041	9954.47
561.404	9949.95
561.767	10069.95
562.129	9999.89
562.492	10088.93
562.854	10095.48
563.217	10150.17
563.579	10134.8
563.941	10186.55
564.304	10238.3
564.666	10262.48
565.028	10239.89
565.39	10374.12
565.753	10411.86
566.115	10344.52
566.477	10467.68
566.839	10470.61
567.201	10551.06
567.563	10547.22
567.925	10647.79
568.287	10587.67
568.648	10600.55
569.01	10711.29
569.372	10765.3
569.734	10719.65
570.095	10831.51
570.457	10849.14
570.819	10867.21
571.18	10916.03
571.542	10998.28
571.903	10987.89
572.265	11012.07
572.626	11031.28
572.987	11073.99
573.349	11079.19
573.71	11221.1
574.071	11208
574.432	11227.2
574.794	11386.75
575.155	11370.48
575.516	11428.33
575.877	11503.81
576.238	11503.36
576.599	11598.72
576.96	11750.81
577.32	11672.39
577.681	11787.87
578.042	11869.45
578.403	11947.86
578.763	11942.44
579.124	12056.56
579.485	12077.35
579.845	12203.45
580.206	12316.22
580.566	12300.62
580.927	12360.51
581.287	12524.12
581.648	12558.24
582.008	12629.43
582.368	12733.38
582.728	12881.62
583.089	12905.58
583.449	12920.27
583.809	13063.99
584.169	13242.52
584.529	13260.6
584.889	13469.63
585.249	13499.24
585.609	13494.04
585.969	13767.48
586.329	13747.14
586.688	13971.54
587.048	14150.52
587.408	14175.6
587.768	14324.75
588.127	14482.49
588.487	14514.8
588.846	14871.63
589.206	14839.31
589.565	15047.67
589.925	15167.44
590.284	15196.37
590.643	15353.88
591.003	15573.76
591.362	15741.66
591.721	15775.56
592.08	16124.03
592.44	16107.53
592.799	16247.86
593.158	16461.42
593.517	16597.69
593.876	16731.69
594.235	16858.92
594.593	16997.67
594.952	17070.44
595.311	17156.09
595.67	17494.38
596.029	17664.32
596.387	17703.19
596.746	17859.8
597.104	17998.78
597.463	18191.54
597.822	18243.74
598.18	18368.26
598.538	18468.82
598.897	18777.74
599.255	18728.7
599.613	19062.03
599.972	19090.73
600.33	19202.36
600.688	19245.98
601.046	19437.84
601.404	19679.64
601.762	19757.38
602.12	19944.94
602.478	20045.96
602.836	20093.64
603.194	20268.1
603.552	20197.36
603.91	20307.64
604.268	20500.41
604.625	20422.22
604.983	20601.87
605.341	20630.12
605.698	20841.64
606.056	21051.35
606.413	21094.74
606.771	21184.68
607.128	21329.31
607.485	21264.68
607.843	21431
608.2	21509.42
608.557	21785.57
608.914	21725.01
609.272	21828.06
609.629	21905.12
609.986	22052.68
610.343	22077.77
610.7	22255.16
611.057	22262.39
611.414	22335.61
611.771	22368.83
612.127	22528.6
612.484	22600.69
612.841	22774.47
613.198	22608.6
613.554	22861.7
613.911	22976.73
614.267	22997.74
614.624	22943.51
614.98	23021.7
615.337	23244.52
615.693	23245.42
616.05	23332.42
616.406	23452.65
616.762	23402.48
617.118	23502.59
617.475	23514.57
617.831	23671.62
618.187	23629.82
618.543	23670.04
618.899	23897.15
619.255	23869.81
619.611	23857.16
619.967	24019.64
620.323	24096.24
620.678	23952.07
621.034	23917.49
621.39	24022.12
621.746	24062.35
622.101	24380.31
622.457	24284.49
622.812	24245.39
623.168	24416.91
623.523	24279.52
623.879	24409.91
624.234	24261.66
624.589	24380.98
624.945	24469.12
625.3	24451.26
625.655	24572.62
626.01	24580.75
626.365	24541.21
626.72	24507.76
627.075	24522.22
627.43	24550.7
627.785	24473.86
628.14	24554.76
628.495	24822.33
628.85	24622.11
629.205	24636.12
629.559	24673.63
629.914	24594.54
630.269	24595.67
630.623	24517.7
630.978	24529.91
631.332	24706.17
631.687	24576.91
632.041	24575.33
632.396	24666.63
632.75	24580.98
633.104	24563.13
633.459	24564.71
633.813	24496.46
634.167	24546.18
634.521	24565.39
634.875	24486.29
635.229	24577.36
635.583	24470.7
635.937	24425.5
636.291	24424.15
636.645	24538.04
636.999	24447.65
637.352	24353.64
637.706	24305.28
638.06	24408.55
638.413	24373.98
638.767	24306.18
639.121	24401.77
639.474	24209.91
639.828	24265.73
640.181	24362.45
640.534	24317.48
640.888	24245.62
641.241	24110.71
641.594	24217.15
641.947	24345.73
642.301	24265.73
642.654	24339.4
643.007	24303.02
643.36	24282.91
643.713	24181.21
644.066	24314.32
644.419	24204.94
644.771	24020.54
645.124	23696.48
645.477	23791.85
645.83	23529.03
646.182	23443.38
646.535	23367.9
646.888	23566.77
647.24	23336.26
647.593	23519.54
647.945	23384.63
648.298	23339.88
648.65	23289.03
649.002	23357.51
649.355	23491.29
649.707	23452.19
650.059	23580.33
650.411	23767.21
650.763	23730.6
651.115	24080.2
651.467	23946.87
651.819	23885.4
652.171	23996.36
652.523	24049.69
652.875	23950.03
653.227	23785.07
653.578	24007.21
653.93	24013.76
654.282	23877.72
654.633	23856.7
654.985	24012.41
655.337	23957.94
655.688	23908.91
656.039	24139.86
656.391	23826.2
656.742	23849.7
657.094	23991.61
657.445	24028.22
657.796	23818.51
658.147	23927.66
658.498	24026.42
658.849	24015.57
659.2	24009.92
659.551	23879.3
659.902	23932.63
660.253	23934.44
660.604	24041.33
660.955	23897.83
661.306	24040.43
661.656	23947.32
662.007	23990.26
662.358	24010.6
662.708	23958.62
663.059	23931.73
663.409	23854.9
663.76	24034.55
664.11	23961.56
664.461	24032.29
664.811	23980.32
665.161	23998.39
665.511	23994.33
665.862	23999.07
666.212	24091.5
666.562	24068.45
666.912	24079.75
667.262	23844.5
667.612	23996.36
667.962	24064.38
668.312	23948
668.662	24015.57
669.011	24000.43
669.361	23951.39
669.711	23916.36
670.06	23854.22
670.41	23871.84
670.76	23800.21
671.109	24002.24
671.459	23849.25
671.808	23850.6
672.157	23820.55
672.507	23757.04
672.856	23731.96
673.205	23804.95
673.554	23864.39
673.904	23788.23
674.253	24037.26
674.602	23771.73
674.951	23436.83
675.3	23351.41
675.649	23797.27
675.998	23716.82
676.346	23716.14
676.695	23727.89
677.044	23517.73
677.393	23547.11
677.741	23589.59
678.09	23710.04
678.438	23448.8
678.787	23572.87
679.135	23598.86
679.484	23324.74
679.832	23506.66
680.181	23463.72
680.529	23325.19
680.877	23302.14
681.225	23239.32
681.573	23397.51
681.922	23262.14
682.27	23176.72
682.618	23067.57
682.966	23216.72
683.314	23174.24
683.661	23139.89
684.009	23073.67
684.357	22984.86
684.705	22927.01
685.053	22928.14
685.4	22854.02
685.748	22833.45
686.095	22865.54
686.443	22647.47
686.79	22726.11
687.138	22649.96
687.485	22640.92
687.832	22600.01
688.18	22606.34
688.527	22382.84
688.874	22375.61
689.221	22321.6
689.568	22205.67
689.915	22132.91
690.262	22214.94
690.609	22113.92
690.956	22125.22
691.303	22066.24
691.65	22032.12
691.997	21950.54
692.344	21808.17
692.69	21754.84
693.037	21733.37
693.383	21503.09
693.73	21570.21
694.077	21512.13
694.423	21570.21
694.769	21442.53
695.116	21389.42
695.462	21336.32
695.808	21307.62
696.155	21231.46
696.501	21098.81
696.847	21073.73
697.193	20848.19
697.539	20972.49
697.885	20811.59
698.231	20727.97
698.577	20719.84
698.923	20633.06
699.269	20531.82
699.614	20502.67
699.96	20488.88
700.306	20442.1
700.651	20268.1
700.997	20244.37
701.342	20167.31
701.688	20155.11
702.033	20094.54
702.379	20100.42
702.724	19961.66
703.069	19953.08
703.415	19708.56
703.76	19757.83
704.105	19703.14
704.45	19605.97
704.795	19558.74
705.14	19556.7
705.485	19424.96
705.83	19356.71
706.175	19330.49
706.52	19327.33
706.865	19237.84
707.209	19207.79
707.554	19096.38
707.899	19188.8
708.243	19166.43
708.588	18990.16
708.932	18916.95
709.277	18782.26
709.621	18880.56
709.966	18652.55
710.31	18806.67
710.654	18605.54
710.998	18775.48
711.342	18603.73
711.687	18535.49
712.031	18450.97
712.375	18536.62
712.719	18490.74
713.063	18418.2
713.407	18339.79
713.75	18297.08
714.094	18248.94
714.438	18166.23
714.782	18295.27
715.125	18134.59
715.469	18193.12
715.812	18021.38
716.156	17876.07
716.499	17954.94
716.843	17947.93
717.186	17818.44
717.53	18011.21
717.873	17984.54
718.216	17836.97
718.559	17741.84
718.902	17654.61
719.246	17801.95
719.589	17725.11
719.932	17640.82
720.275	17622.52
720.617	17670.65
720.96	17592.01
721.303	17605.57
721.646	17674.72
721.989	17544.33
722.331	17558.34
722.674	17486.48
723.016	17512.01
723.359	17488.74
723.701	17476.53
724.044	17401.96
724.386	17356.99
724.729	17352.02
725.071	17312.24
725.413	17323.32
725.755	17278.57
726.097	17260.49
726.439	17108.63
726.782	17180.72
727.124	17218.46
727.465	17181.17
727.807	17197.67
728.149	17088.97
728.491	17050.78
728.833	17147.28
729.175	17135.75
729.516	17112.02
729.858	17140.95
730.199	17023.89
730.541	17063.21
730.882	17078.8
731.224	17059.37
731.565	16979.6
731.906	16941.18
732.248	17032.02
732.589	16914.06
732.93	16942.53
733.271	16979.14
733.612	17023.44
733.953	16991.12
734.294	16982.76
734.635	16869.09
734.976	16927.17
735.317	16886.04
735.658	16906.38
735.999	16818.7
736.339	16883.33
736.68	16852.14
737.021	16909.99
737.361	16824.8
737.702	16859.83
738.042	16900.73
738.383	16942.08
738.723	17024.34
739.063	16923.33
739.404	16881.52
739.744	16872.03
740.084	16892.14
740.424	16983.89
740.764	16933.27
741.104	16948.18
741.444	16954.74
741.784	16931.91
742.124	16910.45
742.464	16985.47
742.804	16950.44
743.143	16910.45
743.483	17052.14
743.823	17023.21
744.162	16982.99
744.502	17008.3
744.841	17045.13
745.181	17189.53
745.52	17126.48
745.86	17253.04
746.199	17073.38
746.538	17246.93
746.877	17382.07
747.216	17371.68
747.556	17408.74
747.895	17380.94
748.234	17404.9
748.573	17519.02
748.911	17617.77
749.25	17665.45
749.589	17627.26
749.928	17802.85
750.267	17781.16
750.605	17876.07
750.944	17924.2
751.283	17974.6
751.621	18035.39
751.96	18075.39
752.298	18253.69
752.636	18296.4
752.975	18309.73
753.313	18408.48
753.651	18622.26
753.989	18573.68
754.327	18745.43
754.666	18772.77
755.004	19026.32
755.342	19113.33
755.679	19148.58
756.017	19201.68
756.355	19438.51
756.693	19367.33
757.031	19600.09
757.368	19628.57
757.706	19677.15
