Data from hue_310_FLMS001491_96.txt Node
Date: Mon Feb 06 15:50:29 GMT 2017
User: dcchb
Spectrometer: FLMS00149
Trigger mode: 0
Integration Time (sec): 2.000000E-2
Scans to average: 10
Electric dark correction enabled: true
Nonlinearity correction enabled: false
Boxcar width: 0
XAxis mode: Wavelengths
Number of Pixels in Spectrum: 2048
>>>>>Begin Spectral Data<<<<<
341.393	-9.01
341.776	-9.01
342.16	-9.01
342.543	-65.51
342.927	-79.52
343.31	-81.1
343.693	-78.16
344.077	-52.17
344.46	-49.91
344.843	-51.04
345.226	-34.55
345.61	-41.1
345.993	-18.73
346.376	-16.69
346.759	9.29
347.142	22.85
347.525	52
347.908	37.32
348.291	84.77
348.674	91.33
349.057	125.9
349.44	119.12
349.823	150.53
350.206	163.19
350.588	194.6
350.971	219.23
351.354	200.93
351.737	240.25
352.119	255.84
352.502	284.99
352.884	296.52
353.267	266.69
353.65	305.1
354.032	288.61
354.414	288.16
354.797	302.17
355.179	329.29
355.562	335.84
355.944	327.25
356.326	349.4
356.709	338.55
357.091	351.21
357.473	336.29
357.855	346.23
358.238	336.74
358.62	333.8
359.002	342.17
359.384	333.58
359.766	334.26
360.148	335.84
360.53	345.33
360.912	336.74
361.294	347.82
361.676	332.67
362.057	327.48
362.439	314.82
362.821	315.27
363.203	325.67
363.584	324.99
363.966	321.6
364.348	322.51
364.729	315.27
365.111	321.83
365.493	311.88
365.874	312.34
366.256	330.87
366.637	320.92
367.019	312.11
367.4	324.99
367.781	328.61
368.163	320.47
368.544	293.35
368.925	318.21
369.306	323.41
369.688	315.73
370.069	328.61
370.45	297.65
370.831	306.01
371.212	302.17
371.593	308.72
371.974	316.18
372.355	314.14
372.736	297.42
373.117	333.35
373.498	324.77
373.879	322.05
374.26	315.27
374.641	332.22
375.021	309.62
375.402	322.05
375.783	323.64
376.163	334.48
376.544	342.84
376.925	330.87
377.305	329.06
377.686	315.73
378.066	332.9
378.447	313.24
378.827	339.45
379.208	315.27
379.588	312.11
379.968	320.7
380.349	368.15
380.729	350.08
381.109	334.93
381.489	342.17
381.87	333.35
382.25	348.27
382.63	325.44
383.01	354.14
383.39	348.72
383.77	343.97
384.15	355.27
384.53	355.27
384.91	330.87
385.29	354.82
385.67	340.36
386.049	354.82
386.429	346.46
386.809	353.47
387.189	347.36
387.568	353.92
387.948	359.57
388.328	383.07
388.707	365.22
389.087	364.31
389.466	352.34
389.846	372.22
390.225	368.38
390.605	360.92
390.984	386.91
391.363	389.17
391.743	358.89
392.122	386.91
392.501	373.13
392.881	388.49
393.26	397.76
393.639	380.58
394.018	376.52
394.397	380.58
394.776	393.01
395.155	390.98
395.534	382.62
395.913	391.2
396.292	391.2
396.671	406.8
397.05	414.48
397.429	396.18
397.808	401.83
398.186	393.46
398.565	396.4
398.944	415.84
399.323	402.05
399.701	413.12
400.08	403.41
400.458	408.15
400.837	423.29
401.215	408.83
401.594	413.58
401.972	412.45
402.351	417.87
402.729	426.68
403.107	441.37
403.486	427.14
403.864	450.86
404.242	423.97
404.62	441.82
404.999	445.89
405.377	452.22
405.755	452.45
406.133	465.1
406.511	441.82
406.889	445.44
407.267	483.18
407.645	477.76
408.023	469.62
408.401	464.42
408.779	477.08
409.156	499.22
409.534	480.47
409.912	503.97
410.29	504.42
410.667	524.76
411.045	511.65
411.422	497.19
411.8	530.41
412.178	525.89
412.555	550.75
412.933	548.49
413.31	575.83
413.687	576.96
414.065	572.89
414.442	592.33
414.819	596.17
415.197	614.02
415.574	597.98
415.951	613.12
416.328	618.09
416.705	625.32
417.082	633.46
417.46	641.14
417.837	626.23
418.214	636.17
418.591	623.97
418.967	659.45
419.344	688.37
419.721	664.42
420.098	679.56
420.475	707.58
420.852	710.29
421.228	684.76
421.605	721.59
421.982	737.18
422.358	725.43
422.735	757.3
423.111	735.15
423.488	754.36
423.864	780.8
424.241	774.47
424.617	790.06
424.994	801.14
425.37	781.48
425.746	795.04
426.123	804.07
426.499	801.82
426.875	835.71
427.251	843.62
427.627	893.79
428.003	854.92
428.379	867.58
428.756	864.41
429.132	891.08
429.507	920
429.883	894.92
430.259	919.55
430.635	903.51
431.011	945.09
431.387	950.74
431.763	953.22
432.138	963.62
432.514	983.96
432.89	982.6
433.265	1016.5
433.641	1014.92
434.016	1028.7
434.392	1060.11
434.767	1044.52
435.143	1053.56
435.518	1053.79
435.894	1068.7
436.269	1089.04
436.644	1096.04
437.02	1113.67
437.395	1104.18
437.77	1140.34
438.145	1163.61
438.52	1158.42
438.895	1176.27
439.271	1178.75
439.646	1189.15
440.021	1201.35
440.395	1202.26
440.77	1203.84
441.145	1199.09
441.52	1228.92
441.895	1202.03
442.27	1214.01
442.645	1254.46
443.019	1240
443.394	1237.06
443.769	1247.45
444.143	1228.24
444.518	1256.27
444.892	1270.73
445.267	1267.57
445.641	1285.19
446.016	1279.09
446.39	1293.33
446.764	1304.85
447.139	1287.9
447.513	1300.11
447.887	1305.76
448.262	1319.99
448.636	1307.11
449.01	1294.23
449.384	1327
449.758	1333.33
450.132	1325.64
450.506	1354.57
450.88	1355.7
451.254	1358.64
451.628	1354.57
452.002	1376.49
452.376	1391.18
452.75	1377.39
453.123	1370.16
453.497	1425.53
453.871	1418.3
454.244	1443.83
454.618	1430.95
454.992	1477.28
455.365	1458.29
455.739	1472.53
456.112	1466.66
456.486	1484.28
456.859	1483.15
457.232	1518.41
457.606	1507.56
457.979	1509.14
458.352	1540.55
458.725	1549.37
459.099	1539.65
459.472	1544.85
459.845	1589.59
460.218	1584.17
460.591	1621.23
460.964	1586.65
461.337	1605.41
461.71	1647.44
462.083	1661.68
462.456	1668.23
462.829	1652.87
463.201	1694.67
463.574	1696.25
463.947	1733.32
464.32	1753.43
464.692	1743.94
465.065	1762.47
465.438	1775.12
465.81	1770.15
466.183	1776.03
466.555	1800.66
466.928	1819.42
467.3	1808.12
467.672	1853.31
468.045	1856.25
468.417	1922.01
468.789	1865.74
469.161	1890.37
469.534	1927.21
469.906	1971.5
470.278	1957.94
470.65	1949.36
471.022	1996.36
471.394	2027.55
471.766	2053.76
472.138	2056.47
472.51	2087.66
472.882	2110.03
473.253	2113.19
473.625	2120.2
473.997	2139.18
474.369	2150.93
474.74	2171.95
475.112	2226.86
475.484	2238.61
475.855	2236.13
476.227	2271.83
476.598	2322.68
476.97	2356.35
477.341	2368.1
477.713	2414.2
478.084	2377.37
478.455	2471.6
478.827	2479.06
479.198	2492.17
479.569	2461.88
479.94	2536.46
480.311	2565.84
480.682	2599.28
481.053	2646.96
481.424	2673.18
481.795	2667.08
482.166	2697.13
482.537	2738.71
482.908	2774.87
483.279	2777.81
483.65	2846.51
484.021	2837.92
484.391	2851.25
484.762	2891.25
485.133	2912.04
485.503	2974.41
485.874	2942.55
486.244	2999.5
486.615	3061.19
486.985	3058.7
487.356	3091.47
487.726	3126.95
488.097	3195.88
488.467	3161.53
488.837	3232.03
489.207	3265.71
489.578	3299.15
489.948	3331.47
490.318	3370.79
490.688	3332.37
491.058	3387.74
491.428	3463.67
491.798	3422.54
492.168	3500.73
492.538	3468.64
492.908	3518.13
493.278	3577.34
493.648	3568.97
494.017	3631.8
494.387	3650.33
494.757	3631.57
495.126	3653.72
495.496	3673.38
495.866	3676.99
496.235	3732.13
496.605	3728.74
496.974	3739.82
497.344	3780.04
497.713	3776.43
498.082	3807.39
498.452	3817.1
498.821	3853.71
499.19	3866.82
499.559	3841.96
499.928	3897.55
500.298	3918.57
500.667	3958.79
501.036	3975.29
501.405	3930.55
501.774	3962.41
502.143	3997.89
502.512	3987.49
502.88	4022.3
503.249	4050.32
503.618	4040.6
503.987	4034.95
504.356	4048.06
504.724	4064.33
505.093	4069.98
505.462	4090.32
505.83	4133.48
506.199	4156.98
506.567	4192.91
506.936	4185.68
507.304	4252.8
507.672	4194.72
508.041	4202.86
508.409	4248.73
508.777	4232.01
509.145	4310.42
509.514	4318.78
509.882	4294.6
510.25	4327.6
510.618	4326.69
510.986	4347.71
511.354	4374.15
511.722	4371.21
512.09	4379.12
512.458	4378.22
512.826	4414.15
513.193	4405.11
513.561	4396.97
513.929	4468.61
514.297	4490.53
514.664	4487.59
515.032	4485.56
515.4	4550.42
515.767	4505.67
516.135	4554.03
516.502	4460.02
516.869	4574.6
517.237	4582.05
517.604	4515.16
517.972	4616.18
518.339	4608.27
518.706	4593.58
519.073	4624.77
519.44	4603.3
519.808	4660.47
520.175	4669.96
520.542	4654.37
520.909	4706.8
521.276	4692.56
521.643	4700.24
522.009	4797.42
522.376	4772.78
522.743	4740.92
523.11	4809.17
523.477	4804.65
523.843	4858.21
524.21	4959.22
524.577	4884.42
524.943	4868.37
525.31	4950.86
525.676	4954.93
526.043	4977.07
526.409	5001.03
526.776	5077.18
527.142	5073.34
527.508	5075.6
527.874	5130.74
528.241	5159.67
528.607	5136.62
528.973	5193.79
529.339	5213
529.705	5237.18
530.071	5276.95
530.437	5281.47
530.803	5297.52
531.169	5307.91
531.535	5309.04
531.901	5331.64
532.267	5382.94
532.632	5410.73
532.998	5431.98
533.364	5450.51
533.73	5489.15
534.095	5500.22
534.461	5492.77
534.826	5501.13
535.192	5565.98
535.557	5606.66
535.923	5599.66
536.288	5623.84
536.653	5632.87
537.019	5674.68
537.384	5639.65
537.749	5667.9
538.114	5698.41
538.479	5728.01
538.845	5739.31
539.21	5745.19
539.575	5765.75
539.94	5814.34
540.305	5890.04
540.67	5855.24
541.034	5883.72
541.399	5907.9
541.764	5978.85
542.129	5924.39
542.494	5973.88
542.858	6015.01
543.223	6018.63
543.587	6092.98
543.952	6091.62
544.316	6127.32
544.681	6108.34
545.045	6157.15
545.41	6227.21
545.774	6208
546.138	6207.1
546.503	6250.03
546.867	6295.91
547.231	6289.35
547.595	6313.31
547.959	6280.54
548.324	6335.91
548.688	6417.03
549.052	6450.71
549.416	6472.4
549.779	6485.51
550.143	6486.64
550.507	6562.57
550.871	6517.37
551.235	6529.8
551.599	6573.19
551.962	6553.3
552.326	6575.9
552.689	6618.61
553.053	6589.23
553.417	6632.17
553.78	6691.15
554.143	6686.18
554.507	6735.44
554.87	6764.37
555.234	6813.41
555.597	6730.7
555.96	6760.98
556.323	6842.33
556.686	6851.15
557.05	6831.26
557.413	6818.83
557.776	6925.72
558.139	6873.29
558.502	6963.23
558.865	6889.56
559.228	6982.67
559.59	6948.32
559.953	6960.98
560.316	7055.21
560.679	7065.83
561.041	7141.76
561.404	7139.95
561.767	7155.77
562.129	7125.04
562.492	7167.07
562.854	7167.3
563.217	7180.18
563.579	7244.81
563.941	7299.05
564.304	7300.63
564.666	7350.12
565.028	7352.38
565.39	7400.06
565.753	7351.7
566.115	7370.68
566.477	7452.26
566.839	7466.05
567.201	7507.18
567.563	7501.3
567.925	7608.87
568.287	7535.88
568.648	7612.03
569.01	7653.61
569.372	7657
569.734	7659.04
570.095	7748.07
570.457	7730.9
570.819	7816.55
571.18	7771.12
571.542	7841.63
571.903	7883.44
572.265	7913.27
572.626	7994.85
572.987	8054.51
573.349	8088.86
573.71	8097.22
574.071	8113.49
574.432	8222.41
574.794	8303.54
575.155	8308.51
575.516	8371.11
575.877	8414.27
576.238	8504.89
576.599	8589.63
576.96	8605.45
577.32	8696.3
577.681	8750.53
578.042	8860.81
578.403	8914.37
578.763	9091.99
579.124	9080.92
579.485	9236.4
579.845	9314.59
580.206	9407.46
580.566	9466.45
580.927	9677.74
581.287	9802.03
581.648	9965.64
582.008	10061.91
582.368	10243.15
582.728	10370.6
583.089	10516.14
583.449	10714.32
583.809	10801.1
584.169	11089.23
584.529	11152.96
584.889	11527.86
585.249	11607.63
585.609	11725.82
585.969	12054.85
586.329	12230.89
586.688	12532.35
587.048	12729.19
587.408	12881.27
587.768	13124.43
588.127	13344.08
588.487	13584.76
588.846	14003.95
589.206	14115.36
589.565	14347.9
589.925	14699.75
590.284	14945.62
590.643	15175.67
591.003	15531.82
591.362	15850.68
591.721	16055.88
592.08	16282.09
592.44	16809.76
592.799	17025.57
593.158	17306.69
593.517	17541.94
593.876	17906.9
594.235	18215.14
594.593	18458.53
594.952	18885.41
595.311	19073.88
595.67	19500.53
596.029	19860.97
596.387	20082.44
596.746	20443.78
597.104	20641.97
597.463	20859.37
597.822	21362.4
598.18	21608.05
598.538	21855.95
598.897	22361.02
599.255	22432.66
599.613	22998.52
599.972	23143.83
600.33	23595.34
600.688	23755.11
601.046	24100.64
601.404	24462.66
601.762	24711.24
602.12	25077.79
602.478	25354.39
602.836	25607.49
603.194	25776.53
603.552	26011.77
603.91	26359.34
604.268	26569.5
604.625	26888.36
604.983	27267.11
605.341	27423.04
605.698	27756.81
606.056	28018.5
606.413	28310.24
606.771	28607.86
607.128	28681.08
607.485	28905.93
607.843	29133.27
608.2	29611.68
608.557	29860.49
608.914	30036.75
609.272	30266.35
609.629	30561.71
609.986	30759.9
610.343	30945.66
610.7	31206.44
611.057	31507.45
611.414	31523.04
611.771	31856.59
612.127	32154.89
612.484	32216.81
612.841	32488.44
613.198	32566.63
613.554	32693.18
613.911	33014.53
614.267	33246.61
614.624	33369.55
614.98	33605.47
615.337	33945.35
615.693	34010.66
616.05	34062.41
616.406	34497.65
616.762	34499.46
617.118	34603.64
617.475	34699.91
617.831	34822.16
618.187	35146.22
618.543	35194.81
618.899	35504.63
619.255	35500.34
619.611	35728.13
619.967	35935.58
620.323	35970.16
620.678	36065.97
621.034	36107.1
621.39	36133.77
621.746	36210.6
622.101	36694.88
622.457	36541.21
622.812	36644.71
623.168	36864.14
623.523	36929.45
623.879	37134.87
624.234	37063.46
624.589	37318.14
624.945	37446.05
625.3	37538.7
625.655	37544.8
626.01	37649.89
626.365	37825.47
626.72	37850.78
627.075	37834.29
627.43	37934.85
627.785	37842.42
628.14	38031.34
628.495	38110.44
628.85	38105.92
629.205	38107.05
629.559	38238.12
629.914	38211.68
630.269	38198.12
630.623	38197.22
630.978	38264.11
631.332	38394.05
631.687	38489.19
632.041	38378.23
632.396	38448.28
632.75	38356.76
633.104	38517.21
633.459	38365.8
633.813	38578.9
634.167	38457.55
634.521	38413.93
634.875	38533.25
635.229	38446.93
635.583	38394.72
635.937	38446.93
636.291	38408.28
636.645	38528.28
636.999	38521.73
637.352	38687.15
637.706	38388.17
638.06	38566.02
638.413	38495.51
638.767	38481.28
639.121	38638.79
639.474	38418
639.828	38366.7
640.181	38304.11
640.534	38488.06
640.888	38491.9
641.241	38305.69
641.594	38448.06
641.947	38543.65
642.301	38502.74
642.654	38498
643.007	38516.3
643.36	38321.51
643.713	38277.89
644.066	38490.99
644.419	38167.39
644.771	38029.54
645.124	37679.94
645.477	37619.38
645.83	37530.34
646.182	37320.63
646.535	37267.75
646.888	37295.77
647.24	37163.57
647.593	37202.89
647.945	37221.42
648.298	37129.9
648.65	37128.54
649.002	37060.07
649.355	37173.06
649.707	37127.41
650.059	37360.85
650.411	37710
650.763	37707.74
651.115	38041.06
651.467	37945.7
651.819	37988.18
652.171	37898.69
652.523	37841.07
652.875	37791.8
653.227	37758.36
653.578	38091
653.93	38014.4
654.282	37785.7
654.633	37621.19
654.985	37786.83
655.337	37812.59
655.688	37814.4
656.039	37971.69
656.391	37582.54
656.742	37724.23
657.094	37618.7
657.445	37700.96
657.796	37709.09
658.147	37612.15
658.498	37648.76
658.849	37731.92
659.2	37575.31
659.551	37609.21
659.902	37727.85
660.253	37542.32
660.604	37757.91
660.955	37475.88
661.306	37676.33
661.656	37690.11
662.007	37590.23
662.358	37494.41
662.708	37668.87
663.059	37467.74
663.409	37350.23
663.76	37728.3
664.11	37637.46
664.461	37560.4
664.811	37594.52
665.161	37604.01
665.511	37476.33
665.862	37573.96
666.212	37668.87
666.562	37505.71
666.912	37556.33
667.262	37428.42
667.612	37591.81
667.962	37497.8
668.312	37481.98
668.662	37615.54
669.011	37554.07
669.361	37369.44
669.711	37315.21
670.06	37254.42
670.41	37288.54
670.76	37203.12
671.109	37552.04
671.459	37420.29
671.808	37263.46
672.157	37304.36
672.507	37091.93
672.856	37096.91
673.205	37283.57
673.554	37377.8
673.904	37254.87
674.253	37383.9
674.602	37292.61
674.951	36737.59
675.3	36578.73
675.649	37234.53
675.998	37158.15
676.346	37216
676.695	37281.53
677.044	36928.77
677.393	37112.95
677.741	37142.55
678.09	37036.34
678.438	36953.63
678.787	37028.43
679.135	36997.7
679.484	36874.31
679.832	36965.84
680.181	36725.62
680.529	36901.88
680.877	36696.46
681.225	36596.35
681.573	36944.37
681.922	36606.07
682.27	36477.04
682.618	36486.07
682.966	36397.94
683.314	36541.21
683.661	36440.43
684.009	36271.16
684.357	36189.81
684.705	36164.28
685.053	36188.91
685.4	36171.05
685.748	35977.39
686.095	36081.57
686.443	35823.49
686.79	35802.25
687.138	35810.84
687.485	35836.15
687.832	35602.71
688.18	35808.8
688.527	35509.15
688.874	35652.88
689.221	35472.09
689.568	35449.49
689.915	35209.5
690.262	35284.07
690.609	35225.09
690.956	35137.64
691.303	35143.96
691.65	35022.61
691.997	34913.23
692.344	34761.15
692.69	34778.32
693.037	34760.92
693.383	34418.78
693.73	34557.09
694.077	34468.73
694.423	34352.8
694.769	34320.93
695.116	34242.29
695.462	34191.45
695.808	33978.12
696.155	34112.35
696.501	33824.68
696.847	33924.56
697.193	33581.07
697.539	33752.81
697.885	33483.44
698.231	33450.67
698.577	33337
698.923	33401.18
699.269	33156.22
699.614	33036.67
699.96	33004.36
700.306	32931.82
700.651	32865.15
700.997	32887.53
701.342	32868.09
701.688	32728.89
702.033	32486.86
702.379	32544.48
702.724	32466.07
703.069	32549.23
703.415	32139.07
703.76	32144.95
704.105	32221.78
704.45	32097.04
704.795	32000.32
705.14	31852.75
705.485	31829.7
705.83	31644.62
706.175	31886.65
706.52	31526.88
706.865	31422.25
707.209	31491.86
707.554	31360.11
707.899	31509.93
708.243	31254.57
708.588	31145.65
708.932	31056.84
709.277	31081.47
709.621	31010.51
709.966	30768.03
710.31	30976.16
710.654	30711.99
710.998	30722.38
711.342	30693.23
711.687	30643.97
712.031	30440.81
712.375	30382.51
712.719	30437.42
713.063	30312.68
713.407	30470.64
713.75	30295.28
714.094	30363.98
714.438	30168.73
714.782	30174.38
715.125	29953.59
715.469	30124.89
715.812	29797.21
716.156	29798.79
716.499	29773.03
716.843	29872.24
717.186	29580.27
717.53	29831.11
717.873	29704.11
718.216	29585.92
718.559	29460.04
718.902	29340.27
719.246	29322.87
719.589	29185.7
719.932	29235.64
720.275	29129.66
720.617	29093.73
720.96	29128.3
721.303	29047.63
721.646	29074.74
721.989	28863.9
722.331	28908.42
722.674	28876.11
723.016	28786.16
723.359	28780.51
723.701	28784.58
724.044	28623.23
724.386	28508.66
724.729	28668.43
725.071	28529.22
725.413	28498.26
725.755	28591.59
726.097	28299.85
726.439	28212.62
726.782	28212.62
727.124	28411.48
727.465	28182.11
727.807	28242.68
728.149	28220.08
728.491	28141.44
728.833	28220.53
729.175	27975.79
729.516	27912.51
729.858	27859.63
730.199	27875.68
730.541	27909.35
730.882	27797.26
731.224	27929.92
731.565	27722.46
731.906	27703.93
732.248	27823.03
732.589	27561.79
732.93	27509.36
733.271	27628.68
733.612	27540.32
733.953	27522.02
734.294	27457.61
734.635	27314.56
734.976	27341.46
735.317	27172.42
735.658	27261.01
735.999	27342.59
736.339	27079.54
736.68	27283.15
737.021	27118.19
737.361	26982.6
737.702	27248.8
738.042	27021.24
738.383	26950.28
738.723	27047
739.063	26894.46
739.404	26866.89
739.744	26770.17
740.084	26677.07
740.424	26664.86
740.764	26550.74
741.104	26691.53
741.444	26615.83
741.784	26487.69
742.124	26553.23
742.464	26481.37
742.804	26383.97
743.143	26318.66
743.483	26420.35
743.823	26259.45
744.162	26243.86
744.502	26217.42
744.841	26146.46
745.181	26364.08
745.52	26055.16
745.86	26231.43
746.199	26051.09
746.538	25997.31
746.877	26135.16
747.216	26084.09
747.556	25944.2
747.895	25858.78
748.234	25831.44
748.573	25899.46
748.911	25715.28
749.25	25741.95
749.589	25565.46
749.928	25654.27
750.267	25674.16
750.605	25547.38
750.944	25525.23
751.283	25322.07
751.621	25336.99
751.96	25384.67
752.298	25423.99
752.636	25298.35
752.975	25105.36
753.313	25094.51
753.651	25164.34
753.989	24981.07
754.327	24927.28
754.666	24893.39
755.004	24784.69
755.342	24950.11
755.679	24822.43
756.017	24571.59
756.355	24673.05
756.693	24590.57
757.031	24639.83
757.368	24553.05
757.706	24389.44
758.044	24331.59
758.381	24482.32
758.719	24290.01
759.056	24302.44
759.394	24235.78
759.731	24119.85
