Data from hue_260_FLMS001491_00038.txt Node
Date: Tue Feb 07 15:58:55 GMT 2017
User: dcchb
Spectrometer: FLMS00149
Trigger mode: 0
Integration Time (sec): 2.000000E-2
Scans to average: 10
Electric dark correction enabled: true
Nonlinearity correction enabled: false
Boxcar width: 0
XAxis mode: Wavelengths
Number of Pixels in Spectrum: 2048
>>>>>Begin Spectral Data<<<<<
341.393	11.43
341.776	11.43
342.16	11.43
342.543	-74.67
342.927	-70.61
343.31	-79.42
343.693	-70.83
344.077	-61.57
344.46	-62.47
344.843	-55.46
345.226	-45.97
345.61	-8.23
345.993	-15.24
346.376	2.39
346.759	-5.07
347.142	36.06
347.525	39.22
347.908	36.28
348.291	78.32
348.674	92.33
349.057	119.67
349.44	128.03
349.823	140.24
350.206	157.19
350.588	196.96
350.971	174.13
351.354	241.25
351.737	241.93
352.119	236.51
352.502	259.33
352.884	261.82
353.267	271.53
353.65	306.56
354.032	305.43
354.414	312.66
354.797	294.58
355.179	319.89
355.562	300.68
355.944	325.54
356.326	327.8
356.709	320.12
357.091	330.51
357.473	325.54
357.855	323.51
358.238	333
358.62	322.15
359.002	346.78
359.384	326.67
359.766	335.26
360.148	336.39
360.53	315.83
360.912	320.34
361.294	324.86
361.676	330.97
362.057	315.6
362.439	325.09
362.821	322.15
363.203	325.54
363.584	317.18
363.966	305.66
364.348	318.76
364.729	321.02
365.111	311.76
365.493	320.8
365.874	325.32
366.256	300.23
366.637	323.28
367.019	315.6
367.4	326.45
367.781	318.08
368.163	329.84
368.544	321.25
368.925	281.48
369.306	308.14
369.688	322.83
370.069	298.88
370.45	295.71
370.831	311.53
371.212	293.45
371.593	316.73
371.974	325.09
372.355	330.06
372.736	312.21
373.117	307.01
373.498	299.78
373.879	298.88
374.26	311.53
374.641	302.94
375.021	300.23
375.402	342.27
375.783	309.05
376.163	306.11
376.544	331.42
376.925	318.31
377.305	316.28
377.686	314.47
378.066	310.18
378.447	315.15
378.827	354.47
379.208	324.41
379.588	319.44
379.968	340.01
380.349	314.92
380.729	330.29
381.109	332.55
381.489	338.88
381.87	340.23
382.25	323.28
382.63	321.7
383.01	315.37
383.39	340.68
383.77	330.74
384.15	329.16
384.53	364.19
384.91	342.04
385.29	349.04
385.67	352.66
386.049	341.36
386.429	328.93
386.809	330.06
387.189	349.95
387.568	355.37
387.948	332.77
388.328	342.04
388.707	347.91
389.087	365.99
389.466	365.77
389.846	362.83
390.225	374.13
390.605	366.22
390.984	385.88
391.363	354.69
391.743	383.85
392.122	381.81
392.501	377.52
392.881	376.84
393.26	356.5
393.639	356.5
394.018	343.62
394.397	363.06
394.776	375.71
395.155	361.02
395.534	362.83
395.913	373
396.292	394.92
396.671	389.72
397.05	371.64
397.429	389.72
397.808	386.56
398.186	401.7
398.565	388.59
398.944	398.08
399.323	413.9
399.701	392.21
400.08	394.92
400.458	417.97
400.837	403.73
401.215	418.65
401.594	411.19
401.972	410.96
402.351	421.36
402.729	421.81
403.107	404.18
403.486	430.4
403.864	432.21
404.242	424.75
404.62	441.02
404.999	417.74
405.377	455.48
405.755	450.28
406.133	454.13
406.511	447.12
406.889	456.61
407.267	468.82
407.645	468.59
408.023	490.74
408.401	454.58
408.779	484.86
409.156	501.81
409.534	496.39
409.912	499.77
410.29	507.91
410.667	507.46
411.045	520.34
411.422	528.25
411.8	533.22
412.178	515.14
412.555	547.46
412.933	557.4
413.31	557.63
413.687	558.98
414.065	540.68
414.442	560.56
414.819	559.21
415.197	586.55
415.574	584.52
415.951	590.39
416.328	592.65
416.705	602.15
417.082	630.84
417.46	591.75
417.837	627.46
418.214	635.82
418.591	627.46
418.967	660
419.344	659.09
419.721	677.4
420.098	666.1
420.475	650.51
420.852	708.36
421.228	716.49
421.605	700.45
421.982	713.78
422.358	721.69
422.735	738.64
423.111	726.89
423.488	743.61
423.864	760.11
424.241	769.15
424.617	770.28
424.994	786.77
425.37	785.64
425.746	807.56
426.123	812.99
426.499	822.48
426.875	831.07
427.251	859.09
427.627	875.13
428.003	888.69
428.379	871.06
428.756	900.22
429.132	912.19
429.507	900.44
429.883	929.37
430.259	909.26
430.635	957.39
431.011	958.75
431.387	941.8
431.763	961.91
432.138	970.95
432.514	985.41
432.89	981.57
433.265	1050.27
433.641	1069.03
434.016	1054.11
434.392	1068.35
434.767	1104.73
435.143	1082.36
435.518	1098.63
435.894	1131.85
436.269	1154.9
436.644	1172.98
437.02	1210.49
437.395	1205.29
437.77	1241.45
438.145	1248
438.52	1276.93
438.895	1281.22
439.271	1278.06
439.646	1287.1
440.021	1322.35
440.395	1311.51
440.77	1326.65
441.145	1357.83
441.52	1374.1
441.895	1362.13
442.27	1398.96
442.645	1398.73
443.019	1438.51
443.394	1409.81
443.769	1455.23
444.143	1447.09
444.518	1454.55
444.892	1468.11
445.267	1464.72
445.641	1509.69
446.016	1516.92
446.39	1518.51
446.764	1512.4
447.139	1519.41
447.513	1523.7
447.887	1543.59
448.262	1558.28
448.636	1586.75
449.01	1589.69
449.384	1599.63
449.758	1583.81
450.132	1609.58
450.506	1627.43
450.88	1649.8
451.254	1632.85
451.628	1658.16
452.002	1695.68
452.376	1706.52
452.75	1724.6
453.123	1737.93
453.497	1778.84
453.871	1769.35
454.244	1789.23
454.618	1810.02
454.992	1816.35
455.365	1815.22
455.739	1889.34
456.112	1880.08
456.486	1886.86
456.859	1947.19
457.232	1923.47
457.606	1930.92
457.979	1945.84
458.352	2001.66
458.725	2009.57
459.099	2001.66
459.472	2027.64
459.845	2056.34
460.218	2117.13
460.591	2111.03
460.964	2101.54
461.337	2146.51
461.71	2197.36
462.083	2190.13
462.456	2205.27
462.829	2209.56
463.201	2252.05
463.574	2267.19
463.947	2256.34
464.32	2340.18
464.692	2339.95
465.065	2357.35
465.438	2398.03
465.81	2412.72
466.183	2483.9
466.555	2483.45
466.928	2506.05
467.3	2495.43
467.672	2560.06
468.045	2600.74
468.417	2604.8
468.789	2608.87
469.161	2673.73
469.534	2665.14
469.906	2725.71
470.278	2729.77
470.65	2751.92
471.022	2778.59
471.394	2839.15
471.766	2901.97
472.138	2931.12
472.51	2945.81
472.882	2986.04
473.253	3017
473.625	3109.42
473.997	3097.22
474.369	3142.87
474.74	3161.85
475.112	3209.08
475.484	3236.2
475.855	3311.23
476.227	3333.82
476.598	3372.47
476.97	3422.18
477.341	3491.56
477.713	3524.1
478.084	3506.93
478.455	3655.85
478.827	3610.2
479.198	3694.72
479.569	3784.21
479.94	3830.76
480.311	3823.3
480.682	3927.93
481.053	3994.37
481.424	4007.48
481.795	4079.34
482.166	4137.65
482.537	4181.26
482.908	4234.37
483.279	4224.2
483.65	4308.71
484.021	4391.42
484.391	4437.75
484.762	4462.38
485.133	4512.1
485.503	4547.13
485.874	4652.66
486.244	4655.37
486.615	4799.55
486.985	4815.37
487.356	4891.75
487.726	4868.02
488.097	4926.78
488.467	5008.36
488.837	5038.41
489.207	5098.07
489.578	5183.27
489.948	5171.74
490.318	5279.31
490.688	5280.44
491.058	5358.86
491.428	5436.37
491.798	5444.73
492.168	5538.06
492.538	5501.9
492.908	5611.5
493.278	5671.16
493.648	5646.31
494.017	5723.59
494.387	5805.4
494.757	5816.47
495.126	5854.21
495.496	5895.34
495.866	5918.62
496.235	6002.23
496.605	5975.79
496.974	6008.33
497.344	6058.05
497.713	6066.18
498.082	6062.57
498.452	6170.59
498.821	6151.6
499.19	6153.41
499.559	6197.03
499.928	6282.9
500.298	6300.53
500.667	6331.94
501.036	6331.94
501.405	6308.66
501.774	6371.03
502.143	6399.73
502.512	6427.3
502.88	6414.87
503.249	6491.03
503.618	6467.98
503.987	6504.59
504.356	6566.28
504.724	6570.58
505.093	6597.47
505.462	6574.87
505.83	6622.55
506.199	6636.56
506.567	6758.59
506.936	6693.96
507.304	6704.81
507.672	6724.92
508.041	6763.79
508.409	6805.37
508.777	6831.13
509.145	6856.44
509.514	6817.8
509.882	6876.78
510.25	6871.13
510.618	6935.54
510.986	6926.72
511.354	6994.07
511.722	6990
512.09	6984.8
512.458	6936.44
512.826	7072.71
513.193	7042.65
513.561	7087.62
513.929	7113.84
514.297	7141.63
514.664	7165.59
515.032	7158.58
515.4	7178.47
515.767	7228.41
516.135	7198.13
516.502	7158.81
516.869	7270.22
517.237	7192.93
517.604	7191.8
517.972	7211.46
518.339	7254.63
518.706	7237.45
519.073	7300.73
519.44	7262.99
519.808	7354.96
520.175	7351.8
520.542	7434.51
520.909	7410.33
521.276	7390.44
521.643	7481.06
522.009	7484
522.376	7484
522.743	7470.67
523.11	7545.01
523.477	7555.63
523.843	7530.55
524.21	7589.53
524.577	7571
524.943	7569.65
525.31	7629.31
525.676	7676.99
526.043	7581.17
526.409	7698.91
526.776	7649.42
527.142	7665.01
527.508	7775.29
527.874	7802.18
528.241	7768.74
528.607	7716.99
528.973	7762.18
529.339	7766.25
529.705	7866.36
530.071	7886.25
530.437	7921.5
530.803	7900.71
531.169	7860.94
531.535	7902.74
531.901	7906.81
532.267	7842.63
532.632	7854.16
532.998	7920.37
533.364	7932.8
533.73	7924.89
534.095	7947.94
534.461	7966.25
534.826	7883.08
535.192	7876.98
535.557	7940.94
535.923	7883.54
536.288	7899.58
536.653	7921.05
537.019	7916.3
537.384	7885.12
537.749	7900.94
538.114	7905.91
538.479	7947.49
538.845	7928.28
539.21	7843.31
539.575	7860.71
539.94	7874.27
540.305	7876.53
540.67	7889.19
541.034	7878.11
541.399	7834.95
541.764	7894.16
542.129	7940.03
542.494	7846.47
542.858	7901.84
543.223	7870.43
543.587	7849.64
543.952	7813.48
544.316	7839.69
544.681	7792.69
545.045	7839.02
545.41	7847.38
545.774	7854.38
546.138	7814.84
546.503	7803.09
546.867	7788.85
547.231	7816.42
547.595	7842.41
547.959	7847.15
548.324	7834.05
548.688	7771.45
549.052	7804.67
549.416	7836.53
549.779	7803.99
550.143	7779.58
550.507	7820.94
550.871	7788.62
551.235	7760.6
551.599	7832.92
551.962	7808.28
552.326	7715.86
552.689	7808.96
553.053	7764.44
553.417	7722.64
553.78	7832.24
554.143	7734.61
554.507	7832.01
554.87	7798.11
555.234	7808.28
555.597	7821.62
555.96	7847.83
556.323	7798.57
556.686	7771
557.05	7811.22
557.413	7823.2
557.776	7872.69
558.139	7869.3
558.502	7812.8
558.865	7841.95
559.228	7932.8
559.59	7878.34
559.953	7874.27
560.316	7894.83
560.679	7916.98
561.041	7918.79
561.404	7980.26
561.767	8010.31
562.129	8008.28
562.492	7983.87
562.854	7980.48
563.217	7915.17
563.579	7982.52
563.941	8082.85
564.304	8090.76
564.666	8098.67
565.028	8102.74
565.39	8042.4
565.753	8167.37
566.115	8086.69
566.477	8138.44
566.839	8165.11
567.201	8247.59
567.563	8264.99
567.925	8253.47
568.287	8231.1
568.648	8212.34
569.01	8261.15
569.372	8376.18
569.734	8364.65
570.095	8463.41
570.457	8434.48
570.819	8442.17
571.18	8398.78
571.542	8421.83
571.903	8473.58
572.265	8505.67
572.626	8486.91
572.987	8459.79
573.349	8547.47
573.71	8543.41
574.071	8511.54
574.432	8608.26
574.794	8603.06
575.155	8607.13
575.516	8648.26
575.877	8687.36
576.238	8646.23
576.599	8724.42
576.96	8740.91
577.32	8681.25
577.681	8760.35
578.042	8755.6
578.403	8769.84
578.763	8818.88
579.124	8805.55
579.485	8850.29
579.845	8875.37
580.206	8857.3
580.566	8886.45
580.927	8942.26
581.287	8929.61
581.648	8929.38
582.008	8970.74
582.368	8977.97
582.728	8988.14
583.089	9020.91
583.449	9051.64
583.809	8963.51
584.169	8973.9
584.529	9053.45
584.889	9118.53
585.249	9090.96
585.609	9077.4
585.969	9090.51
586.329	9107.91
586.688	9090.51
587.048	9114.92
587.408	9092.54
587.768	9135.03
588.127	9132.54
588.487	9168.93
588.846	9254.35
589.206	9169.83
589.565	9170.73
589.925	9240.79
590.284	9293.67
590.643	9298.19
591.003	9247.57
591.362	9303.16
591.721	9281.69
592.08	9320.79
592.44	9304.06
592.799	9346.1
593.158	9318.98
593.517	9315.81
593.876	9327.57
594.235	9360.78
594.593	9401.69
594.952	9351.97
595.311	9335.25
595.67	9368.47
596.029	9429.26
596.387	9428.81
596.746	9453.66
597.104	9366.21
597.463	9432.87
597.822	9432.87
598.18	9407.56
598.538	9393.1
598.897	9492.98
599.255	9413.89
599.613	9593.1
599.972	9544.96
600.33	9490.27
600.688	9458.86
601.046	9477.62
601.404	9595.13
601.762	9524.17
602.12	9546.54
602.478	9547.22
602.836	9561.68
603.194	9542.48
603.552	9520.33
603.91	9526.43
604.268	9552.19
604.625	9532.53
604.983	9557.39
605.341	9515.13
605.698	9575.69
606.056	9602.59
606.413	9604.17
606.771	9566.2
607.128	9590.16
607.485	9485.98
607.843	9596.48
608.2	9596.94
608.557	9652.53
608.914	9551.74
609.272	9689.59
609.629	9735.46
609.986	9692.08
610.343	9657.05
610.7	9716.26
611.057	9716.71
611.414	9700.66
611.771	9773.66
612.127	9805.97
612.484	9713.54
612.841	9766.65
613.198	9714.45
613.554	9778.85
613.911	9764.16
614.267	9795.8
614.624	9808.46
614.98	9811.39
615.337	9847.55
615.693	9866.31
616.05	9734.79
616.406	9854.78
616.762	9790.38
617.118	9786.76
617.475	9828.12
617.831	9848.46
618.187	9808.46
618.543	9936.59
618.899	9916.7
619.255	9858.4
619.611	9872.18
619.967	9860.21
620.323	9931.17
620.678	9862.92
621.034	9918.06
621.39	9894.56
621.746	9818.63
622.101	9982.92
622.457	9881
622.812	9912.63
623.168	9928
623.523	9986.08
623.879	10017.04
624.234	9867.66
624.589	9992.86
624.945	9888
625.3	9929.58
625.655	9936.59
626.01	9949.47
626.365	10014.1
626.72	9939.07
627.075	9907.21
627.43	9858.85
627.785	9893.43
628.14	9864.95
628.495	9847.1
628.85	9894.78
629.205	9812.07
629.559	9835.57
629.914	9764.84
630.269	9838.29
630.623	9796.71
630.978	9791.06
631.332	9854.33
631.687	9758.29
632.041	9782.47
632.396	9785.41
632.75	9763.49
633.104	9778.63
633.459	9784.28
633.813	9789.47
634.167	9713.54
634.521	9735.92
634.875	9646.88
635.229	9639.65
635.583	9688.23
635.937	9669.93
636.291	9687.78
636.645	9619.54
636.999	9626.31
637.352	9609.82
637.706	9585.41
638.06	9629.48
638.413	9600.55
638.767	9564.85
639.121	9575.02
639.474	9594.68
639.828	9557.62
640.181	9552.42
640.534	9557.39
640.888	9539.76
641.241	9503.15
641.594	9454.34
641.947	9436.04
642.301	9500.22
642.654	9440.78
643.007	9476.94
643.36	9494.11
643.713	9490.73
644.066	9496.83
644.419	9379.54
644.771	9352.2
645.124	9284.4
645.477	9214.8
645.83	9238.53
646.182	9204.86
646.535	9207.57
646.888	9197.63
647.24	9114.69
647.593	9171.19
647.945	9109.72
648.298	9146.55
648.65	9071.53
649.002	9105.2
649.355	9122.83
649.707	9098.19
650.059	9248.25
650.411	9227.68
650.763	9266.78
651.115	9400.11
651.467	9307.45
651.819	9261.13
652.171	9338.19
652.523	9290.28
652.875	9422.03
653.227	9207.57
653.578	9347.68
653.93	9331.18
654.282	9302.26
654.633	9181.81
654.985	9263.61
655.337	9313.78
655.688	9321.46
656.039	9287.11
656.391	9244.18
656.742	9266.1
657.094	9245.53
657.445	9294.12
657.796	9295.25
658.147	9246.21
658.498	9237.17
658.849	9331.18
659.2	9263.61
659.551	9220.22
659.902	9266.1
660.253	9203.27
660.604	9256.15
660.955	9301.8
661.306	9316.27
661.656	9272.88
662.007	9238.3
662.358	9264.29
662.708	9276.72
663.059	9285.31
663.409	9243.5
663.76	9289.15
664.11	9277.4
664.461	9313.33
664.811	9326.66
665.161	9336.38
665.511	9250.05
665.862	9261.8
666.212	9257.51
666.562	9317.85
666.912	9300.67
667.262	9309.26
667.612	9244.86
667.962	9256.38
668.312	9252.77
668.662	9281.01
669.011	9267.91
669.361	9219.09
669.711	9236.49
670.06	9240.34
670.41	9285.76
670.76	9243.05
671.109	9299.09
671.459	9196.27
671.808	9211.18
672.157	9263.61
672.507	9156.27
672.856	9175.93
673.205	9113.79
673.554	9132.99
673.904	9159.21
674.253	9258.87
674.602	9184.29
674.951	9007.35
675.3	8963.51
675.649	9118.31
675.998	9116.05
676.346	9161.69
676.695	9172.32
677.044	9062.94
677.393	9068.36
677.741	9099.77
678.09	9063.39
678.438	9029.95
678.787	9047.35
679.135	9048.25
679.484	9047.12
679.832	9090.96
680.181	8931.42
680.529	9005.77
680.877	8921.47
681.225	8986.56
681.573	8963.73
681.922	8946.56
682.27	8876.28
682.618	8854.36
682.966	8901.59
683.314	8875.6
683.661	8831.53
684.009	8797.18
684.357	8824.3
684.705	8730.75
685.053	8713.57
685.4	8718.99
685.748	8766.68
686.095	8714.7
686.443	8743.63
686.79	8680.12
687.138	8700.69
687.485	8666.11
687.832	8634.93
688.18	8547.7
688.527	8600.35
688.874	8582.73
689.221	8547.92
689.568	8502.05
689.915	8528.49
690.262	8552.9
690.609	8462.73
690.956	8473.58
691.303	8465.89
691.65	8364.43
691.997	8365.56
692.344	8292.56
692.69	8284.43
693.037	8287.14
693.383	8258.44
693.73	8293.24
694.077	8144.55
694.423	8158.1
694.769	8127.6
695.116	8177.54
695.462	8076.52
695.808	8052.34
696.155	8060.48
696.501	8050.08
696.847	7943.87
697.193	7927.15
697.539	7966.7
697.885	7942.29
698.231	7892.57
698.577	7885.57
698.923	7824.1
699.269	7849.41
699.614	7708.17
699.96	7731.9
700.306	7708.17
700.651	7698.91
700.997	7687.16
701.342	7659.13
701.688	7633.37
702.033	7574.84
702.379	7604.9
702.724	7541.4
703.069	7551.57
703.415	7492.81
703.76	7448.74
704.105	7498.24
704.45	7500.72
704.795	7397.67
705.14	7379.82
705.485	7381.18
705.83	7304.79
706.175	7367.62
706.52	7320.61
706.865	7277.68
707.209	7287.62
707.554	7276.09
707.899	7222.08
708.243	7182.76
708.588	7194.74
708.932	7142.09
709.277	7198.81
709.621	7171.01
709.966	7093.95
710.31	7053.05
710.654	7039.94
710.998	7011.24
711.342	7044.69
711.687	6972.83
712.031	7011.02
712.375	6936.22
712.719	6979.15
713.063	6935.09
713.407	6928.31
713.75	6933.05
714.094	6899.15
714.438	6818.7
714.782	6837.69
715.125	6823
715.469	6855.31
715.812	6797.01
716.156	6795.2
716.499	6761.31
716.843	6822.09
717.186	6741.19
717.53	6805.37
717.873	6754.3
718.216	6698.93
718.559	6726.96
718.902	6705.94
719.246	6729.89
719.589	6658.48
719.932	6722.44
720.275	6724.7
720.617	6679.05
720.96	6684.25
721.303	6672.27
721.646	6691.48
721.989	6610.12
722.331	6675.88
722.674	6710.46
723.016	6683.12
723.359	6613.06
723.701	6639.95
724.044	6546.17
724.386	6597.47
724.729	6577.58
725.071	6585.26
725.413	6589.11
725.755	6553.63
726.097	6564.02
726.439	6496.45
726.782	6495.32
727.124	6536
727.465	6522.44
727.807	6554.98
728.149	6481.76
728.491	6511.59
728.833	6502.78
729.175	6511.59
729.516	6463.01
729.858	6520.86
730.199	6539.84
730.541	6472.73
730.882	6517.7
731.224	6522.67
731.565	6416.46
731.906	6504.36
732.248	6478.83
732.589	6388.21
732.93	6486.28
733.271	6477.47
733.612	6467.98
733.953	6511.82
734.294	6482.89
734.635	6482.44
734.976	6476.79
735.317	6433.63
735.658	6485.15
735.999	6510.01
736.339	6456.91
736.68	6497.36
737.021	6432.95
737.361	6430.47
737.702	6521.09
738.042	6445.16
738.383	6425.49
738.723	6471.6
739.063	6489
739.404	6500.3
739.744	6469.79
740.084	6493.52
740.424	6536.68
740.764	6533.51
741.104	6485.38
741.444	6536.45
741.784	6536.68
742.124	6572.84
742.464	6512.05
742.804	6591.82
743.143	6548.43
743.483	6540.97
743.823	6606.06
744.162	6582.33
744.502	6631.82
744.841	6609.67
745.181	6650.8
745.52	6652.38
745.86	6723.34
746.199	6745.26
746.538	6743.68
746.877	6824.35
747.216	6765.82
747.556	6811.93
747.895	6818.03
748.234	6876.56
748.573	6891.92
748.911	6935.54
749.25	6987.29
749.589	7001.98
749.928	7069.09
750.267	7154.52
750.605	7175.76
750.944	7216.89
751.283	7269.99
751.621	7323.1
751.96	7314.96
752.298	7409.42
752.636	7509.53
752.975	7578.68
753.313	7636.99
753.651	7738.91
753.989	7809.41
754.327	7822.29
754.666	7876.53
755.004	8021.39
755.342	8121.72
755.679	8208.05
756.017	8256.41
756.355	8387.48
756.693	8463.41
757.031	8516.97
757.368	8624.53
757.706	8744.08
758.044	8825.66
758.381	8975.03
758.719	9082.83
759.056	9191.52
759.394	9364.17
759.731	9329.6
760.068	9516.71
760.405	9581.34
760.743	9740.44
761.08	9829.47
761.417	9968.23
761.754	10093.2
762.091	10214.1
762.428	10303.36
762.765	10388.55
763.102	10601.43
763.438	10626.51
763.775	10747.64
764.112	10928.43
764.449	11009.56
764.785	11045.26
765.122	11154.41
765.458	11287.29
765.795	11400.96
766.131	11517.56
766.467	11570.9
766.804	11776.77
767.14	11769.54
767.476	11974.05
767.812	12051.79
768.148	12137.89
768.485	12260.37
768.821	12250.43
769.157	12463.53
769.492	12547.82
