Data from hue_310_FLMS001491_65.txt Node
Date: Mon Feb 06 15:50:01 GMT 2017
User: dcchb
Spectrometer: FLMS00149
Trigger mode: 0
Integration Time (sec): 2.000000E-2
Scans to average: 10
Electric dark correction enabled: true
Nonlinearity correction enabled: false
Boxcar width: 0
XAxis mode: Wavelengths
Number of Pixels in Spectrum: 2048
>>>>>Begin Spectral Data<<<<<
341.393	-6.05
341.776	-6.05
342.16	-6.05
342.543	-47.4
342.927	-61.41
343.31	-67.96
343.693	-50.79
344.077	-74.07
344.46	-57.34
344.843	-41.98
345.226	-34.97
345.61	-41.75
345.993	-21.86
346.376	4.35
346.759	25.37
347.142	7.51
347.525	47.29
347.908	40.73
348.291	72.6
348.674	90.9
349.057	101.97
349.44	143.1
349.823	154.85
350.206	148.98
350.588	219.94
350.971	221.52
351.354	219.49
351.737	234.63
352.119	252.25
352.502	265.13
352.884	278.02
353.267	259.03
353.65	316.43
354.032	310.56
354.414	316.88
354.797	322.08
355.179	315.53
355.562	337.45
355.944	340.61
356.326	322.53
356.709	322.08
357.091	338.13
357.473	334.96
357.855	357.34
358.238	337.67
358.62	342.42
359.002	357.34
359.384	323.21
359.766	318.47
360.148	357.56
360.53	355.08
360.912	326.15
361.294	338.35
361.676	343.32
362.057	350.33
362.439	349.2
362.821	335.19
363.203	339.48
363.584	320.27
363.966	320.05
364.348	340.61
364.729	320.5
365.111	324.34
365.493	325.02
365.874	322.31
366.256	312.14
366.637	310.33
367.019	305.13
367.4	324.34
367.781	308.07
368.163	310.33
368.544	294.29
368.925	314.17
369.306	306.72
369.688	341.74
370.069	329.31
370.45	328.18
370.831	322.53
371.212	318.47
371.593	306.72
371.974	305.81
372.355	337.22
372.736	331.35
373.117	316.88
373.498	307.85
373.879	298.35
374.26	317.56
374.641	304.46
375.021	317.79
375.402	326.6
375.783	336.09
376.163	337.9
376.544	337.67
376.925	336.32
377.305	329.09
377.686	339.26
378.066	319.82
378.447	317.79
378.827	333.61
379.208	339.03
379.588	330.67
379.968	330.44
380.349	319.82
380.729	340.84
381.109	321.86
381.489	327.28
381.87	335.19
382.25	320.73
382.63	339.93
383.01	333.61
383.39	358.24
383.77	334.74
384.15	361.85
384.53	329.09
384.91	354.4
385.29	332.25
385.67	362.98
386.049	353.95
386.429	338.58
386.809	358.24
387.189	347.17
387.568	356.21
387.948	358.47
388.328	366.83
388.707	353.49
389.087	381.97
389.466	374.51
389.846	374.74
390.225	359.37
390.605	352.59
390.984	354.62
391.363	378.35
391.743	374.96
392.122	358.01
392.501	367.5
392.881	367.96
393.26	385.13
393.639	368.41
394.018	390.33
394.397	388.07
394.776	367.73
395.155	375.64
395.534	379.03
395.913	374.06
396.292	390.55
396.671	395.98
397.05	381.74
397.429	353.27
397.808	384.91
398.186	370.89
398.565	395.3
398.944	406.83
399.323	398.24
399.701	381.29
400.08	408.18
400.458	396.43
400.837	412.02
401.215	381.97
401.594	398.01
401.972	423.77
402.351	404.11
402.729	426.71
403.107	418.12
403.486	428.97
403.864	428.29
404.242	421.06
404.62	423.32
404.999	446.6
405.377	415.19
405.755	449.76
406.133	451.57
406.511	442.76
406.889	450.44
407.267	449.31
407.645	451.12
408.023	446.82
408.401	459.03
408.779	468.07
409.156	487.5
409.534	483.89
409.912	474.17
410.29	488.86
410.667	513.72
411.045	513.49
411.422	525.24
411.8	515.07
412.178	524.34
412.555	509.42
412.933	505.35
413.31	518.91
413.687	532.25
414.065	558.69
414.442	549.87
414.819	562.98
415.197	564.11
415.574	594.17
415.951	586.71
416.328	585.58
416.705	598.46
417.082	593.04
417.46	614.96
417.837	612.7
418.214	613.83
418.591	636.65
418.967	623.54
419.344	642.07
419.721	657.21
420.098	637.1
420.475	666.48
420.852	688.63
421.228	684.78
421.605	666.93
421.982	685.69
422.358	706.25
422.735	700.6
423.111	699.02
423.488	705.35
423.864	727.04
424.241	734.5
424.617	742.18
424.994	757.55
425.37	765.01
425.746	793.93
426.123	777.89
426.499	785.35
426.875	789.41
427.251	805.69
427.627	818.57
428.003	819.92
428.379	820.15
428.756	837.77
429.132	822.63
429.507	852.01
429.883	865.8
430.259	855.63
430.635	884.55
431.011	905.34
431.387	902.63
431.763	909.64
432.138	923.87
432.514	926.59
432.89	939.69
433.265	962.29
433.641	962.29
434.016	961.84
434.392	969.75
434.767	988.73
435.143	1005.45
435.518	1007.49
435.894	1018.79
436.269	1018.79
436.644	1043.42
437.02	1075.28
437.395	1075.96
437.77	1075.28
438.145	1062.85
438.52	1110.31
438.895	1092.23
439.271	1087.49
439.646	1101.72
440.021	1124.09
440.395	1127.94
440.77	1132
441.145	1135.39
441.52	1154.6
441.895	1157.77
442.27	1150.08
442.645	1163.42
443.019	1199.12
443.394	1168.39
443.769	1180.14
444.143	1185.56
444.518	1178.78
444.892	1196.41
445.267	1217.88
445.641	1202.28
446.016	1236.63
446.39	1228.05
446.764	1229.18
447.139	1214.94
447.513	1211.78
447.887	1240.48
448.262	1266.46
448.636	1218.56
449.01	1272.11
449.384	1262.17
449.758	1274.83
450.132	1276.18
450.506	1276.41
450.88	1302.62
451.254	1277.76
451.628	1290.87
452.002	1282.51
452.376	1290.19
452.75	1290.19
453.123	1318.67
453.497	1338.78
453.871	1337.2
454.244	1356.63
454.618	1358.66
454.992	1363.64
455.365	1362.96
455.739	1385.56
456.112	1393.69
456.486	1418.1
456.859	1400.02
457.232	1424.88
457.606	1444.54
457.979	1442.73
458.352	1445.67
458.725	1476.63
459.099	1480.7
459.472	1501.03
459.845	1503.07
460.218	1502.39
460.591	1515.5
460.964	1520.02
461.337	1548.72
461.71	1560.24
462.083	1555.95
462.456	1559.11
462.829	1553.24
463.201	1543.07
463.574	1611.99
463.947	1611.31
464.32	1617.64
464.692	1627.36
465.065	1625.1
465.438	1644.08
465.81	1654.7
466.183	1698.99
466.555	1685.21
466.928	1746.68
467.3	1710.97
467.672	1727.92
468.045	1755.49
468.417	1759.78
468.789	1734.47
469.161	1789.39
469.534	1853.12
469.906	1849.73
470.278	1834.13
470.65	1816.73
471.022	1877.52
471.394	1882.49
471.766	1904.87
472.138	1953.9
472.51	1951.87
472.882	1991.19
473.253	1973.34
473.625	1981.02
473.997	2042.04
474.369	2001.36
474.74	2048.14
475.112	2104.86
475.484	2123.84
475.855	2097.18
476.227	2135.59
476.598	2157.51
476.97	2204.74
477.341	2237.96
477.713	2231.41
478.084	2240.68
478.455	2247
478.827	2293.33
479.198	2316.83
479.569	2339.2
479.94	2409.71
480.311	2406.55
480.682	2433.89
481.053	2485.64
481.424	2539.88
481.795	2526.54
482.166	2528.35
482.537	2564.28
482.908	2592.08
483.279	2610.38
483.65	2648.35
484.021	2649.48
484.391	2694.45
484.762	2721.34
485.133	2732.41
485.503	2729.48
485.874	2795.92
486.244	2801.79
486.615	2838.17
486.985	2886.99
487.356	2933.31
487.726	2922.24
488.097	2983.48
488.467	2969.92
488.837	2960.88
489.207	2979.64
489.578	3061.9
489.948	3091.73
490.318	3095.12
490.688	3137.83
491.058	3143.7
491.428	3203.14
491.798	3222.8
492.168	3239.52
492.538	3257.6
492.908	3309.35
493.278	3316.58
493.648	3319.74
494.017	3336.69
494.387	3394.32
494.757	3425.05
495.126	3450.81
495.496	3411.27
495.866	3465.5
496.235	3502.79
496.605	3505.73
496.974	3507.31
497.344	3558.83
497.713	3550.25
498.082	3603.13
498.452	3625.27
498.821	3609.68
499.19	3602.9
499.559	3582.11
499.928	3656.68
500.298	3673.41
500.667	3740.07
501.036	3692.61
501.405	3732.84
501.774	3725.16
502.143	3766.29
502.512	3757.92
502.88	3780.97
503.249	3775.32
503.618	3778.49
503.987	3803.8
504.356	3837.02
504.724	3852.38
505.093	3871.59
505.462	3869.11
505.83	3860.75
506.199	3894.87
506.567	3944.59
506.936	3924.02
507.304	3968.77
507.672	3934.42
508.041	3966.28
508.409	4016.45
508.777	4014.87
509.145	4001.31
509.514	4013.51
509.882	4038.59
510.25	4079.72
510.618	4041.53
510.986	4065.94
511.354	4100.51
511.722	4112.49
512.09	4179.38
512.458	4123.79
512.826	4142.77
513.193	4152.49
513.561	4153.85
513.929	4178.03
514.297	4183
514.664	4187.74
515.032	4232.94
515.4	4240.85
515.767	4240.4
516.135	4261.19
516.502	4253.05
516.869	4320.62
517.237	4275.2
517.604	4298.7
517.972	4309.1
518.339	4300.96
518.706	4296.67
519.073	4321.3
519.44	4371.69
519.808	4419.6
520.175	4373.95
520.542	4432.93
520.909	4432.71
521.276	4445.59
521.643	4422.09
522.009	4444.91
522.376	4516.1
522.743	4482.88
523.11	4569.88
523.477	4554.74
523.843	4572.59
524.21	4588.86
524.577	4650.56
524.943	4658.01
525.31	4629.77
525.676	4689.88
526.043	4672.48
526.409	4694.4
526.776	4769.2
527.142	4698.01
527.508	4786.82
527.874	4808.29
528.241	4849.65
528.607	4835.18
528.973	4881.96
529.339	4907.5
529.705	4954.28
530.071	4957.89
530.437	4943.43
530.803	5043.99
531.169	5000.15
531.535	5035.86
531.901	5015.07
532.267	5034.27
532.632	5076.31
532.998	5076.76
533.364	5171.45
533.73	5117.44
534.095	5201.5
534.461	5197.43
534.826	5190.43
535.192	5225.23
535.557	5269.97
535.923	5234.27
536.288	5299.35
536.653	5305
537.019	5316.3
537.384	5294.61
537.749	5333.25
538.114	5344.77
538.479	5357.66
538.845	5410.54
539.21	5397.43
539.575	5486.47
539.94	5456.41
540.305	5532.11
540.67	5520.82
541.034	5459.8
541.399	5560.59
541.764	5562.62
542.129	5634.48
542.494	5627.03
542.858	5686.23
543.223	5670.42
543.587	5695.73
543.952	5736.18
544.316	5770.53
544.681	5755.39
545.045	5787.93
545.41	5794.25
545.774	5820.02
546.138	5823.41
546.503	5865.21
546.867	5902.5
547.231	5927.13
547.595	5959.45
547.959	5972.78
548.324	5981.59
548.688	5931.88
549.052	6090.29
549.416	6031.31
549.779	6070.41
550.143	6072.21
550.507	6138.43
550.871	6168.03
551.235	6148.14
551.599	6114.02
551.962	6194.24
552.326	6248.93
552.689	6264.07
553.053	6246.22
553.417	6203.74
553.78	6330.96
554.143	6269.72
554.507	6335.03
554.87	6320.34
555.234	6355.6
555.597	6295.94
555.96	6331.19
556.323	6361.02
556.686	6413.67
557.05	6470.62
557.413	6424.07
557.776	6472.2
558.139	6545.65
558.502	6549.26
558.865	6535.7
559.228	6526.21
559.59	6627.9
559.953	6574.12
560.316	6646.44
560.679	6579.54
561.041	6659.09
561.404	6697.06
561.767	6736.38
562.129	6758.52
562.492	6828.35
562.854	6801.23
563.217	6769.37
563.579	6797.17
563.941	6882.81
564.304	6875.13
564.666	6957.16
565.028	6912.87
565.39	6955.81
565.753	6980.21
566.115	7019.76
566.477	6942.02
566.839	7019.53
567.201	7102.47
567.563	7078.97
567.925	7172.07
568.287	7136.82
568.648	7125.97
569.01	7146.31
569.372	7240.32
569.734	7196.03
570.095	7291.84
570.457	7360.31
570.819	7311.05
571.18	7317.6
571.542	7371.39
571.903	7423.59
572.265	7448.67
572.626	7553.98
572.987	7587.2
573.349	7546.07
573.71	7607.77
574.071	7692.96
574.432	7748.55
574.794	7773.19
575.155	7864.48
575.516	7818.38
575.877	7918.04
576.238	8041.65
576.599	8104.02
576.96	8104.02
577.32	8134.76
577.681	8293.85
578.042	8332.72
578.403	8413.39
578.763	8491.58
579.124	8597.57
579.485	8689.09
579.845	8842.54
580.206	8862.42
580.566	8945.58
580.927	9073.94
581.287	9320.04
581.648	9370.43
582.008	9513.25
582.368	9618.11
582.728	9780.36
583.089	9894.03
583.449	9985.33
583.809	10207.25
584.169	10401.82
584.529	10537.41
584.889	10717.97
585.249	10866.89
585.609	11068.01
585.969	11220.33
586.329	11476.82
586.688	11686.53
587.048	11908.22
587.408	12128.33
587.768	12355.44
588.127	12567.64
588.487	12762.66
588.846	13100.5
589.206	13302.76
589.565	13496.42
589.925	13851.22
590.284	14047.6
590.643	14272
591.003	14543.4
591.362	14887.35
591.721	15114.24
592.08	15334.34
592.44	15746.08
592.799	15965.06
593.158	16251.15
593.517	16585.16
593.876	16890.46
594.235	17115.99
594.593	17387.62
594.952	17630.55
595.311	17980.6
595.67	18373.58
596.029	18610.87
596.387	18928.37
596.746	19329.72
597.104	19341.92
597.463	19683.61
597.822	20243.82
598.18	20318.39
598.538	20526.75
598.897	21002.44
599.255	21072.27
599.613	21677.68
599.972	21873.61
600.33	22195.86
600.688	22353.37
601.046	22772.34
601.404	23109.05
601.762	23261.37
602.12	23646.44
602.478	24001.69
602.836	24193.32
603.194	24346.76
603.552	24675.57
603.91	24806.41
604.268	25231.71
604.625	25309.22
604.983	25725.03
605.341	25919.6
605.698	26127.28
606.056	26565.23
606.413	26771.33
606.771	26997.76
607.128	27336.96
607.485	27419.45
607.843	27637.3
608.2	27975.59
608.557	28188.47
608.914	28387.56
609.272	28836.36
609.629	28888.11
609.986	29263.24
610.343	29284.03
610.7	29779.39
611.057	29851.47
611.414	29930.79
611.771	30194.52
612.127	30448.3
612.484	30507.5
612.841	30901.84
613.198	30866.36
613.554	31062.97
613.911	31523.07
614.267	31530.98
614.624	31657.3
614.98	31886.22
615.337	32148.59
615.693	32294.57
616.05	32379.09
616.406	32757.61
616.762	32783.6
617.118	32901.79
617.475	32975.23
617.831	33210.03
618.187	33286.41
618.543	33473.75
618.899	33662
619.255	33979.05
619.611	33958.94
619.967	34157.8
620.323	34285.93
620.678	34393.5
621.034	34395.31
621.39	34465.36
621.746	34613.38
622.101	34926.6
622.457	34919.59
622.812	35052.24
623.168	35177.44
623.523	35320.48
623.879	35472.12
624.234	35250.66
624.589	35541.04
624.945	35642.96
625.3	35727.93
625.655	35745.11
626.01	35823.52
626.365	35904.42
626.72	35961.37
627.075	35966.12
627.43	36143.74
627.785	35984.42
628.14	36317.97
628.495	36404.07
628.85	36356.61
629.205	36317.97
629.559	36595.25
629.914	36520.68
630.269	36570.17
630.623	36487.91
630.978	36518.19
631.332	36722.03
631.687	36782.59
632.041	36542.15
632.396	36792.99
632.75	36718.87
633.104	36796.15
633.459	36677.06
633.813	36815.36
634.167	36719.09
634.521	36917.05
634.875	36841.57
635.229	36776.04
635.583	36782.14
635.937	36832.08
636.291	36685.87
636.645	36876.83
636.999	36812.87
637.352	36896.94
637.706	36762.25
638.06	36907.33
638.413	36733.1
638.767	36730.39
639.121	36825.98
639.474	36763.61
639.828	36704.85
640.181	36928.58
640.534	36821.46
640.888	36735.14
641.241	36632.31
641.594	36732.2
641.947	36936.94
642.301	36800.67
642.654	36740.11
643.007	36823.27
643.36	36724.06
643.713	36746.43
644.066	36894.45
644.419	36696.49
644.771	36460.11
645.124	36129.05
645.477	36029.84
645.83	35872.33
646.182	35834.14
646.535	35652.9
646.888	35811.32
647.24	35700.36
647.593	35822.84
647.945	35751.66
648.298	35559.57
648.65	35722.28
649.002	35558.9
649.355	35742.39
649.707	35575.62
650.059	35848.15
650.411	36162.72
650.763	36164.53
651.115	36607.91
651.467	36366.78
651.819	36398.65
652.171	36314.36
652.523	36216.51
652.875	36302.38
653.227	36181.93
653.578	36408.14
653.93	36282.04
654.282	36198.65
654.633	36126.79
654.985	36156.17
655.337	36274.58
655.688	36248.37
656.039	36251.31
656.391	36033.01
656.742	36023.52
657.094	36268.48
657.445	36234.13
657.796	36220.35
658.147	36230.74
658.498	36127.69
658.849	36194.59
659.2	36128.82
659.551	35978.09
659.902	36151.87
660.253	36088.15
660.604	36148.94
660.955	35964.99
661.306	36059
661.656	36056.74
662.007	36154.81
662.358	36148.26
662.708	36042.95
663.059	35916.63
663.409	35840.7
663.76	36150.52
664.11	36045.66
664.461	36134.7
664.811	36105.55
665.161	35938.77
665.511	35828.27
665.862	35982.39
666.212	36153.68
666.562	36200.46
666.912	35995.49
667.262	35950.52
667.612	35976.96
667.962	35985.78
668.312	35982.61
668.662	35986
669.011	35929.06
669.361	35952.78
669.711	35944.2
670.06	35849.51
670.41	35851.77
670.76	35759.79
671.109	35910.52
671.459	35772
671.808	35858.55
672.157	35774.48
672.507	35785.33
672.856	35582.4
673.205	35721.38
673.554	35915.5
673.904	35604.54
674.253	35833.69
674.602	35819.91
674.951	35157.55
675.3	35095.18
675.649	35596.41
675.998	35551.44
676.346	35595.28
676.695	35763.18
677.044	35517.54
677.393	35592.34
677.741	35659.91
678.09	35557.09
678.438	35582.17
678.787	35637.76
679.135	35586.47
679.484	35327.94
679.832	35459.24
680.181	35284.55
680.529	35356.19
680.877	35222.18
681.225	35267.15
681.573	35449.75
681.922	35296.3
682.27	35188.28
682.618	34993.71
682.966	35075.52
683.314	35115.52
683.661	34930.66
684.009	34888.63
684.357	34748.3
684.705	34780.84
685.053	34701.97
685.4	34573.61
685.748	34513.05
686.095	34529.32
686.443	34510.56
686.79	34362.77
687.138	34590.79
687.485	34545.36
687.832	34460.39
688.18	34352.15
688.527	34142.89
688.874	34061.99
689.221	34108.76
689.568	33989.9
689.915	33820.18
690.262	33963.23
690.609	33804.82
690.956	33683.01
691.303	33747.87
691.65	33512.4
691.997	33471.72
692.344	33342.46
692.69	33397.37
693.037	33301.33
693.383	33092.52
693.73	33185.4
694.077	33077.6
694.423	33092.52
694.769	32851.85
695.116	32888.01
695.462	32673.32
695.808	32635.36
696.155	32753.09
696.501	32581.35
696.847	32559.2
697.193	32208.02
697.539	32258.42
697.885	32249.38
698.231	32138.42
698.577	32071.53
698.923	31978.42
699.269	31923.96
699.614	31684.2
699.96	31714.7
700.306	31648.49
700.651	31641.94
700.997	31502.73
701.342	31526.69
701.688	31476.52
702.033	31333.24
702.379	31335.5
702.724	31249.4
703.069	31316.75
703.415	31031.33
703.76	30921.28
704.105	30897.32
704.45	30812.35
704.795	30633.6
705.14	30622.98
705.485	30518.12
705.83	30535.98
706.175	30513.6
706.52	30327.85
706.865	30353.61
707.209	30328.98
707.554	30130.34
707.899	30169.66
708.243	30037.68
708.588	29915.43
708.932	29784.13
709.277	29890.57
709.621	29817.35
709.966	29708.88
710.31	29700.52
710.654	29459.17
710.998	29469.34
711.342	29565.15
711.687	29431.82
712.031	29199.29
712.375	29224.6
712.719	29175.11
713.063	29193.64
713.407	29315.22
713.75	29124.04
714.094	29125.39
714.438	28977.83
714.782	29023.02
715.125	28841.56
715.469	28865.96
715.812	28669.13
716.156	28488.35
716.499	28623.71
716.843	28552.53
717.186	28523.83
717.53	28641.11
717.873	28509.14
718.216	28463.49
718.559	28395.02
718.902	28218.07
719.246	28236.15
719.589	28127.23
719.932	28013.78
720.275	28020.79
720.617	28126.32
720.96	27939.21
721.303	28084.52
721.646	27890.62
721.989	27749.84
722.331	27919.32
722.674	27808.82
723.016	27847.91
723.359	27739.21
723.701	27786.44
724.044	27546.68
724.386	27468.49
724.729	27603.4
725.071	27516.62
725.413	27458.09
725.755	27448.37
726.097	27235.05
726.439	27239.34
726.782	27233.46
727.124	27362.05
727.465	27082.51
727.807	27038.89
728.149	27021.94
728.491	26929.74
728.833	26883.64
729.175	26849.97
729.516	26876.86
729.858	26849.52
730.199	26734.95
730.541	26753.48
730.882	26755.51
731.224	26774.04
731.565	26574.27
731.906	26594.39
732.248	26573.14
732.589	26497.44
732.93	26458.8
733.271	26360.72
733.612	26499.47
733.953	26543.77
734.294	26292.7
734.635	26231.46
734.976	26353.04
735.317	26278.24
735.658	26141.29
735.999	26222.42
736.339	26028.75
736.68	26175.64
737.021	26121.63
737.361	25997.11
737.702	25973.61
738.042	26082.76
738.383	25979.71
738.723	26008.86
739.063	25872.37
739.404	25965.02
739.744	25898.58
740.084	25628.99
740.424	25682.77
740.764	25719.38
741.104	25767.06
741.444	25576.11
741.784	25472.38
742.124	25612.72
742.464	25439.61
742.804	25512.83
743.143	25426.73
743.483	25373.17
743.823	25254.31
744.162	25228.55
744.502	25314.87
744.841	25101.09
745.181	25339.28
745.52	25081.66
745.86	25178.15
746.199	25183.35
746.538	25049.79
746.877	25201.65
747.216	25069
747.556	24871.27
747.895	24872.17
748.234	24902.9
748.573	24900.19
748.911	24729.12
749.25	24787.65
749.589	24608.67
749.928	24784.26
750.267	24764.6
750.605	24670.14
750.944	24508.11
751.283	24510.37
751.621	24436.93
751.96	24338.63
752.298	24351.73
752.636	24235.58
752.975	24137.95
753.313	24130.04
753.651	24294.78
753.989	24168.91
754.327	24059.31
754.666	23957.17
755.004	24001.91
755.342	23996.49
755.679	23825.87
756.017	23760.11
756.355	23702.48
756.693	23754.23
757.031	23760.11
757.368	23582.04
757.706	23546.33
758.044	23387.24
758.381	23407.58
758.719	23376.62
759.056	23363.28
759.394	23309.95
759.731	23152.67
