Data from hue_190_FLMS001491_00094.txt Node
Date: Tue Feb 07 16:46:02 GMT 2017
User: dcchb
Spectrometer: FLMS00149
Trigger mode: 0
Integration Time (sec): 2.000000E-2
Scans to average: 10
Electric dark correction enabled: true
Nonlinearity correction enabled: false
Boxcar width: 0
XAxis mode: Wavelengths
Number of Pixels in Spectrum: 2048
>>>>>Begin Spectral Data<<<<<
341.393	27.36
341.776	27.36
342.16	27.36
342.543	-52.41
342.927	-74.11
343.31	-60.55
343.693	-69.81
344.077	-59.87
344.46	-48.57
344.843	-45.18
345.226	-61.23
345.61	-39.98
345.993	-23.04
346.376	1.6
346.759	6.34
347.142	21.03
347.525	47.02
347.908	63.29
348.291	73.68
348.674	94.7
349.057	100.58
349.44	135.15
349.823	139.22
350.206	164.76
350.588	174.02
350.971	203.62
351.354	205.66
351.737	237.97
352.119	242.04
352.502	266
352.884	281.81
353.267	286.79
353.65	298.31
354.032	309.16
354.414	298.31
354.797	322.72
355.179	308.93
355.562	307.58
355.944	333.34
356.326	331.76
356.709	326.11
357.091	326.11
357.473	331.08
357.855	352.1
358.238	336.95
358.62	324.98
359.002	340.34
359.384	333.34
359.766	339.67
360.148	340.12
360.53	327.24
360.912	346.9
361.294	317.75
361.676	329.95
362.057	331.08
362.439	318.42
362.821	335.6
363.203	323.62
363.584	326.11
363.966	304.41
364.348	325.66
364.729	340.12
365.111	324.07
365.493	310.51
365.874	305.32
366.256	283.62
366.637	323.17
367.019	318.88
367.4	322.27
367.781	299.67
368.163	309.84
368.544	298.09
368.925	310.29
369.306	322.72
369.688	303.51
370.069	310.97
370.45	325.88
370.831	313
371.212	298.99
371.593	294.92
371.974	323.62
372.355	311.42
372.736	327.92
373.117	296.05
373.498	303.96
373.879	327.46
374.26	305.09
374.641	313
375.021	315.49
375.402	299.22
375.783	331.08
376.163	313.68
376.544	307.8
376.925	326.11
377.305	336.95
377.686	325.66
378.066	320.01
378.447	305.32
378.827	337.18
379.208	323.62
379.588	314.36
379.968	338.76
380.349	333.79
380.729	309.38
381.109	327.69
381.489	336.73
381.87	336.5
382.25	315.94
382.63	334.02
383.01	325.43
383.39	341.93
383.77	356.16
384.15	323.62
384.53	324.98
384.91	353
385.29	352.55
385.67	342.83
386.049	340.57
386.429	338.31
386.809	362.04
387.189	344.19
387.568	357.52
387.948	327.69
388.328	344.64
388.707	338.31
389.087	351.19
389.466	334.24
389.846	342.83
390.225	366.56
390.605	337.18
390.984	367.46
391.363	363.17
391.743	359.55
392.122	365.65
392.501	364.3
392.881	364.52
393.26	364.3
393.639	381.92
394.018	378.99
394.397	387.57
394.776	362.72
395.155	370.4
395.534	384.64
395.913	397.52
396.292	371.08
396.671	385.54
397.05	395.71
397.429	396.39
397.808	379.67
398.186	374.24
398.565	389.16
398.944	379.44
399.323	380.34
399.701	422.83
400.08	407.46
400.458	396.39
400.837	391.64
401.215	416.27
401.594	383.73
401.972	401.36
402.351	421.25
402.729	427.8
403.107	424.64
403.486	426.22
403.864	418.31
404.242	415.37
404.62	423.73
404.999	444.3
405.377	436.16
405.755	445.65
406.133	441.58
406.511	452.21
406.889	439.32
407.267	448.14
407.645	456.73
408.023	477.06
408.401	467.8
408.779	477.52
409.156	486.78
409.534	517.29
409.912	495.82
410.29	513.67
410.667	491.75
411.045	513.22
411.422	519.1
411.8	531.53
412.178	529.27
412.555	548.93
412.933	563.84
413.31	563.39
413.687	574.91
414.065	571.98
414.442	569.49
414.819	594.57
415.197	607.46
415.574	609.94
415.951	629.6
416.328	629.83
416.705	621.69
417.082	627.34
417.46	637.06
417.837	657.85
418.214	653.33
418.591	674.57
418.967	652.88
419.344	664.63
419.721	701.92
420.098	700.56
420.475	698.98
420.852	701.46
421.228	722.03
421.605	720.67
421.982	743.27
422.358	752.54
422.735	783.04
423.111	788.02
423.488	802.48
423.864	834.57
424.241	820.11
424.617	836.38
424.994	853.33
425.37	844.74
425.746	860.56
426.123	876.83
426.499	915.47
426.875	908.46
427.251	929.26
427.627	926.54
428.003	944.85
428.379	989.59
428.756	972.64
429.132	984.4
429.507	978.75
429.883	988.91
430.259	1034.79
430.635	1046.54
431.011	1038.63
431.387	1044.05
431.763	1067.78
432.138	1085.64
432.514	1076.6
432.89	1128.12
433.265	1152.75
433.641	1154.11
434.016	1176.25
434.392	1190.49
434.767	1240.43
435.143	1221.22
435.518	1245.18
435.894	1311.84
436.269	1292.86
436.644	1329.92
437.02	1359.53
437.395	1343.48
437.77	1403.82
438.145	1426.87
438.52	1443.82
438.895	1430.48
439.271	1468.45
439.646	1511.61
440.021	1501.44
440.395	1512.74
440.77	1543.93
441.145	1559.07
441.52	1598.39
441.895	1592.51
442.27	1645.39
442.645	1653.53
443.019	1655.11
443.394	1664.83
443.769	1695.79
444.143	1675.9
444.518	1746.18
444.892	1741.66
445.267	1737.14
445.641	1776.69
446.016	1752.96
446.39	1810.14
446.764	1811.94
447.139	1850.36
447.513	1848.1
447.887	1865.73
448.262	1875.22
448.636	1876.57
449.01	1919.29
449.384	1917.03
449.758	1969.45
450.132	1945.05
450.506	1991.37
450.88	1990.02
451.254	1992.5
451.628	2004.03
452.002	2044.93
452.376	2065.5
452.75	2078.15
453.123	2093.29
453.497	2137.13
453.871	2170.58
454.244	2230.01
454.618	2250.12
454.992	2244.02
455.365	2215.32
455.739	2315.43
456.112	2309.11
456.486	2333.06
456.859	2348.43
457.232	2397.92
457.606	2395.21
457.979	2416
458.352	2479.95
458.725	2498.25
459.099	2526.28
459.472	2611.47
459.845	2573.51
460.218	2605.82
460.591	2660.96
460.964	2661.19
461.337	2720.39
461.71	2778.02
462.083	2824.12
462.456	2808.3
462.829	2830.22
463.201	2897.79
463.574	2900.95
463.947	2940.73
464.32	3028.64
464.692	3011.69
465.065	3066.15
465.438	3143.21
465.81	3125.13
466.183	3180.27
466.555	3269.31
466.928	3261.85
467.3	3293.03
467.672	3353.15
468.045	3436.53
468.417	3417.78
468.789	3457.78
469.161	3485.12
469.534	3572.58
469.906	3672.69
470.278	3679.69
470.65	3707.26
471.022	3784.55
471.394	3866.13
471.766	3862.51
472.138	3951.77
472.51	3979.34
472.882	4068.61
473.253	4119.91
473.625	4178.21
473.997	4237.19
474.369	4272.22
474.74	4413.46
475.112	4455.26
475.484	4467.02
475.855	4589.05
476.227	4628.82
476.598	4742.49
476.97	4750.4
477.341	4914.91
477.713	4956.04
478.084	5000.79
478.455	5100.67
478.827	5194
479.198	5304.06
479.569	5342.92
479.94	5506.54
480.311	5509.93
480.682	5632.18
481.053	5782.91
481.424	5885.06
481.795	5958.28
482.166	6012.96
482.537	6152.17
482.908	6263.58
483.279	6353.07
483.65	6403.91
484.021	6592.61
484.391	6643
484.762	6697.47
485.133	6751.48
485.503	6844.58
485.874	6932.04
486.244	7072.37
486.615	7188.53
486.985	7253.38
487.356	7352.59
487.726	7430.33
488.097	7609.08
488.467	7620.38
488.837	7803.65
489.207	7895.17
489.578	8003.42
489.948	8120.7
490.318	8142.62
490.688	8148.05
491.058	8301.04
491.428	8420.81
491.798	8520.92
492.168	8669.62
492.538	8642.27
492.908	8715.49
493.278	8843.4
493.648	8863.96
494.017	9013.56
494.387	9037.06
494.757	9127.46
495.126	9259.88
495.496	9235.48
495.866	9278.41
496.235	9319.09
496.605	9444.51
496.974	9473.21
497.344	9583.49
497.713	9585.98
498.082	9632.53
498.452	9717.05
498.821	9771.96
499.19	9763.37
499.559	9932.18
499.928	9887.66
500.298	9929.02
500.667	10034.55
501.036	9962.92
501.405	10105.29
501.774	10057.83
502.143	10170.37
502.512	10197.03
502.88	10209.01
503.249	10214.43
503.618	10321.55
503.987	10268.22
504.356	10351.83
504.724	10380.98
505.093	10387.09
505.462	10476.12
505.83	10455.78
506.199	10457.37
506.567	10644.93
506.936	10579.4
507.304	10647.64
507.672	10745.95
508.041	10680.41
508.409	10743.01
508.777	10796.34
509.145	10791.82
509.514	10858.94
509.882	10862.78
510.25	10867.07
510.618	10899.16
510.986	10886.28
511.354	10955.43
511.722	10893.96
512.09	11046.5
512.458	11065.49
512.826	11067.97
513.193	11058.71
513.561	11042.89
513.929	11103.68
514.297	11155.65
514.664	11168.31
515.032	11167.4
515.4	11144.13
515.767	11194.07
516.135	11216.22
516.502	11095.32
516.869	11245.59
517.237	11268.19
517.604	11133.96
517.972	11232.26
518.339	11337.34
518.706	11229.1
519.073	11267.06
519.44	11299.38
519.808	11297.57
520.175	11326.95
520.542	11406.04
520.909	11366.04
521.276	11291.02
521.643	11352.03
522.009	11284.24
522.376	11359.04
522.743	11364.91
523.11	11401.3
523.477	11382.54
523.843	11464.12
524.21	11498.47
524.577	11478.13
524.943	11458.7
525.31	11463.67
525.676	11487.4
526.043	11462.54
526.409	11463.67
526.776	11638.35
527.142	11470.45
527.508	11523.33
527.874	11560.16
528.241	11532.59
528.607	11536.89
528.973	11443.56
529.339	11447.17
529.705	11466.15
530.071	11446.94
530.437	11527.62
530.803	11398.81
531.169	11356.55
531.535	11325.82
531.901	11315.65
532.267	11281.98
532.632	11324.69
532.998	11220.96
533.364	11246.27
533.73	11221.64
534.095	11260.51
534.461	11237.68
534.826	11216.89
535.192	11093.28
535.557	11065.94
535.923	11070.91
536.288	10977.13
536.653	10966.05
537.019	10944.36
537.384	10895.55
537.749	10816.23
538.114	10811.71
538.479	10704.37
538.845	10693.07
539.21	10595.89
539.575	10602.45
539.94	10528.55
540.305	10580.53
540.67	10492.17
541.034	10405.84
541.399	10420.08
541.764	10365.39
542.129	10321.32
542.494	10241.55
542.858	10168.56
543.223	10117.71
543.587	10162.91
543.952	10101.44
544.316	10092.4
544.681	9932.86
545.045	9904.84
545.41	9882.92
545.774	9792.07
546.138	9793.88
546.503	9703.71
546.867	9714.33
547.231	9719.76
547.595	9649.25
547.959	9555.92
548.324	9579.88
548.688	9423.5
549.052	9389.37
549.416	9371.52
549.779	9322.93
550.143	9284.74
550.507	9241.35
550.871	9221.24
551.235	9168.36
551.599	9196.16
551.962	9125.42
552.326	9073.22
552.689	9052.88
553.053	8987.35
553.417	8909.84
553.78	8945.99
554.143	8854.24
554.507	8790.07
554.87	8796.17
555.234	8760.46
555.597	8733.57
555.96	8682.05
556.323	8677.98
556.686	8649.5
557.05	8668.49
557.413	8576.06
557.776	8552.33
558.139	8528.83
558.502	8559.79
558.865	8467.14
559.228	8499
559.59	8488.38
559.953	8417.42
560.316	8426.23
560.679	8364.54
561.041	8384.65
561.404	8313.69
561.767	8316.86
562.129	8266.69
562.492	8322.51
562.854	8266.69
563.217	8220.14
563.579	8271.89
563.941	8276.18
564.304	8228.27
564.666	8257.88
565.028	8250.19
565.39	8245.45
565.753	8284.54
566.115	8237.54
566.477	8207.71
566.839	8217.88
567.201	8322.96
567.563	8154.83
567.925	8212.23
568.287	8151.21
568.648	8207.26
569.01	8190.31
569.372	8250.19
569.734	8218.33
570.095	8178.33
570.457	8214.71
570.819	8159.8
571.18	8188.27
571.542	8241.61
571.903	8227.59
572.265	8159.35
572.626	8140.82
572.987	8167.26
573.349	8163.42
573.71	8190.08
574.071	8171.55
574.432	8187.14
574.794	8146.47
575.155	8195.05
575.516	8102.85
575.877	8194.37
576.238	8176.97
576.599	8181.04
576.96	8169.97
577.32	8101.95
577.681	8137.43
578.042	8161.38
578.403	8226.92
578.763	8128.39
579.124	8075.28
579.485	8086.81
579.845	8176.97
580.206	8195.05
580.566	8102.4
580.927	8056.98
581.287	8097.88
581.648	8106.92
582.008	8132.46
582.368	8121.61
582.728	8136.07
583.089	8096.98
583.449	8073.7
583.809	7996.19
584.169	8026.47
584.529	7999.8
584.889	8073.47
585.249	7983.53
585.609	7971.56
585.969	8012.01
586.329	7982.86
586.688	7953.25
587.048	7951.67
587.408	7953.25
587.768	7958.45
588.127	7939.24
588.487	7921.84
588.846	7928.17
589.206	7906.7
589.565	7974.04
589.925	7920.26
590.284	7932.23
590.643	7870.32
591.003	7934.49
591.362	7872.8
591.721	7840.94
592.08	7933.82
592.44	7901.95
592.799	7875.97
593.158	7828.96
593.517	7846.36
593.876	7852.01
594.235	7807.49
594.593	7852.69
594.952	7899.24
595.311	7779.92
595.67	7784.44
596.029	7796.19
596.387	7822.86
596.746	7850.2
597.104	7761.62
597.463	7762.3
597.822	7739.7
598.18	7756.87
598.538	7719.36
598.897	7791.22
599.255	7713.94
599.613	7793.71
599.972	7728.85
600.33	7722.97
600.688	7765.46
601.046	7682.07
601.404	7729.08
601.762	7678
602.12	7805.68
602.478	7720.94
602.836	7697.21
603.194	7672.58
603.552	7741.73
603.91	7651.79
604.268	7686.59
604.625	7684.56
604.983	7677.78
605.341	7631.9
605.698	7743.77
606.056	7674.16
606.413	7679.36
606.771	7677.55
607.128	7687.04
607.485	7683.65
607.843	7643.65
608.2	7755.29
608.557	7690.43
608.914	7703.09
609.272	7782.18
609.629	7747.83
609.986	7746.03
610.343	7635.97
610.7	7794.84
611.057	7727.95
611.414	7790.54
611.771	7731.11
612.127	7720.94
612.484	7737.44
612.841	7761.84
613.198	7740.38
613.554	7758.91
613.911	7753.03
614.267	7855.63
614.624	7695.86
614.98	7749.19
615.337	7827.38
615.693	7806.36
616.05	7700.15
616.406	7825.35
616.762	7769.08
617.118	7787.61
617.475	7742.18
617.831	7818.11
618.187	7769.53
618.543	7822.63
618.899	7850.2
619.255	7895.4
619.611	7819.92
619.967	7883.42
620.323	7850.43
620.678	7800.04
621.034	7797.32
621.39	7826.48
621.746	7816.98
622.101	7869.19
622.457	7835.06
622.812	7779.47
623.168	7830.09
623.523	7892.46
623.879	7862.18
624.234	7748.28
624.589	7850.43
624.945	7855.85
625.3	7830.77
625.655	7798.45
626.01	7782.41
626.365	7809.98
626.72	7820.83
627.075	7781.73
627.43	7809.53
627.785	7795.74
628.14	7775.85
628.495	7813.14
628.85	7800.26
629.205	7758.91
629.559	7730.21
629.914	7727.72
630.269	7731.79
630.623	7765.69
630.978	7765.01
631.332	7745.35
631.687	7771.56
632.041	7639.59
632.396	7662.19
632.75	7699.7
633.104	7685.91
633.459	7602.98
633.813	7667.38
634.167	7617.44
634.521	7637.55
634.875	7663.32
635.229	7635.52
635.583	7539.02
635.937	7568.18
636.291	7557.78
636.645	7555.97
636.999	7546.71
637.352	7579.25
637.706	7538.57
638.06	7563.66
638.413	7553.94
638.767	7504.68
639.121	7481.85
639.474	7463.32
639.828	7492.92
640.181	7449.31
640.534	7467.39
640.888	7464
641.241	7385.13
641.594	7495.64
641.947	7473.94
642.301	7400.27
642.654	7381.51
643.007	7450.67
643.36	7413.6
643.713	7352.36
644.066	7439.37
644.419	7393.04
644.771	7374.06
645.124	7349.2
645.477	7262.87
645.83	7234.85
646.182	7254.06
646.535	7200.73
646.888	7212.03
647.24	7193.72
647.593	7191.24
647.945	7140.62
648.298	7108.08
648.65	7190.79
649.002	7179.94
649.355	7158.47
649.707	7166.38
650.059	7207.73
650.411	7296.77
650.763	7272.82
651.115	7308.97
651.467	7337.9
651.819	7334.51
652.171	7328.86
652.523	7338.58
652.875	7294.51
653.227	7307.39
653.578	7280.73
653.93	7305.36
654.282	7295.42
654.633	7382.64
654.985	7339.71
655.337	7347.62
655.688	7374.28
656.039	7318.01
656.391	7295.19
656.742	7365.7
657.094	7337
657.445	7376.54
657.796	7318.47
658.147	7379.71
658.498	7369.54
658.849	7341.74
659.2	7357.56
659.551	7385.36
659.902	7397.79
660.253	7419.25
660.604	7412.02
660.955	7336.09
661.306	7428.07
661.656	7421.74
662.007	7401.63
662.358	7348.75
662.708	7423.55
663.059	7386.71
663.409	7344.23
663.76	7395.07
664.11	7378.8
664.461	7407.73
664.811	7388.75
665.161	7400.05
665.511	7296.32
665.862	7381.74
666.212	7460.38
666.562	7392.14
666.912	7391.01
667.262	7418.12
667.612	7405.02
667.962	7413.38
668.312	7419.03
668.662	7467.16
669.011	7440.04
669.361	7369.99
669.711	7396.43
670.06	7428.29
670.41	7376.09
670.76	7389.65
671.109	7414.96
671.459	7396.43
671.808	7401.63
672.157	7390.78
672.507	7391.01
672.856	7349.43
673.205	7412.02
673.554	7341.06
673.904	7323.89
674.253	7397.79
674.602	7348.75
674.951	7251.57
675.3	7165.7
675.649	7285.47
675.998	7300.61
676.346	7393.49
676.695	7339.03
677.044	7288.64
677.393	7304
677.741	7274.4
678.09	7252.03
678.438	7245.93
678.787	7291.8
679.135	7263.55
679.484	7210.45
679.832	7279.14
680.181	7174.51
680.529	7226.26
680.877	7141.52
681.225	7158.47
681.573	7206.83
681.922	7045.93
682.27	7076.44
682.618	7133.39
682.966	7097
683.314	7189.88
683.661	7078.02
684.009	6996.89
684.357	6996.67
684.705	7031.92
685.053	7025.37
685.4	7018.59
685.748	6978.81
686.095	6954.18
686.443	6956.44
686.79	6928.87
687.138	6979.49
687.485	6976.55
687.832	6864.92
688.18	6901.08
688.527	6849.33
688.874	6811.36
689.221	6824.69
689.568	6841.64
689.915	6809.55
690.262	6798.71
690.609	6762.77
690.956	6750.12
691.303	6772.04
691.65	6684.81
691.997	6668.54
692.344	6676.45
692.69	6666.05
693.037	6643.68
693.383	6548.77
693.73	6557.36
694.077	6511.26
694.423	6534.31
694.769	6515.55
695.116	6431.71
695.462	6447.98
695.808	6406.4
696.155	6438.49
696.501	6365.72
696.847	6387.64
697.193	6324.82
697.539	6339.73
697.885	6302.9
698.231	6286.18
698.577	6273.07
698.923	6248.44
699.269	6200.76
699.614	6135.22
699.96	6128.89
700.306	6155.11
700.651	6108.33
700.997	6015.45
701.342	6071.94
701.688	6078.95
702.033	6027.43
702.379	6032.17
702.724	5954.21
703.069	6001.66
703.415	5895.23
703.76	5898.62
704.105	5917.6
704.45	5883.02
704.795	5846.87
705.14	5858.62
705.485	5833.31
705.83	5822.01
706.175	5774.1
706.52	5781.78
706.865	5755.79
707.209	5763.93
707.554	5752.86
707.899	5713.76
708.243	5721.67
708.588	5693.88
708.932	5678.96
709.277	5621.11
709.621	5669.24
709.966	5583.14
710.31	5583.14
710.654	5591.28
710.998	5571.85
711.342	5555.57
711.687	5557.38
712.031	5517.61
712.375	5541.79
712.719	5495.69
713.063	5459.76
713.407	5496.37
713.75	5460.66
714.094	5490.94
714.438	5428.35
714.782	5481.23
715.125	5411.85
715.469	5422.24
715.812	5436.93
716.156	5367.78
716.499	5424.05
716.843	5379.53
717.186	5365.97
717.53	5370.27
717.873	5372.08
718.216	5363.26
718.559	5349.48
718.902	5297.05
719.246	5296.15
719.589	5329.59
719.932	5280.55
720.275	5291.85
720.617	5302.47
720.96	5291.85
721.303	5252.98
721.646	5264.51
721.989	5234.9
722.331	5254.34
722.674	5282.14
723.016	5258.86
723.359	5259.08
723.701	5227.67
724.044	5225.19
724.386	5180.89
724.729	5224.28
725.071	5223.83
725.413	5272.87
725.755	5250.5
726.097	5210.72
726.439	5158.75
726.782	5158.97
727.124	5182.7
727.465	5174.34
727.807	5191.97
728.149	5179.99
728.491	5183.61
728.833	5230.16
729.175	5193.55
729.516	5153.78
729.858	5184.06
730.199	5193.1
730.541	5129.37
730.882	5183.38
731.224	5153.1
731.565	5154.45
731.906	5170.5
732.248	5175.25
732.589	5200.78
732.93	5208.24
733.271	5151.97
733.612	5213.44
733.953	5192.87
734.294	5189.26
734.635	5242.36
734.976	5229.03
735.317	5174.57
735.658	5141.12
735.999	5250.27
736.339	5174.79
736.68	5194
737.021	5248.69
737.361	5206.66
737.702	5285.3
738.042	5180.89
738.383	5219.99
738.723	5252.08
739.063	5223.61
739.404	5290.5
739.744	5255.47
740.084	5239.42
740.424	5288.24
740.764	5310.38
741.104	5308.8
741.444	5309.25
741.784	5327.11
742.124	5341.34
742.464	5352.64
742.804	5347.9
743.143	5409.59
743.483	5403.71
743.823	5449.14
744.162	5461.57
744.502	5469.02
744.841	5469.93
745.181	5530.72
745.52	5563.26
745.86	5598.74
746.199	5632.63
746.538	5660.66
746.877	5738.62
747.216	5766.42
747.556	5786.98
747.895	5786.53
748.234	5872.18
748.573	5932.74
748.911	5931.84
749.25	6006.64
749.589	6085.28
749.928	6132.28
750.267	6211.38
750.605	6221.77
750.944	6262.9
751.283	6317.14
751.621	6466.74
751.96	6560.07
752.298	6589.22
752.636	6752.83
752.975	6753.06
753.313	6888.87
753.651	7043.22
753.989	7068.08
754.327	7127.28
754.666	7351.23
755.004	7389.88
755.342	7631.9
755.679	7677.1
756.017	7782.63
756.355	7946.7
756.693	8021.27
757.031	8216.07
757.368	8283.86
757.706	8462.16
758.044	8569.73
758.381	8791.65
758.719	8872.55
759.056	9088.14
759.394	9202.71
759.731	9324.97
760.068	9530.16
760.405	9731.74
760.743	9851.51
761.08	9971.5
761.417	10170.59
761.754	10357.48
762.091	10511.15
762.428	10692.61
762.765	10862.78
763.102	11041.08
763.438	11161.75
763.775	11335.99
764.112	11552.03
764.449	11711.8
764.785	11914.73
765.122	11981.85
765.458	12110.66
765.795	12267.04
766.131	12496.86
766.467	12566.46
