Data from hue_32_FLMS001491_00051.txt Node
Date: Tue Feb 07 17:23:35 GMT 2017
User: dcchb
Spectrometer: FLMS00149
Trigger mode: 0
Integration Time (sec): 2.000000E-2
Scans to average: 10
Electric dark correction enabled: true
Nonlinearity correction enabled: false
Boxcar width: 0
XAxis mode: Wavelengths
Number of Pixels in Spectrum: 2048
>>>>>Begin Spectral Data<<<<<
341.393	-11.58
341.776	-11.58
342.16	-11.58
342.543	-44.58
342.927	-66.5
343.31	-74.4
343.693	-80.51
344.077	-65.82
344.46	-68.3
344.843	-45.25
345.226	-33.05
345.61	-36.89
345.993	-10
346.376	11.69
346.759	16.89
347.142	23.67
347.525	26.84
347.908	58.47
348.291	81.75
348.674	89.21
349.057	105.7
349.44	150.22
349.823	123.56
350.206	168.98
350.588	210.11
350.971	213.27
351.354	228.41
351.737	232.03
352.119	249.65
352.502	274.51
352.884	291.24
353.267	294.17
353.65	298.92
354.032	304.79
354.414	305.47
354.797	319.48
355.179	335.3
355.562	334.17
355.944	325.58
356.326	332.59
356.709	330.1
357.091	338.47
357.473	354.06
357.855	343.66
358.238	358.35
358.62	346.6
359.002	342.31
359.384	349.09
359.766	349.54
360.148	354.96
360.53	344.12
360.912	347.96
361.294	342.99
361.676	317
362.057	331.23
362.439	337.11
362.821	353.83
363.203	318.81
363.584	333.27
363.966	344.12
364.348	331.01
364.729	336.66
365.111	330.78
365.493	333.27
365.874	337.34
366.256	329.88
366.637	327.62
367.019	319.26
367.4	338.92
367.781	296.21
368.163	325.58
368.544	294.17
368.925	318.58
369.306	326.04
369.688	307.51
370.069	338.01
370.45	308.18
370.831	324.91
371.212	324.68
371.593	309.77
371.974	318.35
372.355	349.09
372.736	318.58
373.117	318.35
373.498	322.87
373.879	332.59
374.26	330.1
374.641	303.66
375.021	320.61
375.402	340.27
375.783	344.34
376.163	343.21
376.544	339.82
376.925	351.57
377.305	335.53
377.686	327.62
378.066	342.31
378.447	322.19
378.827	316.09
379.208	349.99
379.588	321.97
379.968	347.73
380.349	333.72
380.729	353.38
381.109	333.72
381.489	339.82
381.87	339.82
382.25	342.99
382.63	355.19
383.01	354.06
383.39	343.66
383.77	354.06
384.15	351.12
384.53	333.49
384.91	354.74
385.29	339.82
385.67	352.02
386.049	341.18
386.429	350.44
386.809	365.81
387.189	343.66
387.568	359.26
387.948	364.45
388.328	380.95
388.707	377.33
389.087	373.94
389.466	357.9
389.846	355.41
390.225	374.62
390.605	385.7
390.984	370.56
391.363	371.23
391.743	368.97
392.122	382.98
392.501	390.22
392.881	377.11
393.26	389.76
393.639	383.21
394.018	397.67
394.397	389.09
394.776	352.25
395.155	381.18
395.534	378.92
395.913	392.93
396.292	396.32
396.671	379.82
397.05	399.03
397.429	386.83
397.808	390.44
398.186	403.77
398.565	404.23
398.944	396.09
399.323	401.51
399.701	406.49
400.08	422.53
400.458	404.68
400.837	398.13
401.215	414.85
401.594	413.04
401.972	430.44
402.351	430.44
402.729	415.98
403.107	415.98
403.486	414.17
403.864	436.32
404.242	431.57
404.62	418.69
404.999	421.18
405.377	437.22
405.755	445.58
406.133	425.02
406.511	442.64
406.889	439.93
407.267	451.68
407.645	455.52
408.023	439.25
408.401	463.89
408.779	456.43
409.156	453.04
409.534	456.88
409.912	464.79
410.29	462.08
410.667	459.37
411.045	456.2
411.422	437.45
411.8	436.54
412.178	467.73
412.555	460.27
412.933	478.57
413.31	470.21
413.687	468.41
414.065	471.12
414.442	476.54
414.819	493.04
415.197	499.14
415.574	504.79
415.951	507.73
416.328	515.86
416.705	503.43
417.082	509.31
417.46	506.82
417.837	528.97
418.214	535.75
418.591	522.42
418.967	511.34
419.344	525.13
419.721	536.65
420.098	529.42
420.475	532.58
420.852	528.52
421.228	533.26
421.605	545.24
421.982	537.78
422.358	533.49
422.735	574.84
423.111	547.5
423.488	556.77
423.864	564.22
424.241	567.84
424.617	606.48
424.994	591.57
425.37	581.4
425.746	563.09
426.123	573.26
426.499	584.56
426.875	590.44
427.251	582.08
427.627	621.17
428.003	608.52
428.379	620.04
428.756	601.28
429.132	612.81
429.507	630.21
429.883	603.32
430.259	635.18
430.635	630.21
431.011	623.88
431.387	630.21
431.763	667.27
432.138	673.6
432.514	678.34
432.89	648.97
433.265	643.77
433.641	666.14
434.016	704.56
434.392	699.81
434.767	681.06
435.143	688.06
435.518	700.72
435.894	692.35
436.269	686.48
436.644	712.24
437.02	730.77
437.395	709.3
437.77	707.5
438.145	719.25
438.52	739.13
438.895	740.26
439.271	737.33
439.646	752.92
440.021	771.9
440.395	757.89
440.77	759.47
441.145	755.86
441.52	775.06
441.895	792.24
442.27	774.61
442.645	776.87
443.019	798.11
443.394	788.85
443.769	781.84
444.143	803.09
444.518	829.98
444.892	804.67
445.267	824.33
445.641	800.6
446.016	811.45
446.39	823.65
446.764	853.25
447.139	836.76
447.513	853.71
447.887	830.43
448.262	864.55
448.636	871.11
449.01	881.05
449.384	867.49
449.758	849.64
450.132	885.12
450.506	881.5
450.88	866.81
451.254	889.86
451.628	913.59
452.002	913.37
452.376	904.78
452.75	927.83
453.123	919.02
453.497	943.2
453.871	941.39
454.244	959.01
454.618	956.08
454.992	970.54
455.365	984.78
455.739	983.19
456.112	984.55
456.486	1036.53
456.859	1005.79
457.232	1029.07
457.606	1046.92
457.979	1048.28
458.352	1063.42
458.725	1073.36
459.099	1076.98
459.472	1089.86
459.845	1103.64
460.218	1115.39
460.591	1139.8
460.964	1121.04
461.337	1159.46
461.71	1170.53
462.083	1189.97
462.456	1204.21
462.829	1191.1
463.201	1185.68
463.574	1204.88
463.947	1209.4
464.32	1265.45
464.692	1266.12
465.065	1274.03
465.438	1302.28
465.81	1316.97
466.183	1288.5
466.555	1367.59
466.928	1326.24
467.3	1350.64
467.672	1355.61
468.045	1414.14
468.417	1400.13
468.789	1410.75
469.161	1465.89
469.534	1465.89
469.906	1484.65
470.278	1497.98
470.65	1553.8
471.022	1556.74
471.394	1587.47
471.766	1588.38
472.138	1633.57
472.51	1702.27
472.882	1682.39
473.253	1718.32
473.625	1752.89
473.997	1765.09
474.369	1782.5
474.74	1805.32
475.112	1834.25
475.484	1907.01
475.855	1943.62
476.227	1960.34
476.598	2024.98
476.97	2055.48
477.341	2079.66
477.713	2173.22
478.084	2166.44
478.455	2259.32
478.827	2270.39
479.198	2357.62
479.569	2347
479.94	2443.5
480.311	2472.19
480.682	2571.63
481.053	2649.37
481.424	2661.79
481.795	2743.37
482.166	2774.11
482.537	2795.35
482.908	2927.78
483.279	2940.43
483.65	3060.88
484.021	3122.57
484.391	3183.14
484.762	3227.88
485.133	3279.18
485.503	3344.04
485.874	3450.25
486.244	3519.17
486.615	3596.01
486.985	3676.68
487.356	3751.26
487.726	3854.31
488.097	3916.22
488.467	3968.88
488.837	4026.05
489.207	4159.16
489.578	4253.17
489.948	4313.95
490.318	4385.36
490.688	4452.03
491.058	4562.99
491.428	4606.83
491.798	4711.91
492.168	4858.12
492.538	4874.84
492.908	4966.37
493.278	5083.43
493.648	5136.08
494.017	5227.83
494.387	5261.73
494.757	5346.02
495.126	5460.14
495.496	5456.75
495.866	5554.83
496.235	5661.26
496.605	5722.05
496.974	5785.1
497.344	5866.23
497.713	5951.88
498.082	6013.34
498.452	6087.24
498.821	6137.18
499.19	6180.57
499.559	6287.69
499.928	6294.47
500.298	6415.59
500.667	6415.59
501.036	6485.2
501.405	6539.21
501.774	6637.06
502.143	6725.87
502.512	6731.29
502.88	6738.52
503.249	6835.47
503.618	6941.46
503.987	6950.27
504.356	6995.47
504.724	7114.33
505.093	7114.11
505.462	7143.48
505.83	7218.06
506.199	7235.91
506.567	7393.2
506.936	7373.31
507.304	7475
507.672	7547.99
508.041	7577.6
508.409	7615.11
508.777	7725.84
509.145	7745.28
509.514	7819.62
509.882	7833.86
510.25	7877.02
510.618	7936.01
510.986	8009.45
511.354	8090.35
511.722	8073.4
512.09	8152.72
512.458	8171.48
512.826	8239.05
513.193	8362.89
513.561	8318.14
513.929	8392.27
514.297	8434.3
514.664	8548.19
515.032	8491.25
515.4	8579.15
515.767	8672.03
516.135	8709.32
516.502	8637
516.869	8830.22
517.237	8805.14
517.604	8765.14
517.972	8921.74
518.339	8946.83
518.706	9016.88
519.073	9030.44
519.44	9082.19
519.808	9122.42
520.175	9144.11
520.542	9199.93
520.909	9232.92
521.276	9322.64
521.643	9381.17
522.009	9425.23
522.376	9482.18
522.743	9485.34
523.11	9632.23
523.477	9669.07
523.843	9682.85
524.21	9829.97
524.577	9863.64
524.943	9955.84
525.31	9979.79
525.676	9991.77
526.043	10005.78
526.409	10124.2
526.776	10215.27
527.142	10231.76
527.508	10265.21
527.874	10391.31
528.241	10439.22
528.607	10471.76
528.973	10566.67
529.339	10584.07
529.705	10655.48
530.071	10780.45
530.437	10809.15
530.803	10862.26
531.169	10951.52
531.535	10835.14
531.901	10922.14
532.267	10991.52
532.632	11020.9
532.998	11116.49
533.364	11167.33
533.73	11177.28
534.095	11304.28
534.461	11382.92
534.826	11344.05
535.192	11372.75
535.557	11538.17
535.923	11517.15
536.288	11595.57
536.653	11635.8
537.019	11605.97
537.384	11753.08
537.749	11726.41
538.114	11695.46
538.479	11813.42
538.845	11890.93
539.21	11826.3
539.575	11917.14
539.94	11980.87
540.305	12042.34
540.67	12082.79
541.034	12126.63
541.399	12202.56
541.764	12216.57
542.129	12308.09
542.494	12339.51
542.858	12388.32
543.223	12375.89
543.587	12508.32
543.952	12513.06
544.316	12566.84
544.681	12583.12
545.045	12633.51
545.41	12745.6
545.774	12703.11
546.138	12747.18
546.503	12781.75
546.867	12860.62
547.231	12952.15
547.595	12990.11
547.959	13048.19
548.324	13071.69
548.688	13054.29
549.052	13172.7
549.416	13190.33
549.779	13171.12
550.143	13202.53
550.507	13333.83
550.871	13463.09
551.235	13445.01
551.599	13525.24
551.962	13486.14
552.326	13564.11
552.689	13652.69
553.053	13588.06
553.417	13682.07
553.78	13780.15
554.143	13748.96
554.507	13833.7
554.87	13807.26
555.234	13950.54
555.597	13903.76
555.96	13967.03
556.323	14057.2
556.686	14005.9
557.05	14133.58
557.413	14157.09
557.776	14253.81
558.139	14341.26
558.502	14335.16
558.865	14387.36
559.228	14479.79
559.59	14422.39
559.953	14511.2
560.316	14594.59
560.679	14627.36
561.041	14675.94
561.404	14822.6
561.767	14855.6
562.129	14851.98
562.492	15017.18
562.854	14929.27
563.217	15008.81
563.579	15051.3
563.941	15197.96
564.304	15233.89
564.666	15291.74
565.028	15306.89
565.39	15297.17
565.753	15318.18
566.115	15475.47
566.477	15522.25
566.839	15642.7
567.201	15613.32
567.563	15585.52
567.925	15769.47
568.287	15818.74
568.648	15812.64
569.01	15927.43
569.372	15988.45
569.734	15911.84
570.095	16152.97
570.457	16162
570.819	16256.69
571.18	16278.39
571.542	16486.06
571.903	16406.07
572.265	16479.96
572.626	16670.24
572.987	16631.37
573.349	16785.49
573.71	16778.03
574.071	16958.59
574.432	16932.83
574.794	17221.64
575.155	17126.72
575.516	17198.59
575.877	17429.77
576.238	17480.39
576.599	17611.46
576.96	17685.13
577.32	17659.82
577.681	17736.65
578.042	18022.52
578.403	18048.28
578.763	18293.7
579.124	18278.11
579.485	18422.06
579.845	18646.91
580.206	18762.39
580.566	18876.51
580.927	19086.67
581.287	19294.8
581.648	19295.93
582.008	19558.75
582.368	19648.69
582.728	19929.59
583.089	19868.35
583.449	20243.93
583.809	20377.49
584.169	20583.58
584.529	20640.08
584.889	21120.74
585.249	21170.01
585.609	21346.27
585.969	21625.82
586.329	21725.7
586.688	22057.89
587.048	22250.43
587.408	22353.71
587.768	22636.41
588.127	22771.1
588.487	23098.77
588.846	23395.94
589.206	23470.96
589.565	23848.81
589.925	24171.74
590.284	24424.61
590.643	24578.73
591.003	24992.28
591.362	25214.65
591.721	25431.14
592.08	25615.32
592.44	25865.7
592.799	26184.79
593.158	26377.78
593.517	26639.92
593.876	27040.81
594.235	27180.92
594.593	27452.56
594.952	27698.65
595.311	28008.02
595.67	28287.56
596.029	28602.58
596.387	28873.99
596.746	29148.33
597.104	29258.16
597.463	29528.88
597.822	29787.41
598.18	29926.84
598.538	30210.22
598.897	30587.84
599.255	30575.41
599.613	31198.22
599.972	31301.49
600.33	31592.56
600.688	31699.67
601.046	32108.48
601.404	32384.63
601.762	32434.34
602.12	32857.84
602.478	33057.61
602.836	33302.34
603.194	33290.82
603.552	33600.64
603.91	33584.15
604.268	33941.2
604.625	34121.76
604.983	34496.89
605.341	34438.36
605.698	34766.94
606.056	35063.65
606.413	35198.79
606.771	35335.96
607.128	35680.81
607.485	35676.29
607.843	35822.28
608.2	36173.23
608.557	36401.92
608.914	36459.78
609.272	36656.38
609.629	36946.09
609.986	37204.84
610.343	37134.33
610.7	37676.92
611.057	37746.75
611.414	37727.99
611.771	37898.38
612.127	38208.66
612.484	38313.96
612.841	38584.47
613.198	38524.13
613.554	38583.11
613.911	38896.1
614.267	38926.6
614.624	39124.79
614.98	39224.45
615.337	39529.53
615.693	39444.78
616.05	39619.47
616.406	39984.65
616.762	39930.87
617.118	40082.51
617.475	40173.35
617.831	40383.74
618.187	40298.32
618.543	40517.75
618.899	40846.33
619.255	40762.49
619.611	40731.98
619.967	41085.87
620.323	41369.93
620.678	41104.4
621.034	41168.58
621.39	41252.87
621.746	41176.94
622.101	41755
622.457	41548
622.812	41645.63
623.168	41686.08
623.523	41748
623.879	41926.07
624.234	41769.24
624.589	42102.57
624.945	42052.4
625.3	42204.26
625.655	42179.63
626.01	42191.15
626.365	42360.86
626.72	42445.16
627.075	42417.36
627.43	42346.85
627.785	42376.23
628.14	42511.37
628.495	42660.06
628.85	42494.19
629.205	42507.3
629.559	42664.81
629.914	42612.83
630.269	42679.95
630.623	42656.45
630.978	42517.47
631.332	42832.04
631.687	42938.25
632.041	42686.28
632.396	42817.57
632.75	42740.29
633.104	42901.64
633.459	42665.26
633.813	42656.45
634.167	42753.85
634.521	42795.88
634.875	42840.62
635.229	42649.22
635.583	42577.13
635.937	42621.2
636.291	42679.05
636.645	42693.06
636.999	42645.15
637.352	42871.81
637.706	42410.81
638.06	42779.84
638.413	42531.93
638.767	42532.16
639.121	42809.89
639.474	42397.25
639.828	42387.76
640.181	42584.13
640.534	42605.38
640.888	42363.35
641.241	42410.58
641.594	42430.69
641.947	42504.14
642.301	42384.82
642.654	42512.5
643.007	42377.81
643.36	42432.27
643.713	42294.65
644.066	42653.74
644.419	42299.17
644.771	42006.97
645.124	41629.81
645.477	41680.43
645.83	41398.63
646.182	41303.26
646.535	41330.16
646.888	41340.1
647.24	41092.65
647.593	41205.41
647.945	41206.77
648.298	40919.32
648.65	41084.96
649.002	40900.11
649.355	41183.72
649.707	40974.46
650.059	41317.28
650.411	41637.27
650.763	41700.77
651.115	42072.51
651.467	41970.37
651.819	41953.87
652.171	41872.51
652.523	41795.68
652.875	41853.53
653.227	41684.72
653.578	41943.25
653.93	41779.41
654.282	41751.61
654.633	41545.29
654.985	41673.42
655.337	41750.71
655.688	41778.28
656.039	41872.97
656.391	41593.2
656.742	41651.05
657.094	41623.26
657.445	41889.69
657.796	41677.94
658.147	41649.24
658.498	41602.92
658.849	41800.88
659.2	41583.93
659.551	41533.77
659.902	41610.37
660.253	41613.99
660.604	41520.21
660.955	41403.37
661.306	41649.24
661.656	41462.36
662.007	41496.25
662.358	41513.65
662.708	41509.59
663.059	41290.61
663.409	41184.17
663.76	41508.23
664.11	41490.15
664.461	41579.19
664.811	41489.7
665.161	41592.07
665.511	41274.11
665.862	41387.1
666.212	41391.62
666.562	41470.04
666.912	41449.02
667.262	41299.2
667.612	41316.15
667.962	41381.23
668.312	41096.72
668.662	41509.36
669.011	41438.85
669.361	41230.95
669.711	41251.97
670.06	41234.11
670.41	41157.96
670.76	41208.8
671.109	41183.95
671.459	41282.02
671.808	41093.78
672.157	41196.15
672.507	41061.46
672.856	41162.93
673.205	41164.06
673.554	41101.69
673.904	41197.28
674.253	41291.29
674.602	41251.74
674.951	40501.25
675.3	40505.32
675.649	40893.33
675.998	40966.1
676.346	41149.82
676.695	41171.52
677.044	40926.78
677.393	40914.35
677.741	41157.73
678.09	40971.3
678.438	40851.07
678.787	40855.37
679.135	40962.71
679.484	40624.19
679.832	40677.74
680.181	40482.95
680.529	40687.69
680.877	40482.95
681.225	40446.34
681.573	40817.85
681.922	40435.26
682.27	40347.81
682.618	40377.64
682.966	40325.21
683.314	40325.21
683.661	40148.27
684.009	40121.83
684.357	40054.26
684.705	39985.33
685.053	39986.69
685.4	39930.42
685.748	39763.64
686.095	39796.41
686.443	39547.38
686.79	39574.5
687.138	39516.64
687.485	39482.3
687.832	39467.15
688.18	39501.96
688.527	39107.16
688.874	39334.5
689.221	39146.48
689.568	39099.71
689.915	38984.68
690.262	39001.86
690.609	38909.88
690.956	38741.52
691.303	38720.51
691.65	38588.31
691.997	38528.42
692.344	38356.22
692.69	38291.82
693.037	38304.02
693.383	38186.74
693.73	38231.71
694.077	37929.57
694.423	37962.11
694.769	37924.82
695.116	37795.56
695.462	37773.64
695.808	37660.2
696.155	37619.29
696.501	37444.61
696.847	37505.62
697.193	37200.55
697.539	37241.45
697.885	37067.9
698.231	36886.66
698.577	37024.96
698.923	36828.58
699.269	36649.6
699.614	36461.13
699.96	36535.03
700.306	36603.27
700.651	36262.27
700.997	36233.57
701.342	36230.4
701.688	35947.7
702.033	35924.42
702.379	36022.05
702.724	35915.16
703.069	35920.35
703.415	35590.65
703.76	35571.89
704.105	35597.65
704.45	35492.34
704.795	35305.91
705.14	35194.27
705.485	35097.1
705.83	35050.1
706.175	35179.58
706.52	35019.81
706.865	34887.39
707.209	34759.48
707.554	34633.38
707.899	34810.1
708.243	34585.7
708.588	34532.37
708.932	34346.61
709.277	34275.65
709.621	34376.89
709.966	34078.6
710.31	34167.63
710.654	33839.05
710.998	34058.93
711.342	34048.99
711.687	33822.78
712.031	33741.66
712.375	33680.64
712.719	33682
713.063	33490.36
713.407	33647.42
713.75	33367.88
714.094	33503.24
714.438	33394.77
714.782	33260.76
715.125	33154.33
715.469	33258.28
715.812	32885.63
716.156	32898.29
716.499	32896.03
716.843	32815.35
717.186	32626.88
717.53	32863.71
717.873	32902.13
718.216	32734.9
718.559	32571.97
718.902	32503.27
719.246	32522.48
719.589	32368.36
719.932	32232.32
720.275	32213.56
720.617	32245.42
720.96	32222.15
721.303	32157.74
721.646	32141.25
721.989	31919.56
722.331	32032.55
722.674	31927.69
723.016	31943.06
723.359	31857.64
723.701	31784.19
724.044	31689.28
724.386	31473.69
724.729	31703.29
725.071	31559.11
725.413	31575.16
725.755	31515.95
726.097	31412.68
726.439	31276.18
726.782	31300.82
727.124	31456.97
727.465	31370.19
727.807	31261.72
728.149	31253.36
728.491	31154.15
728.833	31132.46
729.175	31043.42
729.516	31064.21
729.858	30896.31
730.199	30939.02
730.541	30807.27
730.882	30732.24
731.224	30929.07
731.565	30683.2
731.906	30632.58
732.248	30617.9
732.589	30516.66
732.93	30503.77
733.271	30551.68
733.612	30573.6
733.953	30579.25
734.294	30430.78
734.635	30211.58
734.976	30442.53
735.317	30247.96
735.658	30292.25
735.999	30210.67
736.339	30141.07
736.68	30120.96
737.021	29908.76
737.361	30035.54
737.702	30083.22
738.042	29839.84
738.383	29949.89
738.723	30080.51
739.063	29866.95
739.404	29861.53
739.744	29751.25
740.084	29645.04
740.424	29748.31
740.764	29631.93
741.104	29685.04
741.444	29585.15
741.784	29495.44
742.124	29379.51
742.464	29459.73
742.804	29369.79
743.143	29296.57
743.483	29423.8
743.823	29189.01
744.162	29220.42
744.502	29281.43
744.841	29018.62
745.181	29211.6
745.52	29104.94
745.86	29168.22
746.199	28999.41
746.538	29045.06
746.877	29117.14
747.216	28874.44
747.556	28895
747.895	28960.76
748.234	28788.79
748.573	28778.17
748.911	28673.54
749.25	28747.66
749.589	28556.93
749.928	28473.55
750.267	28573.2
750.605	28486.65
750.944	28420.67
751.283	28385.19
751.621	28444.17
751.96	28216.15
752.298	28198.07
752.636	28256.6
752.975	27998.08
753.313	27930.96
753.651	28143.16
753.989	28022.48
754.327	27935.48
754.666	27842.15
755.004	27895.26
755.342	27840.57
755.679	27855.26
756.017	27710.18
756.355	27697.97
756.693	27593.34
757.031	27619.33
757.368	27474.7
