Data from hue_180_FLMS001491_00027.txt Node
Date: Tue Feb 07 16:46:46 GMT 2017
User: dcchb
Spectrometer: FLMS00149
Trigger mode: 0
Integration Time (sec): 2.000000E-2
Scans to average: 10
Electric dark correction enabled: true
Nonlinearity correction enabled: false
Boxcar width: 0
XAxis mode: Wavelengths
Number of Pixels in Spectrum: 2048
>>>>>Begin Spectral Data<<<<<
341.393	-16.17
341.776	-16.17
342.16	-16.17
342.543	-70.86
342.927	-76.74
343.31	-44.87
343.693	-63.85
344.077	-65.44
344.46	-54.36
344.843	-58.2
345.226	-46.45
345.61	-46
345.993	-22.5
346.376	-4.65
346.759	0.55
347.142	20.89
347.525	47.78
347.908	47.56
348.291	72.87
348.674	99.76
349.057	116.93
349.44	132.07
349.823	129.59
350.206	158.29
350.588	181.34
350.971	222.69
351.354	209.13
351.737	232.86
352.119	238.28
352.502	250.26
352.884	260.66
353.267	271.73
353.65	293.2
354.032	309.24
354.414	313.99
354.797	305.18
355.179	312.18
355.562	320.77
355.944	309.92
356.326	328
356.709	339.3
357.091	323.03
357.473	330.94
357.855	338.4
358.238	336.59
358.62	338.62
359.002	354.21
359.384	334.78
359.766	350.37
360.148	344.27
360.53	339.98
360.912	326.19
361.294	333.65
361.676	319.41
362.057	337.04
362.439	342.69
362.821	323.25
363.203	306.08
363.584	315.12
363.966	333.88
364.348	346.76
364.729	331.62
365.111	309.47
365.493	339.75
365.874	316.47
366.256	288.68
366.637	321.22
367.019	313.99
367.4	321.67
367.781	304.95
368.163	303.14
368.544	296.81
368.925	301.56
369.306	320.54
369.688	294.33
370.069	306.08
370.45	327.1
370.831	310.83
371.212	300.66
371.593	313.31
371.974	322.58
372.355	320.99
372.736	312.18
373.117	309.24
373.498	301.79
373.879	325.06
374.26	306.53
374.641	304.5
375.021	316.7
375.402	310.6
375.783	308.57
376.163	326.19
376.544	327.55
376.925	311.73
377.305	323.25
377.686	331.84
378.066	314.67
378.447	316.7
378.827	334.55
379.208	317.83
379.588	333.42
379.968	322.35
380.349	349.69
380.729	332.97
381.109	321.9
381.489	339.98
381.87	329.58
382.25	329.58
382.63	351.05
383.01	349.24
383.39	353.99
383.77	346.98
384.15	327.1
384.53	333.42
384.91	349.92
385.29	361.9
385.67	352.18
386.049	348.11
386.429	330.03
386.809	340.43
387.189	346.98
387.568	340.2
387.948	350.6
388.328	343.82
388.707	326.42
389.087	372.29
389.466	362.8
389.846	353.54
390.225	375.68
390.605	351.95
390.984	359.86
391.363	366.64
391.743	367.32
392.122	398.51
392.501	370.48
392.881	350.37
393.26	376.13
393.639	361.9
394.018	384.27
394.397	369.13
394.776	382.01
395.155	385.4
395.534	366.64
395.913	382.91
396.292	391.05
396.671	385.4
397.05	369.35
397.429	388.11
397.808	361.9
398.186	387.21
398.565	384.27
398.944	390.82
399.323	409.81
399.701	419.3
400.08	396.7
400.458	396.02
400.837	403.25
401.215	400.99
401.594	400.09
401.972	413.42
402.351	411.16
402.729	401.44
403.107	419.07
403.486	414.1
403.864	432.63
404.242	424.27
404.62	442.12
404.999	436.25
405.377	428.79
405.755	410.94
406.133	444.61
406.511	444.83
406.889	456.13
407.267	451.84
407.645	448.22
408.023	450.71
408.401	439.64
408.779	485.06
409.156	468.34
409.534	491.84
409.912	464.04
410.29	494.1
410.667	499.52
411.045	503.81
411.422	488.22
411.8	513.08
412.178	507.88
412.555	549.69
412.933	522.8
413.31	525.51
413.687	552.63
414.065	567.09
414.442	571.84
414.819	565.51
415.197	581.1
415.574	600.08
415.951	586.3
416.328	621.33
416.705	594.66
417.082	619.29
417.46	631.27
417.837	650.48
418.214	607.54
418.591	643.92
418.967	649.8
419.344	674.21
419.721	670.14
420.098	667.43
420.475	705.39
420.852	690.93
421.228	715.11
421.605	674.21
421.982	730.48
422.358	735.67
422.735	726.86
423.111	754.43
423.488	765.5
423.864	768.89
424.241	774.54
424.617	781.77
424.994	793.98
425.37	792.62
425.746	829.68
426.123	828.55
426.499	819.74
426.875	856.8
427.251	869.23
427.627	865.61
428.003	852.28
428.379	917.36
428.756	894.76
429.132	915.1
429.507	924.82
429.883	920.98
430.259	930.7
430.635	960.98
431.011	959.17
431.387	992.39
431.763	995.55
432.138	1007.3
432.514	1040.98
432.89	1022.67
433.265	1066.29
433.641	1063.35
434.016	1077.81
434.392	1097.47
434.767	1127.07
435.143	1127.53
435.518	1135.66
435.894	1153.06
436.269	1180.86
436.644	1215.43
437.02	1209.56
437.395	1221.54
437.77	1242.1
438.145	1257.24
438.52	1284.13
438.895	1294.3
439.271	1302.66
439.646	1356
440.021	1343.34
440.395	1350.12
440.77	1370.91
441.145	1378.82
441.52	1427.41
441.895	1432.83
442.27	1436.22
442.645	1444.81
443.019	1475.54
443.394	1477.8
443.769	1498.36
444.143	1503.34
444.518	1515.77
444.892	1504.24
445.267	1528.42
445.641	1560.06
446.016	1560.51
446.39	1618.14
446.764	1577.91
447.139	1589.66
447.513	1601.41
447.887	1605.71
448.262	1615.88
448.636	1643.22
449.01	1648.19
449.384	1669.66
449.758	1692.94
450.132	1721.41
450.506	1702.43
450.88	1736.55
451.254	1760.5
451.628	1750.79
452.002	1776.78
452.376	1792.59
452.75	1819.03
453.123	1839.37
453.497	1882.08
453.871	1857.45
454.244	1907.85
454.618	1930.44
454.992	1943.55
455.365	1929.54
455.739	2023.77
456.112	2025.36
456.486	2032.81
456.859	2054.73
457.232	2111
457.606	2111
457.979	2136.77
458.352	2188.74
458.725	2186.26
459.099	2199.82
459.472	2226.03
459.845	2256.08
460.218	2275.07
460.591	2297.67
460.964	2312.58
461.337	2404.56
461.71	2409.75
462.083	2455.4
462.456	2450.66
462.829	2469.86
463.201	2523.42
463.574	2531.78
463.947	2606.58
464.32	2635.74
464.692	2637.32
465.065	2659.46
465.438	2762.06
465.81	2750.99
466.183	2797.77
466.555	2870.31
466.928	2858.78
467.3	2866.46
467.672	2938.78
468.045	3005.67
468.417	3008.83
468.789	3049.51
469.161	3046.57
469.534	3167.47
469.906	3208.83
470.278	3250.41
470.65	3253.12
471.022	3347.13
471.394	3415.6
471.766	3437.3
472.138	3471.65
472.51	3568.37
472.882	3638.87
473.253	3663.96
473.625	3729.72
473.997	3831.41
474.369	3860.11
474.74	3968.81
475.112	3996.38
475.484	4060.78
475.855	4111.18
476.227	4224.85
476.598	4297.61
476.97	4397.5
477.341	4465.52
477.713	4518.62
478.084	4559.53
478.455	4721.1
478.827	4749.8
479.198	4916.35
479.569	4949.57
479.94	5072.96
480.311	5194.54
480.682	5283.8
481.053	5427.53
481.424	5505.04
481.795	5559.5
482.166	5651.7
482.537	5742.55
482.908	5848.76
483.279	5967.63
483.65	6088.3
484.021	6188.64
484.391	6318.12
484.762	6386.6
485.133	6399.03
485.503	6597.44
485.874	6718.79
486.244	6758.79
486.615	6860.48
486.985	7000.59
487.356	7090.53
487.726	7160.14
488.097	7396.29
488.467	7397.42
488.837	7540.69
489.207	7627.02
489.578	7847.8
489.948	7881.25
490.318	7970.28
490.688	8113.33
491.058	8208.02
491.428	8344.06
491.798	8360.78
492.168	8533.89
492.538	8587.44
492.908	8684.84
493.278	8826.53
493.648	8835.8
494.017	8992.18
494.387	8989.47
494.757	9057.71
495.126	9229.23
495.496	9215.9
495.866	9241.21
496.235	9339.06
496.605	9451.83
496.974	9550.36
497.344	9632.39
497.713	9686.17
498.082	9734.98
498.452	9926.17
498.821	9869.22
499.19	9875.77
499.559	9983.34
499.928	10042.77
500.298	10155.99
500.667	10161.19
501.036	10202.54
501.405	10284.12
501.774	10247.97
502.143	10384.23
502.512	10379.04
502.88	10492.25
503.249	10445.93
503.618	10525.7
503.987	10527.05
504.356	10513.95
504.724	10598.92
505.093	10662.64
505.462	10701.51
505.83	10764.11
506.199	10760.49
506.567	10850.66
506.936	10861.96
507.304	10972.01
507.672	10940.83
508.041	10957.32
508.409	11092.01
508.777	11081.84
509.145	11162.74
509.514	11081.84
509.882	11211.78
510.25	11217.21
510.618	11337.43
510.986	11212.46
511.354	11306.02
511.722	11357.09
512.09	11397.54
512.458	11357.99
512.826	11413.36
513.193	11423.3
513.561	11493.36
513.929	11401.83
514.297	11527.03
514.664	11562.51
515.032	11550.98
515.4	11647.02
515.767	11634.14
516.135	11586.01
516.502	11508.04
516.869	11609.51
517.237	11679.79
517.604	11627.36
517.972	11668.04
518.339	11707.36
518.706	11767.47
519.073	11641.83
519.44	11655.39
519.808	11783.29
520.175	11766.57
520.542	11864.87
520.909	11798.21
521.276	11824.65
521.643	11852.89
522.009	11865.1
522.376	11887.24
522.743	11871.65
523.11	11889.28
523.477	11979.9
523.843	11965.43
524.21	11941.93
524.577	12102.83
524.943	12055.38
525.31	12014.25
525.676	12054.7
526.043	12135.82
526.409	12084.98
526.776	12165.43
527.142	12114.81
527.508	12105.77
527.874	12149.61
528.241	12132.89
528.607	12129.5
528.973	12124.75
529.339	12031.87
529.705	12066.22
530.071	12054.25
530.437	12163.85
530.803	12064.41
531.169	12028.26
531.535	11987.81
531.901	11957.3
532.267	11965.89
532.632	11998.65
532.998	12031.19
533.364	11977.86
533.73	11917.98
534.095	11934.02
534.461	11861.48
534.826	11866.23
535.192	11861.93
535.557	11786.23
535.923	11769.96
536.288	11783.07
536.653	11718.66
537.019	11638.89
537.384	11685.22
537.749	11580.59
538.114	11536.74
538.479	11509.63
538.845	11467.59
539.21	11447.48
539.575	11396.86
539.94	11377.2
540.305	11355.96
540.67	11297.65
541.034	11283.87
541.399	11237.32
541.764	11261.72
542.129	11143.08
542.494	11119.35
542.858	11106.7
543.223	10989.64
543.587	11115.29
543.952	10896.31
544.316	10899.7
544.681	10907.38
545.045	10856.54
545.41	10871.68
545.774	10779.93
546.138	10731.34
546.503	10634.4
546.867	10659.03
547.231	10709.87
547.595	10547.17
547.959	10533.83
548.324	10477.56
548.688	10394.85
549.052	10410.22
549.416	10346.95
549.779	10323.44
550.143	10310.34
550.507	10334.97
550.871	10247.29
551.235	10203.67
551.599	10250
551.962	10077.12
552.326	10074.18
552.689	10054.3
553.053	9925.49
553.417	9925.04
553.78	10014.07
554.143	9983.79
554.507	9897.01
554.87	9842.55
555.234	9920.74
555.597	9847.3
555.96	9753.74
556.323	9740.63
556.686	9724.81
557.05	9738.6
557.413	9713.06
557.776	9676
558.139	9619.05
558.502	9595.33
558.865	9619.73
559.228	9638.94
559.59	9599.62
559.953	9527.98
560.316	9673.52
560.679	9563.46
561.041	9607.98
561.404	9598.72
561.767	9564.82
562.129	9562.11
562.492	9611.82
562.854	9478.27
563.217	9505.39
563.579	9530.47
563.941	9549.23
564.304	9527.53
564.666	9550.81
565.028	9498.15
565.39	9480.75
565.753	9508.78
566.115	9515.78
566.477	9467.42
566.839	9517.59
567.201	9514.65
567.563	9473.3
567.925	9507.87
568.287	9521.66
568.648	9510.13
569.01	9561.2
569.372	9584.93
569.734	9435.11
570.095	9565.95
570.457	9578.83
570.819	9548.32
571.18	9522.56
571.542	9533.18
571.903	9562.11
572.265	9538.61
572.626	9564.37
572.987	9546.74
573.349	9570.92
573.71	9513.3
574.071	9543.58
574.432	9551.49
574.794	9562.79
575.155	9574.54
575.516	9485.73
575.877	9544.71
576.238	9496.8
576.599	9574.08
576.96	9528.66
577.32	9503.35
577.681	9529.57
578.042	9545.61
578.403	9553.75
578.763	9450.25
579.124	9504.71
579.485	9486.18
579.845	9523.46
580.206	9442.56
580.566	9427.87
580.927	9449.12
581.287	9541.09
581.648	9497.02
582.008	9463.58
582.368	9454.99
582.728	9449.79
583.089	9438.49
583.449	9430.36
583.809	9451.83
584.169	9423.81
584.529	9385.61
584.889	9468.78
585.249	9386.07
585.609	9403.24
585.969	9384.71
586.329	9362.56
586.688	9346.29
587.048	9329.57
587.408	9361.21
587.768	9281.44
588.127	9281.66
588.487	9252.96
588.846	9352.17
589.206	9237.14
589.565	9257.03
589.925	9283.24
590.284	9283.47
590.643	9226.52
591.003	9232.4
591.362	9313.3
591.721	9266.3
592.08	9186.3
592.44	9298.61
592.799	9225.62
593.158	9205.73
593.517	9202.34
593.876	9163.93
594.235	9188.33
594.593	9197.37
594.952	9231.72
595.311	9102.46
595.67	9209.35
596.029	9221.33
596.387	9184.94
596.746	9265.84
597.104	9174.55
597.463	9116.92
597.822	9179.07
598.18	9117.15
598.538	9136.13
598.897	9122.57
599.255	9091.16
599.613	9213.19
599.972	9084.38
600.33	9151.5
600.688	9125.96
601.046	9083.48
601.404	9176.13
601.762	9062.01
602.12	9179.52
602.478	9096.58
602.836	9126.86
603.194	9066.3
603.552	9039.41
603.91	9074.44
604.268	9023.59
604.625	9038.28
604.983	9035.34
605.341	9058.84
605.698	9036.47
606.056	9062.69
606.413	9061.56
606.771	9088.9
607.128	9063.82
607.485	9027.66
607.843	9127.99
608.2	9046.64
608.557	9088.9
608.914	9029.69
609.272	9039.41
609.629	9054.78
609.986	9113.53
610.343	9087.09
610.7	9152.4
611.057	9099.52
611.414	9130.71
611.771	9075.79
612.127	9146.07
612.484	9120.31
612.841	9136.58
613.198	9140.88
613.554	9116.47
613.911	9222
614.267	9134.1
614.624	9137.71
614.98	9180.42
615.337	9199.18
615.693	9189.91
616.05	9220.87
616.406	9250.93
616.762	9190.82
617.118	9240.31
617.475	9257.26
617.831	9198.05
618.187	9222.91
618.543	9174.77
618.899	9213.64
619.255	9259.06
619.611	9278.5
619.967	9241.21
620.323	9167.09
620.678	9241.89
621.034	9199.86
621.39	9142.46
621.746	9203.7
622.101	9277.37
622.457	9173.42
622.812	9247.54
623.168	9342.9
623.523	9235.11
623.879	9271.27
624.234	9228.78
624.589	9316.24
624.945	9222.68
625.3	9299.52
625.655	9240.76
626.01	9265.84
626.365	9308.78
626.72	9220.2
627.075	9206.41
627.43	9206.18
627.785	9210.93
628.14	9140.2
628.495	9201.44
628.85	9239.18
629.205	9194.89
629.559	9202.12
629.914	9167.32
630.269	9152.4
630.623	9073.98
630.978	9139.52
631.332	9180.42
631.687	9173.64
632.041	9129.8
632.396	9179.52
632.75	9128.45
633.104	9120.31
633.459	9077.15
633.813	9040.77
634.167	9076.02
634.521	9060.65
634.875	9071.05
635.229	9063.59
635.583	9057.94
635.937	9025.4
636.291	9003.7
636.645	9044.38
636.999	8972.74
637.352	9016.81
637.706	8906.31
638.06	8966.42
638.413	8946.3
638.767	8939.98
639.121	8968.68
639.474	8879.41
639.828	8869.92
640.181	8871.96
640.534	8940.2
640.888	8827.21
641.241	8833.76
641.594	8902.24
641.947	8875.12
642.301	8850.94
642.654	8801
643.007	8868.57
643.36	8817.72
643.713	8782.01
644.066	8859.53
644.419	8813.2
644.771	8749.25
645.124	8638.29
645.477	8606.43
645.83	8601.23
646.182	8555.58
646.535	8521.91
646.888	8498.63
647.24	8498.63
647.593	8518.07
647.945	8572.75
648.298	8494.79
648.65	8451.4
649.002	8466.32
649.355	8518.07
649.707	8483.27
650.059	8520.78
650.411	8598.52
650.763	8643.94
651.115	8676.48
651.467	8722.36
651.819	8702.02
652.171	8742.69
652.523	8733.43
652.875	8678.29
653.227	8695.01
653.578	8700.89
653.93	8692.07
654.282	8690.72
654.633	8612.08
654.985	8642.81
655.337	8685.97
655.688	8693.88
656.039	8760.55
656.391	8711.28
656.742	8667.44
657.094	8713.09
657.445	8786.31
657.796	8821.56
658.147	8753.99
658.498	8698.63
658.849	8749.25
659.2	8767.55
659.551	8737.5
659.902	8744.28
660.253	8714.45
660.604	8739.3
660.955	8692.3
661.306	8800.09
661.656	8723.03
662.007	8730.72
662.358	8789.47
662.708	8760.77
663.059	8736.14
663.409	8645.97
663.76	8762.81
664.11	8798.29
664.461	8746.99
664.811	8817.72
665.161	8824.95
665.511	8743.15
665.862	8753.77
666.212	8860.2
666.562	8824.05
666.912	8776.59
667.262	8812.75
667.612	8841.67
667.962	8805.29
668.312	8812.75
668.662	8884.61
669.011	8796.7
669.361	8792.41
669.711	8811.39
670.06	8885.29
670.41	8791.73
670.76	8739.98
671.109	8825.18
671.459	8788.12
671.808	8801.22
672.157	8851.84
672.507	8763.26
672.856	8782.92
673.205	8753.77
673.554	8734.78
673.904	8758.06
674.253	8777.04
674.602	8759.64
674.951	8603.49
675.3	8564.17
675.649	8748.34
675.998	8698.85
676.346	8662.7
676.695	8722.36
677.044	8639.65
677.393	8641.91
677.741	8642.36
678.09	8633.54
678.438	8595.35
678.787	8616.6
679.135	8605.75
679.484	8537.73
679.832	8579.08
680.181	8532.98
680.529	8545.41
680.877	8478.29
681.225	8448.01
681.573	8490.95
681.922	8450.5
682.27	8412.76
682.618	8430.84
682.966	8372.53
683.314	8412.76
683.661	8443.49
684.009	8371.18
684.357	8312.2
684.705	8351.29
685.053	8355.36
685.4	8328.69
685.748	8243.95
686.095	8266.32
686.443	8255.48
686.79	8202.82
687.138	8242.14
687.485	8287.56
687.832	8237.85
688.18	8202.14
688.527	8166.44
688.874	8156.49
689.221	8130.96
689.568	8050.06
689.915	8086.44
690.262	8073.78
690.609	8048.25
690.956	7917.86
691.303	7912.43
691.65	7934.58
691.997	7914.92
692.344	7862.27
692.69	7822.94
693.037	7835.37
693.383	7810.97
693.73	7761.02
694.077	7746.11
694.423	7695.04
694.769	7744.53
695.116	7652.55
695.462	7639.22
695.808	7651.42
696.155	7568.94
696.501	7525.1
696.847	7559.22
697.193	7446.23
697.539	7438.32
697.885	7420.92
698.231	7388.15
698.577	7408.94
698.923	7369.17
699.269	7280.81
699.614	7303.41
699.96	7290.98
700.306	7299.12
700.651	7277.87
700.997	7220.7
701.342	7153.58
701.688	7179.12
702.033	7135.73
702.379	7130.76
702.724	7107.48
703.069	7056.18
703.415	6990.88
703.76	6970.09
704.105	7001.04
704.45	6988.62
704.795	6902.52
705.14	6953.36
705.485	6884.66
705.83	6833.82
706.175	6814.61
706.52	6848.28
706.865	6771.9
707.209	6795.85
707.554	6722.41
707.899	6742.97
708.243	6731.22
708.588	6650.32
708.932	6657.78
709.277	6600.15
709.621	6620.72
709.966	6567.16
710.31	6609.19
710.654	6545.24
710.998	6557.21
711.342	6542.53
711.687	6555.18
712.031	6500.49
712.375	6423.88
712.719	6499.81
713.063	6478.35
713.407	6475.63
713.75	6452.58
714.094	6379.14
714.438	6352.25
714.782	6418.01
715.125	6381.4
715.469	6336.43
715.812	6367.62
716.156	6319.48
716.499	6339.37
716.843	6307.96
717.186	6307.73
717.53	6305.02
717.873	6304.34
718.216	6302.53
718.559	6266.83
718.902	6247.17
719.246	6274.51
719.589	6243.1
719.932	6182.99
720.275	6181.18
720.617	6240.16
720.96	6205.13
721.303	6227.73
721.646	6243.55
721.989	6176.43
722.331	6196.09
722.674	6214.85
723.016	6221.63
723.359	6147.28
723.701	6152.93
724.044	6153.61
724.386	6102.31
724.729	6170.11
725.071	6159.71
725.413	6090.11
725.755	6171.24
726.097	6105.25
726.439	6033.84
726.782	6086.49
727.124	6099.83
727.465	6092.37
727.807	6059.15
728.149	6136.89
728.491	6076.55
728.833	6130.33
729.175	6109.32
729.516	6113.84
729.858	6116.32
730.199	6102.99
730.541	6048.53
730.882	6081.07
731.224	6148.86
731.565	6103.89
731.906	6100.28
732.248	6056.66
732.589	6055.98
732.93	6040.84
733.271	6092.59
733.612	6087.62
733.953	6110.67
734.294	6096.21
734.635	6087.4
734.976	6186.15
735.317	6112.93
735.658	6127.17
735.999	6129.43
736.339	6107.06
736.68	6143.89
737.021	6130.56
737.361	6148.86
737.702	6171.46
738.042	6121.97
738.383	6127.17
738.723	6191.12
739.063	6133.72
739.404	6213.27
739.744	6170.11
740.084	6184.12
740.424	6176.21
740.764	6250.33
741.104	6276.77
741.444	6263.89
741.784	6198.13
742.124	6243.55
742.464	6302.08
742.804	6274.96
743.143	6307.05
743.483	6326.71
743.823	6316.09
744.162	6359.03
744.502	6435.64
744.841	6455.52
745.181	6490.1
745.52	6475.63
745.86	6542.53
746.199	6542.75
746.538	6617.55
746.877	6650.77
747.216	6678.79
747.556	6690.54
747.895	6798.34
748.234	6760.6
748.573	6823.65
748.911	6871.1
749.25	6949.97
749.589	7035.85
749.928	7081.04
750.267	7165.33
750.605	7264.54
750.944	7242.85
751.283	7361.94
751.621	7484.42
751.96	7481.71
752.298	7649.62
752.636	7747.01
752.975	7763.96
753.313	7842.15
753.651	7998.98
753.989	8032.66
754.327	8188.36
754.666	8309.71
755.004	8388.58
755.342	8506.54
755.679	8662.7
756.017	8768.68
756.355	8914.44
756.693	9029.69
757.031	9165.51
757.368	9289.35
757.706	9398.27
758.044	9579.73
758.381	9727.53
758.719	9900.63
759.056	10065.82
759.394	10200.51
759.731	10334.74
760.068	10531.12
760.405	10599.14
760.743	10772.92
761.08	10997.32
761.417	11099.47
761.754	11233.02
762.091	11448.39
762.428	11585.33
762.765	11773.12
763.102	11969.73
763.438	12064.64
763.775	12280
764.112	12382.82
764.449	12635.47
764.785	12736.49
765.122	12787.11
765.458	12994.11
765.795	13180.32
766.131	13361.1
766.467	13478.61
