Data from hue_10_FLMS001491_81.txt Node
Date: Mon Feb 06 15:32:40 GMT 2017
User: dcchb
Spectrometer: FLMS00149
Trigger mode: 0
Integration Time (sec): 2.000000E-2
Scans to average: 10
Electric dark correction enabled: true
Nonlinearity correction enabled: false
Boxcar width: 0
XAxis mode: Wavelengths
Number of Pixels in Spectrum: 2048
>>>>>Begin Spectral Data<<<<<
341.393	-2.46
341.776	-2.46
342.16	-2.46
342.543	-62.79
342.927	-61.44
343.31	-87.65
343.693	-53.98
344.077	-65.05
344.46	-70.03
344.843	-42.23
345.226	-51.95
345.61	-25.28
345.993	-20.76
346.376	-1.55
346.759	-1.1
347.142	30.31
347.525	51.33
347.908	42.29
348.291	82.96
348.674	113.7
349.057	99.01
349.44	120.03
349.823	148.5
350.206	168.61
350.588	209.29
350.971	215.39
351.354	233.02
351.737	246.35
352.119	252.9
352.502	274.37
352.884	292.45
353.267	288.38
353.65	288.83
354.032	295.61
354.414	343.3
354.797	306.23
355.179	318.89
355.562	334.48
355.944	343.97
356.326	341.71
356.709	341.94
357.091	333.13
357.473	332
357.855	361.15
358.238	328.16
358.62	353.47
359.002	336.52
359.384	358.44
359.766	327.48
360.148	323.18
360.53	351.66
360.912	349.17
361.294	335.84
361.676	335.61
362.057	346.69
362.439	364.76
362.821	314.82
363.203	336.97
363.584	336.06
363.966	309.85
364.348	330.19
364.729	323.41
365.111	322.51
365.493	326.35
365.874	309.85
366.256	295.84
366.637	324.54
367.019	335.16
367.4	312.11
367.781	311.88
368.163	320.25
368.544	298.1
368.925	305.56
369.306	331.77
369.688	318.66
370.069	322.51
370.45	319.34
370.831	317.76
371.212	313.69
371.593	328.83
371.974	311.66
372.355	327.7
372.736	310.53
373.117	315.05
373.498	319.12
373.879	328.38
374.26	315.95
374.641	324.54
375.021	303.3
375.402	327.25
375.783	327.25
376.163	328.61
376.544	333.58
376.925	319.12
377.305	342.62
377.686	341.04
378.066	326.12
378.447	322.51
378.827	327.03
379.208	326.35
379.588	323.86
379.968	320.92
380.349	320.7
380.729	344.88
381.109	320.7
381.489	341.04
381.87	339
382.25	331.54
382.63	349.85
383.01	349.85
383.39	354.6
383.77	343.52
384.15	348.04
384.53	331.32
384.91	334.93
385.29	337.65
385.67	336.29
386.049	341.04
386.429	347.36
386.809	375.84
387.189	323.18
387.568	348.27
387.948	355.27
388.328	357.31
388.707	336.06
389.087	339.68
389.466	368.61
389.846	351.21
390.225	353.01
390.605	374.26
390.984	369.06
391.363	357.98
391.743	370.19
392.122	379.68
392.501	377.42
392.881	394.37
393.26	354.37
393.639	380.13
394.018	362.96
394.397	367.25
394.776	361.83
395.155	364.54
395.534	371.77
395.913	373.8
396.292	402.5
396.671	360.47
397.05	381.49
397.429	374.93
397.808	381.04
398.186	380.36
398.565	377.65
398.944	389.85
399.323	393.01
399.701	415.84
400.08	375.61
400.458	393.92
400.837	404.09
401.215	404.76
401.594	389.17
401.972	404.09
402.351	396.18
402.729	382.62
403.107	401.15
403.486	400.24
403.864	382.39
404.242	407.02
404.62	406.35
404.999	408.61
405.377	428.49
405.755	412.22
406.133	412.9
406.511	421.49
406.889	410.41
407.267	424.65
407.645	411.77
408.023	422.84
408.401	429.17
408.779	429.4
409.156	437.08
409.534	429.17
409.912	448.15
410.29	427.59
410.667	440.69
411.045	441.82
411.422	422.84
411.8	428.94
412.178	478.89
412.555	465.55
412.933	452.22
413.31	476.4
413.687	458.1
414.065	481.37
414.442	483.86
414.819	460.81
415.197	469.17
415.574	487.25
415.951	454.93
416.328	469.85
416.705	499.45
417.082	494.03
417.46	486.12
417.837	511.2
418.214	485.21
418.591	503.52
418.967	494.25
419.344	480.47
419.721	494.7
420.098	497.19
420.475	516.62
420.852	483.86
421.228	530.86
421.605	498.32
421.982	497.42
422.358	502.84
422.735	505.1
423.111	508.94
423.488	514.37
423.864	525.44
424.241	514.82
424.617	562.5
424.994	526.57
425.37	535.83
425.746	533.35
426.123	552.33
426.499	563.86
426.875	563.4
427.251	555.72
427.627	556.17
428.003	558.43
428.379	577.87
428.756	554.59
429.132	574.93
429.507	588.71
429.883	566.12
430.259	585.32
430.635	597.98
431.011	606.57
431.387	607.7
431.763	610.86
432.138	603.85
432.514	637.3
432.89	617.19
433.265	636.62
433.641	606.34
434.016	622.61
434.392	616.96
434.767	649.95
435.143	655.6
435.518	651.08
435.894	663.06
436.269	668.49
436.644	657.64
437.02	662.38
437.395	673.68
437.77	683.4
438.145	691.31
438.52	704.64
438.895	698.99
439.271	681.82
439.646	713.91
440.021	717.07
440.395	718.2
440.77	709.84
441.145	715.49
441.52	726.11
441.895	750.97
442.27	738.99
442.645	708.48
443.019	747.35
443.394	729.95
443.769	714.36
444.143	727.69
444.518	758.2
444.892	784.41
445.267	728.82
445.641	779.44
446.016	763.4
446.39	751.19
446.764	756.39
447.139	760.91
447.513	760.69
447.887	791.19
448.262	796.39
448.636	770.4
449.01	790.52
449.384	792.1
449.758	793.45
450.132	821.25
450.506	824.87
450.88	804.98
451.254	809.5
451.628	837.52
452.002	809.05
452.376	832.77
452.75	830.06
453.123	829.38
453.497	886.11
453.871	868.25
454.244	848.14
454.618	855.37
454.992	868.71
455.365	907.35
455.739	882.72
456.112	883.62
456.486	895.6
456.859	907.35
457.232	933.11
457.606	947.12
457.979	938.31
458.352	942.83
458.725	944.86
459.099	951.64
459.472	974.01
459.845	977.18
460.218	1023.28
460.591	1010.85
460.964	990.96
461.337	978.53
461.71	1018.76
462.083	1010.4
462.456	1047.01
462.829	1055.82
463.201	1054.46
463.574	1086.55
463.947	1089.04
464.32	1110.06
464.692	1101.02
465.065	1112.99
465.438	1126.55
465.81	1119.55
466.183	1160.9
466.555	1183.95
466.928	1139.89
467.3	1186.66
467.672	1197.28
468.045	1216.95
468.417	1229.15
468.789	1243.16
469.161	1241.35
469.534	1261.92
469.906	1263.5
470.278	1310.73
470.65	1309.15
471.022	1323.84
471.394	1307.34
471.766	1350.73
472.138	1392.76
472.51	1379.88
472.882	1430.95
473.253	1428.24
473.625	1479.99
473.997	1494.68
474.369	1546.2
474.74	1491.06
475.112	1536.26
475.484	1586.43
475.855	1556.82
476.227	1621.45
476.598	1649.25
476.97	1647.67
477.341	1705.29
477.713	1710.49
478.084	1751.85
478.455	1772.86
478.827	1798.63
479.198	1862.35
479.569	1853.76
479.94	1919.07
480.311	1945.97
480.682	2001.56
481.053	2008.34
481.424	2058.05
481.795	2095.57
482.166	2136.02
482.537	2184.83
482.908	2213.08
483.279	2237.26
483.65	2267.09
484.021	2291.27
484.391	2343.24
484.762	2384.6
485.133	2418.95
485.503	2431.38
485.874	2496.46
486.244	2519.96
486.615	2558.83
486.985	2595.67
487.356	2632.05
487.726	2669.79
488.097	2725.61
488.467	2747.98
488.837	2823
489.207	2857.58
489.578	2900.74
489.948	2955.43
490.318	2967.86
490.688	2976.45
491.058	3106.84
491.428	3067.97
491.798	3104.13
492.168	3165.14
492.538	3189.77
492.908	3244.69
493.278	3305.48
493.648	3333.73
494.017	3360.17
494.387	3390
494.757	3427.28
495.126	3474.97
495.496	3490.56
495.866	3516.09
496.235	3561.74
496.605	3576.21
496.974	3646.94
497.344	3698.46
497.713	3651.01
498.082	3727.84
498.452	3724.68
498.821	3727.61
499.19	3796.54
499.559	3815.3
499.928	3850.1
500.298	3861.62
500.667	3916.08
501.036	3893.26
501.405	3945.46
501.774	3954.95
502.143	3997.44
502.512	3970.09
502.88	4040.15
503.249	4039.7
503.618	4046.25
503.987	4098.23
504.356	4107.94
504.724	4095.51
505.093	4208.96
505.462	4128.06
505.83	4190.43
506.199	4259.8
506.567	4290.54
506.936	4276.3
507.304	4302.29
507.672	4300.71
508.041	4322.17
508.409	4397.65
508.777	4388.16
509.145	4441.27
509.514	4390.65
509.882	4444.21
510.25	4510.42
510.618	4471.1
510.986	4525.33
511.354	4542.96
511.722	4588.16
512.09	4583.18
512.458	4559.46
512.826	4637.65
513.193	4650.75
513.561	4663.18
513.929	4648.49
514.297	4720.58
514.664	4701.15
515.032	4738.43
515.4	4761.03
515.767	4778.43
516.135	4802.84
516.502	4754.25
516.869	4850.3
517.237	4870.18
517.604	4817.3
517.972	4857.75
518.339	4883.97
518.706	4903.4
519.073	4951.54
519.44	4900.24
519.808	4994.25
520.175	4968.94
520.542	5065.43
520.909	4988.6
521.276	5010.29
521.643	5050.97
522.009	5086
522.376	5121.02
522.743	5156.05
523.11	5169.16
523.477	5175.71
523.843	5259.1
524.21	5239.89
524.577	5305.65
524.943	5258.2
525.31	5347.23
525.676	5401.24
526.043	5397.63
526.409	5383.62
526.776	5439.66
527.142	5480.34
527.508	5506.32
527.874	5479.21
528.241	5511.97
528.607	5565.76
528.973	5646.21
529.339	5634.91
529.705	5619.77
530.071	5662.03
530.437	5687.56
530.803	5741.12
531.169	5786.54
531.535	5740.89
531.901	5754.45
532.267	5814.34
532.632	5859.54
532.998	5909.03
533.364	5879.87
533.73	5924.62
534.095	5972.98
534.461	5992.87
534.826	6002.13
535.192	6030.15
535.557	6099.08
535.923	6109.47
536.288	6089.36
536.653	6119.87
537.019	6134.33
537.384	6161.22
537.749	6181.33
538.114	6162.13
538.479	6259.52
538.845	6273.54
539.21	6246.87
539.575	6327.55
539.94	6307.88
540.305	6345.85
540.67	6379.75
541.034	6406.64
541.399	6433.31
541.764	6426.98
542.129	6492.74
542.494	6527.31
542.858	6531.61
543.223	6518.05
543.587	6582
543.952	6652.28
544.316	6660.19
544.681	6651.6
545.045	6667.42
545.41	6724.37
545.774	6720.3
546.138	6750.36
546.503	6817.25
546.867	6832.39
547.231	6853.86
547.595	6861.99
547.959	6896.12
548.324	6942.67
548.688	6984.03
549.052	7001.2
549.416	6992.61
549.779	6979.05
550.143	7040.52
550.507	7102.21
550.871	7132.72
551.235	7076
551.599	7103.57
551.962	7163.23
552.326	7170.24
552.689	7203.45
553.053	7224.02
553.417	7221.08
553.78	7268.09
554.143	7205.04
554.507	7319.38
554.87	7347.63
555.234	7429.89
555.597	7384.24
555.96	7436.22
556.323	7447.74
556.686	7483.67
557.05	7500.62
557.413	7510.57
557.776	7524.8
558.139	7542.43
558.502	7556.21
558.865	7583.11
559.228	7654.74
559.59	7602.99
559.953	7637.12
560.316	7741.07
560.679	7777
561.041	7797.56
561.404	7825.13
561.767	7863.78
562.129	7801.86
562.492	7938.58
562.854	7875.53
563.217	7929.54
563.579	7929.54
563.941	7970.89
564.304	7928.18
564.666	8063.55
565.028	8055.18
565.39	8091.11
565.753	8116.88
566.115	8185.8
566.477	8186.03
566.839	8186.03
567.201	8260.83
567.563	8253.6
567.925	8324.1
568.287	8306.7
568.648	8377.66
569.01	8386.25
569.372	8402.07
569.734	8353.71
570.095	8512.57
570.457	8548.96
570.819	8595.51
571.18	8604.32
571.542	8629.86
571.903	8607.26
572.265	8733.81
572.626	8804.99
572.987	8821.27
573.349	8860.13
573.71	8868.95
574.071	8974.71
574.432	8990.53
574.794	9097.19
575.155	9132.44
575.516	9167.47
575.877	9161.14
576.238	9296.28
576.599	9332.44
576.96	9414.24
577.32	9503.06
577.681	9545.54
578.042	9661.47
578.403	9723.16
578.763	9798.19
579.124	9936.94
579.485	10086.09
579.845	10109.59
580.206	10198.4
580.566	10277.5
580.927	10386.87
581.287	10611.05
581.648	10678.39
582.008	10831.61
582.368	10971.72
582.728	11101.21
583.089	11300.52
583.449	11348.66
583.809	11517.69
584.169	11731.47
584.529	11915.2
584.889	12137.56
585.249	12245.81
585.609	12388.18
585.969	12664.1
586.329	12806.92
586.688	12995.39
587.048	13178.21
587.408	13459.56
587.768	13715.83
588.127	13970.51
588.487	14102.03
588.846	14484.85
589.206	14590.83
589.565	14828.11
589.925	15140.87
590.284	15358.72
590.643	15675.77
591.003	16002.09
591.362	16273.95
591.721	16578.8
592.08	16815.63
592.44	17139.69
592.799	17492.68
593.158	17786.23
593.517	18000.23
593.876	18386.89
594.235	18628.46
594.593	18838.18
594.952	19185.74
595.311	19400.65
595.67	19860.3
596.029	20209.67
596.387	20411.02
596.746	20840.38
597.104	20977.78
597.463	21361.5
597.822	21600.59
598.18	21922.16
598.538	22223.85
598.897	22771.63
599.255	22808.47
599.613	23456.13
599.972	23562.35
600.33	23941.32
600.688	24036.91
601.046	24509.89
601.404	25060.16
601.762	25084.79
602.12	25380.83
602.478	25724.1
602.836	25892
603.194	26177.19
603.552	26549.16
603.91	26749.83
604.268	27094.68
604.625	27305.75
604.983	27757.26
605.341	27871.84
605.698	28231.6
606.056	28653.96
606.413	28687.18
606.771	29070
607.128	29347.51
607.485	29544.79
607.843	29784.33
608.2	30149.97
608.557	30435.84
608.914	30418.44
609.272	30882.15
609.629	31096.39
609.986	31539.54
610.343	31530.95
610.7	31988.79
611.057	31962.58
611.414	32199.63
611.771	32367.99
612.127	32709.22
612.484	32847.98
612.841	33153.96
613.198	33216.1
613.554	33528.86
613.911	33891.11
614.267	33964.33
614.624	34061.05
614.98	34242.97
615.337	34619.91
615.693	34669.63
616.05	34771.32
616.406	35291.98
616.762	35135.38
617.118	35321.59
617.475	35431.19
617.831	35839.31
618.187	35823.95
618.543	35988.01
618.899	36269.36
619.255	36375.34
619.611	36341.22
619.967	36791.83
620.323	36854.88
620.678	36713.64
621.034	36919.51
621.39	37011.71
621.746	37121.76
622.101	37667.96
622.457	37454.18
622.812	37621.86
623.168	37820.73
623.523	37864.12
623.879	38015.75
624.234	37832.71
624.589	38246.48
624.945	38195.41
625.3	38263.88
625.655	38413.71
626.01	38492.8
626.365	38663.87
626.72	38703.87
627.075	38671.55
627.43	38702.97
627.785	38716.75
628.14	38895.73
628.495	38778.22
628.85	39036.52
629.205	38828.84
629.559	39143.86
629.914	38987.48
630.269	39117.64
630.623	39124.65
630.978	39000.13
631.332	39232.44
631.687	39479.89
632.041	39262.05
632.396	39368.94
632.75	39235.38
633.104	39419.56
633.459	39033.13
633.813	39221.6
634.167	39276.74
634.521	39267.7
634.875	39422.49
635.229	39370.07
635.583	39159.9
635.937	39320.58
636.291	39333.46
636.645	39378.2
636.999	39235.15
637.352	39512.21
637.706	39171.65
638.06	39507.69
638.413	39326.23
638.767	39246.91
639.121	39358.99
639.474	39254.14
639.828	39219.11
640.181	39293.01
640.534	39390.18
640.888	39239
641.241	39172.78
641.594	39177.98
641.947	39266.34
642.301	39137.98
642.654	39286.9
643.007	39085.33
643.36	39247.58
643.713	39151.77
644.066	39193.57
644.419	39018.66
644.771	38896.63
645.124	38492.8
645.477	38567.15
645.83	38182.53
646.182	38068.86
646.535	38076.99
646.888	38140.04
647.24	37977.11
647.593	38062.08
647.945	38220.49
648.298	37956.09
648.65	37927.62
649.002	37852.59
649.355	37908.86
649.707	37884.91
650.059	37991.35
650.411	38516.98
650.763	38567.38
651.115	38904.09
651.467	38772.34
651.819	38723.3
652.171	38751.78
652.523	38599.92
652.875	38759.01
653.227	38541.39
653.578	38750.2
653.93	38580.26
654.282	38459.36
654.633	38355.63
654.985	38434.27
655.337	38615.96
655.688	38521.05
656.039	38740.03
656.391	38225.69
656.742	38375.06
657.094	38450.32
657.445	38650.54
657.796	38416.65
658.147	38281.73
658.498	38453.71
658.849	38498.68
659.2	38323.09
659.551	38327.61
659.902	38462.29
660.253	38281.28
660.604	38322.64
660.955	38376.19
661.306	38380.26
661.656	38250.55
662.007	38248.74
662.358	38158.12
662.708	38361.51
663.059	38204.9
663.409	38091.23
663.76	38304.78
664.11	38171.45
664.461	38211.9
664.811	38148.18
665.161	38163.54
665.511	38262.07
665.862	38187.5
666.212	38348.17
666.562	38340.94
666.912	38251.9
667.262	38123.32
667.612	38238.8
667.962	38201.74
668.312	38130.55
668.662	38357.66
669.011	38163.54
669.361	38142.08
669.711	38083.09
670.06	38026.37
670.41	38108.63
670.76	37975.53
671.109	38080.83
671.459	37967.62
671.808	37975.07
672.157	38101.63
672.507	37715.87
672.856	37869.09
673.205	37995.41
673.554	38049.65
673.904	37891.69
674.253	38045.36
674.602	37954.51
674.951	37349.33
675.3	37201.76
675.649	37787.96
675.998	37652.37
676.346	37815.53
676.695	37997.9
677.044	37566.72
677.393	37677.46
677.741	37741.18
678.09	37631.58
678.438	37575.09
678.787	37668.42
679.135	37608.08
679.484	37367.63
679.832	37410.12
680.181	37352.72
680.529	37352.49
680.877	37270.01
681.225	37239.95
681.573	37380.74
681.922	37267.97
682.27	37030.69
682.618	37235.21
682.966	36961.99
683.314	37107.08
683.661	37029.34
684.009	36840.19
684.357	36836.8
684.705	36762.68
685.053	36637.03
685.4	36754.77
685.748	36495.11
686.095	36482.91
686.443	36352.07
686.79	36302.8
687.138	36444.27
687.485	36295.35
687.832	36365.63
688.18	36244.72
688.527	36038.4
688.874	36066.2
689.221	35999.76
689.568	35882.7
689.915	35880.21
690.262	35804.28
690.609	35669.15
690.956	35603.61
691.303	35579.43
691.65	35297.86
691.997	35418.31
692.344	35215.83
692.69	35125.21
693.037	35240.01
693.383	34900.35
693.73	35082.95
694.077	34880.47
694.423	34935.38
694.769	34715.27
695.116	34596.86
695.462	34622.39
695.808	34457.65
696.155	34600.93
696.501	34306.24
696.847	34402.74
697.193	34098.34
697.539	34170.2
697.885	34107.83
698.231	33988.51
698.577	33905.13
698.923	33656.32
699.269	33828.52
699.614	33385.82
699.96	33501.75
700.306	33469.43
700.651	33352.6
700.997	33329.32
701.342	33263.11
701.688	33175.43
702.033	33080.97
702.379	33006.84
702.724	32973.4
703.069	32924.59
703.415	32537.48
703.76	32630.58
704.105	32633.97
704.45	32539.06
704.795	32397.82
705.14	32200.31
705.485	32200.09
705.83	32107.21
706.175	32174.78
706.52	32085.96
706.865	31882.58
707.209	31834.67
707.554	31729.36
707.899	31819.08
708.243	31645.52
708.588	31564.17
708.932	31366.66
709.277	31339.77
709.621	31283.95
709.966	31244.4
710.31	31298.64
710.654	30975.48
710.998	31090.06
711.342	31120.34
711.687	31003.96
712.031	30754.25
712.375	30711.09
712.719	30850.97
713.063	30718.32
713.407	30622.5
713.75	30596.96
714.094	30593.35
714.438	30424.54
714.782	30458.66
715.125	30282.17
715.469	30296.86
715.812	30217.31
716.156	30070.42
716.499	30238.78
716.843	30205.11
717.186	29989.3
717.53	30133.25
717.873	30133.02
718.216	30034.72
718.559	29850.77
718.902	29711.56
719.246	29690.1
719.589	29733.94
719.932	29463.89
720.275	29503.66
720.617	29459.37
720.96	29463.21
721.303	29462.3
721.646	29408.29
721.989	29139.15
722.331	29324
722.674	29044.46
723.016	29218.02
723.359	29100.28
723.701	29141.18
724.044	29010.11
724.386	28947.52
724.729	28874.52
725.071	28737.58
725.413	28911.13
725.755	28851.02
726.097	28545.27
726.439	28489.9
726.782	28632.27
727.124	28678.37
727.465	28455.33
727.807	28394.54
728.149	28404.48
728.491	28288.78
728.833	28388.21
729.175	28351.37
729.516	28289
729.858	28202.22
730.199	28152.51
730.541	28126.52
730.882	28066.63
731.224	28183.69
731.565	28033.64
731.906	28040.87
732.248	27964.49
732.589	27819.86
732.93	27802.46
733.271	27748.9
733.612	27729.24
733.953	27668.91
734.294	27617.38
734.635	27573.77
734.976	27648.79
735.317	27437.5
735.658	27468.68
735.999	27578.74
736.339	27428.01
736.68	27490.15
737.021	27388.46
737.361	27307.11
737.702	27393.21
738.042	27352.76
738.383	27276.15
738.723	27301.46
739.063	27201.35
739.404	27257.62
739.744	27123.83
740.084	27053.33
740.424	27054.91
740.764	27043.38
741.104	27056.27
741.444	26825.76
741.784	26880.23
742.124	26850.85
742.464	26760.23
742.804	26782.15
743.143	26832.54
743.483	26718.42
743.823	26565.66
744.162	26577.63
744.502	26707.12
744.841	26461.48
745.181	26488.15
745.52	26470.29
745.86	26536.96
746.199	26419.22
746.538	26412.44
746.877	26498.77
747.216	26495.6
747.556	26277.08
747.895	26308.26
748.234	26226.23
748.573	26293.35
748.911	26140.36
749.25	26085.67
749.589	26059.68
749.928	25978.1
750.267	26022.39
750.605	25941.27
750.944	25860.37
751.283	25859.69
751.621	25920.25
751.96	25721.39
752.298	25659.24
752.636	25725.91
752.975	25561.39
753.313	25405.91
753.651	25608.17
753.989	25579.92
754.327	25468.51
754.666	25357.1
755.004	25388.51
755.342	25328.4
755.679	25315.52
756.017	25102.65
756.355	25198.69
756.693	25027.62
757.031	25104.45
757.368	24921.86
757.706	25033.04
758.044	24859.94
758.381	24739.04
758.719	24765.48
759.056	24729.1
759.394	24661.3
759.731	24663.56
760.068	24573.39
760.405	24299.95
760.743	24366.17
761.08	24425.37
