Data from hue_50_FLMS001491_35.txt Node
Date: Mon Feb 06 15:10:02 GMT 2017
User: dcchb
Spectrometer: FLMS00149
Trigger mode: 0
Integration Time (sec): 2.000000E-2
Scans to average: 10
Electric dark correction enabled: true
Nonlinearity correction enabled: false
Boxcar width: 0
XAxis mode: Wavelengths
Number of Pixels in Spectrum: 2048
>>>>>Begin Spectral Data<<<<<
341.393	-12.92
341.776	-12.92
342.16	-12.92
342.543	-75.52
342.927	-49.08
343.31	-68.97
343.693	-66.71
344.077	-64.45
344.46	-61.74
344.843	-53.6
345.226	-44.11
345.61	-33.71
345.993	-46.14
346.376	7.19
346.759	-0.72
347.142	37.7
347.525	53.74
347.908	55.78
348.291	80.63
348.674	82.89
349.057	122.21
349.44	131.93
349.823	125.15
350.206	161.31
350.588	180.97
350.971	226.17
351.354	218.03
351.737	234.3
352.119	237.92
352.502	264.81
352.884	287.41
353.267	296
353.65	281.53
354.032	299.16
354.414	316.11
354.797	315.2
355.179	320.85
355.562	314.3
355.944	329.89
356.326	347.52
356.709	337.12
357.091	337.35
357.473	356.56
357.855	341.42
358.238	352.72
358.62	351.36
359.002	348.65
359.384	326.5
359.766	341.42
360.148	324.47
360.53	322.66
360.912	357.24
361.294	331.47
361.676	329.21
362.057	337.12
362.439	340.74
362.821	336.9
363.203	331.93
363.584	334.86
363.966	332.15
364.348	312.49
364.729	314.98
365.111	326.95
365.493	330.12
365.874	312.27
366.256	312.04
366.637	332.15
367.019	318.82
367.4	311.36
367.781	323.56
368.163	322.66
368.544	312.49
368.925	325.6
369.306	310.46
369.688	331.47
370.069	315.2
370.45	306.62
370.831	303.9
371.212	327.18
371.593	303
371.974	307.29
372.355	319.72
372.736	312.72
373.117	318.59
373.498	303
373.879	329.89
374.26	310.46
374.641	302.77
375.021	307.97
375.402	306.16
375.783	324.69
376.163	328.54
376.544	318.82
376.925	312.49
377.305	312.04
377.686	319.5
378.066	316.33
378.447	336.67
378.827	322.89
379.208	324.02
379.588	323.79
379.968	331.25
380.349	328.76
380.729	321.08
381.109	348.2
381.489	328.99
381.87	338.48
382.25	333.96
382.63	333.51
383.01	348.65
383.39	326.5
383.77	335.54
384.15	341.87
384.53	340.51
384.91	345.26
385.29	360.17
385.67	344.58
386.049	342.32
386.429	352.26
386.809	340.51
387.189	375.31
387.568	346.62
387.948	346.84
388.328	356.78
388.707	337.8
389.087	324.02
389.466	384.35
389.846	364.92
390.225	362.66
390.605	359.95
390.984	354.75
391.363	363.11
391.743	346.84
392.122	349.55
392.501	363.79
392.881	373.73
393.26	337.35
393.639	355.88
394.018	364.69
394.397	358.14
394.776	364.47
395.155	352.94
395.534	364.69
395.913	359.04
396.292	379.16
396.671	364.24
397.05	369.44
397.429	364.02
397.808	385.03
398.186	350.23
398.565	365.37
398.944	381.87
399.323	373.51
399.701	380.06
400.08	382.77
400.458	392.49
400.837	377.12
401.215	398.82
401.594	394.52
401.972	383.45
402.351	371.47
402.729	377.8
403.107	392.26
403.486	403.56
403.864	378.93
404.242	404.01
404.62	380.06
404.999	383.22
405.377	389.55
405.755	407.4
406.133	394.52
406.511	406.05
406.889	416.67
407.267	417.12
407.645	420.51
408.023	425.03
408.401	418.48
408.779	423.9
409.156	441.75
409.534	420.06
409.912	412.83
410.29	412.15
410.667	419.16
411.045	428.87
411.422	423.68
411.8	428.42
412.178	416.44
412.555	432.49
412.933	444.24
413.31	433.17
413.687	437.91
414.065	434.07
414.442	459.61
414.819	447.63
415.197	451.7
415.574	444.69
415.951	476.78
416.328	452.6
416.705	455.99
417.082	482.88
417.46	446.05
417.837	488.76
418.214	477.01
418.591	481.53
418.967	482.66
419.344	464.8
419.721	478.36
420.098	467.52
420.475	479.27
420.852	483.33
421.228	497.12
421.605	494.86
421.982	490.34
422.358	503.22
422.735	494.63
423.111	505.48
423.488	500.74
423.864	519.27
424.241	509.55
424.617	510.68
424.994	520.62
425.37	523.11
425.746	503.67
426.123	526.27
426.499	492.6
426.875	528.53
427.251	528.08
427.627	544.12
428.003	552.71
428.379	541.64
428.756	559.04
429.132	535.08
429.507	557.01
429.883	568.3
430.259	558.36
430.635	550.23
431.011	571.92
431.387	584.58
431.763	586.38
432.138	584.12
432.514	567.17
432.89	590.68
433.265	605.59
433.641	587.96
434.016	601.3
434.392	603.56
434.767	596.33
435.143	598.81
435.518	599.72
435.894	612.37
436.269	639.26
436.644	611.47
437.02	634.07
437.395	629.55
437.77	634.52
438.145	641.07
438.52	627.51
438.895	646.72
439.271	652.6
439.646	642.2
440.021	678.36
440.395	649.88
440.77	657.34
441.145	652.37
441.52	682.2
441.895	698.24
442.27	656.89
442.645	684.01
443.019	657.34
443.394	681.75
443.769	702.09
444.143	707.06
444.518	688.98
444.892	676.55
445.267	705.02
445.641	704.35
446.016	721.75
446.39	713.84
446.764	720.62
447.139	715.87
447.513	721.52
447.887	726.94
448.262	721.75
448.636	731.69
449.01	731.92
449.384	733.27
449.758	717.9
450.132	749.99
450.506	772.37
450.88	745.7
451.254	740.96
451.628	771.46
452.002	770.11
452.376	778.69
452.75	799.94
453.123	798.81
453.497	811.01
453.871	809.88
454.244	808.98
454.618	847.17
454.992	829.77
455.365	813.04
455.739	861.86
456.112	863.66
456.486	850.56
456.859	849.43
457.232	860.95
457.606	845.36
457.979	882.87
458.352	872.7
458.725	927.62
459.099	905.92
459.472	931.46
459.845	907.96
460.218	932.81
460.591	952.47
460.964	938.24
461.337	952.93
461.71	968.29
462.083	1001.06
462.456	985.02
462.829	1027.73
463.201	1039.93
463.574	1023.66
463.947	1008.07
464.32	1049.42
464.692	1041.29
465.065	1063.21
465.438	1079.25
465.81	1119.7
466.183	1142.98
466.555	1156.09
466.928	1131.23
467.3	1152.92
467.672	1202.19
468.045	1197.89
468.417	1229.08
468.789	1223.65
469.161	1260.04
469.534	1274.73
469.906	1285.35
470.278	1299.36
470.65	1356.31
471.022	1389.07
471.394	1399.24
471.766	1420.26
472.138	1420.71
472.51	1468.39
472.882	1500.94
473.253	1517.66
473.625	1533.02
473.997	1593.81
474.369	1629.07
474.74	1647.37
475.112	1663.42
475.484	1731.44
475.855	1775.73
476.227	1815.73
476.598	1867.25
476.97	1890.76
477.341	1935.5
477.713	1984.09
478.084	2053.91
478.455	2083.97
478.827	2175.95
479.198	2210.29
479.569	2272.44
479.94	2346.34
480.311	2406.67
480.682	2484.86
481.053	2587.69
481.424	2626.56
481.795	2686.89
482.166	2785.65
482.537	2834.46
482.908	2939.54
483.279	2987.45
483.65	3100.67
484.021	3204.85
484.391	3289.36
484.762	3357.38
485.133	3401.68
485.503	3565.97
485.874	3654.78
486.244	3796.02
486.615	3899.29
486.985	3979.29
487.356	4093.41
487.726	4212.28
488.097	4335.21
488.467	4403.23
488.837	4595.09
489.207	4686.39
489.578	4783.79
489.948	4938.13
490.318	4990.11
490.688	5146.04
491.058	5255.41
491.428	5379.93
491.798	5497.21
492.168	5696.53
492.538	5794.16
492.908	5916.64
493.278	6028.95
493.648	6170.19
494.017	6289.06
494.387	6405.89
494.757	6622.38
495.126	6715.26
495.496	6761.81
495.866	6900.34
496.235	6970.85
496.605	7181.92
496.974	7269.82
497.344	7410.38
497.713	7535.13
498.082	7690.6
498.452	7785.06
498.821	7901.9
499.19	7978.96
499.559	8107.09
499.928	8265.5
500.298	8380.75
500.667	8511.15
501.036	8604.03
501.405	8745.72
501.774	8864.36
502.143	8965.15
502.512	9054.18
502.88	9192.71
503.249	9232.71
503.618	9349.09
503.987	9502.98
504.356	9612.59
504.724	9684
505.093	9826.37
505.462	9855.29
505.83	9992.69
506.199	10116.75
506.567	10300.25
506.936	10351.1
507.304	10448.95
507.672	10564.43
508.041	10636.74
508.409	10782.5
508.777	10870.18
509.145	10998.99
509.514	11075.15
509.882	11219.32
510.25	11288.25
510.618	11460.67
510.986	11458.41
511.354	11582.03
511.722	11772.53
512.09	11899.53
512.458	11868.8
512.826	12046.19
513.193	12068.11
513.561	12150.6
513.929	12325.96
514.297	12447.77
514.664	12496.58
515.032	12592.62
515.4	12739.06
515.767	12842.78
516.135	12903.57
516.502	12869.22
516.869	13170.01
517.237	13114.87
517.604	13239.61
517.972	13324.13
518.339	13490.22
518.706	13500.17
519.073	13654.74
519.44	13753.72
519.808	13876.65
520.175	13854.51
520.542	14102.86
520.909	14168.85
521.276	14219.7
521.643	14279.58
522.009	14496.3
522.376	14640.93
522.743	14549.86
523.11	14802.28
523.477	14994.59
523.843	15026.46
524.21	15184.19
524.577	15368.14
524.943	15393.45
525.31	15423.05
525.676	15603.39
526.043	15756.83
526.409	15843.38
526.776	15941.01
527.142	16082.92
527.508	16097.61
527.874	16207.89
528.241	16306.42
528.607	16465.29
528.973	16594.55
529.339	16544.61
529.705	16757.94
530.071	16886.07
530.437	16911.15
530.803	17065.27
531.169	17212.16
531.535	17245.83
531.901	17157.25
532.267	17282.67
532.632	17380.07
532.998	17363.12
533.364	17648.08
533.73	17745.71
534.095	17786.61
534.461	17883.78
534.826	17941.63
535.192	18058.92
535.557	18202.19
535.923	18274.05
536.288	18268.18
536.653	18403.32
537.019	18439.92
537.384	18447.38
537.749	18503.2
538.114	18546.81
538.479	18621.84
538.845	18722.18
539.21	18786.13
539.575	18854.83
539.94	18871.1
540.305	19092.79
540.67	19035.39
541.034	19174.82
541.399	19084.43
541.764	19240.13
542.129	19322.39
542.494	19375.04
542.858	19450.07
543.223	19529.16
543.587	19660.23
543.952	19739.33
544.316	19730.06
544.681	19780.68
545.045	19900
545.41	19951.75
545.774	20025.65
546.138	20061.13
546.503	20079.43
546.867	20107.68
547.231	20280.78
547.595	20388.35
547.959	20444.84
548.324	20357.16
548.688	20555.58
549.052	20592.41
549.416	20664.5
549.779	20729.36
550.143	20702.01
550.507	20869.92
550.871	20971.84
551.235	20982.23
551.599	20988.33
551.962	21122.11
552.326	21262
552.689	21372.28
553.053	21277.36
553.417	21252.05
553.78	21594.42
554.143	21466.74
554.507	21658.37
554.87	21735.21
555.234	21898.14
555.597	21751.02
555.96	21984.92
556.323	22099.72
556.686	21935.65
557.05	22207.06
557.413	22295.42
557.776	22263.55
558.139	22489.99
558.502	22523.43
558.865	22607.05
559.228	22720.72
559.59	22784.44
559.953	22866.48
560.316	23005.91
560.679	23078.9
561.041	23253.36
561.404	23259.01
561.767	23422.39
562.129	23388.72
562.492	23661.26
562.854	23597.76
563.217	23678.21
563.579	23811.31
563.941	23935.83
564.304	24076.16
564.666	24075.48
565.028	24204.74
565.39	24299.43
565.753	24311.86
566.115	24510.5
566.477	24548.69
566.839	24778.97
567.201	24805.86
567.563	24798.18
567.925	25007.21
568.287	25066.87
568.648	25162.91
569.01	25322.68
569.372	25388.67
569.734	25180.76
570.095	25614.88
570.457	25748.89
570.819	25647.64
571.18	25741.88
571.542	25833.85
571.903	25929.67
572.265	26097.58
572.626	26187.07
572.987	26248.31
573.349	26433.16
573.71	26497.34
574.071	26507.06
574.432	26623.66
574.794	26738.46
575.155	26885.8
575.516	26629.31
575.877	26898.23
576.238	27090.09
576.599	27200.15
576.96	27356.98
577.32	27186.14
577.681	27404.66
578.042	27559.23
578.403	27611.89
578.763	27747.48
579.124	27713.13
579.485	27967.58
579.845	28014.14
580.206	28031.31
580.566	28010.75
580.927	28147.01
581.287	28312.21
581.648	28391.75
582.008	28523.73
582.368	28526.89
582.728	28716.72
583.089	28740.9
583.449	28864.51
583.809	28909.25
584.169	29045.52
584.529	29092.98
584.889	29404.83
585.249	29129.36
585.609	29243.26
585.969	29493.65
586.329	29584.26
586.688	29690.7
587.048	29761.21
587.408	29754.2
587.768	29945.84
588.127	29996.01
588.487	30079.39
588.846	30387.86
589.206	30139.96
589.565	30372.49
589.925	30580.62
590.284	30579.04
590.643	30683.44
591.003	30786.72
591.362	31049.54
591.721	31000.72
592.08	30979.48
592.44	31326.37
592.799	31379.25
593.158	31307.83
593.517	31575.85
593.876	31753.02
594.235	31524.78
594.593	31795.73
594.952	31925.45
595.311	31934.94
595.67	31956.86
596.029	32189.17
596.387	32356.39
596.746	32458.31
597.104	32324.31
597.463	32386.22
597.822	32672.77
598.18	32560.68
598.538	32532.89
598.897	32838.87
599.255	32724.07
599.613	33351.85
599.972	33240.44
600.33	33313.66
600.688	33185.75
601.046	33396.37
601.404	33653.76
601.762	33556.59
602.12	33849.92
602.478	33703.7
602.836	33863.25
603.194	33702.35
603.552	33892.17
603.91	33966.3
604.268	34322.44
604.625	34146.18
604.983	34380.07
605.341	34079.97
605.698	34350.47
606.056	34467.75
606.413	34491.03
606.771	34773.96
607.128	34778.93
607.485	34626.84
607.843	34836.33
608.2	35049.66
608.557	35043.33
608.914	35011.47
609.272	35078.13
609.629	35229.54
609.986	35502.53
610.343	35354.28
610.7	35591.56
611.057	35588.4
611.414	35611.68
611.771	35729.19
612.127	35847.15
612.484	35841.73
612.841	35937.32
613.198	35960.37
613.554	35972.8
613.911	36345.67
614.267	36307.48
614.624	36237.65
614.98	36344.54
615.337	36558.77
615.693	36408.04
616.05	36477.64
616.406	36707.92
616.762	36646
617.118	36643.06
617.475	36624.08
617.831	36848.03
618.187	36885.77
618.543	36939.1
618.899	37183.16
619.255	37143.16
619.611	37162.6
619.967	37335.7
620.323	37269.03
620.678	37216.38
621.034	37306.32
621.39	37293.44
621.746	37369.6
622.101	37789.25
622.457	37440.33
622.812	37636.26
623.168	37753.99
623.523	37691.17
623.879	37864.95
624.234	37495.02
624.589	37763.71
624.945	37734.11
625.3	37748.8
625.655	37901.33
626.01	37822.24
626.365	37922.58
626.72	37955.34
627.075	37832.86
627.43	37768.68
627.785	37686.88
628.14	37935.01
628.495	38008.45
628.85	37885.52
629.205	37795.57
629.559	38003.48
629.914	37920.99
630.269	37981.33
630.623	37862.01
630.978	37891.84
631.332	38023.82
631.687	38104.27
632.041	37873.76
632.396	38009.13
632.75	37880.77
633.104	37883.03
633.459	37720.77
633.813	37958.73
634.167	37796.25
634.521	37842.35
634.875	37829.25
635.229	37766.42
635.583	37617.05
635.937	37615.24
636.291	37794.9
636.645	37796.25
636.999	37575.69
637.352	37661.79
637.706	37526.88
638.06	37749.93
638.413	37636.03
638.767	37557.61
639.121	37559.65
639.474	37275.36
639.828	37416.37
640.181	37398.07
640.534	37529.59
640.888	37489.37
641.241	37377.96
641.594	37362.37
641.947	37360.78
642.301	37405.98
642.654	37325.76
643.007	37326.89
643.36	37257.51
643.713	37249.37
644.066	37274.91
644.419	37150.39
644.771	36768.48
645.124	36614.81
645.477	36477.19
645.83	36230.64
646.182	36094.38
646.535	36179.8
646.888	36119.69
647.24	36006.69
647.593	36175.5
647.945	36074.72
648.298	35959.92
648.65	35815.29
649.002	35746.59
649.355	35839.92
649.707	35806.25
650.059	35984.1
650.411	36456.85
650.763	36462.73
651.115	36756.73
651.467	36612.33
651.819	36742.04
652.171	36691.87
652.523	36608.26
652.875	36535.27
653.227	36396.51
653.578	36746.11
653.93	36462.95
654.282	36448.26
654.633	36192.23
654.985	36340.7
655.337	36431.77
655.688	36368.49
656.039	36511.31
656.391	36147.26
656.742	36296.4
657.094	36278.55
657.445	36303.64
657.796	36379.34
658.147	36409.85
658.498	36293.92
658.849	36334.6
659.2	36259.34
659.551	36077.65
659.902	36313.81
660.253	36242.17
660.604	36330.08
660.955	36054.83
661.306	36234.94
661.656	35987.71
662.007	36115.84
662.358	36046.69
662.708	36104.55
663.059	36050.31
663.409	35923.53
663.76	36117.2
664.11	36057.09
664.461	36133.92
664.811	36074.94
665.161	36064.09
665.511	36021.38
665.862	36018.22
666.212	36079.69
666.562	36194.71
666.912	36091.66
667.262	36075.62
667.612	35938.9
667.962	36022.51
668.312	35998.33
668.662	35970.09
669.011	36117.88
669.361	36074.72
669.711	36014.38
670.06	35998.79
670.41	35779.58
670.76	35900.48
671.109	36032.23
671.459	35989.07
671.808	35771.22
672.157	35901.16
672.507	35682.41
672.856	35683.31
673.205	35825
673.554	35862.29
673.904	35623.2
674.253	35898.9
674.602	35719.92
674.951	35185.93
675.3	35105.02
675.649	35693.48
675.998	35651
676.346	35759.92
676.695	35739.13
677.044	35491.91
677.393	35539.36
677.741	35617.33
678.09	35519.48
678.438	35335.07
678.787	35433.6
679.135	35531.45
679.484	35231.57
679.832	35307.05
680.181	35168.98
680.529	35305.92
680.877	35300.5
681.225	35180.05
681.573	35245.13
681.922	35045.14
682.27	35015.08
682.618	34983.67
682.966	35009.43
683.314	34928.98
683.661	34964.01
684.009	34652.61
684.357	34564.47
684.705	34601.99
685.053	34658.03
685.4	34593.62
685.748	34607.86
686.095	34471.37
686.443	34302.11
686.79	34256.01
687.138	34466.4
687.485	34247.19
687.832	34292.84
688.18	34223.01
688.527	34138.5
688.874	34062.56
689.221	33959.52
689.568	33778.05
689.915	33870.71
690.262	33812.63
690.609	33617.6
690.956	33580.32
691.303	33485.4
691.65	33385.97
691.997	33403.15
692.344	33234.34
692.69	33297.61
693.037	33239.54
693.383	33015.13
693.73	33184.62
694.077	32862.37
694.423	32878.42
694.769	32655.37
695.116	32851.3
695.462	32603.62
695.808	32506.9
696.155	32705.31
696.501	32410.18
696.847	32358.43
697.193	32252.89
697.539	32145.78
697.885	32027.59
698.231	31953.02
698.577	32032.34
698.923	31918.67
699.269	31859.68
699.614	31612.23
699.96	31615.62
700.306	31588.96
700.651	31421.96
700.997	31318
701.342	31329.3
701.688	31258.12
702.033	31173.15
702.379	31154.39
702.724	31024.9
703.069	31057.22
703.415	30776.78
703.76	30803.22
704.105	30849.32
704.45	30770.9
704.795	30635.54
705.14	30363.91
705.485	30440.29
705.83	30227.19
706.175	30281.2
706.52	30287.07
706.865	30149
707.209	30081.65
707.554	29960.53
707.899	30041.2
708.243	29830.59
708.588	29862.9
708.932	29640.53
709.277	29614.77
709.621	29603.47
709.966	29458.17
710.31	29632.62
710.654	29319.64
710.998	29410.48
711.342	29312.86
711.687	29337.94
712.031	29164.84
712.375	29092.07
712.719	29141.34
713.063	29116.25
713.407	29070.15
713.75	28853.44
714.094	28869.71
714.438	28783.83
714.782	28769.6
715.125	28616.38
715.469	28811.63
715.812	28530.51
716.156	28344.98
716.499	28454.58
716.843	28350.62
717.186	28380.68
717.53	28424.29
717.873	28346.1
718.216	28214.36
718.559	28170.74
718.902	28000.35
719.246	28080.35
719.589	27915.83
719.932	27788.38
720.275	27872.22
720.617	27731.43
720.96	27789.28
721.303	27827.02
721.646	27779.79
721.989	27596.29
722.331	27531.66
722.674	27584.09
723.016	27601.72
723.359	27467.26
723.701	27419.58
724.044	27235.4
724.386	27152.69
724.729	27420.71
725.071	27419.35
725.413	27188.85
725.755	27238.56
726.097	27168.96
726.439	26976.42
726.782	26878.12
727.124	27094.84
727.465	26882.41
727.807	26929.19
728.149	26814.62
728.491	26808.74
728.833	26875.64
729.175	26842.19
729.516	26607.17
729.858	26646.26
730.199	26608.07
730.541	26595.87
730.882	26536.89
731.224	26644.23
731.565	26401.75
731.906	26428.19
732.248	26581.18
732.589	26370.79
732.93	26283.11
733.271	26237.01
733.612	26256.44
733.953	26095.09
734.294	26041.98
734.635	25992.49
734.976	26145.26
735.317	25997.47
735.658	25834.31
735.999	25939.16
736.339	25943
736.68	26081.08
737.021	25871.37
737.361	25685.38
737.702	25948.2
738.042	25806.28
738.383	25721.32
738.723	25738.94
739.063	25657.36
739.404	25667.76
739.744	25596.8
740.084	25552.51
740.424	25463.69
740.764	25441.77
741.104	25512.06
741.444	25324.94
741.784	25331.04
742.124	25414.43
742.464	25354.77
742.804	25253.3
743.143	25182.57
743.483	25243.59
743.823	25054.44
744.162	25126.08
744.502	25131.5
744.841	25004.5
745.181	24966.08
745.52	24967.44
745.86	24943.26
746.199	24867.1
746.538	24850.6
746.877	24892.18
747.216	24859.19
747.556	24688.57
747.895	24805.41
748.234	24641.57
748.573	24573.1
748.911	24528.13
749.25	24589.59
749.589	24438.19
749.928	24555.7
750.267	24419.2
750.605	24385.31
750.944	24298.08
751.283	24345.08
751.621	24355.02
751.96	24197.29
752.298	24117.06
752.636	24057.63
752.975	24003.85
753.313	23901.93
753.651	24022.83
753.989	23891.98
754.327	23860.57
754.666	23674.14
755.004	23772.21
755.342	23726.34
755.679	23681.82
756.017	23545.33
756.355	23668.71
756.693	23499.45
757.031	23455.84
