Data from hue_10_FLMS001491_16.txt Node
Date: Mon Feb 06 15:31:30 GMT 2017
User: dcchb
Spectrometer: FLMS00149
Trigger mode: 0
Integration Time (sec): 2.000000E-2
Scans to average: 10
Electric dark correction enabled: true
Nonlinearity correction enabled: false
Boxcar width: 0
XAxis mode: Wavelengths
Number of Pixels in Spectrum: 2048
>>>>>Begin Spectral Data<<<<<
341.393	-5.3
341.776	-5.3
342.16	-5.3
342.543	-66.76
342.927	-78.29
343.31	-46.65
343.693	-59.76
344.077	-87.1
344.46	-81.9
344.843	-54.56
345.226	-57.27
345.61	-24.28
345.993	-41.45
346.376	5.1
346.759	29.73
347.142	22.95
347.525	42.61
347.908	55.27
348.291	73.35
348.674	104.53
349.057	119.45
349.44	120.35
349.823	151.54
350.206	184.3
350.588	198.54
350.971	210.07
351.354	218.43
351.737	238.31
352.119	234.25
352.502	265.88
352.884	263.85
353.267	263.17
353.65	291.42
354.032	302.04
354.414	312.66
354.797	310.85
355.179	319.67
355.562	319.67
355.944	335.71
356.326	361.25
356.709	348.14
357.091	328.93
357.473	353.79
357.855	320.34
358.238	355.6
358.62	342.72
359.002	327.12
359.384	344.98
359.766	349.5
360.148	364.19
360.53	344.07
360.912	319.44
361.294	343.17
361.676	314.02
362.057	333.23
362.439	329.16
362.821	325.09
363.203	328.03
363.584	334.81
363.966	313.79
364.348	309.95
364.729	305.43
365.111	326.67
365.493	303.62
365.874	317.41
366.256	324.19
366.637	322.15
367.019	302.49
367.4	322.6
367.781	309.72
368.163	320.34
368.544	309.95
368.925	312.66
369.306	322.38
369.688	342.27
370.069	320.12
370.45	299.33
370.831	308.59
371.212	320.12
371.593	312.89
371.974	315.15
372.355	314.92
372.736	308.14
373.117	303.62
373.498	322.38
373.879	306.79
374.26	321.93
374.641	316.95
375.021	315.37
375.402	321.25
375.783	302.94
376.163	298.42
376.544	328.71
376.925	320.34
377.305	345.43
377.686	313.79
378.066	314.7
378.447	318.31
378.827	310.4
379.208	312.89
379.588	314.02
379.968	292.77
380.349	349.5
380.729	317.86
381.109	319.67
381.489	324.19
381.87	336.39
382.25	342.49
382.63	343.17
383.01	311.31
383.39	308.59
383.77	316.5
384.15	327.12
384.53	333.23
384.91	334.13
385.29	334.58
385.67	333.45
386.049	350.63
386.429	340.01
386.809	355.6
387.189	354.47
387.568	357.86
387.948	333.68
388.328	347.01
388.707	343.39
389.087	342.72
389.466	350.4
389.846	352.89
390.225	355.6
390.605	376.16
390.984	348.82
391.363	364.86
391.743	336.62
392.122	365.54
392.501	361.47
392.881	362.6
393.26	357.41
393.639	369.83
394.018	352.66
394.397	368.93
394.776	361.47
395.155	352.43
395.534	349.5
395.913	358.54
396.292	373.9
396.671	374.35
397.05	378.65
397.429	371.42
397.808	356.28
398.186	351.98
398.565	373.9
398.944	370.06
399.323	385.88
399.701	358.99
400.08	368.48
400.458	380.91
400.837	370.29
401.215	388.37
401.594	375.48
401.972	377.97
402.351	394.02
402.729	393.34
403.107	402.38
403.486	394.24
403.864	376.84
404.242	389.72
404.62	380.68
404.999	386.78
405.377	398.76
405.755	369.83
406.133	390.85
406.511	399.44
406.889	395.6
407.267	412.32
407.645	424.75
408.023	396.27
408.401	397.86
408.779	392.21
409.156	404.41
409.534	397.63
409.912	454.13
410.29	429.27
410.667	430.4
411.045	424.52
411.422	420.68
411.8	414.58
412.178	422.71
412.555	426.56
412.933	424.75
413.31	432.88
413.687	450.06
414.065	455.03
414.442	435.14
414.819	458.87
415.197	452.77
415.574	440.79
415.951	454.58
416.328	432.66
416.705	464.97
417.082	449.61
417.46	466.78
417.837	472.43
418.214	463.17
418.591	469.04
418.967	459.32
419.344	470.17
419.721	474.01
420.098	455.93
420.475	492.54
420.852	497.06
421.228	506.78
421.605	471.98
421.982	467.69
422.358	488.02
422.735	506.55
423.111	496.84
423.488	497.97
423.864	499.1
424.241	485.09
424.617	492.77
424.994	514.46
425.37	526.44
425.746	491.41
426.123	511.75
426.499	515.14
426.875	528.25
427.251	521.47
427.627	525.76
428.003	515.14
428.379	537.06
428.756	542.94
429.132	544.97
429.507	546.55
429.883	562.37
430.259	556.27
430.635	554.69
431.011	547.91
431.387	551.98
431.763	565.31
432.138	559.21
432.514	572.54
432.89	575.48
433.265	558.98
433.641	577.29
434.016	582.94
434.392	611.86
434.767	593.33
435.143	625.65
435.518	624.74
435.894	609.83
436.269	610.05
436.644	610.73
437.02	618.64
437.395	631.3
437.77	624.52
438.145	660.67
438.52	635.36
438.895	660.67
439.271	667.45
439.646	674.91
440.021	664.06
440.395	679.66
440.77	667.68
441.145	662.26
441.52	690.28
441.895	695.25
442.27	687.11
442.645	676.95
443.019	678.98
443.394	693.44
443.769	675.36
444.143	666.32
444.518	711.97
444.892	690.96
445.267	688.92
445.641	684.63
446.016	723.27
446.39	702.26
446.764	718.07
447.139	715.36
447.513	729.83
447.887	751.29
448.262	720.56
448.636	738.86
449.01	739.77
449.384	718.98
449.758	750.84
450.132	740.22
450.506	758.3
450.88	743.61
451.254	746.55
451.628	757.85
452.002	778.86
452.376	794
452.75	752.42
453.123	790.16
453.497	794.91
453.871	797.85
454.244	815.02
454.618	814.12
454.992	813.44
455.365	792.87
455.739	829.71
456.112	830.84
456.486	823.61
456.859	848.69
457.232	841.23
457.606	836.26
457.979	862.03
458.352	880.33
458.725	871.29
459.099	872.65
459.472	916.94
459.845	904.74
460.218	895.24
460.591	886.66
460.964	923.72
461.337	938.63
461.71	952.64
462.083	956.49
462.456	945.86
462.829	963.72
463.201	984.96
463.574	966.2
463.947	994.45
464.32	998.07
464.692	1024.05
465.065	1020.89
465.438	1013.66
465.81	1031.29
466.183	1063.15
466.555	1053.21
466.928	1090.72
467.3	1070.38
467.672	1099.08
468.045	1097.27
468.417	1111.74
468.789	1122.13
469.161	1142.02
469.534	1156.93
469.906	1183.6
470.278	1173.43
470.65	1179.08
471.022	1208.23
471.394	1223.82
471.766	1227.89
472.138	1264.95
472.51	1304.73
472.882	1303.37
473.253	1310.38
473.625	1344.72
473.997	1351.73
474.369	1369.13
474.74	1379.07
475.112	1429.69
475.484	1433.54
475.855	1496.58
476.227	1470.82
476.598	1515.57
476.97	1524.83
477.341	1571.39
477.713	1586.75
478.084	1612.06
478.455	1656.13
478.827	1670.37
479.198	1678.73
479.569	1733.87
479.94	1754.43
480.311	1770.02
480.682	1829.01
481.053	1876.46
481.424	1918.72
481.795	1915.56
482.166	1983.13
482.537	1973.18
482.908	2026.51
483.279	2064.71
483.65	2076
484.021	2149.9
484.391	2176.12
484.762	2196.68
485.133	2203.91
485.503	2255.44
485.874	2295.66
486.244	2328.88
486.615	2382.89
486.985	2404.81
487.356	2455.66
487.726	2471.25
488.097	2563.9
488.467	2526.84
488.837	2615.65
489.207	2638.02
489.578	2657.01
489.948	2717.8
490.318	2760.05
490.688	2780.62
491.058	2875.08
491.428	2844.35
491.798	2936.55
492.168	2964.34
492.538	2975.42
492.908	3028.97
493.278	3040.05
493.648	3077.56
494.017	3104.45
494.387	3184.22
494.757	3149.65
495.126	3219.48
495.496	3211.34
495.866	3248.86
496.235	3301.06
496.605	3351.9
496.974	3374.5
497.344	3406.37
497.713	3380.6
498.082	3433.03
498.452	3474.61
498.821	3449.53
499.19	3530.2
499.559	3580.6
499.928	3573.14
500.298	3601.39
500.667	3615.17
501.036	3639.81
501.405	3672.8
501.774	3631.9
502.143	3687.94
502.512	3743.08
502.88	3756.86
503.249	3760.03
503.618	3802.29
503.987	3825.56
504.356	3856.75
504.724	3842.06
505.093	3861.95
505.462	3908.95
505.83	3942.62
506.199	3956.63
506.567	3952.79
506.936	3995.5
507.304	3989.4
507.672	4035.28
508.041	4057.87
508.409	4055.61
508.777	4080.47
509.145	4106.23
509.514	4119.11
509.882	4127.25
510.25	4131.09
510.618	4181.71
510.986	4174.03
511.354	4239.11
511.722	4226.23
512.09	4278.21
512.458	4260.13
512.826	4284.99
513.193	4258.09
513.561	4305.55
513.929	4330.41
514.297	4372.89
514.664	4388.94
515.032	4379.45
515.4	4418.54
515.767	4432.55
516.135	4412.44
516.502	4400.01
516.869	4430.52
517.237	4510.52
517.604	4433.91
517.972	4524.3
518.339	4517.75
518.706	4495.83
519.073	4587.58
519.44	4560.23
519.808	4604.3
520.175	4612.89
520.542	4624.19
520.909	4672.32
521.276	4658.54
521.643	4680.23
522.009	4726.78
522.376	4724.3
522.743	4708.7
523.11	4781.92
523.477	4778.98
523.843	4837.06
524.21	4881.13
524.577	4850.4
524.943	4893.56
525.31	4889.26
525.676	4931.75
526.043	4943.73
526.409	4975.14
526.776	5018.07
527.142	5058.75
527.508	5054.68
527.874	5063.27
528.241	5093.1
528.607	5042.71
528.973	5173.32
529.339	5159.54
529.705	5199.76
530.071	5238.86
530.437	5269.14
530.803	5282.47
531.169	5315.92
531.535	5320.89
531.901	5383.26
532.267	5316.15
532.632	5358.4
532.998	5409.93
533.364	5447.44
533.73	5436.14
534.095	5507.1
534.461	5500.77
534.826	5516.14
535.192	5585.52
535.557	5538.74
535.923	5577.61
536.288	5608.79
536.653	5642.01
537.019	5689.47
537.384	5639.53
537.749	5715.68
538.114	5689.24
538.479	5707.55
538.845	5753.87
539.21	5789.81
539.575	5829.13
539.94	5822.12
540.305	5808.34
540.67	5820.31
541.034	5868.67
541.399	5931.27
541.764	5955
542.129	5958.61
542.494	5969.46
542.858	6029.57
543.223	6042.91
543.587	6092.4
543.952	6042.23
544.316	6094.88
544.681	6056.92
545.045	6097.14
545.41	6182.34
545.774	6218.49
546.138	6169.46
546.503	6250.36
546.867	6191.6
547.231	6269.79
547.595	6257.36
547.959	6359.51
548.324	6341.88
548.688	6412.61
549.052	6433.63
549.416	6406.96
549.779	6472.05
550.143	6404.7
550.507	6507.07
550.871	6478.37
551.235	6521.99
551.599	6510.92
551.962	6587.3
552.326	6597.69
552.689	6682.89
553.053	6641.76
553.417	6628.2
553.78	6700.97
554.143	6640.18
554.507	6683.34
554.87	6734.87
555.234	6726.5
555.597	6710.01
555.96	6789.1
556.323	6820.29
556.686	6857.8
557.05	6803.34
557.413	6786.16
557.776	6856.44
558.139	6918.59
558.502	6908.42
558.865	6973.73
559.228	6988.87
559.59	7026.38
559.953	6989.55
560.316	7026.38
560.679	7114.06
561.041	7093.27
561.404	7154.74
561.767	7163.55
562.129	7121.75
562.492	7259.82
562.854	7166.27
563.217	7186.15
563.579	7223.21
563.941	7275.19
564.304	7298.47
564.666	7362.42
565.028	7341.4
565.39	7331.01
565.753	7396.77
566.115	7408.07
566.477	7496.88
566.839	7517.22
567.201	7487.84
567.563	7577.55
567.925	7626.82
568.287	7578.91
568.648	7573.04
569.01	7629.76
569.372	7702.75
569.734	7711.56
570.095	7742.97
570.457	7805.57
570.819	7841.5
571.18	7872.01
571.542	7965.34
571.903	7928.73
572.265	7926.7
572.626	7991.1
572.987	8008.5
573.349	8064.32
573.71	8114.49
574.071	8213.24
574.432	8257.31
574.794	8327.14
575.155	8299.57
575.516	8374.14
575.877	8391.32
576.238	8502.5
576.599	8550.64
576.96	8620.01
577.32	8643.29
577.681	8780.01
578.042	8874.02
578.403	8903.85
578.763	8974.35
579.124	9068.82
579.485	9180
579.845	9287.34
580.206	9339.77
580.566	9471.74
580.927	9575.92
581.287	9686.65
581.648	9733.43
582.008	9944.5
582.368	10089.13
582.728	10182.91
583.089	10337.71
583.449	10506.97
583.809	10560.53
584.169	10781.99
584.529	10950.35
584.889	11101.98
585.249	11278.47
585.609	11464.23
585.969	11675.07
586.329	11824
586.688	12002.3
587.048	12238.22
587.408	12427.6
587.768	12652
588.127	12895.61
588.487	13105.32
588.846	13440.23
589.206	13517.06
589.565	13711.63
589.925	14084.28
590.284	14279.53
590.643	14496.47
591.003	14746.18
591.362	15049.67
591.721	15308.65
592.08	15591.36
592.44	15825.93
592.799	16112.92
593.158	16520.37
593.517	16700.93
593.876	16920.13
594.235	17177.3
594.593	17523.73
594.952	17900.45
595.311	18148.35
595.67	18470.15
596.029	18841.21
596.387	19219.51
596.746	19463.34
597.104	19589.44
597.463	19925.93
597.822	20258.35
598.18	20468.97
598.538	20704.22
598.897	21140.81
599.255	21360.24
599.613	21821.25
599.972	21997.06
600.33	22380.1
600.688	22497.16
601.046	22922.91
601.404	23219.63
601.762	23378.72
602.12	23801.08
602.478	24056.44
602.836	24368.53
603.194	24585.24
603.552	24794.73
603.91	25043.08
604.268	25419.8
604.625	25528.04
604.983	25955.6
605.341	26043.96
605.698	26497.28
606.056	26798.29
606.413	26903.15
606.771	27326.41
607.128	27501.1
607.485	27663.13
607.843	27840.3
608.2	28281.87
608.557	28531.35
608.914	28672.37
609.272	28992.36
609.629	29181.73
609.986	29531.78
610.343	29409.98
610.7	29957.08
611.057	30037.98
611.414	30238.88
611.771	30565.65
612.127	30768.13
612.484	30834.57
612.841	31177.39
613.198	31290.83
613.554	31472.75
613.911	31669.35
614.267	32021.66
614.624	31997.93
614.98	32334.42
615.337	32641.08
615.693	32541.87
616.05	32824.57
616.406	33062.08
616.762	33075.19
617.118	33383.88
617.475	33417.33
617.831	33613.25
618.187	33715.62
618.543	33978.89
618.899	34223.63
619.255	34242.62
619.611	34359.45
619.967	34603.51
620.323	34785.43
620.678	34740.46
621.034	34819.1
621.39	35008.25
621.746	35033.78
622.101	35570.94
622.457	35308.35
622.812	35384.06
623.168	35611.39
623.523	35825.17
623.879	36004.6
624.234	35811.61
624.589	36032.85
624.945	36069.69
625.3	36126.41
625.655	36194.88
626.01	36390.36
626.365	36482.33
626.72	36473.29
627.075	36515.1
627.43	36470.81
627.785	36523.01
628.14	36696.79
628.495	36733.4
628.85	36726.17
629.205	36785.37
629.559	36986.5
629.914	36944.69
630.269	37040.74
630.623	36930.46
630.978	36926.16
631.332	37100.62
631.687	37287.51
632.041	37183.1
632.396	37113.73
632.75	37054.75
633.104	37190.11
633.459	37149.43
633.813	37230.79
634.167	37207.74
634.521	37066.5
634.875	37394.17
635.229	37245.25
635.583	37068.76
635.937	37289.77
636.291	37348.07
636.645	37242.99
636.999	37358.01
637.352	37320.95
637.706	37161.64
638.06	37291.58
638.413	37141.07
638.767	37161.41
639.121	37289.09
639.474	37060.62
639.828	37153.95
640.181	37222.88
640.534	37267.17
640.888	37184.69
641.241	37130.68
641.594	37119.6
641.947	37207.06
642.301	37214.06
642.654	37216.78
643.007	37245.02
643.36	37254.06
643.713	37069.66
644.066	37261.97
644.419	37045.93
644.771	36732.95
645.124	36501.99
645.477	36528.66
645.83	36309
646.182	36188.78
646.535	36185.84
646.888	36264.48
647.24	35948.33
647.593	36133.87
647.945	36042.57
648.298	36086.18
648.65	35901.33
649.002	35940.2
649.355	35996.02
649.707	35892.97
650.059	36153.75
650.411	36448.21
650.763	36627.64
651.115	36892.72
651.467	36843.45
651.819	36843
652.171	36741.31
652.523	36729.78
652.875	36768.88
653.227	36584.48
653.578	36791.7
653.93	36694.53
654.282	36568.66
654.633	36592.61
654.985	36696.79
655.337	36585.61
655.688	36634.87
656.039	36765.49
656.391	36371.15
656.742	36568.21
657.094	36491.82
657.445	36674.42
657.796	36496.34
658.147	36535.66
658.498	36389.68
658.849	36524.14
659.2	36456.57
659.551	36465.61
659.902	36383.13
660.253	36459.28
660.604	36533.18
660.955	36373.18
661.306	36444.14
661.656	36339.51
662.007	36482.11
662.358	36355.33
662.708	36350.13
663.059	36372.5
663.409	36196.24
663.76	36474.87
664.11	36292.51
664.461	36368.89
664.811	36460.19
665.161	36473.97
665.511	36345.61
665.862	36494.76
666.212	36484.82
666.562	36420.41
666.912	36425.16
667.262	36373.63
667.612	36384.93
667.962	36337.02
668.312	36396.91
668.662	36488.43
669.011	36335.89
669.361	36327.76
669.711	36384.48
670.06	36226.07
670.41	36225.16
670.76	36130.25
671.109	36342
671.459	36332.51
671.808	36294.54
672.157	36230.81
672.507	36052.96
672.856	36097.71
673.205	36222
673.554	36377.93
673.904	36058.16
674.253	36450.24
674.602	36091.61
674.951	35627.89
675.3	35473.09
675.649	35987.66
675.998	36095
676.346	35977.71
676.695	36134.32
677.044	35843.03
677.393	36035.56
677.741	36115.56
678.09	35842.12
678.438	35841.9
678.787	35938.62
679.135	35918.28
679.484	35623.15
679.832	35993.98
680.181	35634.9
680.529	35745.18
680.877	35649.81
681.225	35575.91
681.573	35819.75
681.922	35431.74
682.27	35437.84
682.618	35418.63
682.966	35243.27
683.314	35339.54
683.661	35277.84
684.009	34954.69
684.357	34959.66
684.705	35008.47
685.053	35027.68
685.4	35061.35
685.748	34882.15
686.095	34864.3
686.443	34622.95
686.79	34733.23
687.138	34830.17
687.485	34741.81
687.832	34687.35
688.18	34742.49
688.527	34461.14
688.874	34435.83
689.221	34472.67
689.568	34354.03
689.915	34121.26
690.262	34243.29
690.609	34135.95
690.956	34087.82
691.303	34004.66
691.65	33885.79
691.997	33869.07
692.344	33738.68
692.69	33719.01
693.037	33714.27
693.383	33458.23
693.73	33548.17
694.077	33291.23
694.423	33421.17
694.769	33343.88
695.116	33177.79
695.462	33031.12
695.808	32989.77
696.155	33089.2
696.501	32741.41
696.847	32733.5
697.193	32653.96
697.539	32619.61
697.885	32471.59
698.231	32234.31
698.577	32305.49
698.923	32322.22
699.269	32139.4
699.614	32007.2
699.96	31873.19
700.306	31944.37
700.651	31900.76
700.997	31741.67
701.342	31646.98
701.688	31632.97
702.033	31586.87
702.379	31441.33
702.724	31293.54
703.069	31536.7
703.415	31163.6
703.76	31046.32
704.105	31209.93
704.45	31138.07
704.795	30903.5
705.14	30882.48
705.485	30723.84
705.83	30606.33
706.175	30703.27
706.52	30605.88
706.865	30467.8
707.209	30658.98
707.554	30256.05
707.899	30364.98
708.243	30283.62
708.588	30205.66
708.932	30032.56
709.277	29936.52
709.621	30096.06
709.966	29827.82
710.31	29927.25
710.654	29752.79
710.998	29688.84
711.342	29625.34
711.687	29659.23
712.031	29531.55
712.375	29427.38
712.719	29410.88
713.063	29354.38
713.407	29448.39
713.75	29270.77
714.094	29360.49
714.438	29303.31
714.782	29271
715.125	29031.91
715.469	29093.6
715.812	28903.32
716.156	28625.82
716.499	28864.9
716.843	28830.78
717.186	28649.77
717.53	28680.73
717.873	28635.76
718.216	28723.44
718.559	28468.98
718.902	28325.03
719.246	28471.47
719.589	28292.04
719.932	28221.53
720.275	28119.61
720.617	28118.94
720.96	28038.71
721.303	28172.27
721.646	28091.14
721.989	27834.65
722.331	28060.86
722.674	27916
723.016	27966.17
723.359	27896.79
723.701	27817.7
724.044	27678.72
724.386	27668.1
724.729	27703.13
725.071	27481.89
725.413	27535.22
725.755	27571.15
726.097	27494.09
726.439	27328.67
726.782	27249.13
727.124	27420.42
727.465	27294.55
727.807	27320.54
728.149	27266.08
728.491	27126.19
728.833	27244.61
729.175	27064.73
729.516	27115.8
729.858	27094.1
730.199	27030.38
730.541	26910.38
730.882	26882.36
731.224	26927.78
731.565	26753.55
731.906	26762.14
732.248	26794.45
732.589	26648.01
732.93	26622.93
733.271	26646.43
733.612	26679.88
733.953	26627
734.294	26476.27
734.635	26445.31
734.976	26521.92
735.317	26301.13
735.658	26314.92
735.999	26314.92
736.339	26275.37
736.68	26347.91
737.021	26203.51
737.361	26180.46
737.702	26218.42
738.042	26140.46
738.383	26096.62
738.723	26166.44
739.063	26057.97
739.404	26014.13
739.744	26083.28
740.084	25813.69
740.424	25889.39
740.764	25923.06
741.104	25992.66
741.444	25740.69
741.784	25729.62
742.124	25769.62
742.464	25685.33
742.804	25727.36
743.143	25598.1
743.483	25703.63
743.823	25646.23
744.162	25587.02
744.502	25673.58
744.841	25387.71
745.181	25549.74
745.52	25358.56
745.86	25509.06
746.199	25271.1
746.538	25405.56
746.877	25351.78
747.216	25257.54
747.556	25250.99
747.895	25297.77
748.234	25082.41
748.573	25290.08
748.911	25210.09
749.25	25088.51
749.589	24974.84
749.928	25047.6
750.267	25117.43
750.605	24889.42
750.944	24863.2
751.283	24816.2
751.621	24871.34
751.96	24768.29
752.298	24642.42
752.636	24771
752.975	24524.45
753.313	24499.82
753.651	24556.32
753.989	24527.17
754.327	24472.48
754.666	24394.74
755.004	24360.84
755.342	24394.51
755.679	24391.35
756.017	24217.34
756.355	24164.24
756.693	24014.41
757.031	24072.26
757.368	24020.74
757.706	23882.21
758.044	23909.33
758.381	23901.19
758.719	23892.38
759.056	23795.43
759.394	23716.34
759.731	23617.13
760.068	23627.3
760.405	23555.21
760.743	23489.68
761.08	23515.22
761.417	23374.2
