Data from hue_30_FLMS001491_48.txt Node
Date: Mon Feb 06 15:05:23 GMT 2017
User: dcchb
Spectrometer: FLMS00149
Trigger mode: 0
Integration Time (sec): 2.000000E-2
Scans to average: 10
Electric dark correction enabled: true
Nonlinearity correction enabled: false
Boxcar width: 0
XAxis mode: Wavelengths
Number of Pixels in Spectrum: 2048
>>>>>Begin Spectral Data<<<<<
341.393	-18.19
341.776	-18.19
342.16	-18.19
342.543	-63.39
342.927	-82.14
343.31	-55.48
343.693	-75.14
344.077	-70.62
344.46	-59.55
344.843	-63.61
345.226	-40.56
345.61	-24.07
345.993	-15.93
346.376	-7.57
346.759	5.54
347.142	15.48
347.525	57.74
347.908	57.51
348.291	77.63
348.674	80.11
349.057	118.53
349.44	94.35
349.823	124.4
350.206	171.18
350.588	164.85
350.971	198.53
351.354	192.88
351.737	217.06
352.119	233.33
352.502	243.95
352.884	270.39
353.267	290.05
353.65	287.34
354.032	301.8
354.414	285.08
354.797	306.09
355.179	301.35
355.562	314.91
355.944	324.85
356.326	334.57
356.709	337.51
357.091	335.25
357.473	333.21
357.855	347.22
358.238	326.43
358.62	349.26
359.002	352.65
359.384	344.06
359.766	333.21
360.148	334.79
360.53	348.13
360.912	325.53
361.294	328.69
361.676	320.33
362.057	326.43
362.439	342.48
362.821	322.36
363.203	328.92
363.584	317.84
363.966	299.77
364.348	318.97
364.729	325.3
365.111	339.99
365.493	315.58
365.874	306.55
366.256	322.14
366.637	314
367.019	308.58
367.4	315.58
367.781	311.52
368.163	327.56
368.544	311.74
368.925	295.25
369.306	335.02
369.688	308.58
370.069	297.28
370.45	297.96
370.831	298.64
371.212	309.48
371.593	296.83
371.974	290.5
372.355	307
372.736	300.67
373.117	289.14
373.498	325.98
373.879	312.2
374.26	315.36
374.641	319.88
375.021	322.14
375.402	307.68
375.783	304.51
376.163	299.99
376.544	325.53
376.925	328.47
377.305	324.17
377.686	298.18
378.066	313.33
378.447	338.41
378.827	307.45
379.208	314.68
379.588	323.27
379.968	331.63
380.349	326.43
380.729	329.37
381.109	322.14
381.489	314.68
381.87	333.66
382.25	311.29
382.63	313.33
383.01	342.93
383.39	330.5
383.77	321.46
384.15	333.21
384.53	348.58
384.91	337.51
385.29	343.61
385.67	336.6
386.049	333.89
386.429	337.96
386.809	345.19
387.189	334.79
387.568	327.79
387.948	321.23
388.328	347
388.707	349.48
389.087	340.22
389.466	353.1
389.846	342.25
390.225	363.72
390.605	365.3
390.984	359.88
391.363	357.84
391.743	361.91
392.122	360.78
392.501	364.17
392.881	367.56
393.26	365.53
393.639	374.34
394.018	376.37
394.397	362.14
394.776	373.66
395.155	378.41
395.534	368.01
395.913	348.35
396.292	377.05
396.671	398.75
397.05	368.92
397.429	359.43
397.808	373.21
398.186	365.75
398.565	376.6
398.944	380.22
399.323	370.72
399.701	374.34
400.08	368.69
400.458	362.59
400.837	387
401.215	386.77
401.594	378.18
401.972	405.75
402.351	393.1
402.729	406.2
403.107	401.23
403.486	413.89
403.864	395.58
404.242	395.13
404.62	382.02
404.999	402.81
405.377	417.05
405.755	397.39
406.133	402.59
406.511	421.8
406.889	416.83
407.267	421.57
407.645	417.73
408.023	412.76
408.401	413.89
408.779	429.48
409.156	447.56
409.534	428.58
409.912	424.28
410.29	447.78
410.667	448.46
411.045	436.26
411.422	424.51
411.8	440.33
412.178	428.35
412.555	450.04
412.933	463.15
413.31	469.25
413.687	469.48
414.065	471.06
414.442	471.74
414.819	473.55
415.197	466.54
415.574	467.9
415.951	476.48
416.328	470.16
416.705	474.68
417.082	471.51
417.46	465.64
417.837	497.05
418.214	472.19
418.591	496.15
418.967	477.39
419.344	488.91
419.721	497.95
420.098	490.5
420.475	509.7
420.852	535.47
421.228	505.18
421.605	507.9
421.982	502.7
422.358	519.65
422.735	499.31
423.111	521.68
423.488	517.61
423.864	532.75
424.241	515.58
424.617	516.71
424.994	526.65
425.37	528.91
425.746	530.72
426.123	552.19
426.499	549.93
426.875	550.83
427.251	578.4
427.627	536.6
428.003	560.1
428.379	541.12
428.756	582.7
429.132	570.95
429.507	577.05
429.883	565.07
430.259	587.44
430.635	588.12
431.011	589.93
431.387	600.32
431.763	612.75
432.138	624.28
432.514	607.33
432.89	594.9
433.265	616.82
433.641	624.96
434.016	644.16
434.392	619.98
434.767	655.24
435.143	632.19
435.518	640.1
435.894	657.5
436.269	667.44
436.644	651.62
437.02	681.23
437.395	670.83
437.77	691.39
438.145	678.06
438.52	692.75
438.895	701.79
439.271	677.16
439.646	726.2
440.021	705.41
440.395	738.17
440.77	708.12
441.145	726.65
441.52	716.7
441.895	738.62
442.27	729.13
442.645	736.36
443.019	725.07
443.394	737.49
443.769	728.91
444.143	728.23
444.518	772.52
444.892	772.75
445.267	751.51
445.641	754.22
446.016	760.77
446.39	756.25
446.764	774.1
447.139	780.21
447.513	786.08
447.887	787.89
448.262	760.77
448.636	810.04
449.01	821.33
449.384	796.93
449.758	785.86
450.132	823.37
450.506	833.76
450.88	833.31
451.254	828.11
451.628	824.27
452.002	839.19
452.376	828.57
452.75	867.21
453.123	860.66
453.497	871.28
453.871	891.16
454.244	881.22
454.618	906.98
454.992	883.71
455.365	899.98
455.739	926.64
456.112	945.4
456.486	934.33
456.859	929.81
457.232	962.35
457.606	965.96
457.979	965.29
458.352	968.45
458.725	982.46
459.099	965.96
459.472	1010.03
459.845	1007.09
460.218	1031.05
460.591	1021.56
460.964	1010.71
461.337	1057.49
461.71	1073.31
462.083	1076.24
462.456	1093.64
462.829	1109.69
463.201	1118.95
463.574	1105.39
463.947	1119.41
464.32	1131.61
464.692	1143.59
465.065	1190.14
465.438	1154.21
465.81	1168.44
466.183	1199.4
466.555	1217.93
466.928	1223.36
467.3	1236.46
467.672	1262.9
468.045	1271.27
468.417	1297.71
468.789	1311.94
469.161	1320.3
469.534	1351.26
469.906	1365.73
470.278	1357.82
470.65	1384.94
471.022	1396.46
471.394	1443.92
471.766	1453.18
472.138	1451.15
472.51	1474.88
472.882	1539.73
473.253	1539.73
473.625	1566.17
473.997	1586.96
474.369	1585.38
474.74	1646.62
475.112	1667.64
475.484	1710.35
475.855	1744.47
476.227	1770.01
476.598	1812.27
476.97	1818.6
477.341	1881.42
477.713	1907.18
478.084	1933.62
478.455	1986.95
478.827	1968.65
479.198	2053.39
479.569	2121.87
479.94	2120.28
480.311	2151.92
480.682	2177.91
481.053	2283.22
481.424	2298.36
481.795	2325.02
482.166	2396.21
482.537	2452.03
482.908	2493.61
483.279	2538.13
483.65	2585.58
484.021	2632.59
484.391	2661.96
484.762	2728.4
485.133	2724.56
485.503	2827.38
485.874	2892.69
486.244	2975.18
486.615	3066.02
486.985	3051.78
487.356	3143.53
487.726	3161.39
488.097	3240.48
488.467	3256.98
488.837	3378.1
489.207	3405.45
489.578	3473.02
489.948	3570.41
490.318	3575.16
490.688	3613.58
491.058	3694.93
491.428	3732.44
491.798	3828.03
492.168	3886.34
492.538	3909.16
492.908	3993.23
493.278	4022.38
493.648	4111.19
494.017	4148.48
494.387	4196.84
494.757	4234.58
495.126	4307.8
495.496	4308.93
495.866	4416.72
496.235	4412.43
496.605	4506.21
496.974	4534.01
497.344	4601.57
497.713	4600.22
498.082	4723.38
498.452	4736.49
498.821	4793.21
499.19	4838.63
499.559	4876.37
499.928	4889.7
500.298	4931.28
500.667	4961.34
501.036	5013.54
501.405	5085.18
501.774	5064.39
502.143	5146.42
502.512	5149.36
502.88	5219.41
503.249	5255.79
503.618	5280.88
503.987	5285.4
504.356	5363.36
504.724	5352.97
505.093	5454.21
505.462	5395
505.83	5464.83
506.199	5498.27
506.567	5564.49
506.936	5617.14
507.304	5636.12
507.672	5711.38
508.041	5708.66
508.409	5776.68
508.777	5830.92
509.145	5852.61
509.514	5857.81
509.882	5877.92
510.25	5929.9
510.618	5933.52
510.986	5983.68
511.354	6048.77
511.722	6064.59
512.09	6073.17
512.458	6114.75
512.826	6167.41
513.193	6204.47
513.561	6191.59
513.929	6244.24
514.297	6303.45
514.664	6325.37
515.032	6342.09
515.4	6372.83
515.767	6379.15
516.135	6432.71
516.502	6346.16
516.869	6516.78
517.237	6475.65
517.604	6499.6
517.972	6550.45
518.339	6629.09
518.706	6641.52
519.073	6651.69
519.44	6666.6
519.808	6734.85
520.175	6741.18
520.542	6829.76
520.909	6831.8
521.276	6834.51
521.643	6846.94
522.009	6936.88
522.376	6919.25
522.743	7006.93
523.11	7068.63
523.477	7084.45
523.843	7141.62
524.21	7202.86
524.577	7253.26
524.943	7264.33
525.31	7275.85
525.676	7344.33
526.043	7416.64
526.409	7422.97
526.776	7533.02
527.142	7462.06
527.508	7548.39
527.874	7604.66
528.241	7705.22
528.607	7687.14
528.973	7706.35
529.339	7678.33
529.705	7787.93
530.071	7861.83
530.437	7832.45
530.803	7885.1
531.169	7945.44
531.535	7939.11
531.901	7912.22
532.267	7986.8
532.632	8111.76
532.998	8142.5
533.364	8131.2
533.73	8072.44
534.095	8242.16
534.461	8250.07
534.826	8303.4
535.192	8309.27
535.557	8369.84
535.923	8372.55
536.288	8452.32
536.653	8520.11
537.019	8425.65
537.384	8578.64
537.749	8595.14
538.114	8578.87
538.479	8616.38
538.845	8673.78
539.21	8643.5
539.575	8719.43
539.94	8742.93
540.305	8816.83
540.67	8763.72
541.034	8859.77
541.399	8878.75
541.764	8867.22
542.129	8974.57
542.494	8937.28
542.858	9005.07
543.223	9046.88
543.587	9052.08
543.952	9048.01
544.316	9137.27
544.681	9147.22
545.045	9237.16
545.41	9232.19
545.774	9321
546.138	9383.37
546.503	9371.84
546.867	9392.86
547.231	9412.75
547.595	9481.45
547.959	9509.02
548.324	9602.35
548.688	9528
549.052	9592.86
549.416	9651.84
549.779	9678.95
550.143	9598.96
550.507	9722.57
550.871	9805.96
551.235	9756.69
551.599	9823.13
551.962	9880.98
552.326	9892.28
552.689	9925.95
553.053	9890.7
553.417	9965.95
553.78	9996.01
554.143	10016.35
554.507	10081.66
554.87	10048.21
555.234	10200.52
555.597	10038.49
555.96	10171.6
556.323	10236
556.686	10236.23
557.05	10264.02
557.413	10279.39
557.776	10345.15
558.139	10401.42
558.502	10416.34
558.865	10469.89
559.228	10559.38
559.59	10482.32
559.953	10552.6
560.316	10655.65
560.679	10631.47
561.041	10727.29
561.404	10709.89
561.767	10812.94
562.129	10794.41
562.492	10875.76
562.854	10775.2
563.217	10812.71
563.579	10919.37
563.941	10973.84
564.304	10945.59
564.666	11080.27
565.028	11059.94
565.39	11090.44
565.753	11160.5
566.115	11274.39
566.477	11301.06
566.839	11311.91
567.201	11343.32
567.563	11317.78
567.925	11448.4
568.287	11456.53
568.648	11511.67
569.01	11626.25
569.372	11619.24
569.734	11611.79
570.095	11664.67
570.457	11742.18
570.819	11728.84
571.18	11791.22
571.542	11836.86
571.903	11836.41
572.265	11949.18
572.626	11980.36
572.987	12089.51
573.349	12066.91
573.71	12159.12
574.071	12271.2
574.432	12311.2
574.794	12462.16
575.155	12424.87
575.516	12521.82
575.877	12610.85
576.238	12706.45
576.599	12787.57
576.96	12905.31
577.32	12816.95
577.681	13007.45
578.042	13117.06
578.403	13148.24
578.763	13321.8
579.124	13309.14
579.485	13560.21
579.845	13611.05
580.206	13734.22
580.566	13823.25
580.927	14006.98
581.287	14041.1
581.648	14270.7
582.008	14428.66
582.368	14496.68
582.728	14722.21
583.089	14847.18
583.449	15051.92
583.809	15121.98
584.169	15369.2
584.529	15466.82
584.889	15761.28
585.249	15791.11
585.609	16006.7
585.969	16244.88
586.329	16421.38
586.688	16627.25
587.048	16911.31
587.408	17042.15
587.768	17238.98
588.127	17400.11
588.487	17633.1
588.846	17939.08
589.206	18064.72
589.565	18307.43
589.925	18550.59
590.284	18714.65
590.643	18979.95
591.003	19314.41
591.362	19606.6
591.721	19839.37
592.08	20055.63
592.44	20284.78
592.799	20597.76
593.158	20816.97
593.517	21070.97
593.876	21363.62
594.235	21523.84
594.593	21835.92
594.952	22000.66
595.311	22103.26
595.67	22517.26
596.029	22873.86
596.387	23152.27
596.746	23363.11
597.104	23446.05
597.463	23629.77
597.822	24084.9
598.18	24203.32
598.538	24346.59
598.897	24757.43
599.255	24859.35
599.613	25403.06
599.972	25408.26
600.33	25716.72
600.688	25872.88
601.046	26174.57
601.404	26491.85
601.762	26592.63
602.12	27040.31
602.478	27266.06
602.836	27374.08
603.194	27628.31
603.552	27770.46
603.91	27894.97
604.268	28191.01
604.625	28329.99
604.983	28647.04
605.341	28659.02
605.698	29043.42
606.056	29260.59
606.413	29443.41
606.771	29760.69
607.128	29800.23
607.485	29797.97
607.843	30121.35
608.2	30338.75
608.557	30700.55
608.914	30783.26
609.272	30974.21
609.629	31186.86
609.986	31472.51
610.343	31303.24
610.7	31732.16
611.057	31810.35
611.414	31914.3
611.771	32079.5
612.127	32235.65
612.484	32460.73
612.841	32669.99
613.198	32748.86
613.554	32859.59
613.911	33114.95
614.267	33250.99
614.624	33370.53
614.98	33478.55
615.337	33680.36
615.693	33725.33
616.05	33730.07
616.406	34120.35
616.762	34056.39
617.118	34195.37
617.475	34250.51
617.831	34466.1
618.187	34532.54
618.543	34689.14
618.899	34854.56
619.255	34953.32
619.611	35125.74
619.967	35196.93
620.323	35391.27
620.678	35392.85
621.034	35358.51
621.39	35276.25
621.746	35396.92
622.101	36027.64
622.457	35728.21
622.812	35758.04
623.168	35925.95
623.523	35986.96
623.879	36037.81
624.234	35950.58
624.589	36218.14
624.945	36304.47
625.3	36262.21
625.655	36382.66
626.01	36396.9
626.365	36581.52
626.72	36523.22
627.075	36466.95
627.43	36666.27
627.785	36529.55
628.14	36666.72
628.495	36815.42
628.85	36879.82
629.205	36622.65
629.559	36988.07
629.914	36801.18
630.269	36779.71
630.623	36755.3
630.978	36963.66
631.332	37002.3
631.687	37107.39
632.041	37000.95
632.396	37088.18
632.75	36872.82
633.104	37046.14
633.459	36918.46
633.813	36903.32
634.167	36993.72
634.521	37125.46
634.875	37155.29
635.229	36893.38
635.583	36840.73
635.937	36963.21
636.291	36865.58
636.645	36870.1
636.999	36799.82
637.352	36950.1
637.706	36882.31
638.06	36891.12
638.413	36825.81
638.767	36881.18
639.121	36911.46
639.474	36691.13
639.828	36738.81
640.181	36900.84
640.534	36787.39
640.888	36663.56
641.241	36654.29
641.594	36796.66
641.947	36738.13
642.301	36670.79
642.654	36700.84
643.007	36699.26
643.36	36667.17
643.713	36651.35
644.066	36764.12
644.419	36498.14
644.771	36228.54
645.124	35909.68
645.477	35937.25
645.83	35742.9
646.182	35730.25
646.535	35551.04
646.888	35631.72
647.24	35381.78
647.593	35597.82
647.945	35636.01
648.298	35437.37
648.65	35383.82
649.002	35356.7
649.355	35420.42
649.707	35314.44
650.059	35441.22
650.411	36008.21
650.763	36061.54
651.115	36310.57
651.467	36159.39
651.819	36248.88
652.171	36229.67
652.523	36092.5
652.875	36257.46
653.227	36098.15
653.578	36250.23
653.93	36104.02
654.282	35994.87
654.633	36071.03
654.985	36009.56
655.337	36091.59
655.688	36165.26
656.039	36365.71
656.391	35879.62
656.742	36029.9
657.094	35927.08
657.445	36073.97
657.796	35918.72
658.147	35992.16
658.498	35933.18
658.849	36025.61
659.2	35873.29
659.551	35887.76
659.902	35961.2
660.253	35848.66
660.604	35811.6
660.955	35681.43
661.306	35860.86
661.656	35847.98
662.007	35894.54
662.358	35844.37
662.708	35841.88
663.059	35703.58
663.409	35556.92
663.76	35793.07
664.11	35884.37
664.461	35861.54
664.811	35859.74
665.161	35737.48
665.511	35665.62
665.862	35733.86
666.212	35874.65
666.562	35899.06
666.912	35674.66
667.262	35682.11
667.612	35714.2
667.962	35876.46
668.312	35649.12
668.662	35807.99
669.011	35719.85
669.361	35673.07
669.711	35769.79
670.06	35635.56
670.41	35587.2
670.76	35514.89
671.109	35798.49
671.459	35621.32
671.808	35619.52
672.157	35666.97
672.507	35518.95
672.856	35522.79
673.205	35628.33
673.554	35662.68
673.904	35522.12
674.253	35671.27
674.602	35342.46
674.951	34982.24
675.3	34882.81
675.649	35429.92
675.998	35303.59
676.346	35407.32
676.695	35480.54
677.044	35130.94
677.393	35322.35
677.741	35455.68
678.09	35171.62
678.438	35124.16
678.787	35278.96
679.135	35287.09
679.484	35026.76
679.832	35159.87
680.181	34892.53
680.529	35165.74
680.877	34991.96
681.225	34901.34
681.573	35151.51
681.922	34751.74
682.27	34716.26
682.618	34759.65
682.966	34673.33
683.314	34670.16
683.661	34673.55
684.009	34611.86
684.357	34418.64
684.705	34334.58
685.053	34420.45
685.4	34341.81
685.748	34287.12
686.095	34238.08
686.443	34094.13
686.79	34054.58
687.138	34165.32
687.485	34109.72
687.832	33973.91
688.18	34060.01
688.527	33782.5
688.874	33793.35
689.221	33809.62
689.568	33681.71
689.915	33517.65
690.262	33626.35
690.609	33476.07
690.956	33425.22
691.303	33390.2
691.65	33251.67
691.997	33295.28
692.344	33013.48
692.69	32992.92
693.037	32935.74
693.383	32714.73
693.73	32841.96
694.077	32599.48
694.423	32637.22
694.769	32532.59
695.116	32536.43
695.462	32352.93
695.808	32309.32
696.155	32350
696.501	32068.2
696.847	32130.34
697.193	31936
697.539	32027.29
697.885	31821.88
698.231	31554.54
698.577	31744.59
698.923	31808.32
699.269	31432.73
699.614	31382.11
699.96	31253.75
700.306	31340.08
700.651	31261.44
700.997	31073.19
701.342	31070.93
701.688	31013.08
702.033	30941.9
702.379	30853.77
702.724	30892.63
703.069	30786.65
703.415	30520.89
703.76	30455.13
704.105	30496.03
704.45	30409.71
704.795	30235.7
705.14	30255.81
705.485	30082.71
705.83	30043.16
706.175	30066.44
706.52	29976.73
706.865	29791.19
707.209	29826.67
707.554	29746.68
707.899	29917.97
708.243	29609.28
708.588	29694.47
708.932	29269.63
709.277	29382.62
709.621	29397.53
709.966	29204.99
710.31	29288.61
710.654	28981.72
710.998	29114.6
711.342	29149.18
711.687	28979.69
712.031	28896.53
712.375	28754.84
712.719	28764.78
713.063	28694.27
713.407	28833.71
713.75	28731.56
714.094	28727.72
714.438	28617.89
714.782	28565.01
715.125	28324.34
715.469	28413.15
715.812	28356.88
716.156	28193.5
716.499	28154.17
716.843	28178.58
717.186	27986.27
717.53	28092.03
717.873	28050
718.216	28002.99
718.559	27850.23
718.902	27669.22
719.246	27911.92
719.589	27707.18
719.932	27646.17
720.275	27620.4
720.617	27642.1
720.96	27535.43
721.303	27510.58
721.646	27592.61
721.989	27386.29
722.331	27376.34
722.674	27310.36
723.016	27332.73
723.359	27281.88
723.701	27259.28
724.044	27045.73
724.386	26997.6
724.729	27120.98
725.071	27018.39
725.413	27005.28
725.755	26947.2
726.097	26828.79
726.439	26795.11
726.782	26829.01
727.124	26792.85
727.465	26722.12
727.807	26655.68
728.149	26603.71
728.491	26663.37
728.833	26602.8
729.175	26483.71
729.516	26432.86
729.858	26472.19
730.199	26487.33
730.541	26446.2
730.882	26346.09
731.224	26406.2
731.565	26236.71
731.906	26187.45
732.248	26265.64
732.589	26013.21
732.93	26088.01
733.271	26153.32
733.612	26068.35
733.953	26039.2
734.294	25918.75
734.635	25750.17
734.976	25905.65
735.317	25807.57
735.658	25905.19
735.999	25803.28
736.339	25750.85
736.68	25796.72
737.021	25619.33
737.361	25623.85
737.702	25716.5
738.042	25630.4
738.383	25578.65
738.723	25634.02
739.063	25413
739.404	25612.55
739.744	25442.61
740.084	25332.55
740.424	25417.75
740.764	25234.93
741.104	25372.1
741.444	25149.73
741.784	25126.23
742.124	25210.3
742.464	25285.1
742.804	25072.9
743.143	25128.49
743.483	25054.6
743.823	24878.33
744.162	24971.21
744.502	24991.09
744.841	24869.06
745.181	25027.03
745.52	24940.25
745.86	24825.22
746.199	24791.55
746.538	24736.19
746.877	24823.87
747.216	24899.12
747.556	24632.23
747.895	24702.74
748.234	24538
748.573	24625.23
748.911	24543.65
749.25	24518.56
749.589	24350.21
749.928	24447.15
750.267	24507.04
750.605	24316.76
750.944	24403.99
751.283	24202.64
751.621	24307.27
751.96	24161.96
752.298	24256.88
752.636	24170.55
752.975	24086.49
753.313	23897.79
753.651	24146.82
753.989	23949.99
754.327	24023.89
754.666	23930.78
755.004	23907.73
755.342	23841.75
755.679	23893.72
756.017	23768.3
756.355	23768.98
756.693	23698.02
757.031	23684.69
757.368	23478.59
757.706	23427.07
758.044	23455.77
758.381	23380.06
758.719	23358.82
759.056	23411.47
759.394	23320.86
759.731	23196.79
