Data from hue_10_FLMS001491_24.txt Node
Date: Mon Feb 06 15:31:39 GMT 2017
User: dcchb
Spectrometer: FLMS00149
Trigger mode: 0
Integration Time (sec): 2.000000E-2
Scans to average: 10
Electric dark correction enabled: true
Nonlinearity correction enabled: false
Boxcar width: 0
XAxis mode: Wavelengths
Number of Pixels in Spectrum: 2048
>>>>>Begin Spectral Data<<<<<
341.393	-2.23
341.776	-2.23
342.16	-2.23
342.543	-71.16
342.927	-63.02
343.31	-59.63
343.693	-86.98
344.077	-57.82
344.46	-71.16
344.843	-42.91
345.226	-27.99
345.61	-33.64
345.993	-5.4
346.376	-14.21
346.759	3.87
347.142	19.46
347.525	24.21
347.908	68.28
348.291	73.47
348.674	93.13
349.057	117.31
349.44	149.63
349.823	142.17
350.206	167.48
350.588	190.31
350.971	224.88
351.354	210.19
351.737	230.98
352.119	249.06
352.502	272.79
352.884	259.23
353.267	294.03
353.65	318.21
354.032	305.56
354.414	320.92
354.797	302.17
355.179	328.16
355.562	333.13
355.944	329.96
356.326	336.97
356.709	341.04
357.091	331.09
357.473	361.37
357.855	349.17
358.238	335.61
358.62	341.26
359.002	349.4
359.384	339.91
359.766	351.43
360.148	339.45
360.53	330.64
360.912	338.32
361.294	333.35
361.676	366.8
362.057	323.41
362.439	334.26
362.821	345.1
363.203	353.69
363.584	315.5
363.966	316.4
364.348	327.48
364.729	331.09
365.111	325.22
365.493	322.51
365.874	321.38
366.256	303.3
366.637	313.69
367.019	297.65
367.4	318.89
367.781	318.44
368.163	315.73
368.544	327.7
368.925	336.06
369.306	316.86
369.688	315.27
370.069	312.79
370.45	304.65
370.831	327.25
371.212	311.43
371.593	320.02
371.974	303.52
372.355	317.08
372.736	335.39
373.117	316.18
373.498	333.8
373.879	323.64
374.26	315.73
374.641	316.63
375.021	317.53
375.402	309.4
375.783	350.98
376.163	333.8
376.544	316.86
376.925	351.43
377.305	322.28
377.686	348.72
378.066	316.63
378.447	311.66
378.827	327.7
379.208	322.51
379.588	326.35
379.968	349.85
380.349	354.6
380.729	350.08
381.109	337.65
381.489	357.08
381.87	363.41
382.25	319.57
382.63	348.95
383.01	336.29
383.39	352.34
383.77	321.38
384.15	330.42
384.53	333.13
384.91	348.72
385.29	351.66
385.67	371.32
386.049	369.96
386.429	356.18
386.809	352.34
387.189	367.25
387.568	347.14
387.948	351.88
388.328	355.73
388.707	372.45
389.087	357.31
389.466	357.98
389.846	379.91
390.225	369.96
390.605	376.52
390.984	361.6
391.363	370.19
391.743	365.44
392.122	370.19
392.501	343.07
392.881	385.78
393.26	356.4
393.639	367.02
394.018	360.02
394.397	375.16
394.776	386.01
395.155	369.74
395.534	381.94
395.913	347.59
396.292	375.61
396.671	378.1
397.05	388.72
397.429	387.81
397.808	392.33
398.186	389.4
398.565	389.62
398.944	386.91
399.323	383.07
399.701	398.89
400.08	413.35
400.458	389.17
400.837	392.79
401.215	404.09
401.594	398.89
401.972	386.46
402.351	396.4
402.729	405.67
403.107	409.96
403.486	399.34
403.864	405.44
404.242	391.88
404.62	406.8
404.999	413.8
405.377	412.67
405.755	412.22
406.133	404.76
406.511	426.46
406.889	415.84
407.267	419.45
407.645	433.46
408.023	421.03
408.401	420.58
408.779	436.85
409.156	422.39
409.534	427.36
409.912	435.05
410.29	420.36
410.667	442.5
411.045	432.11
411.422	446.57
411.8	464.42
412.178	467.59
412.555	448.38
412.933	463.52
413.31	451.32
413.687	467.36
414.065	460.13
414.442	462.39
414.819	486.12
415.197	470.07
415.574	469.39
415.951	481.6
416.328	475.27
416.705	469.85
417.082	481.6
417.46	496.29
417.837	482.28
418.214	493.57
418.591	480.69
418.967	491.54
419.344	514.14
419.721	527.02
420.098	513.24
420.475	522.27
420.852	507.13
421.228	513.46
421.605	525.21
421.982	521.14
422.358	536.29
422.735	543.52
423.111	548.49
423.488	548.26
423.864	530.41
424.241	539.22
424.617	543.06
424.994	543.29
425.37	529.28
425.746	539
426.123	559.34
426.499	544.42
426.875	559.79
427.251	543.06
427.627	571.09
428.003	542.16
428.379	571.76
428.756	560.92
429.132	579
429.507	596.4
429.883	592.33
430.259	591.65
430.635	602.27
431.011	614.93
431.387	614.93
431.763	599.56
432.138	600.69
432.514	633.91
432.89	619
433.265	617.19
433.641	651.31
434.016	641.82
434.392	650.63
434.767	654.7
435.143	635.49
435.518	666.68
435.894	672.55
436.269	679.33
436.644	684.98
437.02	675.94
437.395	673.23
437.77	679.56
438.145	703.96
438.52	706
438.895	723.17
439.271	702.83
439.646	721.59
440.021	704.19
440.395	719.33
440.77	720.91
441.145	735.83
441.52	743.29
441.895	738.31
442.27	710.74
442.645	724.08
443.019	746.9
443.394	727.69
443.769	739.22
444.143	767.24
444.518	772.44
444.892	737.41
445.267	752.78
445.641	751.42
446.016	778.31
446.39	772.89
446.764	763.62
447.139	791.65
447.513	774.47
447.887	793.45
448.262	791.87
448.636	791.65
449.01	799.33
449.384	781.93
449.758	816.73
450.132	830.06
450.506	817.86
450.88	831.42
451.254	837.97
451.628	837.29
452.002	838.2
452.376	867.8
452.75	832.55
453.123	844.75
453.497	864.64
453.871	877.97
454.244	877.07
454.618	882.04
454.992	886.78
455.365	882.49
455.739	909.16
456.112	921.59
456.486	912.77
456.859	922.04
457.232	938.76
457.606	941.92
457.979	957.52
458.352	973.56
458.725	980.57
459.099	993.67
459.472	970.62
459.845	1002.94
460.218	1003.39
460.591	984.41
460.964	1005.88
461.337	1035.26
461.71	1014.24
462.083	1037.06
462.456	1054.69
462.829	1050.62
463.201	1069.15
463.574	1093.78
463.947	1112.77
464.32	1166.55
464.692	1121.35
465.065	1157.74
465.438	1126.33
465.81	1169.94
466.183	1165.42
466.555	1179.66
466.928	1210.62
467.3	1218.53
467.672	1207.45
468.045	1249.03
468.417	1238.64
468.789	1281.12
469.161	1291.97
469.534	1312.31
469.906	1341.01
470.278	1324.29
470.65	1347.79
471.022	1363.83
471.394	1413.78
471.766	1390.5
472.138	1433.44
472.51	1438.41
472.882	1485.19
473.253	1456.49
473.625	1488.35
473.997	1541.91
474.369	1517.73
474.74	1564.28
475.112	1603.6
475.484	1646.31
475.855	1630.04
476.227	1695.35
476.598	1677.5
476.97	1735.58
477.341	1785.74
477.713	1766.76
478.084	1805.86
478.455	1853.31
478.827	1867.78
479.198	1942.8
479.569	1947.55
479.94	1983.93
480.311	2009.47
480.682	2079.75
481.053	2115
481.424	2129.24
481.795	2171.5
482.166	2191.84
482.537	2228.44
482.908	2270.25
483.279	2323.36
483.65	2328.33
484.021	2416.91
484.391	2433.41
484.762	2438.38
485.133	2513.63
485.503	2526.06
485.874	2588.66
486.244	2618.94
486.615	2684.03
486.985	2720.18
487.356	2810.35
487.726	2811.48
488.097	2858.71
488.467	2902.32
488.837	2929.89
489.207	2989.78
489.578	3036.78
489.948	3077.46
490.318	3117.23
490.688	3147.29
491.058	3173.5
491.428	3211.7
491.798	3284.46
492.168	3344.8
492.538	3328.08
492.908	3415.76
493.278	3458.92
493.648	3453.04
494.017	3470.9
494.387	3553.38
494.757	3624.11
495.126	3577.34
495.496	3655.3
495.866	3647.39
496.235	3671.57
496.605	3734.85
496.974	3754.96
497.344	3820.04
497.713	3834.73
498.082	3833.37
498.452	3928.06
498.821	3956.31
499.19	3946.82
499.559	3985.91
499.928	4051.67
500.298	3995.4
500.667	4081.95
501.036	4090.99
501.405	4078.34
501.774	4117.66
502.143	4190.2
502.512	4198.79
502.88	4243.31
503.249	4203.99
503.618	4243.76
503.987	4322.85
504.356	4353.59
504.724	4307.71
505.093	4324.43
505.462	4319.24
505.83	4450.98
506.199	4436.3
506.567	4415.73
506.936	4504.32
507.304	4503.86
507.672	4539.57
508.041	4556.29
508.409	4603.97
508.777	4600.81
509.145	4598.78
509.514	4608.95
509.882	4658.89
510.25	4645.1
510.618	4638.78
510.986	4691.88
511.354	4706.57
511.722	4780.24
512.09	4795.83
512.458	4780.92
512.826	4833.57
513.193	4792.9
513.561	4833.8
513.929	4866.79
514.297	4886.45
514.664	4940.69
515.032	4921.48
515.4	4990.86
515.767	4932.33
516.135	4950.86
516.502	4981.37
516.869	5015.26
517.237	5049.39
517.604	4991.54
517.972	5070.86
518.339	5060.01
518.706	5038.54
519.073	5131.19
519.44	5130.74
519.808	5191.3
520.175	5159.21
520.542	5180.23
520.909	5232.43
521.276	5207.35
521.643	5274.92
522.009	5262.04
522.376	5296.16
522.743	5295.03
523.11	5381.13
523.477	5365.31
523.843	5411.64
524.21	5434.01
524.577	5477.4
524.943	5470.39
525.31	5539.77
525.676	5536.83
526.043	5575.93
526.409	5610.05
526.776	5629.26
527.142	5655.7
527.508	5714.91
527.874	5702.93
528.241	5744.06
528.607	5805.75
528.973	5776.6
529.339	5822.47
529.705	5888.01
530.071	5897.95
530.437	5923.71
530.803	5964.84
531.169	5984.73
531.535	5977.27
531.901	6047.78
532.267	6060.43
532.632	6107.44
532.998	6092.07
533.364	6111.51
533.73	6102.69
534.095	6211.16
534.461	6234.67
534.826	6161
535.192	6266.76
535.557	6281.9
535.923	6286.42
536.288	6369.35
536.653	6324.83
537.019	6356.92
537.384	6354.89
537.749	6434.66
538.114	6435.34
538.479	6457.71
538.845	6497.03
539.21	6475.79
539.575	6537.94
539.94	6519.4
540.305	6549.69
540.67	6577.03
541.034	6588.33
541.399	6718.95
541.764	6706.52
542.129	6711.04
542.494	6717.37
542.858	6738.38
543.223	6766.4
543.587	6812.28
543.952	6874.65
544.316	6832.84
544.681	6910.13
545.045	6846.4
545.41	6923.24
545.774	7001.43
546.138	6968.21
546.503	6989
546.867	7024.02
547.231	7085.72
547.595	7127.3
547.959	7067.19
548.324	7150.8
548.688	7131.82
549.052	7212.27
549.416	7283.23
549.779	7217.69
550.143	7321.64
550.507	7289.1
550.871	7370
551.235	7332.49
551.599	7334.98
551.962	7417.01
552.326	7458.82
552.689	7478.48
553.053	7449.1
553.417	7468.76
553.78	7513.05
554.143	7469.89
554.507	7560.28
554.87	7594.86
555.234	7651.8
555.597	7559.6
555.96	7584.69
556.323	7704.23
556.686	7660.39
557.05	7771.58
557.413	7758.47
557.776	7835.75
558.139	7835.3
558.502	7814.51
558.865	7811.8
559.228	7853.38
559.59	7947.62
559.953	7951.91
560.316	7973.38
560.679	8017.67
561.041	7985.36
561.404	8079.82
561.767	8145.12
562.129	8084.79
562.492	8132.92
562.854	8182.41
563.217	8175.41
563.579	8234.61
563.941	8284.33
564.304	8300.37
564.666	8293.14
565.028	8325.01
565.39	8385.34
565.753	8435.51
566.115	8424.67
566.477	8445.91
566.839	8486.13
567.201	8511.89
567.563	8494.04
567.925	8623.08
568.287	8574.04
568.648	8616.3
569.01	8689.52
569.372	8725.45
569.734	8742.85
570.095	8807.48
570.457	8840.25
570.819	8839.34
571.18	8870.53
571.542	8912.79
571.903	8947.82
572.265	9043.63
572.626	9038.66
572.987	9099
573.349	9153.23
573.71	9188.94
574.071	9214.48
574.432	9268.94
574.794	9378.76
575.155	9334.47
575.516	9416.05
575.877	9539.21
576.238	9623.96
576.599	9698.08
576.96	9665.31
577.32	9791.86
577.681	9919.77
578.042	10004.74
578.403	10054.91
578.763	10148.24
579.124	10297.84
579.485	10345.29
579.845	10474.33
580.206	10559.75
580.566	10666.64
580.927	10817.14
581.287	10973.53
581.648	11036.8
582.008	11239.28
582.368	11399.05
582.728	11549.1
583.089	11637.01
583.449	11863.45
583.809	11958.58
584.169	12178.92
584.529	12377.1
584.889	12643.31
585.249	12792.69
585.609	12956.75
585.969	13282.84
586.329	13399.45
586.688	13682.61
587.048	13980
587.408	14083.05
587.768	14377.73
588.127	14584.73
588.487	14811.39
588.846	15159.63
589.206	15386.52
589.565	15653.85
589.925	15958.93
590.284	16187.4
590.643	16583.32
591.003	16812.24
591.362	17169.97
591.721	17415.62
592.08	17787.58
592.44	18116.84
592.799	18448.36
593.158	18732.64
593.517	19089.47
593.876	19362.68
594.235	19695.56
594.593	19989.56
594.952	20422.77
595.311	20668.64
595.67	21097.78
596.029	21530.31
596.387	21790.42
596.746	22227.69
597.104	22460.45
597.463	22785.42
597.822	23157.16
598.18	23459.75
598.538	23833.75
598.897	24179.28
599.255	24351.93
599.613	25006.15
599.972	25141.51
600.33	25700.6
600.688	25903.08
601.046	26247.47
601.404	26555.26
601.762	26947.57
602.12	27394.34
602.478	27688.57
602.836	27890.14
603.194	28192.28
603.552	28519.5
603.91	28727.63
604.268	29125.59
604.625	29343.89
604.983	29902.97
605.341	29931.67
605.698	30369.63
606.056	30676.74
606.413	31019.55
606.771	31260.9
607.128	31716.26
607.485	31823.37
607.843	32067.89
608.2	32493.64
608.557	32942.66
608.914	32998.93
609.272	33376.33
609.629	33615.87
609.986	34042.75
610.343	34018.79
610.7	34581.04
611.057	34661.04
611.414	34954.36
611.771	35108.26
612.127	35398.42
612.484	35718.41
612.841	36025.97
613.198	35961.34
613.554	36232.97
613.911	36573.08
614.267	36978.49
614.624	37052.16
614.98	37229.33
615.337	37718.13
615.693	37560.4
616.05	37778.47
616.406	38298
616.762	38256.65
617.118	38478.11
617.475	38462.97
617.831	38721.04
618.187	38909.06
618.543	39186.57
618.899	39413.68
619.255	39523.06
619.611	39664.75
619.967	39897.06
620.323	39979.77
620.678	39958.98
621.034	40179.54
621.39	40219.76
621.746	40331.85
622.101	40962.79
622.457	40707.88
622.812	40931.83
623.168	41022.9
623.523	41176.12
623.879	41442.1
624.234	41227.87
624.589	41520.52
624.945	41521.65
625.3	41797.35
625.655	41894.75
626.01	41873.5
626.365	42026.04
626.72	41910.56
627.075	42025.36
627.43	42099.71
627.785	42072.37
628.14	42357.11
628.495	42445.47
628.85	42360.5
629.205	42342.87
629.559	42634.84
629.914	42520.04
630.269	42543.54
630.623	42484.11
630.978	42495.63
631.332	42806.59
631.687	42811.11
632.041	42665.35
632.396	42959.8
632.75	42652.92
633.104	42792.12
633.459	42826.02
633.813	42711.45
634.167	42936.3
634.521	42855.85
634.875	42977.43
635.229	42859.47
635.583	42828.73
635.937	42866.7
636.291	42889.3
636.645	42904.89
636.999	42917.54
637.352	42986.47
637.706	42916.41
638.06	43104.43
638.413	42901.27
638.767	42916.87
639.121	43054.72
639.474	42644.56
639.828	42866.47
640.181	42816.08
640.534	42993.25
640.888	42787.83
641.241	42722.07
641.594	42850.65
641.947	43014.49
642.301	42769.53
642.654	42689.3
643.007	42869.86
643.36	42830.99
643.713	42733.82
644.066	42996.41
644.419	42598
644.771	42539.25
645.124	42009.77
645.477	42036.66
645.83	41799.38
646.182	41686.39
646.535	41534.3
646.888	41601.65
647.24	41488.2
647.593	41556.22
647.945	41618.82
648.298	41458.15
648.65	41388.77
649.002	41323.69
649.355	41507.86
649.707	41358.71
650.059	41615.66
650.411	42106.49
650.763	42233.04
651.115	42505.58
651.467	42364.79
651.819	42384.45
652.171	42351.23
652.523	42283.89
652.875	42222.65
653.227	42072.14
653.578	42379.48
653.93	42274.4
654.282	42179.03
654.633	42058.81
654.985	42138.81
655.337	42190.78
655.688	42151.69
656.039	42304.68
656.391	41828.76
656.742	42051.8
657.094	42012.03
657.445	42118.47
657.796	42100.62
658.147	41960.73
658.498	42022.2
658.849	41984.46
659.2	42009.55
659.551	42031.01
659.902	42111.69
660.253	41912.6
660.604	42216.77
660.955	41923.22
661.306	42016.32
661.656	41893.39
662.007	41986.49
662.358	42009.55
662.708	41967.29
663.059	41888.64
663.409	41607.75
663.76	42029.66
664.11	41934.74
664.461	41963.22
664.811	42007.74
665.161	41979.04
665.511	41812.71
665.862	41826.5
666.212	41992.6
666.562	41940.62
666.912	41762.09
667.262	41803
667.612	41835.99
667.962	41976.55
668.312	41835.31
668.662	41947.85
669.011	41780.85
669.361	41739.72
669.711	41734.07
670.06	41743.56
670.41	41585.6
670.76	41672.83
671.109	41865.14
671.459	41807.74
671.808	41626.05
672.157	41854.97
672.507	41452.72
672.856	41506.28
673.205	41654.98
673.554	41548.31
673.904	41584.47
674.253	41800.96
674.602	41615.88
674.951	41083.92
675.3	40830.82
675.649	41491.59
675.998	41421.54
676.346	41391.71
676.695	41527.52
677.044	41248.44
677.393	41318.72
677.741	41545.38
678.09	41170.02
678.438	41267.87
678.787	41285.27
679.135	41340.64
679.484	40961.44
679.832	41211.37
680.181	40929.35
680.529	41087.31
680.877	40971.83
681.225	40952.85
681.573	41158.27
681.922	40763.7
682.27	40717.38
682.618	40791.95
682.966	40689.35
683.314	40725.74
683.661	40642.58
684.009	40379.98
684.357	40310.61
684.705	40280.55
685.053	40349.48
685.4	40266.31
685.748	40118.07
686.095	40166.88
686.443	39977.06
686.79	39891.63
687.138	39931.63
687.485	39987.9
687.832	39853.44
688.18	39747.46
688.527	39644.18
688.874	39695.71
689.221	39551.53
689.568	39576.61
689.915	39477.86
690.262	39353.34
690.609	39302.72
690.956	39180.69
691.303	39076.29
691.65	38883.75
691.997	39008.49
692.344	38716.75
692.69	38660.48
693.037	38561.27
693.383	38514.04
693.73	38557.66
694.077	38305.46
694.423	38228.18
694.769	38309.3
695.116	38145.01
695.462	38024.57
695.808	38059.37
696.155	38017.33
696.501	37524.92
696.847	37673.39
697.193	37486.27
697.539	37630.68
697.885	37326.73
698.231	37291.25
698.577	37225.04
698.923	36998.83
699.269	36921.09
699.614	36797.7
699.96	36866.18
700.306	36822.56
700.651	36816.46
700.997	36618.05
701.342	36492.4
701.688	36487.66
702.033	36297.15
702.379	36300.77
702.724	36141.45
703.069	36166.53
703.415	35833.21
703.76	35904.85
704.105	35878.18
704.45	35889.71
704.795	35501.92
705.14	35495.59
705.485	35473.9
705.83	35371.98
706.175	35385.54
706.52	35172.66
706.865	35130.4
707.209	35081.37
707.554	34934.93
707.899	34991.65
708.243	34792.11
708.588	34787.36
708.932	34602.28
709.277	34690.42
709.621	34615.62
709.966	34411.33
710.31	34465.56
710.654	34153.25
710.998	34189.19
711.342	34194.16
711.687	34050.21
712.031	34014.5
712.375	33802.76
712.719	33763.89
713.063	33911.45
713.407	33965.01
713.75	33636.88
714.094	33728.63
714.438	33555.08
714.782	33555.76
715.125	33370
715.469	33549.88
715.812	33414.29
716.156	33204.8
716.499	33125.71
716.843	33210
717.186	33031.02
717.53	33173.62
717.873	33004.13
718.216	32893.63
718.559	32837.81
718.902	32581.54
719.246	32751.26
719.589	32557.59
719.932	32508.55
720.275	32512.85
720.617	32446.18
720.96	32360.76
721.303	32404.15
721.646	32333.42
721.989	32185.4
722.331	32269.24
722.674	32160.76
723.016	32182.91
723.359	32177.71
723.701	32012.07
724.044	31880.55
724.386	31814.33
724.729	31946.98
725.071	31765.97
725.413	31846.65
725.755	31737.05
726.097	31634.9
726.439	31441.46
726.782	31373.21
727.124	31597.84
727.465	31382.93
727.807	31405.53
728.149	31263.61
728.491	31239.88
728.833	31367.11
729.175	31052.09
729.516	31217.29
729.858	31121.24
730.199	31105.2
730.541	31010.06
730.882	31006.9
731.224	31032.88
731.565	30898.65
731.906	30963.28
732.248	30824.98
732.589	30723.51
732.93	30659.34
733.271	30634.03
733.612	30724.19
733.953	30696.85
734.294	30508.15
734.635	30451.2
734.976	30505.67
735.317	30323.98
735.658	30275.16
735.999	30364.65
736.339	30367.59
736.68	30297.54
737.021	30259.12
737.361	30153.81
737.702	30292.79
738.042	30068.62
738.383	29962.63
738.723	30103.64
739.063	29927.15
739.404	29988.17
739.744	29990.2
740.084	29918.56
740.424	29887.83
740.764	29693.94
741.104	29792.01
741.444	29673.82
741.784	29660.49
742.124	29600.15
742.464	29683.77
742.804	29567.84
743.143	29458.91
743.483	29487.61
743.823	29353.15
744.162	29262.31
744.502	29292.14
744.841	29229.99
745.181	29269.54
745.52	29146.61
745.86	29212.37
746.199	29141.63
746.538	29232.71
746.877	29163.33
747.216	29033.39
747.556	29037
747.895	29094.4
748.234	28940.51
748.573	28914.52
748.911	28870.91
749.25	28800.17
749.589	28662.1
749.928	28703.45
750.267	28738.26
750.605	28592.5
750.944	28576.9
751.283	28574.19
751.621	28688.54
751.96	28325.39
752.298	28352.05
752.636	28439.51
752.975	28281.32
753.313	28165.62
753.651	28252.39
753.989	28119.29
754.327	28137.37
754.666	27919.97
755.004	28075.67
755.342	27884.27
755.679	27991.83
756.017	27751.16
756.355	27818.28
756.693	27742.35
757.031	27801.56
757.368	27590.49
757.706	27571.73
758.044	27514.79
758.381	27539.64
758.719	27366.09
759.056	27451.74
759.394	27364.05
759.731	27164.29
760.068	27155.92
760.405	27019.2
760.743	26910.28
761.08	27141.46
