Data from hue_310_FLMS001491_78.txt Node
Date: Mon Feb 06 15:50:09 GMT 2017
User: dcchb
Spectrometer: FLMS00149
Trigger mode: 0
Integration Time (sec): 2.000000E-2
Scans to average: 10
Electric dark correction enabled: true
Nonlinearity correction enabled: false
Boxcar width: 0
XAxis mode: Wavelengths
Number of Pixels in Spectrum: 2048
>>>>>Begin Spectral Data<<<<<
341.393	-14.62
341.776	-14.62
342.16	-14.62
342.543	-62.75
342.927	-84.67
343.31	-82.87
343.693	-76.54
344.077	-65.24
344.46	-55.75
344.843	-58.68
345.226	-36.99
345.61	-31.34
345.993	-11.45
346.376	-17.33
346.759	15.89
347.142	28.32
347.525	63.57
347.908	38.26
348.291	76.68
348.674	100.41
349.057	113.06
349.44	134.76
349.823	155.32
350.206	145.6
350.588	186.96
350.971	210.01
351.354	231.25
351.737	234.41
352.119	247.52
352.502	259.95
352.884	287.07
353.267	269.67
353.65	288.2
354.032	308.31
354.414	317.58
354.797	312.6
355.179	320.29
355.562	306.96
355.944	309.22
356.326	312.15
356.709	321.87
357.091	331.59
357.473	337.01
357.855	339.72
358.238	337.91
358.62	324.58
359.002	346.05
359.384	348.99
359.766	336.56
360.148	342.66
360.53	335.88
360.912	313.51
361.294	322.1
361.676	315.54
362.057	347.41
362.439	328.65
362.821	323.23
363.203	333.62
363.584	338.37
363.966	334.3
364.348	336.11
364.729	315.09
365.111	322.32
365.493	328.88
365.874	317.35
366.256	338.37
366.637	329.1
367.019	323.9
367.4	310.57
367.781	315.77
368.163	287.29
368.544	305.37
368.925	320.06
369.306	323.23
369.688	317.12
370.069	300.63
370.45	329.55
370.831	303.11
371.212	314.64
371.593	326.16
371.974	308.09
372.355	310.34
372.736	317.58
373.117	316.22
373.498	304.02
373.879	309.67
374.26	312.38
374.641	308.99
375.021	339.27
375.402	314.86
375.783	334.3
376.163	324.36
376.544	327.75
376.925	327.07
377.305	320.74
377.686	341.53
378.066	332.72
378.447	323.23
378.827	338.14
379.208	318.25
379.588	336.33
379.968	331.59
380.349	327.29
380.729	346.05
381.109	325.49
381.489	336.78
381.87	348.99
382.25	334.75
382.63	342.43
383.01	338.59
383.39	342.43
383.77	360.97
384.15	354.41
384.53	351.25
384.91	351.02
385.29	358.48
385.67	351.7
386.049	344.69
386.429	356.45
386.809	378.59
387.189	349.21
387.568	363.45
387.948	358.48
388.328	347.86
388.707	365.26
389.087	343.79
389.466	371.36
389.846	350.34
390.225	380.4
390.605	369.1
390.984	367.29
391.363	352.6
391.743	381.53
392.122	368.42
392.501	357.12
392.881	366.39
393.26	382.89
393.639	378.82
394.018	386.5
394.397	377.91
394.776	397.12
395.155	382.66
395.534	399.61
395.913	408.42
396.292	405.71
396.671	400.96
397.05	394.64
397.429	384.47
397.808	400.06
398.186	415.43
398.565	394.64
398.944	404.13
399.323	395.31
399.701	397.57
400.08	402.55
400.458	426.95
400.837	416.78
401.215	416.56
401.594	410.91
401.972	437.12
402.351	426.95
402.729	425.82
403.107	430.12
403.486	424.24
403.864	432.15
404.242	445.26
404.62	448.42
404.999	437.57
405.377	442.32
405.755	464.69
406.133	461.53
406.511	433.51
406.889	456.33
407.267	472.37
407.645	466.27
408.023	493.39
408.401	472.15
408.779	481.87
409.156	490.68
409.534	505.82
409.912	496.55
410.29	523.9
410.667	509.44
411.045	517.12
411.422	519.6
411.8	524.8
412.178	546.5
412.555	538.59
412.933	541.75
413.31	546.5
413.687	588.3
414.065	564.12
414.442	581.3
414.819	601.86
415.197	593.73
415.574	617.91
415.951	610.9
416.328	623.33
416.705	614.97
417.082	613.16
417.46	623.33
417.837	647.06
418.214	676.44
418.591	660.62
418.967	665.82
419.344	685.48
419.721	678.24
420.098	695.19
420.475	701.52
420.852	704.68
421.228	711.24
421.605	713.27
421.982	722.31
422.358	740.62
422.735	768.86
423.111	758.02
423.488	788.52
423.864	774.29
424.241	792.82
424.617	781.29
424.994	795.3
425.37	798.69
425.746	805.02
426.123	800.05
426.499	817.22
426.875	841.86
427.251	829.65
427.627	874.17
428.003	863.78
428.379	882.31
428.756	877.11
429.132	882.99
429.507	915.98
429.883	926.15
430.259	931.12
430.635	952.36
431.011	931.12
431.387	948.29
431.763	984.9
432.138	971.34
432.514	988.52
432.89	1004.79
433.265	1004.56
433.641	1020.16
434.016	1023.09
434.392	1017.22
434.767	1087.95
435.143	1057.9
435.518	1083.21
435.894	1102.41
436.269	1141.51
436.644	1123.43
437.02	1117.56
437.395	1089.08
437.77	1156.42
438.145	1136.54
438.52	1159.59
438.895	1171.34
439.271	1172.92
439.646	1222.64
440.021	1213.15
440.395	1237.1
440.77	1198.68
441.145	1213.15
441.52	1259.92
441.895	1210.89
442.27	1260.83
442.645	1234.84
443.019	1250.21
443.394	1270.55
443.769	1275.97
444.143	1260.6
444.518	1288.62
444.892	1249.3
445.267	1267.16
445.641	1286.82
446.016	1313.48
446.39	1301.73
446.764	1326.14
447.139	1311.67
447.513	1315.52
447.887	1315.97
448.262	1327.27
448.636	1343.76
449.01	1368.17
449.384	1360.49
449.758	1354.39
450.132	1379.47
450.506	1339.47
450.88	1369.75
451.254	1360.49
451.628	1406.36
452.002	1386.25
452.376	1427.83
452.75	1419.69
453.123	1412.91
453.497	1446.13
453.871	1490.65
454.244	1449.52
454.618	1479.13
454.992	1481.61
455.365	1495.62
455.739	1520.26
456.112	1520.71
456.486	1534.27
456.859	1568.62
457.232	1553.25
457.606	1536.53
457.979	1563.65
458.352	1604.1
458.725	1580.37
459.099	1610.42
459.472	1632.57
459.845	1628.05
460.218	1618.33
460.591	1646.58
460.964	1677.54
461.337	1681.83
461.71	1734.94
462.083	1738.33
462.456	1707.6
462.829	1693.59
463.201	1742.4
463.574	1750.08
463.947	1779.91
464.32	1801.83
464.692	1790.98
465.065	1795.73
465.438	1826.92
465.81	1806.12
466.183	1896.97
466.555	1869.63
466.928	1881.6
467.3	1883.18
467.672	1914.14
468.045	1976.74
468.417	1957.76
468.789	1968.83
469.161	1997.53
469.534	2003.41
469.906	2039.57
470.278	2049.06
470.65	2055.61
471.022	2082.95
471.394	2101.26
471.766	2089.06
472.138	2119.79
472.51	2157.08
472.882	2151.2
473.253	2184.87
473.625	2222.16
473.997	2238.88
474.369	2251.31
474.74	2251.08
475.112	2343.96
475.484	2327.92
475.855	2361.82
476.227	2377.18
476.598	2430.29
476.97	2437.52
477.341	2466.45
477.713	2486.78
478.084	2513.22
478.455	2563.62
478.827	2559.78
479.198	2640.91
479.569	2625.76
479.94	2683.39
480.311	2700.34
480.682	2691.3
481.053	2766.33
481.424	2768.36
481.795	2849.26
482.166	2831.63
482.537	2871.86
482.908	2872.31
483.279	2956.15
483.65	2982.37
484.021	3016.04
484.391	3053.78
484.762	3044.28
485.133	3065.07
485.503	3089.48
485.874	3147.56
486.244	3187.11
486.615	3218.07
486.985	3225.97
487.356	3298.74
487.726	3348.01
488.097	3355.24
488.467	3350.27
488.837	3420.55
489.207	3404.95
489.578	3472.75
489.948	3517.49
490.318	3590.71
490.688	3582.35
491.058	3589.58
491.428	3644.04
491.798	3680.65
492.168	3700.76
492.538	3707.09
492.908	3734.21
493.278	3799.52
493.648	3805.62
494.017	3807.65
494.387	3861.66
494.757	3877.71
495.126	3928.78
495.496	3928.55
495.866	3913.87
496.235	3994.99
496.605	3980.53
496.974	3983.02
497.344	4048.33
497.713	4023.92
498.082	4092.84
498.452	4096.69
498.821	4143.01
499.19	4147.53
499.559	4147.76
499.928	4158.38
500.298	4214.65
500.667	4203.58
501.036	4201.32
501.405	4216.23
501.774	4266.63
502.143	4255.55
502.512	4317.47
502.88	4328.77
503.249	4325.83
503.618	4359.73
503.987	4333.97
504.356	4383.91
504.724	4387.75
505.093	4371.93
505.462	4409.9
505.83	4413.51
506.199	4476.79
506.567	4512.04
506.936	4506.84
507.304	4508.88
507.672	4553.62
508.041	4578.48
508.409	4533.96
508.777	4593.17
509.145	4636.78
509.514	4623.9
509.882	4679.5
510.25	4685.15
510.618	4672.04
510.986	4699.83
511.354	4712.49
511.722	4719.27
512.09	4747.29
512.458	4772.6
512.826	4796.78
513.193	4807.63
513.561	4785.71
513.929	4790.91
514.297	4832.49
514.664	4872.26
515.032	4890.11
515.4	4910.68
515.767	4908.42
516.135	4948.87
516.502	4887.85
516.869	4988.64
517.237	4970.34
517.604	4924.23
517.972	4935.08
518.339	5058.47
518.706	5027.06
519.073	5053.95
519.44	5074.97
519.808	5104.8
520.175	5083.78
520.542	5115.87
520.909	5117.45
521.276	5146.83
521.643	5135.3
522.009	5203.55
522.376	5186.37
522.743	5270.67
523.11	5241.29
523.477	5324.68
523.843	5339.59
524.21	5342.3
524.577	5375.07
524.943	5420.27
525.31	5437.44
525.676	5438.8
526.043	5470.44
526.409	5488.29
526.776	5556.76
527.142	5564.67
527.508	5593.37
527.874	5618.91
528.241	5714.27
528.607	5637.66
528.973	5677.66
529.339	5678.79
529.705	5769.41
530.071	5771.9
530.437	5822.06
530.803	5858.67
531.169	5875.4
531.535	5839.92
531.901	5952.23
532.267	5903.87
532.632	5983.42
532.998	6007.82
533.364	5982.06
533.73	6004.43
534.095	6047.37
534.461	6091.89
534.826	6151.32
535.192	6134.82
535.557	6139.8
535.923	6166.91
536.288	6176.18
536.653	6240.36
537.019	6239
537.384	6256.4
537.749	6279.45
538.114	6330.53
538.479	6279.68
538.845	6389.73
539.21	6358.77
539.575	6394.25
539.94	6454.59
540.305	6467.25
540.67	6451.65
541.034	6533.23
541.399	6512.89
541.764	6540.69
542.129	6589.05
542.494	6595.15
542.858	6572.55
543.223	6617.52
543.587	6688.71
543.952	6688.93
544.316	6739.1
544.681	6785.65
545.045	6821.36
545.41	6781.14
545.774	6847.57
546.138	6782.49
546.503	6887.8
546.867	6880.34
547.231	6948.36
547.595	6931.64
547.959	6997.63
548.324	7036.72
548.688	7005.08
549.052	7066.1
549.416	7102.26
549.779	7076.95
550.143	7126.44
550.507	7159.66
550.871	7205.08
551.235	7146.1
551.599	7249.15
551.962	7260.67
552.326	7255.47
552.689	7302.7
553.053	7272.65
553.417	7294.79
553.78	7421.8
554.143	7377.05
554.507	7366.66
554.87	7368.24
555.234	7550.61
555.597	7460.67
555.96	7494.34
556.323	7474.45
556.686	7504.28
557.05	7665.63
557.413	7613.43
557.776	7565.07
558.139	7660.66
558.502	7627.44
558.865	7685.07
559.228	7725.74
559.59	7678.51
559.953	7820.88
560.316	7806.87
560.679	7805.74
561.041	7831.05
561.404	7882.8
561.767	7928.68
562.129	7881.45
562.492	7969.13
562.854	7944.95
563.217	8045.06
563.579	8036.02
563.941	8075.79
564.304	8142
564.666	8116.69
565.028	8102.46
565.39	8222
565.753	8167.31
566.115	8245.28
566.477	8298.16
566.839	8247.31
567.201	8365.05
567.563	8292.73
567.925	8334.54
568.287	8339.51
568.648	8368.44
569.01	8480.98
569.372	8542.67
569.734	8539.96
570.095	8593.52
570.457	8595.1
570.819	8631.26
571.18	8625.83
571.542	8724.36
571.903	8790.12
572.265	8737.24
572.626	8811.82
572.987	8856.79
573.349	8910.12
573.71	8964.81
574.071	9016.78
574.432	9123.67
574.794	9223.78
575.155	9204.35
575.516	9249.09
575.877	9318.24
576.238	9303.55
576.599	9457.22
576.96	9501.74
577.32	9547.16
577.681	9671.45
578.042	9744.45
578.403	9757.1
578.763	9954.61
579.124	10019.02
579.485	10092.01
579.845	10286.58
580.206	10250.42
580.566	10394.15
580.927	10508.95
581.287	10652.67
581.648	10805.44
582.008	10962.95
582.368	11092.89
582.728	11267.57
583.089	11355.7
583.449	11605.42
583.809	11649.03
584.169	11833.66
584.529	12099.87
584.889	12307.54
585.249	12375.79
585.609	12574.2
585.969	12853.52
586.329	13001.99
586.688	13343.67
587.048	13473.84
587.408	13698.24
587.768	13941.62
588.127	14124.44
588.487	14320.37
588.846	14650.98
589.206	14922.16
589.565	15116.06
589.925	15405.99
590.284	15672.88
590.643	16038.29
591.003	16332.75
591.362	16647.77
591.721	16879.63
592.08	17124.82
592.44	17420.18
592.799	17721.19
593.158	18021.52
593.517	18270.55
593.876	18628.73
594.235	18827.37
594.593	19186.68
594.952	19552.78
595.311	19703.73
595.67	20097.62
596.029	20553.43
596.387	20788
596.746	21116.13
597.104	21278.16
597.463	21574.42
597.822	22005.14
598.18	22151.8
598.538	22497.33
598.897	22836.76
599.255	23000.14
599.613	23602.39
599.972	23775.49
600.33	24102.49
600.688	24323.05
601.046	24697.27
601.404	25118.28
601.762	25155.57
602.12	25642.79
602.478	25868.32
602.836	26175.43
603.194	26281.41
603.552	26631.46
603.91	26869.87
604.268	27286.58
604.625	27316.19
604.983	27674.15
605.341	27965.44
605.698	28137.18
606.056	28499.66
606.413	28699.43
606.771	29056.03
607.128	29172.18
607.485	29381.9
607.843	29596.58
608.2	29939.17
608.557	30309.1
608.914	30413.96
609.272	30757.45
609.629	30961.52
609.986	31167.61
610.343	31449.41
610.7	31825.45
611.057	31868.16
611.414	31904.54
611.771	32128.27
612.127	32573.68
612.484	32635.14
612.841	32993.33
613.198	33003.95
613.554	33225.19
613.911	33561
614.267	33689.13
614.624	33817.94
614.98	33931.38
615.337	34371.14
615.693	34359.85
616.05	34446.62
616.406	34812.94
616.762	34848.19
617.118	34982.88
617.475	35075.53
617.831	35254.06
618.187	35426.94
618.543	35670.32
618.899	35981.5
619.255	35976.07
619.611	36012.68
619.967	36290.64
620.323	36443.18
620.678	36252.68
621.034	36511.2
621.39	36571.99
621.746	36560.47
622.101	37182.37
622.457	36880.68
622.812	37154.57
623.168	37306.21
623.523	37401.12
623.879	37621.23
624.234	37281.12
624.589	37621.45
624.945	37661.23
625.3	37923.14
625.655	37719.76
626.01	38024.61
626.365	38185.73
626.72	38018.73
627.075	38199.74
627.43	38238.84
627.785	38151.84
628.14	38389.8
628.495	38524.71
628.85	38503.92
629.205	38325.84
629.559	38565.38
629.914	38569
630.269	38595.21
630.623	38606.29
630.978	38631.82
631.332	38693.52
631.687	38768.09
632.041	38664.59
632.396	38815.1
632.75	38697.58
633.104	38745.04
633.459	38680.41
633.813	38686.51
634.167	38661.65
634.521	38908.65
634.875	38981.87
635.229	38844.02
635.583	38668.21
635.937	38684.48
636.291	38798.37
636.645	38756.57
636.999	38707.53
637.352	38912.04
637.706	38671.6
638.06	38817.13
638.413	38866.62
638.767	38793.63
639.121	38848.99
639.474	38688.77
639.828	38858.94
640.181	38803.12
640.534	38827.52
640.888	38847.41
641.241	38569.9
641.594	38751.82
641.947	38871.59
642.301	38743.46
642.654	38733.29
643.007	38816.9
643.36	38669.34
643.713	38653.07
644.066	38898.93
644.419	38627.98
644.771	38400.42
645.124	37854.22
645.477	37988.22
645.83	37737.61
646.182	37622.81
646.535	37592.75
646.888	37736.25
647.24	37511.17
647.593	37611.51
647.945	37595.69
648.298	37547.11
648.65	37443.83
649.002	37307.56
649.355	37480.44
649.707	37401.8
650.059	37577.84
650.411	37929.47
650.763	37959.3
651.115	38449.23
651.467	38141.67
651.819	38341.89
652.171	38313.41
652.523	38179.41
652.875	38036.36
653.227	38107.77
653.578	38279.52
653.93	38099.41
654.282	38190.25
654.633	37949.36
654.985	38016.7
655.337	37967.66
655.688	37981.44
656.039	38248.78
656.391	37919.07
656.742	37993.42
657.094	37937.83
657.445	38122.01
657.796	38027.09
658.147	37894.89
658.498	37881.33
658.849	38051.5
659.2	37918.4
659.551	37794.11
659.902	38047.66
660.253	37804.95
660.604	38004.5
660.955	37833.2
661.306	37908.9
661.656	37893.99
662.007	37832.52
662.358	37908
662.708	37750.94
663.059	37922.92
663.409	37599.99
663.76	37890.37
664.11	37856.02
664.461	37881.33
664.811	37827.78
665.161	37796.14
665.511	37728.12
665.862	37835.91
666.212	37813.54
666.562	37886.08
666.912	37709.36
667.262	37706.65
667.612	37871.39
667.962	37816.48
668.312	37647.22
668.662	37789.59
669.011	37849.47
669.361	37715.01
669.711	37558.63
670.06	37570.61
670.41	37656.71
670.76	37581.46
671.109	37686.09
671.459	37691.96
671.808	37651.96
672.157	37683.37
672.507	37388.69
672.856	37479.09
673.205	37514.11
673.554	37633.43
673.904	37392.76
674.253	37662.58
674.602	37487.9
674.951	37017.63
675.3	36873.45
675.649	37338.3
675.998	37383.72
676.346	37357.73
676.695	37539.42
677.044	37209.49
677.393	37324.74
677.741	37424.17
678.09	37358.18
678.438	37227.79
678.787	37354.34
679.135	37358.18
679.484	37021.02
679.832	37297.62
680.181	37028.7
680.529	37147.79
680.877	36968.36
681.225	36900.12
681.573	37165.65
681.922	36849.5
682.27	36778.31
682.618	36786
682.966	36716.85
683.314	36822.15
683.661	36766.11
684.009	36569.28
684.357	36401.37
684.705	36387.59
685.053	36455.16
685.4	36347.59
685.748	36248.61
686.095	36226.69
686.443	36030.99
686.79	36123.87
687.138	36139.46
687.485	35960.48
687.832	35845.91
688.18	35966.81
688.527	35804.55
688.874	35799.13
689.221	35787.38
689.568	35572.02
689.915	35493.15
690.262	35610.89
690.609	35505.35
690.956	35212.25
691.303	35398.46
691.65	35231.91
691.997	35083.44
692.344	34935.88
692.69	34983.78
693.037	34945.59
693.383	34670.57
693.73	34917.8
694.077	34629.89
694.423	34631.93
694.769	34490.46
695.116	34515.77
695.462	34352.61
695.808	34332.28
696.155	34372.5
696.501	34217.25
696.847	34099.96
697.193	33862.46
697.539	33997.37
697.885	33825.4
698.231	33584.5
698.577	33580.88
698.923	33668.79
699.269	33472.18
699.614	33271.96
699.96	33351.74
700.306	33145.87
700.651	33004.4
700.997	32808.25
701.342	32981.35
701.688	32892.54
702.033	32822.03
702.379	32825.2
702.724	32696.84
703.069	32758.98
703.415	32292.1
703.76	32412.78
704.105	32399.44
704.45	32386.11
704.795	32220.01
705.14	32076.74
705.485	32097.08
705.83	31881.72
706.175	32070.41
706.52	31897.76
706.865	31814.15
707.209	31707.94
707.554	31624.32
707.899	31732.12
708.243	31474.95
708.588	31415.97
708.932	31200.61
709.277	31362.18
709.621	31423.2
709.966	31010.55
710.31	31187.05
710.654	30911.57
710.998	31051.23
711.342	31027.28
711.687	30928.3
712.031	30719.26
712.375	30606.5
712.719	30468.42
713.063	30572.15
713.407	30651.69
713.75	30406.5
714.094	30472.04
714.438	30357.92
714.782	30361.76
715.125	30168.77
715.469	30237.69
715.812	30064.59
716.156	29866.4
716.499	29849.23
716.843	30049.68
717.186	29888.55
717.53	29918.15
717.873	29958.38
718.216	29772.4
718.559	29695.11
718.902	29434.55
719.246	29655.79
719.589	29512.29
719.932	29423.03
720.275	29428.22
720.617	29344.16
720.96	29250.37
721.303	29207.89
721.646	29263.26
721.989	28996.82
722.331	29102.13
722.674	29082.7
723.016	29136.48
723.359	28991.17
723.701	28964.73
724.044	28851.52
724.386	28675.47
724.729	28827.79
725.071	28714.57
725.413	28732.87
725.755	28716.15
726.097	28566.33
726.439	28493.33
726.782	28397.97
727.124	28645.42
727.465	28419.89
727.807	28292.43
728.149	28252.44
728.491	28281.36
728.833	28296.05
729.175	28233.9
729.516	28148.03
729.858	28153
730.199	28193.91
730.541	28017.41
730.882	27942.61
731.224	28110.07
731.565	27906
731.906	27849.06
732.248	27909.85
732.589	27772.9
732.93	27641.38
733.271	27795.5
733.612	27600.7
733.953	27782.39
734.294	27619.68
734.635	27550.98
734.976	27506.01
735.317	27351.89
735.658	27360.03
735.999	27377.66
736.339	27295.62
736.68	27456.07
737.021	27331.33
737.361	27192.35
737.702	27328.39
738.042	27198
738.383	27160.71
738.723	27121.84
739.063	26916.2
739.404	27095.4
739.744	27030.32
740.084	26844.79
740.424	26983.99
740.764	26862.19
741.104	26843.21
741.444	26718.46
741.784	26769.99
742.124	26800.72
742.464	26695.19
742.804	26579.94
743.143	26473.72
743.483	26574.74
743.823	26432.6
744.162	26429.43
744.502	26454.29
744.841	26355.31
745.181	26400.96
745.52	26313.95
745.86	26355.99
746.199	26329.77
746.538	26246.39
746.877	26203
747.216	26221.08
747.556	26182.88
747.895	26165.48
748.234	26013.4
748.573	25939.05
748.911	25956.68
749.25	25941.08
749.589	25865.15
749.928	25893.4
750.267	25829.67
750.605	25692.73
750.944	25677.36
751.283	25564.14
751.621	25715.55
751.96	25491.15
752.298	25462.9
752.636	25372.51
752.975	25393.98
753.313	25247.09
753.651	25303.13
753.989	25223.14
754.327	25097.04
754.666	25000.77
755.004	25102.01
755.342	25046.64
755.679	25023.82
756.017	24923.03
756.355	24908.34
756.693	24821.11
757.031	24879.19
757.368	24709.48
757.706	24613.89
758.044	24561.46
758.381	24539.99
758.719	24471.97
759.056	24464.29
759.394	24490.73
