Data from hue_38_FLMS001491_00053.txt Node
Date: Tue Feb 07 17:31:41 GMT 2017
User: dcchb
Spectrometer: FLMS00149
Trigger mode: 0
Integration Time (sec): 2.000000E-2
Scans to average: 10
Electric dark correction enabled: true
Nonlinearity correction enabled: false
Boxcar width: 0
XAxis mode: Wavelengths
Number of Pixels in Spectrum: 2048
>>>>>Begin Spectral Data<<<<<
341.393	2.78
341.776	2.78
342.16	2.78
342.543	-58.01
342.927	-86.48
343.31	-81.51
343.693	-59.59
344.077	-68.85
344.46	-55.97
344.843	-35.18
345.226	-53.94
345.61	-46.26
345.993	-41.28
346.376	11.82
346.759	25.38
347.142	17.02
347.525	50.01
347.908	73.52
348.291	73.52
348.674	94.76
349.057	96.57
349.44	123.46
349.823	138.6
350.206	161.2
350.588	196.9
350.971	210.69
351.354	227.86
351.737	240.74
352.119	252.27
352.502	266.5
352.884	264.47
353.267	291.36
353.65	303.11
354.032	306.96
354.414	300.18
354.797	324.13
355.179	342.21
355.562	324.81
355.944	328.65
356.326	347.63
356.709	349.21
357.091	339.27
357.473	338.37
357.855	346.28
358.238	359.61
358.62	331.14
359.002	344.92
359.384	351.7
359.766	330.01
360.148	352.83
360.53	332.49
360.912	357.12
361.294	343.11
361.676	355.32
362.057	334.75
362.439	342.43
362.821	339.95
363.203	322.77
363.584	336.11
363.966	312.83
364.348	329.78
364.729	333.4
365.111	316.22
365.493	302.44
365.874	323.68
366.256	319.61
366.637	313.96
367.019	316.22
367.4	314.86
367.781	325.94
368.163	311.47
368.544	297.92
368.925	330.46
369.306	329.33
369.688	315.99
370.069	311.02
370.45	326.84
370.831	309.22
371.212	323.9
371.593	338.59
371.974	295.43
372.355	317.12
372.736	324.13
373.117	332.04
373.498	332.27
373.879	315.99
374.26	320.97
374.641	321.87
375.021	317.35
375.402	318.25
375.783	322.77
376.163	339.5
376.544	355.77
376.925	325.94
377.305	328.88
377.686	311.93
378.066	332.49
378.447	334.75
378.827	319.16
379.208	337.01
379.588	329.55
379.968	351.47
380.349	318.25
380.729	340.17
381.109	347.86
381.489	338.82
381.87	346.28
382.25	346.95
382.63	334.98
383.01	351.93
383.39	358.25
383.77	370
384.15	354.64
384.53	362.77
384.91	356.9
385.29	340.17
385.67	355.32
386.049	357.8
386.429	359.84
386.809	366.84
387.189	334.3
387.568	363.68
387.948	376.56
388.328	379.72
388.707	361.64
389.087	367.07
389.466	370.46
389.846	389.21
390.225	384.69
390.605	382.66
390.984	394.64
391.363	381.98
391.743	376.78
392.122	372.49
392.501	369.1
392.881	393.96
393.26	388.53
393.639	386.28
394.018	390.57
394.397	365.48
394.776	388.76
395.155	382.43
395.534	392.6
395.913	391.92
396.292	394.64
396.671	400.96
397.05	413.62
397.429	410.68
397.808	407.29
398.186	417.01
398.565	419.72
398.944	417.46
399.323	411.59
399.701	410.23
400.08	399.83
400.458	426.95
400.837	405.48
401.215	406.61
401.594	429.89
401.972	378.14
402.351	427.18
402.729	410.23
403.107	417.69
403.486	407.52
403.864	406.16
404.242	439.16
404.62	425.14
404.999	436.22
405.377	418.82
405.755	408.2
406.133	409.33
406.511	454.75
406.889	431.47
407.267	430.34
407.645	450.91
408.023	460.85
408.401	448.19
408.779	457.69
409.156	459.72
409.534	465.37
409.912	465.6
410.29	470.57
410.667	456.1
411.045	471.47
411.422	481.87
411.8	471.02
412.178	478.48
412.555	475.99
412.933	487.06
413.31	482.77
413.687	491.13
414.065	499.04
414.442	490
414.819	502.2
415.197	518.48
415.574	492.26
415.951	500.4
416.328	529.55
416.705	520.73
417.082	524.12
417.46	503.56
417.837	514.18
418.214	532.49
418.591	516.89
418.967	526.16
419.344	527.29
419.721	546.27
420.098	528.64
420.475	554.18
420.852	536.78
421.228	556.89
421.605	550.11
421.982	551.92
422.358	561.41
422.735	549.43
423.111	558.7
423.488	574.74
423.864	574.74
424.241	567.06
424.617	600.73
424.994	575.2
425.37	584.01
425.746	597.12
426.123	601.18
426.499	582.65
426.875	602.54
427.251	609.77
427.627	640.05
428.003	619.49
428.379	604.35
428.756	627.85
429.132	617.23
429.507	625.59
429.883	664.69
430.259	665.82
430.635	636.21
431.011	657.23
431.387	650.67
431.763	674.4
432.138	695.87
432.514	676.66
432.89	700.17
433.265	700.39
433.641	710.56
434.016	700.84
434.392	720.5
434.767	729.32
435.143	709.88
435.518	709.88
435.894	723.44
436.269	746.27
436.644	751.46
437.02	747.85
437.395	770.9
437.77	769.09
438.145	796.43
438.52	786.04
438.895	777.9
439.271	777.45
439.646	802.31
440.021	792.37
440.395	791.91
440.77	795.08
441.145	811.12
441.52	825.59
441.895	798.02
442.27	826.26
442.645	830.78
443.019	818.58
443.394	847.28
443.769	845.7
444.143	864.45
444.518	865.58
444.892	868.07
445.267	858.58
445.641	839.37
446.016	865.36
446.39	872.82
446.764	882.31
447.139	868.75
447.513	903.32
447.887	889.31
448.262	881.63
448.636	895.19
449.01	907.39
449.384	908.97
449.758	937.45
450.132	907.62
450.506	913.94
450.88	945.58
451.254	949.2
451.628	933.83
452.002	966.15
452.376	936.09
452.75	988.07
453.123	1005.69
453.497	984.68
453.871	971.12
454.244	1004.11
454.618	1021.06
454.992	1024.45
455.365	1025.58
455.739	1066.71
456.112	1075.75
456.486	1068.07
456.859	1084.56
457.232	1094.05
457.606	1096.09
457.979	1105.58
458.352	1127.27
458.725	1120.72
459.099	1132.02
459.472	1147.84
459.845	1166.37
460.218	1191.45
460.591	1207.04
460.964	1228.74
461.337	1226.25
461.71	1276.87
462.083	1269.19
462.456	1267.83
462.829	1290.88
463.201	1302.86
463.574	1294.05
463.947	1322.75
464.32	1332.92
464.692	1352.58
465.065	1349.64
465.438	1362.75
465.81	1395.97
466.183	1423.76
466.555	1463.53
466.928	1480.26
467.3	1463.53
467.672	1485.68
468.045	1521.61
468.417	1544.44
468.789	1537.88
469.161	1560.48
469.534	1605.23
469.906	1625.34
470.278	1659.69
470.65	1675.73
471.022	1701.04
471.394	1764.54
471.766	1779.68
472.138	1808.38
472.51	1838.21
472.882	1866.24
473.253	1931.32
473.625	1941.49
473.997	1991.2
474.369	2038.21
474.74	2059.45
475.112	2073.69
475.484	2134.48
475.855	2168.38
476.227	2193.91
476.598	2311.65
476.97	2307.35
477.341	2398.88
477.713	2436.16
478.084	2474.13
478.455	2553.68
478.827	2618.08
479.198	2679.77
479.569	2705.76
479.94	2807.91
480.311	2848.36
480.682	2969.71
481.053	3055.81
481.424	3115.69
481.795	3148.01
482.166	3226.2
482.537	3307.1
482.908	3411.73
483.279	3486.08
483.65	3573.54
484.021	3688.79
484.391	3755.68
484.762	3811.72
485.133	3902.79
485.503	3990.47
485.874	4083.58
486.244	4188.21
486.615	4307.3
486.985	4396.79
487.356	4557.92
487.726	4560.4
488.097	4727.86
488.467	4797.91
488.837	4977.79
489.207	5057.11
489.578	5155.19
489.948	5238.35
490.318	5314.96
490.688	5381.62
491.058	5608.06
491.428	5704.55
491.798	5774.83
492.168	5932.34
492.538	6060.48
492.908	6170.08
493.278	6301.37
493.648	6333.92
494.017	6474.02
494.387	6556.73
494.757	6696.62
495.126	6808.25
495.496	6856.16
495.866	6945.2
496.235	7086.89
496.605	7216.38
496.974	7227.9
497.344	7364.85
497.713	7453.43
498.082	7514.45
498.452	7705.18
498.821	7757.38
499.19	7793.09
499.559	7942.23
499.928	8084.15
500.298	8054.1
500.667	8210.02
501.036	8299.97
501.405	8362.79
501.774	8435.33
502.143	8508.32
502.512	8673.97
502.88	8743.8
503.249	8735.21
503.618	8866.73
503.987	8947.86
504.356	9026.73
504.724	9078.02
505.093	9183.56
505.462	9232.14
505.83	9334.51
506.199	9444.57
506.567	9548.07
506.936	9593.49
507.304	9720.49
507.672	9735.86
508.041	9928.17
508.409	9911.22
508.777	10014.72
509.145	10167.03
509.514	10218.78
509.882	10233.02
510.25	10272.57
510.618	10349.63
510.986	10438.67
511.354	10520.7
511.722	10585.1
512.09	10747.36
512.458	10732.22
512.826	10803.85
513.193	10911.42
513.561	10906
513.929	11071.42
514.297	11128.37
514.664	11242.49
515.032	11207.23
515.4	11385.99
515.767	11398.64
516.135	11509.37
516.502	11359.55
516.869	11643.38
517.237	11724.96
517.604	11716.37
517.972	11799.76
518.339	11912.98
518.706	11947.33
519.073	11970.6
519.44	12085.85
519.808	12128.79
520.175	12194.33
520.542	12285.17
520.909	12402.23
521.276	12460.53
521.643	12575.56
522.009	12646.74
522.376	12719.06
522.743	12821.43
523.11	12860.3
523.477	12957.24
523.843	13073.63
524.21	13165.83
524.577	13230.91
524.943	13267.07
525.31	13424.58
525.676	13504.8
526.043	13523.56
526.409	13636.55
526.776	13791.57
527.142	13895.52
527.508	13882.19
527.874	14000.61
528.241	13994.05
528.607	14170.77
528.973	14200.6
529.339	14206.02
529.705	14416.87
530.071	14468.16
530.437	14483.98
530.803	14655.73
531.169	14666.8
531.535	14601.95
531.901	14774.6
532.267	14800.36
532.632	14888.27
532.998	14993.35
533.364	15059.56
533.73	15104.08
534.095	15306.79
534.461	15336.39
534.826	15399.44
535.192	15473.79
535.557	15478.53
535.923	15511.53
536.288	15681.24
536.653	15715.82
537.019	15675.59
537.384	15806.89
537.749	15843.27
538.114	15890.95
538.479	15902.25
538.845	16068.35
539.21	16068.35
539.575	16122.36
539.94	16151.28
540.305	16291.62
540.67	16319.64
541.034	16379.98
541.399	16479.19
541.764	16374.78
542.129	16556.92
542.494	16687.54
542.858	16647.32
543.223	16777.48
543.587	16779.74
543.952	16803.92
544.316	16874.43
544.681	16839.18
545.045	16964.82
545.41	17038.04
545.774	17195.32
546.138	17220.86
546.503	17236.91
546.867	17315.55
547.231	17461.31
547.595	17484.58
547.959	17540.4
548.324	17585.82
548.688	17557.58
549.052	17706.5
549.416	17764.35
549.779	17729.55
550.143	17821.52
550.507	17974.06
550.871	18039.6
551.235	17921.63
551.599	18046.83
551.962	18179.93
552.326	18160.5
552.689	18285.69
553.053	18317.56
553.417	18359.59
553.78	18552.13
554.143	18510.77
554.507	18637.55
554.87	18594.16
555.234	18892.91
555.597	18662.86
555.96	18821.27
556.323	18878.67
556.686	18868.28
557.05	18995.73
557.413	19008.61
557.776	19107.36
558.139	19181.94
558.502	19237.3
558.865	19280.69
559.228	19395.27
559.59	19475.94
559.953	19535.83
560.316	19821.47
560.679	19739.21
561.041	19890.62
561.404	19924.52
561.767	20070.05
562.129	20013.1
562.492	20229.82
562.854	20100.56
563.217	20184.85
563.579	20202.7
563.941	20343.94
564.304	20408.12
564.666	20532.41
565.028	20536.25
565.39	20609.7
565.753	20810.14
566.115	20820.54
566.477	20926.75
566.839	20920.65
567.201	21151.83
567.563	21111.61
567.925	21246.52
568.287	21329.45
568.648	21287.65
569.01	21512.5
569.372	21641.31
569.734	21634.98
570.095	21703.68
570.457	21765.83
570.819	21871.59
571.18	21785.49
571.542	22114.07
571.903	22137.79
572.265	22163.33
572.626	22314.06
572.987	22363.78
573.349	22450.78
573.71	22598.8
574.071	22630.66
574.432	22772.81
574.794	23020.48
575.155	22948.39
575.516	22937.09
575.877	23231.78
576.238	23197.88
576.599	23435.39
576.96	23548.38
577.32	23650.3
577.681	23722.84
578.042	23987.91
578.403	24028.37
578.763	24140
579.124	24410.05
579.485	24521.46
579.845	24622.02
580.206	24730.49
580.566	24922.35
580.927	25091.16
581.287	25209.58
581.648	25377.26
582.008	25573.18
582.368	25714.2
582.728	25923.68
583.089	25983.79
583.449	26202.32
583.809	26430.11
584.169	26644.12
584.529	26734.73
584.889	27076.42
585.249	27173.82
585.609	27251.11
585.969	27643.19
586.329	27748.49
586.688	27995.94
587.048	28207.01
587.408	28371.98
587.768	28572.88
588.127	28766.55
588.487	29064.84
588.846	29356.81
589.206	29425.96
589.565	29559.07
589.925	29934.65
590.284	29994.76
590.643	30381.42
591.003	30538.48
591.362	30835.19
591.721	30971.91
592.08	31089.2
592.44	31505.46
592.799	31695.28
593.158	31817.77
593.517	32090.98
593.876	32262.95
594.235	32350.41
594.593	32665.2
594.952	32993.55
595.311	33183.38
595.67	33422.02
596.029	33802.35
596.387	33936.58
596.746	34105.39
597.104	34175.67
597.463	34321.43
597.822	34771.59
598.18	34805.94
598.538	34967.29
598.897	35367.5
599.255	35313.04
599.613	35901.05
599.972	35866.7
600.33	36030.08
600.688	36167.71
601.046	36407.93
601.404	36748.48
601.762	36794.81
602.12	37031.87
602.478	37301.24
602.836	37422.82
603.194	37257.62
603.552	37579.65
603.91	37542.59
604.268	38003.14
604.625	37944.61
604.983	38220.31
605.341	38197.94
605.698	38502.79
606.056	38744.36
606.413	38859.39
606.771	39028.65
607.128	39100.74
607.485	39249.43
607.843	39335.53
608.2	39802.87
608.557	39860.94
608.914	39729.2
609.272	40061.84
609.629	40121.95
609.986	40492.11
610.343	40413.25
610.7	40691.88
611.057	40883.52
611.414	40827.25
611.771	41007.58
612.127	41203.06
612.484	41260.45
612.841	41583.16
613.198	41401.24
613.554	41577.96
613.911	41915.8
614.267	41893.21
614.624	41988.57
614.98	42117.83
615.337	42351.73
615.693	42261.78
616.05	42318.96
616.406	42652.28
616.762	42579.97
617.118	42750.36
617.475	42846.85
617.831	42887.3
618.187	42975.21
618.543	43213.17
618.899	43469.44
619.255	43477.12
619.611	43348.99
619.967	43544.01
620.323	43622.43
620.678	43542.88
621.034	43598.47
621.39	43657.68
621.746	43689.09
622.101	44103.77
622.457	43802.31
622.812	43939.48
623.168	44168.85
623.523	44193.26
623.879	44364.78
624.234	44069.19
624.589	44257.66
624.945	44296.76
625.3	44341.05
625.655	44391.45
626.01	44452.69
626.365	44471.22
626.72	44509.41
627.075	44715.73
627.43	44477.55
627.785	44641.38
628.14	44703.08
628.495	44731.32
628.85	44720.25
629.205	44626.02
629.559	44722.06
629.914	44636.41
630.269	44715.51
630.623	44604.32
630.978	44561.38
631.332	44729.97
631.687	44892.68
632.041	44669.18
632.396	44801.15
632.75	44705.79
633.104	44769.06
633.459	44657.65
633.813	44652.23
634.167	44728.61
634.521	44562.29
634.875	44759.8
635.229	44740.36
635.583	44725.9
635.937	44593.93
636.291	44562.97
636.645	44647.94
636.999	44618.11
637.352	44797.99
637.706	44539.01
638.06	44642.29
638.413	44708.05
638.767	44484.55
639.121	44533.81
639.474	44453.37
639.828	44459.92
640.181	44422.86
640.534	44477.55
640.888	44358
641.241	44217.67
641.594	44292.24
641.947	44364.55
642.301	44238.68
642.654	44291.11
643.007	44380.15
643.36	44240.49
643.713	44226.03
644.066	44384.44
644.419	44073.94
644.771	43947.84
645.124	43534.07
645.477	43497.91
645.83	43391.02
646.182	43125.49
646.535	43089.11
646.888	43056.34
647.24	42911.94
647.593	43189.44
647.945	42994.19
648.298	42840.53
648.65	42675.56
649.002	42781.54
649.355	42976.34
649.707	42806.63
650.059	43133.4
650.411	43532.49
650.763	43695.64
651.115	43903.32
651.467	43666.04
651.819	43820.39
652.171	43641.41
652.523	43505.37
652.875	43667.17
653.227	43394.64
653.578	43793.5
653.93	43777.68
654.282	43501.3
654.633	43257.69
654.985	43338.14
655.337	43534.07
655.688	43533.39
656.039	43525.48
656.391	43193.74
656.742	43347.63
657.094	43390.57
657.445	43668.3
657.796	43360.29
658.147	43332.26
658.498	43389.89
658.849	43491.36
659.2	43313.28
659.551	43258.37
659.902	43438.02
660.253	43339.04
660.604	43336.11
660.955	43193.29
661.306	43370.68
661.656	43218.37
662.007	43381.3
662.358	43326.84
662.708	43368.42
663.059	43238.71
663.409	43041.42
663.76	43289.33
664.11	43141.76
664.461	43295.88
664.811	43261.76
665.161	43190.57
665.511	43142.67
665.862	43111.93
666.212	43250.68
666.562	43167.98
666.912	43034.19
667.262	43036.91
667.612	43067.64
667.962	43133.63
668.312	43166.62
668.662	43221.98
669.011	43187.86
669.361	43163.23
669.711	43145.83
670.06	43092.95
670.41	42945.61
670.76	42864.93
671.109	43063.8
671.459	42883.69
671.808	42940.41
672.157	42964.59
672.507	42723.24
672.856	42728.66
673.205	42873.29
673.554	42954.87
673.904	42811.37
674.253	43036.91
674.602	42829.45
674.951	42314.66
675.3	42174.55
675.649	42753.97
675.998	42777.48
676.346	42695.9
676.695	42802.34
677.044	42540.87
677.393	42615.45
677.741	42633.3
678.09	42479.41
678.438	42447.32
678.787	42392.18
679.135	42558.73
679.484	42201.22
679.832	42499.29
680.181	42262.24
680.529	42393.08
680.877	42353.99
681.225	42244.38
681.573	42394.66
681.922	42051.62
682.27	42065.41
682.618	42060.66
682.966	41878.52
683.314	42009.14
683.661	41890.72
684.009	41764.4
684.357	41644.4
684.705	41478.75
685.053	41612.31
685.4	41408.47
685.748	41413.44
686.095	41347.01
686.443	41164.64
686.79	41194.02
687.138	41308.81
687.485	41216.39
687.832	41024.75
688.18	41154.69
688.527	41017.75
688.874	40958.09
689.221	40813.46
689.568	40797.87
689.915	40734.59
690.262	40724.65
690.609	40488.27
690.956	40373.25
691.303	40444.43
691.65	40105.68
691.997	40227.94
692.344	39845.35
692.69	39820.04
693.037	39844.67
693.383	39599.03
693.73	39788.18
694.077	39492.37
694.423	39566.04
694.769	39495.98
695.116	39424.57
695.462	39469.77
695.808	39257.57
696.155	39234.75
696.501	38951.36
696.847	38878.37
697.193	38729.45
697.539	38909.33
697.885	38692.84
698.231	38537.14
698.577	38613.74
698.923	38533.52
699.269	38321.32
699.614	38190.25
699.96	37995.91
700.306	38103.25
700.651	37908
700.997	37674.79
701.342	37843.14
701.688	37692.19
702.033	37570.83
702.379	37555.24
702.724	37478.63
703.069	37496.71
703.415	37095.14
703.76	37140.11
704.105	37148.25
704.45	36938.53
704.795	36833.23
705.14	36730.63
705.485	36615.61
705.83	36525.66
706.175	36656.96
706.52	36450.19
706.865	36409.96
707.209	36359.57
707.554	36177.65
707.899	36258.55
708.243	36078.22
708.588	36075.96
708.932	35730.2
709.277	35832.35
709.621	35822.18
709.966	35632.35
710.31	35665.12
710.654	35436.2
710.998	35433.04
711.342	35351.68
711.687	35344.9
712.031	35202.31
712.375	35091.8
712.719	35100.84
713.063	34970.45
713.407	35045.93
713.75	34866.27
714.094	34887.97
714.438	34685.94
714.782	34691.81
715.125	34629.89
715.469	34721.64
715.812	34458.37
716.156	34254.31
716.499	34336.57
716.843	34358.26
717.186	34133.41
717.53	34256.8
717.873	34212.73
718.216	34052.28
718.559	33994.43
718.902	33792.63
719.246	33727.77
719.589	33705.4
719.932	33605.29
720.275	33589.92
720.617	33480.09
720.96	33571.17
721.303	33581.79
721.646	33484.39
721.989	33373.66
722.331	33452.07
722.674	33318.29
723.016	33433.99
723.359	33193.32
723.701	33204.4
724.044	33077.84
724.386	32931.18
724.729	33030.61
725.071	32951.07
725.413	33016.38
725.755	32937.06
726.097	32706.1
726.439	32729.61
726.782	32706.78
727.124	32747.23
727.465	32492.32
727.807	32492.1
728.149	32354.47
728.491	32379.33
728.833	32411.65
729.175	32262.73
729.516	32127.81
729.858	32097.53
730.199	32209.39
730.541	32145.67
730.882	32127.59
731.224	32220.01
731.565	31945.67
731.906	31961.94
732.248	31970.76
732.589	31814.38
732.93	31682.4
733.271	31789.29
733.612	31743.19
733.953	31765.11
734.294	31676.53
734.635	31587.71
734.976	31664.55
735.317	31522.63
735.658	31370.77
735.999	31527.6
736.339	31443.99
736.68	31409.19
737.021	31326.25
737.361	31171
737.702	31295.74
738.042	31245.8
738.383	31099.82
738.723	31095.75
739.063	31037.45
739.404	31049.65
739.744	31013.94
740.084	30897.79
740.424	30896.89
740.764	30843.55
741.104	30989.99
741.444	30721.75
741.784	30597.68
742.124	30599.27
742.464	30644.69
742.804	30526.27
743.143	30429.78
743.483	30577.57
743.823	30362.89
744.162	30356.11
744.502	30340.52
744.841	30234.08
745.181	30389.55
745.52	30201.54
745.86	30325.15
746.199	30217.13
746.538	30157.24
746.877	30243.12
747.216	30180.29
747.556	30024.82
747.895	30238.6
748.234	30040.64
748.573	29872.96
748.911	29959.51
749.25	29865.27
749.589	29766.97
749.928	29712.74
750.267	29872.96
750.605	29645.62
750.944	29636.35
751.283	29561.33
751.621	29523.14
751.96	29313.2
752.298	29371.28
752.636	29430.48
752.975	29176.25
753.313	29092.64
753.651	29191.17
753.989	28992.98
754.327	29053.32
754.666	28949.82
755.004	28979.42
755.342	28991.17
755.679	28837.5
756.017	28648.58
756.355	28722.93
