Data from hue_26_FLMS001491_00092.txt Node
Date: Tue Feb 07 17:14:50 GMT 2017
User: dcchb
Spectrometer: FLMS00149
Trigger mode: 0
Integration Time (sec): 2.000000E-2
Scans to average: 10
Electric dark correction enabled: true
Nonlinearity correction enabled: false
Boxcar width: 0
XAxis mode: Wavelengths
Number of Pixels in Spectrum: 2048
>>>>>Begin Spectral Data<<<<<
341.393	-22.39
341.776	-22.39
342.16	-22.39
342.543	-45.44
342.927	-68.26
343.31	-66.45
343.693	-65.32
344.077	-57.87
344.46	-54.25
344.843	-64.65
345.226	-56.28
345.61	-36.4
345.993	-28.94
346.376	2.92
346.759	22.58
347.142	39.76
347.525	34.56
347.908	52.41
348.291	77.5
348.674	86.99
349.057	113.43
349.44	125.86
349.823	142.58
350.206	148
350.588	201.79
350.971	204.95
351.354	232.3
351.737	249.47
352.119	257.83
352.502	272.3
352.884	286.76
353.267	289.24
353.65	300.09
354.032	325.85
354.414	326.08
354.797	321.56
355.179	333.08
355.562	344.61
355.944	343.71
356.326	369.02
356.709	347.55
357.091	373.08
357.473	362.69
357.855	345.97
358.238	358.62
358.62	324.95
359.002	366.3
359.384	368.56
359.766	341.22
360.148	356.13
360.53	349.13
360.912	351.62
361.294	356.13
361.676	327.21
362.057	341.22
362.439	358.85
362.821	344.38
363.203	356.59
363.584	342.35
363.966	341.9
364.348	336.47
364.729	347.55
365.111	342.12
365.493	333.31
365.874	332.86
366.256	322.69
366.637	340.09
367.019	353.87
367.4	347.32
367.781	344.16
368.163	314.33
368.544	333.08
368.925	356.36
369.306	360.88
369.688	336.47
370.069	328.56
370.45	335.57
370.831	360.88
371.212	347.32
371.593	314.78
371.974	338.06
372.355	330.37
372.736	323.14
373.117	312.75
373.498	333.08
373.879	309.36
374.26	340.77
374.641	331.5
375.021	355
375.402	349.81
375.783	370.6
376.163	363.59
376.544	357.94
376.925	321.79
377.305	353.2
377.686	361.78
378.066	343.03
378.447	333.99
378.827	352.29
379.208	360.88
379.588	382.8
379.968	351.39
380.349	360.65
380.729	368.34
381.109	348.45
381.489	373.08
381.87	363.59
382.25	368.79
382.63	373.08
383.01	389.58
383.39	391.61
383.77	380.31
384.15	382.35
384.53	387.09
384.91	387.09
385.29	388.45
385.67	407.88
386.049	379.18
386.429	397.94
386.809	389.58
387.189	386.19
387.568	405.85
387.948	375.34
388.328	376.25
388.707	414.44
389.087	408.34
389.466	400.43
389.846	403.59
390.225	402.69
390.605	401.11
390.984	411.05
391.363	417.6
391.743	418.05
392.122	396.13
392.501	430.48
392.881	425.96
393.26	436.36
393.639	421.22
394.018	406.08
394.397	440.2
394.776	429.58
395.155	437.04
395.534	427.55
395.913	416.7
396.292	411.73
396.671	442.23
397.05	449.47
397.429	449.47
397.808	440.2
398.186	442.23
398.565	465.06
398.944	436.58
399.323	480.43
399.701	457.6
400.08	452.86
400.458	468
400.837	478.62
401.215	480.88
401.594	463.48
401.972	461.44
402.351	464.83
402.729	493.08
403.107	498.96
403.486	476.36
403.864	484.27
404.242	493.53
404.62	482.01
404.999	516.13
405.377	507.54
405.755	501.22
406.133	514.32
406.511	504.61
406.889	528.79
407.267	529.01
407.645	516.58
408.023	514.32
408.401	528.11
408.779	548.22
409.156	523.81
409.534	542.12
409.912	545.73
410.29	557.94
410.667	560.42
411.045	557.71
411.422	579.63
411.8	562.23
412.178	580.31
412.555	576.92
412.933	569.91
413.31	579.41
413.687	575.56
414.065	583.47
414.442	598.61
414.819	571.27
415.197	593.64
415.574	583.93
415.951	618.27
416.328	632.06
416.705	623.02
417.082	635.22
417.46	613.08
417.837	628.9
418.214	649.91
418.591	640.42
418.967	637.71
419.344	667.09
419.721	680.87
420.098	641.55
420.475	659.18
420.852	670.02
421.228	676.8
421.605	665.96
421.982	675.45
422.358	703.47
422.735	696.92
423.111	699.63
423.488	686.52
423.864	711.83
424.241	699.4
424.617	711.15
424.994	740.31
425.37	743.92
425.746	740.08
426.123	726.97
426.499	720.42
426.875	768.78
427.251	752.06
427.627	776.69
428.003	759.29
428.379	770.14
428.756	765.62
429.132	814.2
429.507	796.12
429.883	804.71
430.259	825.05
430.635	834.99
431.011	823.02
431.387	847.42
431.763	867.76
432.138	852.17
432.514	869.57
432.89	862.79
433.265	896.01
433.641	896.23
434.016	927.19
434.392	940.98
434.767	920.87
435.143	921.09
435.518	963.12
435.894	938.72
436.269	966.06
436.644	977.36
437.02	969.45
437.395	955.44
437.77	997.93
438.145	999.73
438.52	1004.03
438.895	1026.17
439.271	1024.14
439.646	1018.26
440.021	1033.18
440.395	1039.05
440.77	1023.46
441.145	1035.21
441.52	1083.57
441.895	1078.15
442.27	1089.22
442.645	1064.82
443.019	1110.01
443.394	1090.13
443.769	1108.43
444.143	1103.69
444.518	1122.67
444.892	1120.41
445.267	1118.37
445.641	1130.35
446.016	1158.83
446.39	1142.78
446.764	1173.29
447.139	1171.03
447.513	1184.36
447.887	1187.75
448.262	1181.88
448.636	1201.54
449.01	1226.17
449.384	1203.12
449.758	1214.42
450.132	1236.79
450.506	1239.73
450.88	1248.77
451.254	1258.71
451.628	1255.77
452.002	1271.82
452.376	1293.29
452.75	1290.57
453.123	1307.97
453.497	1331.93
453.871	1333.51
454.244	1379.16
454.618	1355.66
454.992	1362.44
455.365	1395.43
455.739	1382.32
456.112	1451.93
456.486	1443.79
456.859	1438.82
457.232	1461.42
457.606	1486.27
457.979	1495.99
458.352	1534.86
458.725	1517.01
459.099	1550.45
459.472	1555.65
459.845	1543
460.218	1588.87
460.591	1587.74
460.964	1635.42
461.337	1629.1
461.71	1666.38
462.083	1710.45
462.456	1713.84
462.829	1740.96
463.201	1733.95
463.574	1738.92
463.947	1771.46
464.32	1841.07
464.692	1841.07
465.065	1832.93
465.438	1847.39
465.81	1883.1
466.183	1914.51
466.555	1939.82
466.928	1982.08
467.3	1988.63
467.672	1998.8
468.045	2052.36
468.417	2101.85
468.789	2120.38
469.161	2084.9
469.534	2152.47
469.906	2162.87
470.278	2194.96
470.65	2203.77
471.022	2266.82
471.394	2307.04
471.766	2318.12
472.138	2335.74
472.51	2428.62
472.882	2447.61
473.253	2470.2
473.625	2527.15
473.997	2605.34
474.369	2615.51
474.74	2639.01
475.112	2678.56
475.484	2748.61
475.855	2789.97
476.227	2809.4
476.598	2911.55
476.97	2937.99
477.341	2999.46
477.713	3046.01
478.084	3077.19
478.455	3135.72
478.827	3198.09
479.198	3309.5
479.569	3306.34
479.94	3398.99
480.311	3450.74
480.682	3560.8
481.053	3608.48
481.424	3667.69
481.795	3723.5
482.166	3790.39
482.537	3869.71
482.908	3988.58
483.279	3995.59
483.65	4045.98
484.021	4156.94
484.391	4264.28
484.762	4257.05
485.133	4318.97
485.503	4439.19
485.874	4493.43
486.244	4514.9
486.615	4648.45
486.985	4757.83
487.356	4828.56
487.726	4855.9
488.097	4977.93
488.467	5039.4
488.837	5124.6
489.207	5211.15
489.578	5305.38
489.948	5290.47
490.318	5402.78
490.688	5484.36
491.058	5565.04
491.428	5611.82
491.798	5704.02
492.168	5792.83
492.538	5834.41
492.908	5945.82
493.278	5994.86
493.648	6073.72
494.017	6122.99
494.387	6189.65
494.757	6266.26
495.126	6359.82
495.496	6427.16
495.866	6384.68
496.235	6504
496.605	6619.92
496.974	6672.8
497.344	6691.56
497.713	6714.84
498.082	6785.12
498.452	6903.08
498.821	6941.95
499.19	6914.15
499.559	7031.67
499.928	7106.92
500.298	7161.15
500.667	7197.08
501.036	7173.36
501.405	7276.4
501.774	7315.05
502.143	7440.02
502.512	7419.68
502.88	7450.41
503.249	7464.87
503.618	7548.71
503.987	7606.79
504.356	7633.01
504.724	7662.61
505.093	7812.66
505.462	7703.96
505.83	7841.36
506.199	7951.87
506.567	8004.07
506.936	7955.48
507.304	8066.67
507.672	8143.05
508.041	8139.21
508.409	8211.75
508.777	8181.24
509.145	8246.32
509.514	8330.39
509.882	8308.69
510.25	8343.95
510.618	8437.96
510.986	8489.25
511.354	8545.52
511.722	8674.11
512.09	8617.84
512.458	8646.76
512.826	8750.26
513.193	8744.16
513.561	8799.08
513.929	8850.37
514.297	8930.15
514.664	8955.46
515.032	8963.37
515.4	9071.16
515.767	9086.75
516.135	9129.69
516.502	9062.12
516.869	9269.35
517.237	9236.58
517.604	9259.4
517.972	9318.38
518.339	9434.54
518.706	9384.82
519.073	9416.69
519.44	9526.74
519.808	9600.19
520.175	9577.59
520.542	9654.2
520.909	9719.05
521.276	9648.55
521.643	9816.45
522.009	9875.43
522.376	9931.93
522.743	9920.4
523.11	10023
523.477	10194.29
523.843	10157.91
524.21	10173.05
524.577	10276.1
524.943	10343.89
525.31	10343.22
525.676	10466.6
526.043	10496.43
526.409	10592.48
526.776	10755.41
527.142	10667.73
527.508	10753.83
527.874	10824.11
528.241	10883.99
528.607	10898
528.973	11007.38
529.339	11011.45
529.705	11156.53
530.071	11240.14
530.437	11288.5
530.803	11411.89
531.169	11403.08
531.535	11338.44
531.901	11463.19
532.267	11503.64
532.632	11625.22
532.998	11597.87
533.364	11686.91
533.73	11702.28
534.095	11751.09
534.461	11829.73
534.826	11925.32
535.192	11958.77
535.557	11987.24
535.923	12011.2
536.288	12128.03
536.653	12137.75
537.019	12128.48
537.384	12204.64
537.749	12208.7
538.114	12329.83
538.479	12363.28
538.845	12414.35
539.21	12431.3
539.575	12483.73
539.94	12512.2
540.305	12565.53
540.67	12577.28
541.034	12689.6
541.399	12749.93
541.764	12789.25
542.129	12814.79
542.494	12869.03
542.858	12964.16
543.223	12930.27
543.587	12999.42
543.952	13085.07
544.316	13106.08
544.681	13139.75
545.045	13192.86
545.41	13243.48
545.774	13297.49
546.138	13370.03
546.503	13383.36
546.867	13408.22
547.231	13565.28
547.595	13602.34
547.959	13651.15
548.324	13720.53
548.688	13697.48
549.052	13723.47
549.416	13753.97
549.779	13827.19
550.143	13904.48
550.507	13936.79
550.871	14035.55
551.235	14014.08
551.599	14111.71
551.962	14215.66
552.326	14292.27
552.689	14230.57
553.053	14273.51
553.417	14220.85
553.78	14459.49
554.143	14456.78
554.507	14448.42
554.87	14552.6
555.234	14610
555.597	14678.47
555.96	14673.95
556.323	14722.31
556.686	14712.37
557.05	14808.86
557.413	14897
557.776	14979.7
558.139	15044.11
558.502	15081.17
558.865	15118.46
559.228	15198.68
559.59	15203.43
559.953	15221.73
560.316	15411.11
560.679	15412.69
561.041	15515.74
561.404	15552.8
561.767	15626.24
562.129	15524.1
562.492	15731.1
562.854	15749.85
563.217	15741.72
563.579	15804.54
563.941	15987.36
564.304	15947.59
564.666	15990.3
565.028	16027.59
565.39	16173.12
565.753	16152.78
566.115	16253.57
566.477	16264.87
566.839	16315.72
567.201	16513.22
567.563	16551.87
567.925	16650.4
568.287	16680.45
568.648	16665.99
569.01	16835.25
569.372	16835.25
569.734	16845.19
570.095	16901.24
570.457	17091.97
570.819	17113.66
571.18	17114.11
571.542	17286.76
571.903	17206.31
572.265	17386.2
572.626	17398.17
572.987	17495.35
573.349	17569.02
573.71	17704.83
574.071	17862.34
574.432	17894.43
574.794	18075.44
575.155	18010.36
575.516	18101.43
575.877	18246.74
576.238	18297.58
576.599	18388.2
576.96	18474.75
577.32	18626.84
577.681	18722.66
578.042	18929.88
578.403	18995.42
578.763	19052.82
579.124	19204.68
579.485	19402.64
579.845	19743.87
580.206	19695.51
580.566	19864.77
580.927	20036.07
581.287	20305.44
581.648	20379.11
582.008	20745.43
582.368	20732.32
582.728	21023.84
583.089	21129.37
583.449	21323.49
583.809	21618.17
584.169	21933.87
584.529	21999.41
584.889	22451.82
585.249	22471.26
585.609	22741.31
585.969	23195.53
586.329	23304.68
586.688	23616.99
587.048	23904.67
587.408	24097.21
587.768	24370.64
588.127	24706.91
588.487	25014.47
588.846	25557.28
589.206	25543.72
589.565	26071.84
589.925	26436.35
590.284	26585.5
590.643	27001.31
591.003	27410.34
591.362	27825.02
591.721	28026.59
592.08	28540.93
592.44	28897.31
592.799	29354.24
593.158	29580.9
593.517	30025.41
593.876	30380.2
594.235	30678.73
594.593	31044.59
594.952	31574.97
595.311	31811.13
595.67	32240.95
596.029	32765.9
596.387	33174.25
596.746	33520.01
597.104	33688.14
597.463	34118.41
597.822	34646.98
598.18	34877.49
598.538	35323.8
598.897	35705.94
599.255	35889.21
599.613	36801.28
599.972	36837.89
600.33	37249.18
600.688	37449.85
601.046	38022.26
601.404	38510.84
601.762	38587.67
602.12	39227.65
602.478	39675.1
602.836	39793.74
603.194	40114.19
603.552	40444.8
603.91	40644.11
604.268	41148.51
604.625	41465.79
604.983	41705.1
605.341	41796.18
605.698	42295.37
606.056	42596.83
606.413	43016.03
606.771	43219.41
607.128	43705.5
607.485	43639.74
607.843	44141.2
608.2	44470.91
608.557	44845.59
608.914	45001.74
609.272	45372.35
609.629	45603.31
609.986	45970.98
610.343	46022.5
610.7	46495.03
611.057	46559.21
611.414	46772.77
611.771	47034.68
612.127	47357.38
612.484	47580.43
612.841	47815.68
613.198	47806.41
613.554	47886.18
613.911	48497.92
614.267	48510.12
614.624	48594.87
614.98	48871.24
615.337	49215.64
615.693	49217.67
616.05	49288.63
616.406	49682.07
616.762	49643.65
617.118	49842.29
617.475	49908.28
617.831	50044.32
618.187	50213.81
618.543	50445.89
618.899	50692.44
619.255	50626.23
619.611	50717.52
619.967	50990.51
620.323	51114.35
620.678	51034.8
621.034	51033.67
621.39	51193.22
621.746	51149.38
622.101	51703.26
622.457	51518.41
622.812	51663.03
623.168	51768.34
623.523	51763.82
623.879	52057.83
624.234	51768.79
624.589	51986.42
624.945	52066.64
625.3	52183.47
625.655	52196.13
626.01	52301.21
626.365	52359.29
626.72	52394.77
627.075	52262.57
627.43	52411.49
627.785	52376.91
628.14	52516.8
628.495	52590.02
628.85	52654.42
629.205	52645.83
629.559	52797.24
629.914	52664.36
630.269	52669.79
630.623	52633.63
630.978	52656.91
631.332	52788.88
631.687	52831.14
632.041	52740.52
632.396	52873.17
632.75	52720.86
633.104	52855.09
633.459	52773.06
633.813	52790.69
634.167	52825.49
634.521	52824.81
634.875	52855.09
635.229	52836.11
635.583	52635.89
635.937	52818.03
636.291	52742.78
636.645	52894.64
636.999	52690.58
637.352	52814.87
637.706	52661.88
638.06	52754.08
638.413	52794.3
638.767	52686.96
639.121	52788.65
639.474	52605.83
639.828	52706.17
640.181	52741.65
640.534	52705.72
640.888	52645.83
641.241	52557.25
641.594	52689.22
641.947	52704.59
642.301	52597.92
642.654	52713.63
643.007	52694.19
643.36	52623.91
643.713	52602.67
644.066	52782.33
644.419	52548.21
644.771	52313.86
645.124	52032.97
645.477	51981.22
645.83	51804.27
646.182	51796.14
646.535	51564.28
646.888	51839.07
647.24	51548.69
647.593	51751.85
647.945	51717.27
648.298	51499.87
648.65	51465.75
649.002	51437.5
649.355	51528.12
649.707	51495.81
650.059	51658.51
650.411	51998.84
650.763	52087.43
651.115	52391.38
651.467	52314.99
651.819	52284.49
652.171	52106.64
652.523	52066.64
652.875	52224.83
653.227	52045.17
653.578	52234.09
653.93	52246.97
654.282	52018.05
654.633	51863.25
654.985	52157.26
655.337	52063.48
655.688	52137.37
656.039	52221.66
656.391	51871.39
656.742	51907.1
657.094	51979.64
657.445	52126.07
657.796	52079.29
658.147	51993.65
658.498	51965.4
658.849	52046.98
659.2	52044.72
659.551	51837.49
659.902	51969.01
660.253	51967.43
660.604	52049.46
660.955	51729.93
661.306	51968.79
661.656	51883.59
662.007	52009.69
662.358	51881.11
662.708	51935.34
663.059	51866.64
663.409	51762.69
663.76	51960.65
664.11	51858.28
664.461	51900.54
664.811	51967.88
665.161	51973.31
665.511	51977.6
665.862	51851.5
666.212	51876.59
666.562	51943.03
666.912	51812.63
667.262	51922.46
667.612	51909.13
667.962	51912.97
668.312	51838.85
668.662	51898.06
669.011	51840.2
669.361	51675.24
669.711	51663.03
670.06	51729.02
670.41	51660.1
670.76	51618.52
671.109	51744.84
671.459	51661.68
671.808	51632.07
672.157	51629.59
672.507	51427.11
672.856	51516.82
673.205	51603.6
673.554	51630.27
673.904	51447.45
674.253	51667.33
674.602	51574.45
674.951	51126.33
675.3	50911.87
675.649	51392.31
675.998	51449.71
676.346	51498.74
676.695	51654.9
677.044	51334.46
677.393	51465.53
677.741	51455.58
678.09	51316.15
678.438	51221.24
678.787	51337.17
679.135	51402.02
679.484	51061.02
679.832	51164.52
680.181	51090.39
680.529	51133.78
680.877	50985.31
681.225	51017.4
681.573	51131.3
681.922	50886.56
682.27	50845.65
682.618	50882.26
682.966	50845.65
683.314	50858.54
683.661	50595.27
684.009	50505.78
684.357	50459.45
684.705	50525.89
685.053	50413.12
685.4	50538.54
685.748	50316.85
686.095	50324.09
686.443	50180.59
686.79	50195.95
687.138	50210.19
687.485	50148.95
687.832	49935.85
688.18	50071.21
688.527	49925.45
688.874	49820.6
689.221	49830.54
689.568	49678.23
689.915	49611.56
690.262	49659.47
690.609	49451.79
690.956	49294.06
691.303	49409.99
691.65	49225.13
691.997	49195.3
692.344	48933.39
692.69	48907.4
693.037	48915.54
693.383	48542.89
693.73	48845.93
694.077	48565.71
694.423	48553.74
694.769	48381.31
695.116	48389.45
695.462	48298.38
695.808	48145.61
696.155	48278.94
696.501	47920.31
696.847	47886.18
697.193	47566.87
697.539	47806.19
697.885	47627.21
698.231	47475.12
698.577	47537.27
698.923	47299.31
699.269	47260.66
699.614	47065.42
699.96	46936.15
700.306	46982.48
700.651	46811.64
700.997	46752.43
701.342	46750.62
701.688	46640.34
702.033	46343.85
702.379	46404.42
702.724	46341.59
703.069	46286.9
703.415	45999.68
703.76	45929.17
704.105	45926.01
704.45	45827.71
704.795	45618.22
705.14	45480.82
705.485	45526.7
705.83	45432.69
706.175	45395.63
706.52	45234.05
706.865	45151.34
707.209	45058.01
707.554	44999.93
707.899	44910.9
708.243	44734.18
708.588	44739.6
708.932	44496.22
709.277	44430.23
709.621	44458.7
709.966	44284.25
710.31	44179.39
710.654	43825.05
710.998	44102.78
711.342	44013.74
711.687	43905.27
712.031	43719.06
712.375	43533.53
712.719	43688.1
713.063	43539.86
713.407	43567.2
713.75	43410.82
714.094	43301.9
714.438	43155.91
714.782	43301.22
715.125	43051.74
715.469	43110.49
715.812	42934.45
716.156	42633.67
716.499	42755.47
716.843	42816.49
717.186	42539.88
717.53	42757.05
717.873	42693.33
718.216	42611.07
718.559	42409.27
718.902	42185.54
719.246	42294.92
719.589	42018.99
719.932	42036.39
720.275	41988.03
720.617	41903.06
720.96	41849.28
721.303	41904.42
721.646	41894.48
721.989	41555.73
722.331	41869.62
722.674	41600.25
723.016	41581.72
723.359	41427.15
723.701	41557.54
724.044	41219.69
724.386	41153.03
724.729	41283.87
725.071	41197.09
725.413	41112.58
725.755	41056.99
726.097	40925.01
726.439	40646.15
726.782	40745.58
727.124	40862.19
727.465	40633.27
727.807	40587.17
728.149	40565.25
728.491	40489.09
728.833	40493.61
729.175	40417.23
729.516	40341.07
729.858	40082.77
730.199	40368.87
730.541	40233.96
730.882	40117.12
731.224	40245.71
731.565	39921.42
731.906	39913.51
732.248	40012.95
732.589	39768.66
732.93	39695.67
733.271	39739.28
733.612	39790.35
733.953	39829.22
734.294	39571.6
734.635	39342.91
734.976	39574.99
735.317	39257.26
735.658	39480.76
735.999	39333.87
736.339	39230.82
736.68	39378.39
737.021	39147.88
737.361	38926.65
737.702	39202.34
738.042	39083.48
738.383	38939.75
738.723	38972.97
739.063	38810.26
739.404	38857.72
739.744	38860.21
740.084	38699.31
740.424	38551.06
740.764	38518.3
741.104	38634.22
741.444	38410.73
741.784	38345.42
742.124	38444.85
742.464	38356.94
742.804	38262.93
743.143	38089.61
743.483	38245.76
743.823	37955.15
744.162	37962.83
744.502	38072.21
744.841	37982.04
745.181	37970.96
745.52	37889.61
745.86	37726.23
746.199	37718.77
746.538	37811.42
746.877	37771.2
747.216	37692.1
747.556	37598.55
747.895	37613.91
748.234	37436.29
748.573	37387.25
748.911	37401.94
749.25	37260.02
749.589	37149.52
749.928	37265.22
750.267	37338.21
750.605	37097.09
750.944	37104.32
751.283	36888.28
751.621	36933.25
751.96	36789.75
752.298	36720.83
752.636	36863.42
752.975	36583.66
753.313	36483.77
753.651	36621.17
753.989	36393.38
754.327	36356.09
754.666	36234.29
755.004	36272.7
755.342	36209.88
755.679	36093.27
756.017	35948.87
756.355	36021.86
