Data from hue_40_FLMS001491_73.txt Node
Date: Mon Feb 06 15:08:24 GMT 2017
User: dcchb
Spectrometer: FLMS00149
Trigger mode: 0
Integration Time (sec): 2.000000E-2
Scans to average: 10
Electric dark correction enabled: true
Nonlinearity correction enabled: false
Boxcar width: 0
XAxis mode: Wavelengths
Number of Pixels in Spectrum: 2048
>>>>>Begin Spectral Data<<<<<
341.393	-12.41
341.776	-12.41
342.16	-12.41
342.543	-75.46
342.927	-73.66
343.31	-61.68
343.693	-67.78
344.077	-63.26
344.46	-86.76
344.843	-47.67
345.226	-37.95
345.61	-22.58
345.993	-26.43
346.376	-13.09
346.759	23.52
347.142	37.3
347.525	33.23
347.908	66
348.291	68.71
348.674	75.27
349.057	123.17
349.44	135.38
349.823	142.16
350.206	164.76
350.588	194.81
350.971	212.21
351.354	239.56
351.737	227.13
352.119	270.74
352.502	258.54
352.884	271.42
353.267	266.9
353.65	276.17
354.032	296.96
354.414	311.87
354.797	310.51
355.179	323.17
355.562	341.7
355.944	337.41
356.326	337.63
356.709	332.89
357.091	334.02
357.473	350.51
357.855	353.23
358.238	356.16
358.62	341.25
359.002	356.39
359.384	359.33
359.766	330.63
360.148	318.88
360.53	329.72
360.912	367.46
361.294	351.64
361.676	344.64
362.057	330.4
362.439	341.02
362.821	332.89
363.203	325.43
363.584	342.15
363.966	317.29
364.348	323.85
364.729	307.8
365.111	327.92
365.493	349.16
365.874	330.63
366.256	319.1
366.637	313.68
367.019	331.98
367.4	323.62
367.781	326.79
368.163	316.16
368.544	326.79
368.925	314.81
369.306	306.67
369.688	308.48
370.069	325.88
370.45	308.71
370.831	316.16
371.212	292.44
371.593	306.9
371.974	336.95
372.355	319.33
372.736	320.68
373.117	320.01
373.498	303.06
373.879	325.43
374.26	333.34
374.641	314.81
375.021	321.14
375.402	330.4
375.783	325.88
376.163	324.53
376.544	335.82
376.925	317.29
377.305	320.23
377.686	329.95
378.066	328.82
378.447	335.15
378.827	319.78
379.208	371.53
379.588	343.06
379.968	338.08
380.349	323.17
380.729	322.49
381.109	301.7
381.489	332.89
381.87	342.6
382.25	348.71
382.63	332.89
383.01	345.32
383.39	367.69
383.77	359.1
384.15	342.83
384.53	359.55
384.91	345.77
385.29	347.12
385.67	352.32
386.049	360.68
386.429	337.86
386.809	314.58
387.189	334.24
387.568	368.14
387.948	369.04
388.328	343.73
388.707	353.9
389.087	371.3
389.466	360.46
389.846	350.06
390.225	380.8
390.605	391.87
390.984	364.3
391.363	340.8
391.743	375.6
392.122	381.92
392.501	376.28
392.881	371.53
393.26	378.99
393.639	359.1
394.018	378.31
394.397	376.5
394.776	361.81
395.155	368.59
395.534	378.99
395.913	376.5
396.292	364.98
396.671	383.73
397.05	374.47
397.429	370.63
397.808	393.22
398.186	365.43
398.565	386.9
398.944	362.26
399.323	409.72
399.701	365.43
400.08	383.73
400.458	368.37
400.837	387.57
401.215	395.03
401.594	392.55
401.972	379.67
402.351	398.2
402.729	388.48
403.107	397.74
403.486	392.55
403.864	391.64
404.242	402.49
404.62	399.55
404.999	397.97
405.377	426.44
405.755	392.55
406.133	418.53
406.511	413.56
406.889	412.21
407.267	411.53
407.645	426.67
408.023	449.95
408.401	423.73
408.779	409.72
409.156	428.93
409.534	457.86
409.912	436.84
410.29	446.78
410.667	437.52
411.045	453.79
411.422	433.9
411.8	443.62
412.178	448.36
412.555	437.29
412.933	476.16
413.31	453.79
413.687	468.7
414.065	468.93
414.442	461.7
414.819	479.32
415.197	466.67
415.574	479.78
415.951	488.59
416.328	481.58
416.705	464.63
417.082	461.7
417.46	488.81
417.837	515.03
418.214	489.94
418.591	482.04
418.967	482.26
419.344	500.11
419.721	502.83
420.098	499.66
420.475	504.86
420.852	505.54
421.228	524.29
421.605	514.8
421.982	509.61
422.358	529.27
422.735	505.54
423.111	530.85
423.488	498.98
423.864	527.91
424.241	538.98
424.617	527.01
424.994	539.89
425.37	557.51
425.746	547.34
426.123	553.45
426.499	568.36
426.875	542.37
427.251	553.9
427.627	575.59
428.003	596.16
428.379	562.49
428.756	548.47
429.132	594.35
429.507	585.99
429.883	597.06
430.259	614.69
430.635	594.35
431.011	588.25
431.387	598.87
431.763	614.69
432.138	619.43
432.514	612.43
432.89	600.68
433.265	619.88
433.641	621.47
434.016	641.35
434.392	664.86
434.767	659.88
435.143	644.52
435.518	629.15
435.894	658.08
436.269	684.74
436.644	691.52
437.02	673.89
437.395	683.84
437.77	688.36
438.145	684.97
438.52	669.83
438.895	713.89
439.271	702.14
439.646	701.01
440.021	698.75
440.395	730.84
440.77	696.94
441.145	737.17
441.52	707.34
441.895	720
442.27	728.13
442.645	730.62
443.019	727.68
443.394	735.81
443.769	734.01
444.143	748.02
444.518	754.8
444.892	743.05
445.267	772.88
445.641	751.18
446.016	766.1
446.39	797.06
446.764	774.23
447.139	774.91
447.513	796.38
447.887	774.68
448.262	777.62
448.636	786.66
449.01	791.86
449.384	811.29
449.758	811.29
450.132	817.17
450.506	798.19
450.88	829.14
451.254	836.6
451.628	820.78
452.002	840.44
452.376	815.36
452.75	857.39
453.123	855.13
453.497	882.25
453.871	872.31
454.244	893.55
454.618	893.32
454.992	903.04
455.365	910.5
455.739	902.36
456.112	915.24
456.486	936.94
456.859	921.8
457.232	938.29
457.606	962.93
457.979	953.44
458.352	964.06
458.725	982.59
459.099	979.65
459.472	1002.93
459.845	994.34
460.218	1038.63
460.591	1023.26
460.964	1044.05
461.337	1056.03
461.71	1038.18
462.083	1060.33
462.456	1080.21
462.829	1079.99
463.201	1100.1
463.574	1103.94
463.947	1119.53
464.32	1157.05
464.692	1159.53
465.065	1174.67
465.438	1180.1
465.81	1223.71
466.183	1196.82
466.555	1237.5
466.928	1252.18
467.3	1237.5
467.672	1276.82
468.045	1292.64
468.417	1318.62
468.789	1323.82
469.161	1336.48
469.534	1365.63
469.906	1397.49
470.278	1414.67
470.65	1438.39
471.022	1470.48
471.394	1508.22
471.766	1520.2
472.138	1542.8
472.51	1547.09
472.882	1585.96
473.253	1632.97
473.625	1648.78
473.997	1706.64
474.369	1718.39
474.74	1723.81
475.112	1764.04
475.484	1803.81
475.855	1867.08
476.227	1872.73
476.598	1930.13
476.97	1954.76
477.341	2017.59
477.713	2023.46
478.084	2110.24
478.455	2136
478.827	2185.72
479.198	2300.74
479.569	2321.76
479.94	2370.57
480.311	2444.7
480.682	2520.17
481.053	2541.64
481.424	2655.09
481.795	2656.67
482.166	2760.17
482.537	2832.03
482.908	2912.03
483.279	2940.95
483.65	3058.01
484.021	3127.16
484.391	3192.92
484.762	3255.3
485.133	3321.51
485.503	3398.57
485.874	3499.36
486.244	3566.47
486.615	3680.37
486.985	3772.12
487.356	3887.14
487.726	3943.87
488.097	4086.23
488.467	4132.11
488.837	4229.06
489.207	4283.07
489.578	4434.93
489.948	4474.92
490.318	4618.42
490.688	4694.35
491.058	4812.09
491.428	4879.89
491.798	4967.12
492.168	5137.05
492.538	5196.94
492.908	5333.43
493.278	5400.1
493.648	5426.31
494.017	5619.3
494.387	5678.96
494.757	5813.87
495.126	5865.4
495.496	5983.36
495.866	6018.39
496.235	6148.55
496.605	6199.17
496.974	6259.74
497.344	6416.34
497.713	6486.62
498.082	6568.88
498.452	6705.37
498.821	6767.29
499.19	6862.21
499.559	6975.42
499.928	6989.89
500.298	7147.85
500.667	7205.93
501.036	7228.98
501.405	7325.92
501.774	7336.54
502.143	7492.02
502.512	7583.09
502.88	7643.88
503.249	7751.45
503.618	7812.46
503.987	7797.1
504.356	7952.12
504.724	8040.71
505.093	8089.29
505.462	8145.11
505.83	8197.76
506.199	8289.06
506.567	8399.12
506.936	8468.04
507.304	8603.18
507.672	8649.5
508.041	8722.72
508.409	8742.38
508.777	8830.97
509.145	8951.19
509.514	8941.7
509.882	9039.32
510.25	9049.27
510.618	9157.74
510.986	9190.73
511.354	9330.39
511.722	9416.94
512.09	9450.16
512.458	9495.36
512.826	9606.54
513.193	9663.26
513.561	9677.05
513.929	9757.72
514.297	9809.47
514.664	10009.24
515.032	9979.41
515.4	10088.34
515.767	10056.7
516.135	10141.44
516.502	10080.65
516.869	10331.27
517.237	10340.76
517.604	10351.38
517.972	10509.57
518.339	10535.78
518.706	10587.76
519.073	10688.09
519.44	10710.69
519.808	10771.03
520.175	10837.24
520.542	10931.25
520.909	10992.95
521.276	11020.06
521.643	11091.25
522.009	11218.48
522.376	11254.18
522.743	11329.89
523.11	11411.92
523.477	11505.7
523.843	11662.98
524.21	11752.25
524.577	11802.19
524.943	11857.56
525.31	11818.91
525.676	12006.93
526.043	12064.1
526.409	12145.46
526.776	12260.48
527.142	12328.28
527.508	12364.43
527.874	12499.8
528.241	12525.33
528.607	12611.21
528.973	12621.6
529.339	12630.42
529.705	12863.4
530.071	12924.87
530.437	13014.36
530.803	13055.49
531.169	13193.79
531.535	13147.92
531.901	13142.72
532.267	13301.81
532.632	13292.32
532.998	13316.05
533.364	13486.44
533.73	13461.81
534.095	13497.51
534.461	13675.36
534.826	13702.7
535.192	13827.22
535.557	13829.48
535.923	13792.87
536.288	13889.37
536.653	14019.53
537.019	13985.41
537.384	14084.84
537.749	14141.56
538.114	14177.27
538.479	14238.06
538.845	14320.99
539.21	14259.07
539.575	14318.06
539.94	14379.75
540.305	14512.17
540.67	14511.05
541.034	14542.68
541.399	14622.68
541.764	14680.31
542.129	14678.72
542.494	14776.57
542.858	14829.91
543.223	14882.56
543.587	14943.35
543.952	14938.15
544.316	15116.23
544.681	15011.37
545.045	15126.4
545.41	15257.69
545.774	15281.87
546.138	15208.88
546.503	15421.08
546.867	15407.52
547.231	15558.48
547.595	15586.95
547.959	15622.65
548.324	15697.23
548.688	15699.94
549.052	15801.86
549.416	15918.92
549.779	15842.99
550.143	15939.93
550.507	15955.53
550.871	16048.41
551.235	16074.62
551.599	16146.48
551.962	16178.35
552.326	16272.13
552.689	16163.88
553.053	16281.39
553.417	16313.71
553.78	16467.15
554.143	16494.27
554.507	16563.87
554.87	16582.18
555.234	16779.91
555.597	16692
555.96	16741.27
556.323	16805
556.686	16897.65
557.05	17053.8
557.413	17098.55
557.776	17020.36
558.139	17159.11
558.502	17227.58
558.865	17283.85
559.228	17390.29
559.59	17404.53
559.953	17483.17
560.316	17635.26
560.679	17563.62
561.041	17698.08
561.404	17726.55
561.767	17850.39
562.129	17853.1
562.492	18057.17
562.854	17996.15
563.217	18046.09
563.579	18086.09
563.941	18224.17
564.304	18343.26
564.666	18392.3
565.028	18410.6
565.39	18483.37
565.753	18599.53
566.115	18610.15
566.477	18814.21
566.839	18758.84
567.201	18804.27
567.563	18775.79
567.925	19004.26
568.287	19053.98
568.648	19133.52
569.01	19179.4
569.372	19351.82
569.734	19252.62
570.095	19469.78
570.457	19481.31
570.819	19541.87
571.18	19589.56
571.542	19765.82
571.903	19762.43
572.265	19921.07
572.626	19968.98
572.987	19980.73
573.349	20077.68
573.71	20173.72
574.071	20282.19
574.432	20439.25
574.794	20560.15
575.155	20547.04
575.516	20495.75
575.877	20668.85
576.238	20788.39
576.599	20956.53
576.96	20920.37
577.32	21122.17
577.681	21204.2
578.042	21336.18
578.403	21464.53
578.763	21500.92
579.124	21580.01
579.485	21874.47
579.845	21938.87
580.206	22025.42
580.566	22022.26
580.927	22323.49
581.287	22446.66
581.648	22550.38
582.008	22773.2
582.368	22742.92
582.728	23001.9
583.089	23041.22
583.449	23116.24
583.809	23372.28
584.169	23542.9
584.529	23627.64
584.889	23963
585.249	23939.05
585.609	24017.91
585.969	24267.4
586.329	24425.36
586.688	24799.59
587.048	24848.4
587.408	25014.95
587.768	25165.91
588.127	25360.03
588.487	25542.39
588.846	25819.9
589.206	25739.45
589.565	25943.96
589.925	26339.66
590.284	26334.46
590.643	26640.67
591.003	26902.36
591.362	27027.1
591.721	27210.82
592.08	27388.22
592.44	27660.08
592.799	27777.36
593.158	27955.66
593.517	28050.58
593.876	28353.39
594.235	28361.3
594.593	28559.04
594.952	28933.26
595.311	29027.27
595.67	29200.83
596.029	29516.07
596.387	29592
596.746	29897.99
597.104	29907.25
597.463	30012.11
597.822	30382.94
598.18	30417.97
598.538	30537.29
598.897	30834.01
599.255	30769.15
599.613	31360.32
599.972	31269.25
600.33	31438.96
600.688	31513.54
601.046	31880.98
601.404	32005.95
601.762	32008.44
602.12	32347.41
602.478	32502.21
602.836	32598.03
603.194	32643.9
603.552	32819.49
603.91	32633.51
604.268	33161.85
604.625	33018.13
604.983	33409.53
605.341	33411.79
605.698	33570.2
606.056	33777.21
606.413	33906.02
606.771	33977.43
607.128	34206.57
607.485	34196.63
607.843	34221.04
608.2	34381.03
608.557	34745.77
608.914	34632.55
609.272	34788.93
609.629	35077.06
609.986	35297.17
610.343	35144.4
610.7	35409.93
611.057	35392.98
611.414	35600.89
611.771	35725.4
612.127	36005.4
612.484	35762.46
612.841	35965.17
613.198	36167.2
613.554	36255.56
613.911	36467.08
614.267	36504.59
614.624	36546.85
614.98	36643.57
615.337	36765.6
615.693	36752.95
616.05	36796.33
616.406	37055.31
616.762	36980.51
617.118	37075.88
617.475	37094.63
617.831	37175.31
618.187	37335.76
618.543	37349.31
618.899	37653.26
619.255	37743.2
619.611	37679.48
619.967	37880.6
620.323	37974.83
620.678	37911.56
621.034	37788.85
621.39	37869.3
621.746	37883.09
622.101	38289.85
622.457	38063.87
622.812	38241.04
623.168	38282.17
623.523	38348.84
623.879	38467.25
624.234	38304.09
624.589	38428.61
624.945	38533.92
625.3	38625.89
625.655	38612.78
626.01	38654.36
626.365	38576.4
626.72	38660.01
627.075	38787.47
627.43	38735.94
627.785	38756.96
628.14	38880.12
628.495	38820.91
628.85	38850.97
629.205	38734.14
629.559	39012.77
629.914	38795.6
630.269	38942.94
630.623	38818.43
630.978	38715.83
631.332	38933.45
631.687	38958.31
632.041	38854.81
632.396	38815.94
632.75	38758.09
633.104	38835.15
633.459	38717.87
633.813	38721.03
634.167	38730.52
634.521	38749.5
634.875	38821.37
635.229	38725.32
635.583	38717.87
635.937	38713.12
636.291	38597.87
636.645	38736.62
636.999	38523.75
637.352	38845.77
637.706	38410.98
638.06	38573.92
638.413	38626.34
638.767	38492.79
639.121	38558.1
639.474	38349.51
639.828	38362.62
640.181	38549.06
640.534	38393.13
640.888	38331.44
641.241	38225.9
641.594	38352.9
641.947	38444.88
642.301	38288.27
642.654	38371.89
643.007	38386.58
643.36	38332.11
643.713	38279.91
644.066	38406.24
644.419	38009.64
644.771	37818.23
645.124	37614.62
645.477	37537.78
645.83	37205.36
646.182	37157.68
646.535	37093.28
646.888	37110.45
647.24	36900.96
647.593	37066.16
647.945	37003.33
648.298	36841.31
648.65	36881.3
649.002	36729.9
649.355	36886.73
649.707	36823.45
650.059	37110.45
650.411	37429.09
650.763	37378.92
651.115	37760.38
651.467	37543.21
651.819	37721.28
652.171	37676.99
652.523	37585.24
652.875	37564
653.227	37467.5
653.578	37730.55
653.93	37542.53
654.282	37353.38
654.633	37372.59
654.985	37414.62
655.337	37538.46
655.688	37357.22
656.039	37592.25
656.391	37323.33
656.742	37435.87
657.094	37343.44
657.445	37567.39
657.796	37362.2
658.147	37247.85
658.498	37193.16
658.849	37337.34
659.2	37270.67
659.551	37229.54
659.902	37213.72
660.253	37217.11
660.604	37313.38
660.955	37128.76
661.306	37311.35
661.656	37033.84
662.007	37341.63
662.358	37120.85
662.708	37096.44
663.059	37134.63
663.409	36834.75
663.76	37134.86
664.11	36983
664.461	37139.38
664.811	37081.3
665.161	37062.09
665.511	36992.04
665.862	37000.4
666.212	37117.68
666.562	37107.74
666.912	36933.96
667.262	37122.43
667.612	36952.49
667.962	37066.84
668.312	37011.24
668.662	37163.33
669.011	36949.78
669.361	37090.34
669.711	36980.74
670.06	36989.55
670.41	36895.09
670.76	36743.45
671.109	37088.76
671.459	36883.56
671.808	36907.29
672.157	36915.2
672.507	36605.38
672.856	36638.15
673.205	36733.06
673.554	36890.8
673.904	36618.71
674.253	37057.12
674.602	36785.49
674.951	36180.98
675.3	36158.84
675.649	36616.45
675.998	36625.94
676.346	36584.59
676.695	36749.33
677.044	36524.25
677.393	36582.1
677.741	36568.09
678.09	36563.57
678.438	36364.26
678.787	36441.77
679.135	36402.45
679.484	36230.25
679.832	36326.29
680.181	36254.65
680.529	36225.28
680.877	36112.96
681.225	36137.14
681.573	36324.03
681.922	36124.26
682.27	35945.74
682.618	36004.27
682.966	36008.78
683.314	36070.03
683.661	35989.8
684.009	35630.72
684.357	35612.19
684.705	35603.6
685.053	35561.79
685.4	35423.72
685.748	35446.31
686.095	35459.87
686.443	35358.41
686.79	35305.53
687.138	35362.93
687.485	35308.24
687.832	35049.94
688.18	35261.01
688.527	34952.77
688.874	34967.23
689.221	35008.59
689.568	34741.25
689.915	34780.79
690.262	34688.14
690.609	34576.51
690.956	34441.14
691.303	34362.05
691.65	34340.58
691.997	34381.03
692.344	34188.27
692.69	34119.12
693.037	34060.14
693.383	33805.23
693.73	34069.4
694.077	33829.86
694.423	33771.1
694.769	33673.93
695.116	33566.59
695.462	33524.33
695.808	33431.68
696.155	33561.84
696.501	33188.29
696.847	33244.11
697.193	33074.4
697.539	33188.52
697.885	32926.61
698.231	32780.85
698.577	32879.83
698.923	32784.01
699.269	32693.39
699.614	32542.44
699.96	32473.06
700.306	32458.82
700.651	32375.66
700.997	32266.96
701.342	32328.2
701.688	32145.38
702.033	31943.81
702.379	31945.39
702.724	31849.8
703.069	31932.28
703.415	31699.07
703.76	31598.05
704.105	31558.28
704.45	31428.79
704.795	31296.59
705.14	31269.02
705.485	31344.05
705.83	31108.57
706.175	31149.03
706.52	30954.45
706.865	30846.89
707.209	30850.05
707.554	30624.29
707.899	30838.98
708.243	30757.17
708.588	30573.67
708.932	30358.54
709.277	30454.13
709.621	30441.25
709.966	30138.88
710.31	30269.5
710.654	30091.65
710.998	30095.49
711.342	30174.14
711.687	30074.93
712.031	29885.78
712.375	29761.04
712.719	29830.19
713.063	29719.68
713.407	29885.78
713.75	29658.22
714.094	29583.42
714.438	29577.09
714.782	29575.51
715.125	29425
715.469	29411.9
715.812	29344.1
716.156	29077.22
716.499	29211.45
716.843	29162.86
717.186	29023.88
717.53	29131.45
717.873	29098.68
718.216	29005.58
718.559	28827.73
718.902	28699.37
719.246	28850.78
719.589	28696.21
719.932	28636.55
720.275	28574.86
720.617	28641.75
720.96	28491.02
721.303	28502.09
721.646	28451.92
721.989	28273.62
722.331	28355.88
722.674	28313.17
723.016	28293.73
723.359	28146.17
723.701	28226.84
724.044	28216
724.386	27893.52
724.729	27980.3
725.071	27912.95
725.413	27902.11
725.755	27871.15
726.097	27790.02
726.439	27690.36
726.782	27638.84
727.124	27652.17
727.465	27565.84
727.807	27571.49
728.149	27482.91
728.491	27508.44
728.833	27508.44
729.175	27424.83
729.516	27330.37
729.858	27360.42
730.199	27345.28
730.541	27326.08
730.882	27286.98
731.224	27248.11
731.565	27154.55
731.906	27119.3
732.248	27097.83
732.589	27077.95
732.93	26841.34
733.271	26856.48
733.612	26995.91
733.953	26813.09
734.294	26779.42
734.635	26738.75
734.976	26863.26
735.317	26682.25
735.658	26652.19
735.999	26623.95
736.339	26615.59
736.68	26609.71
737.021	26508.7
737.361	26298.76
737.702	26602.25
738.042	26453.33
738.383	26333.11
738.723	26336.5
739.063	26249.04
739.404	26416.49
739.744	26287.91
740.084	26141.47
740.424	26167.01
740.764	26153.9
741.104	26147.8
741.444	26029.39
741.784	25897.41
742.124	26023.74
742.464	25973.57
742.804	25829.39
743.143	25844.53
743.483	25789.84
743.823	25732.44
744.162	25673.46
744.502	25789.17
744.841	25607.48
745.181	25609.96
745.52	25598.21
745.86	25675.72
746.199	25632.79
746.538	25567.7
746.877	25524.54
747.216	25484.32
747.556	25456.52
747.895	25417.2
748.234	25285.45
748.573	25278.45
748.911	25237.54
749.25	25116.42
749.589	25067.6
749.928	25200.93
750.267	25187.37
750.605	25104.66
750.944	24948.28
751.283	24856.99
751.621	24986.7
751.96	24723.66
752.298	24788.74
752.636	24759.36
752.975	24624.68
753.313	24542.65
753.651	24609.31
753.989	24496.32
754.327	24464.23
754.666	24321.86
755.004	24478.01
755.342	24447.51
755.679	24392.59
756.017	24260.62
756.355	24318.7
756.693	24167.51
757.031	24253.61
757.368	24050.91
757.706	23997.58
