Data from hue_110_FLMS001491_00080.txt Node
Date: Tue Feb 07 17:01:49 GMT 2017
User: dcchb
Spectrometer: FLMS00149
Trigger mode: 0
Integration Time (sec): 2.000000E-2
Scans to average: 10
Electric dark correction enabled: true
Nonlinearity correction enabled: false
Boxcar width: 0
XAxis mode: Wavelengths
Number of Pixels in Spectrum: 2048
>>>>>Begin Spectral Data<<<<<
341.393	-20.58
341.776	-20.58
342.16	-20.58
342.543	-80.01
342.927	-71.65
343.31	-68.71
343.693	-93.12
344.077	-65.32
344.46	-53.8
344.843	-35.49
345.226	-69.84
345.61	-30.3
345.993	-15.38
346.376	-10.86
346.759	8.12
347.142	38.4
347.525	50.61
347.908	77.05
348.291	72.53
348.674	74.79
349.057	121.34
349.44	134.67
349.823	127.89
350.206	153.43
350.588	188.23
350.971	201.34
351.354	216.25
351.737	235.69
352.119	244.95
352.502	264.84
352.884	254.44
353.267	292.18
353.65	290.6
354.032	277.04
354.414	301.67
354.797	322.46
355.179	326.3
355.562	331.28
355.944	327.66
356.326	323.37
356.709	322.92
357.091	318.4
357.473	331.73
357.855	336.47
358.238	352.29
358.62	357.49
359.002	342.35
359.384	334.21
359.766	351.16
360.148	361.11
360.53	336.47
360.912	346.42
361.294	339.19
361.676	330.15
362.057	321.79
362.439	339.86
362.821	315.91
363.203	314.78
363.584	315.46
363.966	331.05
364.348	302.58
364.729	296.25
365.111	313.42
365.493	321.11
365.874	323.82
366.256	305.51
366.637	315.01
367.019	305.06
367.4	294.22
367.781	310.49
368.163	326.3
368.544	323.82
368.925	305.06
369.306	317.04
369.688	321.56
370.069	321.79
370.45	306.64
370.831	321.11
371.212	312.97
371.593	332.41
371.974	315.46
372.355	317.94
372.736	332.18
373.117	325.63
373.498	313.2
373.879	336.25
374.26	331.73
374.641	337.83
375.021	295.35
375.402	312.07
375.783	324.5
376.163	334.44
376.544	323.59
376.925	331.95
377.305	313.65
377.686	327.43
378.066	335.8
378.447	322.69
378.827	334.44
379.208	340.77
379.588	341.9
379.968	338.06
380.349	348.23
380.729	333.54
381.109	354.1
381.489	345.97
381.87	347.32
382.25	349.81
382.63	370.82
383.01	347.77
383.39	345.97
383.77	350.49
384.15	358.17
384.53	351.84
384.91	372.63
385.29	356.36
385.67	359.3
386.049	385.74
386.429	358.62
386.809	347.1
387.189	352.29
387.568	346.64
387.948	363.59
388.328	367.43
388.707	355
389.087	365.4
389.466	391.61
389.846	389.13
390.225	384.83
390.605	377.15
390.984	399.07
391.363	372.86
391.743	387.09
392.122	385.06
392.501	378.28
392.881	394.55
393.26	405.85
393.639	402.69
394.018	395.23
394.397	422.57
394.776	384.16
395.155	404.04
395.534	368.79
395.913	398.85
396.292	402.46
396.671	399.75
397.05	394.33
397.429	404.95
397.808	396.13
398.186	385.74
398.565	404.5
398.944	413.53
399.323	414.44
399.701	415.12
400.08	424.38
400.458	425.74
400.837	437.49
401.215	429.13
401.594	415.79
401.972	441.56
402.351	425.06
402.729	449.24
403.107	439.3
403.486	437.26
403.864	433.87
404.242	440.88
404.62	455.34
404.999	452.63
405.377	452.4
405.755	470.71
406.133	463.25
406.511	480.43
406.889	473.65
407.267	479.75
407.645	459.86
408.023	450.82
408.401	469.13
408.779	460.99
409.156	486.53
409.534	486.07
409.912	475.45
410.29	485.85
410.667	486.3
411.045	495.34
411.422	491.27
411.8	508.45
412.178	496.7
412.555	515.45
412.933	501.22
413.31	504.61
413.687	523.59
414.065	554.1
414.442	526.3
414.819	521.55
415.197	538.05
415.574	562.91
415.951	549.35
416.328	529.46
416.705	533.53
417.082	552.06
417.46	539.63
417.837	569.24
418.214	587.99
418.591	551.61
418.967	584.6
419.344	594.32
419.721	579.41
420.098	565.85
420.475	596.58
420.852	590.48
421.228	612.85
421.605	590.93
421.982	611.04
422.358	612.4
422.735	615.56
423.111	633.87
423.488	636.13
423.864	626.86
424.241	622.12
424.617	650.36
424.994	668.89
425.37	656.69
425.746	629.35
426.123	631.83
426.499	667.76
426.875	667.31
427.251	668.89
427.627	678.84
428.003	660.08
428.379	682.68
428.756	686.52
429.132	713.87
429.507	690.59
429.883	693.53
430.259	725.16
430.635	753.86
431.011	724.26
431.387	733.75
431.763	723.36
432.138	741.66
432.514	760.64
432.89	750.02
433.265	780.53
433.641	759.97
434.016	759.51
434.392	790.93
434.767	809.23
435.143	798.61
435.518	807.2
435.894	820.08
436.269	808.55
436.644	812.85
437.02	840.19
437.395	846.07
437.77	854.88
438.145	872.96
438.52	857.82
438.895	885.84
439.271	879.96
439.646	881.32
440.021	882
440.395	919.06
440.77	897.82
441.145	915.22
441.52	916.57
441.895	937.59
442.27	942.33
442.645	952.73
443.019	940.98
443.394	961.54
443.769	951.37
444.143	951.83
444.518	964.48
444.892	973.75
445.267	986.4
445.641	972.62
446.016	987.98
446.39	1010.81
446.764	1039.96
447.139	996.34
447.513	1017.59
447.887	1013.29
448.262	1001.32
448.636	1025.27
449.01	1023.01
449.384	1047.87
449.758	1046.96
450.132	1061.2
450.506	1068.88
450.88	1100.07
451.254	1096.23
451.628	1093.52
452.002	1096.45
452.376	1124.48
452.75	1112.95
453.123	1119.73
453.497	1137.36
453.871	1168.77
454.244	1201.08
454.618	1173.29
454.992	1221.65
455.365	1220.97
455.739	1239.73
456.112	1249.22
456.486	1261.87
456.859	1254.19
457.232	1303.68
457.606	1275.88
457.979	1298.03
458.352	1336.67
458.725	1357.92
459.099	1354.75
459.472	1400.85
459.845	1413.06
460.218	1412.83
460.591	1422.1
460.964	1417.35
461.337	1473.17
461.71	1508.42
462.083	1498.03
462.456	1508.65
462.829	1525.6
463.201	1556.1
463.574	1561.98
463.947	1602.66
464.32	1598.14
464.692	1656.21
465.065	1647.4
465.438	1696.89
465.81	1679.94
466.183	1712.48
466.555	1767.62
466.928	1759.71
467.3	1773.27
467.672	1810.11
468.045	1885.59
468.417	1856.89
468.789	1898.24
469.161	1957.67
469.534	1961.29
469.906	2022.53
470.278	2015.07
470.65	2064.79
471.022	2092.13
471.394	2128.52
471.766	2181.17
472.138	2223.43
472.51	2303.2
472.882	2322.86
473.253	2349.75
473.625	2441.73
473.997	2485.12
474.369	2516.08
474.74	2550.2
475.112	2616.64
475.484	2613.93
475.855	2725.79
476.227	2780.7
476.598	2823.41
476.97	2905.67
477.341	3010.75
477.713	3095.05
478.084	3142.95
478.455	3239.22
478.827	3290.75
479.198	3424.08
479.569	3488.71
479.94	3559.89
480.311	3625.43
480.682	3770.06
481.053	3876.72
481.424	3954.01
481.795	4073.78
482.166	4184.28
482.537	4247.56
482.908	4484.39
483.279	4470.83
483.65	4582.69
484.021	4751.73
484.391	4874.89
484.762	4951.95
485.133	5069.68
485.503	5203.01
485.874	5335.89
486.244	5457.02
486.615	5645.26
486.985	5736.78
487.356	5867.4
487.726	6030.11
488.097	6207.05
488.467	6272.14
488.837	6520.72
489.207	6636.65
489.578	6821.95
489.948	6915.96
490.318	7104.21
490.688	7181.04
491.058	7320.25
491.428	7518.88
491.798	7674.13
492.168	7859.89
492.538	7992.09
492.908	8129.94
493.278	8325.87
493.648	8442.25
494.017	8592.53
494.387	8728.34
494.757	8924.27
495.126	8978.73
495.496	9139.63
495.866	9279.97
496.235	9380.76
496.605	9590.92
496.974	9786.17
497.344	9914.08
497.713	10012.15
498.082	10109.32
498.452	10316.32
498.821	10375.53
499.19	10475.42
499.559	10728.07
499.928	10772.13
500.298	10811.9
500.667	11095.29
501.036	11041.73
501.405	11237.66
501.774	11241.27
502.143	11491.44
502.512	11577.31
502.88	11622.96
503.249	11719.23
503.618	11717.19
503.987	11912.89
504.356	12019.78
504.724	12129.61
505.093	12193.56
505.462	12315.14
505.83	12430.39
506.199	12551.52
506.567	12710.61
506.936	12649.14
507.304	12907.67
507.672	12937.95
508.041	12978.4
508.409	13123.03
508.777	13253.2
509.145	13325.06
509.514	13342.01
509.882	13471.27
510.25	13486.18
510.618	13580.42
510.986	13615.22
511.354	13831.03
511.722	13828.55
512.09	13917.13
512.458	13914.2
512.826	14025.15
513.193	14085.04
513.561	14155.32
513.929	14186.05
514.297	14309.67
514.664	14377.91
515.032	14448.42
515.4	14559.15
515.767	14592.14
516.135	14627.17
516.502	14515.08
516.869	14761.41
517.237	14810.44
517.604	14746.94
517.972	14836.43
518.339	14931.34
518.706	14965.69
519.073	14902.87
519.44	15047.27
519.808	15167.04
520.175	15143.54
520.542	15250.21
520.909	15247.95
521.276	15340.83
521.643	15526.58
522.009	15482.97
522.376	15540.37
522.743	15571.33
523.11	15696.07
523.477	15845.9
523.843	15738.78
524.21	15908.04
524.577	15969.06
524.943	15968.15
525.31	16027.81
525.676	16063.74
526.043	16184.42
526.409	16223.06
526.776	16228.71
527.142	16212.89
527.508	16287.69
527.874	16322.04
528.241	16298.54
528.607	16384.64
528.973	16474.13
529.339	16387.58
529.705	16623.05
530.071	16552.32
530.437	16474.35
530.803	16547.35
531.169	16606.78
531.535	16561.36
531.901	16508.25
532.267	16584.86
532.632	16567.91
532.998	16600.45
533.364	16658.53
533.73	16593.22
534.095	16764.06
534.461	16712.77
534.826	16725.42
535.192	16663.5
535.557	16707.34
535.923	16567.91
536.288	16716.16
536.653	16692.65
537.019	16655.14
537.384	16563.62
537.749	16560.23
538.114	16453.79
538.479	16447.01
538.845	16581.92
539.21	16427.35
539.575	16456.73
539.94	16421.02
540.305	16495.15
540.67	16401.59
541.034	16442.94
541.399	16447.01
541.764	16518.87
542.129	16386.45
542.494	16385.54
542.858	16360.46
543.223	16326.11
543.587	16382.83
543.952	16185.55
544.316	16266
544.681	16165.66
545.045	16234.59
545.41	16206.79
545.774	16117.08
546.138	16127.25
546.503	16149.62
546.867	16038.43
547.231	16142.61
547.595	16054.93
547.959	16064.65
548.324	15989.17
548.688	15995.05
549.052	16029.62
549.416	15881.83
549.779	15916.18
550.143	15885.22
550.507	15972
550.871	15830.76
551.235	15805.45
551.599	15963.41
551.962	15817.42
552.326	15704.43
552.689	15827.14
553.053	15681.61
553.417	15683.64
553.78	15811.32
554.143	15711.89
554.507	15809.06
554.87	15677.31
555.234	15846.8
555.597	15600.25
555.96	15652.91
556.323	15626.47
556.686	15564.1
557.05	15667.14
557.413	15683.42
557.776	15637.31
558.139	15629.18
558.502	15672.57
558.865	15619.46
559.228	15694.71
559.59	15619.01
559.953	15670.31
560.316	15733.58
560.679	15670.76
561.041	15730.87
561.404	15839.12
561.767	15742.85
562.129	15764.54
562.492	15841.15
562.854	15810.42
563.217	15724.54
563.579	15746.01
563.941	15874.37
564.304	15927.48
564.666	15985.1
565.028	15840.25
565.39	15901.49
565.753	16011.77
566.115	15952.11
566.477	16074.59
566.839	15937.87
567.201	15967.48
567.563	16039.56
567.925	16120.92
568.287	16128.38
568.648	16087.02
569.01	16160.92
569.372	16182.39
569.734	16041.82
570.095	16257.41
570.457	16113.69
570.819	16231.65
571.18	16068.04
571.542	16197.3
571.903	16177.87
572.265	16250.86
572.626	16207.92
572.987	16349.16
573.349	16339.67
573.71	16404.98
574.071	16305.77
574.432	16414.02
574.794	16468.48
575.155	16377.41
575.516	16443.62
575.877	16411.31
576.238	16482.26
576.599	16489.04
576.96	16478.87
577.32	16448.59
577.681	16550.51
578.042	16536.27
578.403	16541.02
578.763	16574.92
579.124	16556.39
579.485	16525.2
579.845	16578.08
580.206	16510.06
580.566	16410.18
580.927	16561.81
581.287	16546.67
581.648	16518.87
582.008	16513.45
582.368	16484.75
582.728	16514.58
583.089	16491.98
583.449	16471.19
583.809	16539.89
584.169	16545.99
584.529	16434.58
584.889	16548.03
585.249	16345.09
585.609	16277.98
585.969	16454.69
586.329	16397.07
586.688	16454.24
587.048	16373.11
587.408	16297.86
587.768	16376.05
588.127	16314.81
588.487	16283.63
588.846	16401.36
589.206	16296.51
589.565	16301.7
589.925	16345.77
590.284	16305.09
590.643	16387.58
591.003	16380.8
591.362	16352.1
591.721	16336.28
592.08	16272.78
592.44	16294.25
592.799	16315.94
593.158	16176.06
593.517	16298.99
593.876	16185.55
594.235	16137.41
594.593	16235.49
594.952	16258.77
595.311	16157.98
595.67	16204.31
596.029	16315.94
596.387	16215.83
596.746	16327.24
597.104	16171.09
597.463	16186.23
597.822	16184.42
598.18	16125.66
598.538	16193.46
598.897	16279.56
599.255	16079.11
599.613	16350.52
599.972	16152.33
600.33	16217.41
600.688	16175.83
601.046	16205.66
601.404	16213.57
601.762	16174.7
602.12	16308.48
602.478	16284.08
602.836	16201.59
603.194	16132.67
603.552	16202.95
603.91	16125.44
604.268	16175.38
604.625	16163.18
604.983	16231.65
605.341	16079.79
605.698	16178.09
606.056	16197.75
606.413	16229.62
606.771	16253.8
607.128	16249.95
607.485	16171.99
607.843	16221.25
608.2	16253.12
608.557	16235.72
608.914	16138.32
609.272	16362.27
609.629	16350.06
609.986	16359.56
610.343	16290.18
610.7	16411.98
611.057	16387.35
611.414	16376.73
611.771	16402.49
612.127	16499.67
612.484	16506.67
612.841	16393.68
613.198	16511.87
613.554	16373.34
613.911	16485.43
614.267	16461.25
614.624	16444.53
614.98	16376.28
615.337	16567.46
615.693	16492.66
616.05	16499.89
616.406	16538.76
616.762	16486.56
617.118	16515.48
617.475	16501.7
617.831	16712.54
618.187	16638.42
618.543	16608.81
618.899	16648.81
619.255	16710.28
619.611	16660.79
619.967	16804.74
620.323	16744.63
620.678	16744.63
621.034	16688.36
621.39	16608.36
621.746	16604.3
622.101	16793.22
622.457	16728.36
622.812	16651.07
623.168	16663.95
623.523	16672.32
623.879	16683.16
624.234	16690.39
624.589	16667.34
624.945	16684.52
625.3	16754.35
625.655	16709.15
626.01	16703.73
626.365	16683.84
626.72	16700.11
627.075	16657.18
627.43	16675.25
627.785	16626.44
628.14	16696.5
628.495	16678.64
628.85	16715.7
629.205	16620.79
629.559	16618.53
629.914	16657.63
630.269	16675.48
630.623	16555.26
630.978	16482.26
631.332	16538.31
631.687	16679.77
632.041	16466.22
632.396	16605.2
632.75	16462.83
633.104	16514.13
633.459	16454.02
633.813	16360.01
634.167	16442.04
634.521	16470.06
634.875	16368.82
635.229	16381.48
635.583	16242.72
635.937	16308.26
636.291	16327.92
636.645	16299.44
636.999	16235.72
637.352	16273
637.706	16233.46
638.06	16227.36
638.413	16120.24
638.767	16148.26
639.121	16210.86
639.474	16042.73
639.828	15994.82
640.181	16117.53
640.534	16057.42
640.888	16042.05
641.241	15988.04
641.594	16040.92
641.947	16030.98
642.301	15947.82
642.654	15973.58
643.007	16090.41
643.36	15936.29
643.713	15980.58
644.066	16054.93
644.419	15952.33
644.771	15853.81
645.124	15691.55
645.477	15702.17
645.83	15637.77
646.182	15567.94
646.535	15456.98
646.888	15472.8
647.24	15390.99
647.593	15516.64
647.945	15418.11
648.298	15348.96
648.65	15321.84
649.002	15285.69
649.355	15395.97
649.707	15337.66
650.059	15482.97
650.411	15644.77
650.763	15647.26
651.115	15881.83
651.467	15800.02
651.819	15799.57
652.171	15668.95
652.523	15753.02
652.875	15699.46
653.227	15763.41
653.578	15715.73
653.93	15748.05
654.282	15672.57
654.633	15725.22
654.985	15672.12
655.337	15694.94
655.688	15730.19
656.039	15851.32
656.391	15685
656.742	15725.67
657.094	15666.92
657.445	15704.88
657.796	15593.47
658.147	15793.24
658.498	15736.52
658.849	15719.57
659.2	15695.62
659.551	15755.96
659.902	15778.55
660.253	15750.53
660.604	15886.8
660.955	15603.64
661.306	15759.35
661.656	15711.44
662.007	15719.35
662.358	15732
662.708	15755.96
663.059	15837.08
663.409	15702.17
663.76	15806.8
664.11	15717.54
664.461	15770.42
664.811	15867.59
665.161	15720.7
665.511	15752.57
665.862	15778.33
666.212	15871.66
666.562	15747.37
666.912	15818.78
667.262	15754.15
667.612	15718.67
667.962	15780.59
668.312	15702.85
668.662	15829.17
669.011	15795.05
669.361	15750.98
669.711	15741.49
670.06	15736.75
670.41	15697.88
670.76	15728.16
671.109	15701.27
671.459	15672.12
671.808	15530.2
672.157	15697.2
672.507	15619.69
672.856	15561.61
673.205	15674.38
673.554	15635.05
673.904	15597.77
674.253	15640.93
674.602	15658.56
674.951	15363.65
675.3	15398.23
675.649	15541.95
675.998	15466.02
676.346	15548.28
676.695	15638.44
677.044	15402.29
677.393	15526.36
677.741	15486.58
678.09	15485.45
678.438	15492.23
678.787	15441.61
679.135	15431.44
679.484	15307.15
679.832	15405.23
680.181	15251.56
680.529	15275.29
680.877	15243.2
681.225	15296.31
681.573	15293.14
681.922	15121.85
682.27	15204.11
682.618	15150.77
682.966	15133.6
683.314	15134.05
683.661	15112.13
684.009	14968.63
684.357	15000.04
684.705	14922.98
685.053	14995.07
685.4	14947.84
685.748	14795.53
686.095	14745.13
686.443	14819.71
686.79	14673.27
687.138	14784.46
687.485	14737
687.832	14687.06
688.18	14669.2
688.527	14545.82
688.874	14556.89
689.221	14517.8
689.568	14465.82
689.915	14460.17
690.262	14414.97
690.609	14323.68
690.956	14355.77
691.303	14328.42
691.65	14249.1
691.997	14243
692.344	14181.08
692.69	14045.04
693.037	14161.2
693.383	13987.87
693.73	13967.98
694.077	13924.82
694.423	13891.82
694.769	13872.16
695.116	13887.98
695.462	13805.05
695.808	13723.47
696.155	13807.08
696.501	13673.75
696.847	13705.39
697.193	13520.99
697.539	13541.78
697.885	13486.86
698.231	13379.3
698.577	13348.79
698.923	13398.28
699.269	13228.56
699.614	13191.73
699.96	13189.24
700.306	13196.25
700.651	12992.64
700.997	13045.74
701.342	12970.72
701.688	12956.03
702.033	12888.46
702.379	12951.51
702.724	12903.83
703.069	12912.19
703.415	12693.44
703.76	12839.87
704.105	12646.21
704.45	12659.99
704.795	12565.08
705.14	12565.08
705.485	12558.53
705.83	12487.12
706.175	12471.97
706.52	12419.09
706.865	12373.67
707.209	12351.07
707.554	12307.68
707.899	12295.93
708.243	12252.55
708.588	12197.41
708.932	12078.31
709.277	12119.89
709.621	12098.2
709.966	11989.05
710.31	12034.7
710.654	11926.23
710.998	11956.28
711.342	11930.29
711.687	11822.27
712.031	11816.17
712.375	11795.38
712.719	11734.59
713.063	11759.9
713.407	11794.25
713.75	11687.36
714.094	11711.99
714.438	11687.36
714.782	11633.35
715.125	11605.78
715.469	11579.34
715.812	11545.9
716.156	11446.01
716.499	11471.55
716.843	11503.19
717.186	11459.8
717.53	11532.11
717.873	11523.98
718.216	11482.4
718.559	11434.49
718.902	11351.55
719.246	11429.74
719.589	11236.75
719.932	11320.14
720.275	11341.61
720.617	11339.12
720.96	11314.26
721.303	11262.29
721.646	11298.67
721.989	11213.02
722.331	11271.78
722.674	11195.17
723.016	11244.89
723.359	11224.32
723.701	11198.56
724.044	11100.94
724.386	11090.09
724.729	11208.5
725.071	11129.64
725.413	11159.92
725.755	11151.78
726.097	11054.61
726.439	11043.54
726.782	11026.36
727.124	11118.56
727.465	11001.5
727.807	11051.45
728.149	10985.23
728.491	10950.21
728.833	11009.19
729.175	10974.84
729.516	10886.93
729.858	10858.46
730.199	10921.73
730.541	10967.16
730.882	10836.31
731.224	10903.88
731.565	10897.1
731.906	10884.22
732.248	10888.29
732.589	10852.81
732.93	10843.32
733.271	10795.86
733.612	10941.62
733.953	10872.24
734.294	10924.22
734.635	10899.81
734.976	10877.44
735.317	10853.71
735.658	10873.37
735.999	10859.14
736.339	10885.35
736.68	10848.97
737.021	10888.74
737.361	10865.91
737.702	10952.24
738.042	10888.06
738.383	10945.69
738.723	10947.72
739.063	10931.22
739.404	10876.08
739.744	10856.42
740.084	10862.53
740.424	10899.81
740.764	10915.18
741.104	10972.58
741.444	11023.88
741.784	10964.67
742.124	11008.74
742.464	11013.71
742.804	11029.3
743.143	11123.54
743.483	11065.23
743.823	11107.49
744.162	11090.32
744.502	11112.69
744.841	11135.51
745.181	11288.05
745.52	11260.03
745.86	11330.08
746.199	11280.14
746.538	11343.64
746.877	11402.62
747.216	11523.75
747.556	11559.91
747.895	11559.23
748.234	11618.66
748.573	11619.79
748.911	11690.3
749.25	11827.7
749.589	11789.51
749.928	11888.26
750.267	12050.29
750.605	12114.47
750.944	12147.01
751.283	12174.58
751.621	12352.88
751.96	12399.21
752.298	12478.75
752.636	12671.97
752.975	12694.79
753.313	12740.67
753.651	12877.61
753.989	12995.8
754.327	13050.26
754.666	13133.2
755.004	13361.67
755.342	13438.5
