Data from hue_220_FLMS001491_00028.txt Node
Date: Tue Feb 07 16:39:12 GMT 2017
User: dcchb
Spectrometer: FLMS00149
Trigger mode: 0
Integration Time (sec): 2.000000E-2
Scans to average: 10
Electric dark correction enabled: true
Nonlinearity correction enabled: false
Boxcar width: 0
XAxis mode: Wavelengths
Number of Pixels in Spectrum: 2048
>>>>>Begin Spectral Data<<<<<
341.393	-17.88
341.776	-17.88
342.16	-17.88
342.543	-64.66
342.927	-63.08
343.31	-73.92
343.693	-52
344.077	-80.48
344.46	-85.22
344.843	-69.4
345.226	-43.64
345.61	-26.92
345.993	-20.37
346.376	-5
346.759	7.88
347.142	42.68
347.525	43.81
347.908	60.54
348.291	88.56
348.674	102.12
349.057	111.38
349.44	128.56
349.823	118.61
350.206	167.42
350.588	198.61
350.971	194.54
351.354	224.82
351.737	210.36
352.119	242.23
352.502	265.5
352.884	258.95
353.267	288.1
353.65	287.2
354.032	296.91
354.414	290.81
354.797	309.79
355.179	319.96
355.562	319.74
355.944	319.51
356.326	326.97
356.709	337.82
357.091	330.36
357.473	337.82
357.855	348.21
358.238	329.68
358.62	335.78
359.002	341.21
359.384	343.47
359.766	320.42
360.148	336.23
360.53	355.89
360.912	328.1
361.294	338.72
361.676	316.12
362.057	333.52
362.439	336.23
362.821	334.88
363.203	308.21
363.584	326.29
363.966	319.06
364.348	331.94
364.729	315.67
365.111	309.57
365.493	311.83
365.874	314.99
366.256	312.28
366.637	311.6
367.019	312.96
367.4	303.92
367.781	306.63
368.163	299.62
368.544	303.69
368.925	317.48
369.306	281.09
369.688	309.34
370.069	307.31
370.45	303.24
370.831	313.86
371.212	312.96
371.593	307.76
371.974	343.01
372.355	300.08
372.736	279.96
373.117	297.59
373.498	314.09
373.879	317.93
374.26	290.81
374.641	316.35
375.021	310.7
375.402	318.83
375.783	305.73
376.163	315.44
376.544	322.45
376.925	309.34
377.305	298.72
377.686	313.64
378.066	317.93
378.447	335.56
378.827	327.19
379.208	320.42
379.588	320.19
379.968	312.28
380.349	338.27
380.729	327.42
381.109	319.29
381.489	332.39
381.87	346.63
382.25	313.18
382.63	344.82
383.01	333.52
383.39	334.43
383.77	326.74
384.15	326.97
384.53	347.76
384.91	334.43
385.29	338.49
385.67	346.63
386.049	348.66
386.429	344.82
386.809	331.49
387.189	340.75
387.568	344.6
387.948	345.27
388.328	351.15
388.707	345.95
389.087	376.91
389.466	336.91
389.846	363.35
390.225	364.93
390.605	367.19
390.984	371.26
391.363	373.3
391.743	343.47
392.122	352.5
392.501	369.91
392.881	372.17
393.26	346.63
393.639	362.67
394.018	365.84
394.397	382.56
394.776	377.36
395.155	360.41
395.534	382.56
395.913	380.75
396.292	381.66
396.671	361.54
397.05	385.05
397.429	388.21
397.808	373.52
398.186	397.02
398.565	370.81
398.944	388.21
399.323	388.44
399.701	387.53
400.08	393.86
400.458	385.72
400.837	397.48
401.215	402.9
401.594	408.55
401.972	415.33
402.351	388.21
402.729	389.34
403.107	420.53
403.486	429.79
403.864	417.59
404.242	429.56
404.62	437.47
404.999	438.6
405.377	407.87
405.755	455.78
406.133	442.22
406.511	427.76
406.889	450.36
407.267	448.1
407.645	473.18
408.023	462.33
408.401	470.24
408.779	479.51
409.156	480.86
409.534	472.73
409.912	502.33
410.29	500.52
410.667	488.32
411.045	508.21
411.422	505.5
411.8	512.05
412.178	536.68
412.555	547.3
412.933	545.95
413.31	521.77
413.687	555.89
414.065	584.59
414.442	559.05
414.819	591.14
415.197	602.44
415.574	608.32
415.951	582.33
416.328	618.49
416.705	617.81
417.082	606.96
417.46	614.64
417.837	630.24
418.214	633.85
418.591	661.88
418.967	669.56
419.344	660.75
419.721	666.17
420.098	668.65
420.475	699.16
420.852	675.89
421.228	739.84
421.605	724.02
421.982	719.5
422.358	745.49
422.735	769.44
423.111	776.9
423.488	768.54
423.864	808.09
424.241	801.98
424.617	818.26
424.994	813.96
425.37	829.1
425.746	841.76
426.123	852.15
426.499	874.3
426.875	879.27
427.251	884.47
427.627	920.4
428.003	942.09
428.379	932.38
428.756	942.77
429.132	969.21
429.507	965.6
429.883	991.58
430.259	993.17
430.635	1009.89
431.011	1003.56
431.387	1032.71
431.763	1032.71
432.138	1046.5
432.514	1035.2
432.89	1100.51
433.265	1127.63
433.641	1124.46
434.016	1133.5
434.392	1159.49
434.767	1180.96
435.143	1212.6
435.518	1229.09
435.894	1257.34
436.269	1260.05
436.644	1290.33
437.02	1304.57
437.395	1305.25
437.77	1328.98
438.145	1359.94
438.52	1389.31
438.895	1422.76
439.271	1400.84
439.646	1415.3
440.021	1476.77
440.395	1477.9
440.77	1465.92
441.145	1506.37
441.52	1561.74
441.895	1554.96
442.27	1558.35
442.645	1575.75
443.019	1598.57
443.394	1612.13
443.769	1617.56
444.143	1630.66
444.518	1647.39
444.892	1656.65
445.267	1665.24
445.641	1740.04
446.016	1707.72
446.39	1688.74
446.764	1727.38
447.139	1722.64
447.513	1728.97
447.887	1756.54
448.262	1757.44
448.636	1758.8
449.01	1815.07
449.384	1806.7
449.758	1827.49
450.132	1820.94
450.506	1877.44
450.88	1864.78
451.254	1873.59
451.628	1888.28
452.002	1888.51
452.376	1948.4
452.75	1939.36
453.123	1930.09
453.497	1989.3
453.871	1995.4
454.244	2027.04
454.618	2022.07
454.992	2059.58
455.365	2071.78
455.739	2107.94
456.112	2103.19
456.486	2120.59
456.859	2135.96
457.232	2206.24
457.606	2186.13
457.979	2244.88
458.352	2290.98
458.725	2311.1
459.099	2308.39
459.472	2346.8
459.845	2362.4
460.218	2373.47
460.591	2392
460.964	2421.6
461.337	2468.61
461.71	2492.79
462.083	2547.7
462.456	2574.59
462.829	2528.04
463.201	2601.03
463.574	2601.49
463.947	2638.55
464.32	2640.58
464.692	2707.25
465.065	2701.82
465.438	2751.09
465.81	2758.77
466.183	2789.95
466.555	2866.11
466.928	2901.82
467.3	2871.99
467.672	2899.56
468.045	2987.24
468.417	3000.57
468.789	2987.92
469.161	3028.14
469.534	3083.51
469.906	3155.59
470.278	3126.22
470.65	3199.66
471.022	3274.01
471.394	3316.04
471.766	3298.19
472.138	3374.57
472.51	3433.78
472.882	3430.84
473.253	3512.2
473.625	3499.77
473.997	3568.69
474.369	3572.31
474.74	3645.75
475.112	3704.96
475.484	3750.16
475.855	3811.85
476.227	3812.75
476.598	3915.12
476.97	3972.07
477.341	3986.99
477.713	4028.11
478.084	4008.91
478.455	4169.81
478.827	4217.26
479.198	4342
479.569	4291.38
479.94	4437.82
480.311	4396.92
480.682	4511.72
481.053	4593.98
481.424	4637.82
481.795	4643.47
482.166	4709.9
482.537	4774.54
482.908	4909.67
483.279	4909
483.65	4986.73
484.021	5037.81
484.391	5107.86
484.762	5170.46
485.133	5218.59
485.503	5243.9
485.874	5320.51
486.244	5395.31
486.615	5455.42
486.985	5514.63
487.356	5606.6
487.726	5624.23
488.097	5797.33
488.467	5707.62
488.837	5797.11
489.207	5845.47
489.578	5937.89
489.948	5994.16
490.318	6104.9
490.688	6047.5
491.058	6165.69
491.428	6231.45
491.798	6301.05
492.168	6373.82
492.538	6398.45
492.908	6452.91
493.278	6482.06
493.648	6525.45
494.017	6611.32
494.387	6595.05
494.757	6687.71
495.126	6747.59
495.496	6703.3
495.866	6795.95
496.235	6815.39
496.605	6793.24
496.974	6885.89
497.344	6930.64
497.713	6902.16
498.082	6991.88
498.452	6994.59
498.821	7052.67
499.19	7067.13
499.559	7110.75
499.928	7137.41
500.298	7128.6
500.667	7233.91
501.036	7174.47
501.405	7225.32
501.774	7255.83
502.143	7278.65
502.512	7309.16
502.88	7380.12
503.249	7357.29
503.618	7361.36
503.987	7442.71
504.356	7447.91
504.724	7467.35
505.093	7495.82
505.462	7437.52
505.83	7549.6
506.199	7572.88
506.567	7569.26
506.936	7589.38
507.304	7655.14
507.672	7646.32
508.041	7662.82
508.409	7720.45
508.777	7726.1
509.145	7723.61
509.514	7710.96
509.882	7750.95
510.25	7720.67
510.618	7797.51
510.986	7721.8
511.354	7851.06
511.722	7887.9
512.09	7872.08
512.458	7841.35
512.826	7875.7
513.193	7914.11
513.561	7867.79
513.929	7908.46
514.297	7970.16
514.664	7935.81
515.032	8000.21
515.4	8034.56
515.767	7948.01
516.135	8023.94
516.502	7966.99
516.869	8022.59
517.237	8055.58
517.604	7988.91
517.972	8028.24
518.339	8043.38
518.706	7958.41
519.073	8017.16
519.44	8035.24
519.808	8095.58
520.175	8015.81
520.542	8061.91
520.909	8061.68
521.276	8065.75
521.643	8052.42
522.009	8159.53
522.376	8070.72
522.743	8143.71
523.11	8127.67
523.477	8230.94
523.843	8185.97
524.21	8165.41
524.577	8178.51
524.943	8219.42
525.31	8205.41
525.676	8245.86
526.043	8268.91
526.409	8198.63
526.776	8312.3
527.142	8245.86
527.508	8237.95
527.874	8276.59
528.241	8191.39
528.607	8171.06
528.973	8246.53
529.339	8192.98
529.705	8283.14
530.071	8240.43
530.437	8240.21
530.803	8308.45
531.169	8295.57
531.535	8215.12
531.901	8253.09
532.267	8260.32
532.632	8229.36
532.998	8218.51
533.364	8174.45
533.73	8123.15
534.095	8222.35
534.461	8161.57
534.826	8152.53
535.192	8139.42
535.557	8159.76
535.923	8124.05
536.288	8113.43
536.653	8081.57
537.019	8068.69
537.384	8043.38
537.749	7998.41
538.114	8040.66
538.479	7939.42
538.845	7951.85
539.21	7930.16
539.575	7925.41
539.94	7903.27
540.305	7927.45
540.67	7873.89
541.034	7833.66
541.399	7953.21
541.764	7837.96
542.129	7811.07
542.494	7822.82
542.858	7760.22
543.223	7754.57
543.587	7743.95
543.952	7715.02
544.316	7660.11
544.681	7634.12
545.045	7607.23
545.41	7616.49
545.774	7632.77
546.138	7612.88
546.503	7568.59
546.867	7578.08
547.231	7496.05
547.595	7494.01
547.959	7484.75
548.324	7445.65
548.688	7456.05
549.052	7442.49
549.416	7393.68
549.779	7354.13
550.143	7348.93
550.507	7336.5
550.871	7342.6
551.235	7240.01
551.599	7266.9
551.962	7281.59
552.326	7286.56
552.689	7221.93
553.053	7194.58
553.417	7194.58
553.78	7211.08
554.143	7174.7
554.507	7172.66
554.87	7207.01
555.234	7214.92
555.597	7096.73
555.96	7106.45
556.323	7125.43
556.686	7058.32
557.05	7115.94
557.413	7131.08
557.776	7117.3
558.139	7154.13
558.502	7002.05
558.865	7039.11
559.228	7087.69
559.59	7067.81
559.953	7019.45
560.316	7077.3
560.679	7055.38
561.041	7070.75
561.404	7098.32
561.767	7059.22
562.129	7039.79
562.492	7105.55
562.854	6993.69
563.217	7018.54
563.579	7027.13
563.941	7040.46
564.304	7100.35
564.666	7085.89
565.028	7097.19
565.39	7053.57
565.753	7119.56
566.115	7108.26
566.477	7048.6
566.839	7108.03
567.201	7130.18
567.563	7154.81
567.925	7147.13
568.287	7111.65
568.648	7178.77
569.01	7191.87
569.372	7224.41
569.734	7116.39
570.095	7204.53
570.457	7250.4
570.819	7243.62
571.18	7238.65
571.542	7271.42
571.903	7198.65
572.265	7245.43
572.626	7244.98
572.987	7298.08
573.349	7299.89
573.71	7246.11
574.071	7249.27
574.432	7322.72
574.794	7327.01
575.155	7364.98
575.516	7324.07
575.877	7339.67
576.238	7372.89
576.599	7447.46
576.96	7414.47
577.32	7375.37
577.681	7454.69
578.042	7502.6
578.403	7500.11
578.763	7483.39
579.124	7510.51
579.485	7556.16
579.845	7466.22
580.206	7501.24
580.566	7554.35
580.927	7514.35
581.287	7561.13
581.648	7543.95
582.008	7592.09
582.368	7615.82
582.728	7624.63
583.089	7592.54
583.449	7663.95
583.809	7671.63
584.169	7666.44
584.529	7690.17
584.889	7712.09
585.249	7671.41
585.609	7707.79
585.969	7730.39
586.329	7705.53
586.688	7714.8
587.048	7784.85
587.408	7766.55
587.768	7729.03
588.127	7774.46
588.487	7797.73
588.846	7864.4
589.206	7793.44
589.565	7807.68
589.925	7841.57
590.284	7882.25
590.643	7869.37
591.003	7886.77
591.362	7946.66
591.721	7931.51
592.08	7904.17
592.44	7950.95
592.799	7939.42
593.158	7915.7
593.517	7951.85
593.876	7985.07
594.235	7956.6
594.593	7965.19
594.952	8035.24
595.311	7958.63
595.67	8017.16
596.029	8067.56
596.387	8059.42
596.746	8053.32
597.104	7974
597.463	8025.52
597.822	8032.08
598.18	7967.45
598.538	8023.04
598.897	8110.49
599.255	7998.18
599.613	8152.3
599.972	8085.86
600.33	8118.85
600.688	8072.3
601.046	8097.16
601.404	8137.16
601.762	8137.61
602.12	8172.64
602.478	8136.03
602.836	8168.34
603.194	8125.18
603.552	8148.01
603.91	8160.44
604.268	8177.84
604.625	8121.79
604.983	8147.1
605.341	8110.94
605.698	8158.85
606.056	8169.47
606.413	8167.67
606.771	8158.63
607.128	8219.87
607.485	8110.94
607.843	8216.03
608.2	8280.43
608.557	8238.85
608.914	8220.77
609.272	8286.99
609.629	8199.76
609.986	8277.27
610.343	8197.95
610.7	8254.22
611.057	8296.7
611.414	8217.38
611.771	8319.98
612.127	8278.85
612.484	8267.32
612.841	8392.75
613.198	8327.89
613.554	8368.11
613.911	8377.38
614.267	8352.52
614.624	8344.39
614.98	8292.86
615.337	8401.78
615.693	8359.98
616.05	8341
616.406	8463.03
616.762	8367.89
617.118	8399.98
617.475	8330.83
617.831	8395.23
618.187	8354.1
618.543	8413.54
618.899	8420.54
619.255	8387.55
619.611	8382.35
619.967	8455.12
620.323	8496.25
620.678	8486.98
621.034	8498.05
621.39	8470.26
621.746	8418.28
622.101	8533.31
622.457	8393.2
622.812	8480.2
623.168	8455.34
623.523	8404.5
623.879	8479.07
624.234	8409.92
624.589	8543.25
624.945	8465.06
625.3	8448.79
625.655	8470.03
626.01	8497.15
626.365	8508.22
626.72	8439.07
627.075	8404.27
627.43	8398.39
627.785	8411.28
628.14	8429.35
628.495	8446.53
628.85	8434.1
629.205	8427.55
629.559	8462.12
629.914	8477.04
630.269	8445.63
630.623	8455.79
630.978	8412.63
631.332	8388.45
631.687	8450.6
632.041	8393.65
632.396	8378.51
632.75	8373.99
633.104	8308
633.459	8400.65
633.813	8320.2
634.167	8337.61
634.521	8305.97
634.875	8341.22
635.229	8261.9
635.583	8222.81
635.937	8209.7
636.291	8242.24
636.645	8282.01
636.999	8279.08
637.352	8266.65
637.706	8195.46
638.06	8273.2
638.413	8164.73
638.767	8258.51
639.121	8215.57
639.474	8169.47
639.828	8159.31
640.181	8191.39
640.534	8153.2
640.888	8131.06
641.241	8152.53
641.594	8163.37
641.947	8143.26
642.301	8158.18
642.654	8160.44
643.007	8070.04
643.36	8039.99
643.713	8044.96
644.066	8129.25
644.419	8038.63
644.771	8011.29
645.124	7965.41
645.477	7931.29
645.83	7942.36
646.182	7854
646.535	7905.98
646.888	7854.45
647.24	7846.77
647.593	7916.83
647.945	7833.66
648.298	7798.64
648.65	7823.72
649.002	7757.96
649.355	7834.12
649.707	7812.65
650.059	7826.88
650.411	7946.66
650.763	7908.01
651.115	8027.11
651.467	8079.08
651.819	7979.87
652.171	8044.96
652.523	8001.34
652.875	8022.13
653.227	7947.11
653.578	8024.85
653.93	8038.4
654.282	7948.69
654.633	7944.4
654.985	7922.93
655.337	7985.3
655.688	8011.96
656.039	7977.84
656.391	7992.98
656.742	8002.25
657.094	7980.55
657.445	8016.26
657.796	8014
658.147	7944.62
658.498	7959.08
658.849	8031.4
659.2	7986.65
659.551	7982.59
659.902	8075.92
660.253	8014.68
660.604	8036.14
660.955	8029.82
661.306	8032.3
661.656	8043.6
662.007	8049.7
662.358	8009.25
662.708	8061
663.059	8047.67
663.409	8034.34
663.76	8018.07
664.11	8082.02
664.461	8059.65
664.811	8058.97
665.161	8081.34
665.511	8032.75
665.862	8061.91
666.212	8103.94
666.562	8098.97
666.912	8120.89
667.262	8130.38
667.612	8060.55
667.962	8074.34
668.312	8009.03
668.662	8110.94
669.011	8084.73
669.361	8050.16
669.711	8075.69
670.06	7998.86
670.41	8024.85
670.76	8059.19
671.109	8050.16
671.459	8002.47
671.808	8018.74
672.157	8006.09
672.507	7980.1
672.856	7966.54
673.205	7981
673.554	8022.59
673.904	7924.74
674.253	8099.42
674.602	7970.61
674.951	7868.01
675.3	7773.78
675.649	7943.72
675.998	7896.94
676.346	7969.71
676.695	7979.87
677.044	7868.24
677.393	7935.13
677.741	7920.67
678.09	7916.15
678.438	7936.71
678.787	7848.13
679.135	7891.52
679.484	7811.97
679.832	7853.55
680.181	7750.5
680.529	7753.21
680.877	7849.93
681.225	7805.42
681.573	7803.38
681.922	7782.82
682.27	7669.37
682.618	7736.49
682.966	7737.4
683.314	7776.26
683.661	7725.87
684.009	7668.7
684.357	7687.91
684.705	7680.9
685.053	7643.39
685.4	7682.48
685.748	7588.92
686.095	7609.49
686.443	7624.4
686.79	7538.08
687.138	7524.75
687.485	7497.18
687.832	7516.16
688.18	7482.26
688.527	7449.27
688.874	7368.59
689.221	7377.4
689.568	7328.37
689.915	7381.02
690.262	7383.28
690.609	7373.11
690.956	7294.47
691.303	7277.29
691.65	7269.39
691.997	7263.28
692.344	7200.91
692.69	7160.01
693.037	7179.9
693.383	7183.29
693.73	7187.13
694.077	7047.7
694.423	7038.66
694.769	7085.66
695.116	7069.84
695.462	7075.27
695.808	7004.08
696.155	6953.91
696.501	6913.46
696.847	6942.16
697.193	6815.39
697.539	6885.44
697.885	6830.98
698.231	6819.68
698.577	6777.42
698.923	6739.46
699.269	6733.13
699.614	6697.65
699.96	6732.45
700.306	6684.54
700.651	6636.41
700.997	6642.06
701.342	6619.46
701.688	6571.32
702.033	6543.08
702.379	6538.33
702.724	6541.27
703.069	6523.19
703.415	6433.93
703.76	6423.08
704.105	6479.35
704.45	6389.86
704.795	6368.84
705.14	6292.69
705.485	6349.64
705.83	6254.04
706.175	6381.72
706.52	6269.86
706.865	6277.55
707.209	6249.98
707.554	6219.24
707.899	6193.93
708.243	6207.49
708.588	6202.75
708.932	6138.12
709.277	6161.17
709.621	6128.62
709.966	6146.02
710.31	6127.95
710.654	6086.14
710.998	6085.69
711.342	6036.65
711.687	6035.07
712.031	6035.75
712.375	5979.48
712.719	5984.9
713.063	5976.76
713.407	5998.91
713.75	5965.46
714.094	6019.47
714.438	5948.74
714.782	5895.64
715.125	5908.06
715.469	5963.2
715.812	5867.39
716.156	5866.26
716.499	5862.64
716.843	5858.12
717.186	5818.12
717.53	5832.81
717.873	5835.98
718.216	5809.99
718.559	5811.12
718.902	5795.07
719.246	5785.13
719.589	5803.89
719.932	5742.87
720.275	5755.3
720.617	5757.79
720.96	5806.82
721.303	5751.23
721.646	5760.05
721.989	5768.41
722.331	5746.94
722.674	5725.7
723.016	5739.48
723.359	5725.7
723.701	5754.62
724.044	5732.02
724.386	5711.69
724.729	5705.81
725.071	5675.3
725.413	5653.16
725.755	5656.77
726.097	5688.86
726.439	5650.67
726.782	5670.33
727.124	5679.82
727.465	5679.6
727.807	5668.98
728.149	5675.75
728.491	5623.55
728.833	5664.91
729.175	5631.01
729.516	5664
729.858	5637.56
730.199	5681.63
730.541	5621.52
730.882	5667.17
731.224	5654.96
731.565	5661.52
731.906	5672.59
732.248	5697
732.589	5673.72
732.93	5630.78
733.271	5627.17
733.612	5622.42
733.953	5691.35
734.294	5599.37
734.635	5611.12
734.976	5679.37
735.317	5625.59
735.658	5673.04
735.999	5706.04
736.339	5649.09
736.68	5678.92
737.021	5658.81
737.361	5622.2
737.702	5645.02
738.042	5629.2
738.383	5661.52
738.723	5647.73
739.063	5699.03
739.404	5697.9
739.744	5801.85
740.084	5649.99
740.424	5798.01
740.764	5728.86
741.104	5776.77
741.444	5748.52
741.784	5768.63
742.124	5783.32
742.464	5799.37
742.804	5846.6
743.143	5791.01
743.483	5823.1
743.823	5831.68
744.162	5865.13
744.502	5855.86
744.841	5962.07
745.181	5957.33
745.52	5967.5
745.86	6053.15
746.199	6031
746.538	6089.98
746.877	6134.27
747.216	6169.75
747.556	6208.4
747.895	6233.71
748.234	6273.93
748.573	6343.08
748.911	6312.35
749.25	6432.8
749.589	6485.9
749.928	6518.9
750.267	6603.41
750.605	6651.1
750.944	6703.3
751.283	6740.59
751.621	6860.81
751.96	6893.12
752.298	7037.3
752.636	7126.56
752.975	7216.05
753.313	7247.46
753.651	7408.59
753.989	7451.08
754.327	7565.65
754.666	7613.33
755.004	7776.94
755.342	7930.61
755.679	8058.29
756.017	8105.97
756.355	8217.61
756.693	8360.2
757.031	8551.16
757.368	8643.81
757.706	8821.66
758.044	8916.57
758.381	9107.53
758.719	9238.82
759.056	9394.08
759.394	9493.51
759.731	9651.02
760.068	9749.32
760.405	9971.01
760.743	10068.86
761.08	10265.46
761.417	10469.3
761.754	10692.57
762.091	10753.59
762.428	11033.35
762.765	10999.23
763.102	11267.7
763.438	11438.77
763.775	11640.34
764.112	11758.31
764.449	12042.59
764.785	12141.57
765.122	12236.94
765.458	12338.86
765.795	12525.74
766.131	12674.44
766.467	12832.4
766.804	12972.29
767.14	13108.33
767.476	13243.92
767.812	13349.9
768.148	13623.34
768.485	13654.3
768.821	13726.39
769.157	13885.71
769.492	14020.85
