Data from hue_110_FLMS001491_00083.txt Node
Date: Tue Feb 07 17:01:56 GMT 2017
User: dcchb
Spectrometer: FLMS00149
Trigger mode: 0
Integration Time (sec): 2.000000E-2
Scans to average: 10
Electric dark correction enabled: true
Nonlinearity correction enabled: false
Boxcar width: 0
XAxis mode: Wavelengths
Number of Pixels in Spectrum: 2048
>>>>>Begin Spectral Data<<<<<
341.393	11.2
341.776	11.2
342.16	11.2
342.543	-78.06
342.927	-64.5
343.31	-68.35
343.693	-60.44
344.077	-79.42
344.46	-57.05
344.843	-72.41
345.226	-46.88
345.61	-31.51
345.993	-15.69
346.376	-8.01
346.759	10.07
347.142	23.18
347.525	53.23
347.908	59.11
348.291	94.81
348.674	93.23
349.057	106.11
349.44	135.26
349.823	130.07
350.206	126.9
350.588	180.91
350.971	220.01
351.354	203.96
351.737	260.01
352.119	226.11
352.502	265.88
352.884	256.39
353.267	281.02
353.65	281.7
354.032	290.51
354.414	295.49
354.797	298.88
355.179	315.6
355.562	307.01
355.944	311.31
356.326	334.36
356.709	347.91
357.091	338.88
357.473	342.27
357.855	339.78
358.238	358.76
358.62	345.88
359.002	335.49
359.384	344.07
359.766	319.89
360.148	321.02
360.53	342.94
360.912	321.93
361.294	327.8
361.676	348.37
362.057	321.47
362.439	332.1
362.821	344.07
363.203	329.61
363.584	306.79
363.966	310.85
364.348	316.28
364.729	285.54
365.111	306.79
365.493	339.1
365.874	324.86
366.256	311.98
366.637	334.58
367.019	323.28
367.4	294.13
367.781	323.51
368.163	295.49
368.544	295.26
368.925	313.11
369.306	306.33
369.688	310.18
370.069	310.63
370.45	316.05
370.831	316.28
371.212	321.25
371.593	301.59
371.974	295.26
372.355	311.31
372.736	330.29
373.117	313.79
373.498	314.7
373.879	310.85
374.26	290.74
374.641	297.29
375.021	327.8
375.402	318.54
375.783	317.18
376.163	326.22
376.544	344.3
376.925	325.77
377.305	316.05
377.686	340.46
378.066	333.23
378.447	342.04
378.827	330.29
379.208	333.45
379.588	321.7
379.968	331.87
380.349	335.26
380.729	329.16
381.109	337.07
381.489	341.36
381.87	318.08
382.25	334.13
382.63	332.32
383.01	344.75
383.39	345.2
383.77	345.65
384.15	349.5
384.53	318.99
384.91	357.18
385.29	365.77
385.67	351.98
386.049	335.71
386.429	352.89
386.809	360.12
387.189	343.39
387.568	355.6
387.948	356.73
388.328	357.86
388.707	348.14
389.087	353.34
389.466	379.55
389.846	365.99
390.225	345.2
390.605	351.98
390.984	358.08
391.363	365.77
391.743	361.93
392.122	373.68
392.501	347.01
392.881	374.81
393.26	354.24
393.639	361.25
394.018	384.3
394.397	373.68
394.776	368.25
395.155	380.23
395.534	387.91
395.913	392.43
396.292	396.73
396.671	387.01
397.05	377.74
397.429	396.73
397.808	382.49
398.186	383.17
398.565	376.61
398.944	382.94
399.323	379.55
399.701	396.73
400.08	392.89
400.458	399.89
400.837	407.12
401.215	406.22
401.594	381.13
401.972	403.05
402.351	409.61
402.729	391.98
403.107	398.99
403.486	405.09
403.864	432.43
404.242	412.55
404.62	396.73
404.999	423.62
405.377	419.78
405.755	412.77
406.133	413.22
406.511	416.39
406.889	419.78
407.267	439.44
407.645	437.18
408.023	444.18
408.401	432.21
408.779	434.92
409.156	443.51
409.534	459.1
409.912	426.56
410.29	436.73
410.667	470.4
411.045	468.82
411.422	445.31
411.8	467.46
412.178	464.07
412.555	483.28
412.933	476.72
413.31	465.43
413.687	485.54
414.065	478.53
414.442	467.46
414.819	496.61
415.197	492.09
415.574	507.68
415.951	495.03
416.328	459.32
416.705	496.39
417.082	481.47
417.46	514.24
417.837	511.98
418.214	506.1
418.591	514.92
418.967	498.19
419.344	515.59
419.721	518.53
420.098	525.99
420.475	536.38
420.852	524.41
421.228	538.19
421.605	528.47
421.982	524.86
422.358	536.16
422.735	566.21
423.111	542.71
423.488	545.65
423.864	551.98
424.241	550.4
424.617	564.86
424.994	540.68
425.37	569.15
425.746	563.05
426.123	588.81
426.499	572.99
426.875	570.73
427.251	587.46
427.627	589.94
428.003	597.63
428.379	570.28
428.756	611.64
429.132	633.33
429.507	611.18
429.883	614.57
430.259	626.1
430.635	629.94
431.011	634.91
431.387	632.65
431.763	640.56
432.138	659.32
432.514	654.12
432.89	648.47
433.265	672.2
433.641	649.38
434.016	671.75
434.392	699.54
434.767	709.49
435.143	677.17
435.518	690.73
435.894	692.31
436.269	735.25
436.644	742.25
437.02	728.24
437.395	733.67
437.77	734.8
438.145	751.07
438.52	735.93
438.895	750.62
439.271	752.2
439.646	769.6
440.021	773.67
440.395	784.29
440.77	769.15
441.145	787.68
441.52	791.29
441.895	784.51
442.27	798.07
442.645	794
443.019	795.13
443.394	811.86
443.769	809.82
444.143	815.47
444.518	833.33
444.892	821.8
445.267	831.52
445.641	844.62
446.016	831.52
446.39	841.01
446.764	852.08
447.139	857.51
447.513	876.71
447.887	858.64
448.262	876.49
448.636	890.95
449.01	890.95
449.384	879.2
449.758	899.31
450.132	899.09
450.506	910.39
450.88	913.1
451.254	894.34
451.628	946.77
452.002	938.41
452.376	961.91
452.75	964.85
453.123	956.26
453.497	969.82
453.871	994.45
454.244	982.02
454.618	1000.78
454.992	982.93
455.365	1026.77
455.739	1050.95
456.112	1050.27
456.486	1068.12
456.859	1083.26
457.232	1084.17
457.606	1089.36
457.979	1077.39
458.352	1108.8
458.725	1133.2
459.099	1155.12
459.472	1173.2
459.845	1152.87
460.218	1166.65
460.591	1220.21
460.964	1195.58
461.337	1217.04
461.71	1263.6
462.083	1227.44
462.456	1255.24
462.829	1269.47
463.201	1287.1
463.574	1305.4
463.947	1312.63
464.32	1350.6
464.692	1381.11
465.065	1374.33
465.438	1386.31
465.81	1408.9
466.183	1438.28
466.555	1470.6
466.928	1471.73
467.3	1489.35
467.672	1514.89
468.045	1538.39
468.417	1559.63
468.789	1599.18
469.161	1607.09
469.534	1644.15
469.906	1680.99
470.278	1689.35
470.65	1705.62
471.022	1742.91
471.394	1789.91
471.766	1807.99
472.138	1833.07
472.51	1912.17
472.882	1927.53
473.253	1960.53
473.625	2006.85
473.997	2050.02
474.369	2069
474.74	2107.87
475.112	2162.33
475.484	2205.27
475.855	2282.1
476.227	2341.53
476.598	2408.43
476.97	2457.24
477.341	2517.12
477.713	2571.81
478.084	2596.67
478.455	2721.86
478.827	2747.17
479.198	2857.91
479.569	2921.41
479.94	3045.24
480.311	3095.41
480.682	3142.42
481.053	3308.29
481.424	3368.63
481.795	3410.43
482.166	3527.72
482.537	3605.91
482.908	3728.62
483.279	3794.15
483.65	3897.2
484.021	4015.16
484.391	4167.48
484.762	4234.37
485.133	4295.38
485.503	4421.03
485.874	4576.96
486.244	4648.82
486.615	4809.04
486.985	4864.18
487.356	5066.66
487.726	5154.57
488.097	5374.22
488.467	5350.72
488.837	5596.36
489.207	5672.29
489.578	5839.75
489.948	5977.82
490.318	6123.58
490.688	6132.4
491.058	6314.54
491.428	6495.1
491.798	6609.44
492.168	6780.06
492.538	6923.33
492.908	7029.55
493.278	7206.72
493.648	7307.51
494.017	7402.42
494.387	7584.11
494.757	7816.64
495.126	7855.51
495.496	7913.37
495.866	8015.51
496.235	8293.02
496.605	8320.13
496.974	8471.54
497.344	8592.67
497.713	8691.42
498.082	8843.74
498.452	8917.63
498.821	9067.69
499.19	9090.96
499.559	9213.44
499.928	9374.57
500.298	9463.83
500.667	9618.18
501.036	9656.6
501.405	9730.04
501.774	9818.17
502.143	9968.23
502.512	10011.62
502.88	10148.79
503.249	10207.54
503.618	10313.75
503.987	10384.03
504.356	10461.32
504.724	10511.94
505.093	10623.12
505.462	10639.85
505.83	10802.33
506.199	10854.3
506.567	11016.33
506.936	10990.8
507.304	11155.09
507.672	11248.42
508.041	11314.18
508.409	11348.53
508.777	11561.63
509.145	11558.69
509.514	11559.6
509.882	11728.86
510.25	11670.55
510.618	11687.05
510.986	11754.62
511.354	11947.16
511.722	12049.3
512.09	12083.2
512.458	12070.09
512.826	12162.75
513.193	12266.92
513.561	12282.29
513.929	12316.87
514.297	12363.87
514.664	12457.65
515.032	12530.42
515.4	12565.45
515.767	12583.98
516.135	12682.51
516.502	12588.72
516.869	12729.28
517.237	12788.04
517.604	12858.55
517.972	12870.3
518.339	12992.1
518.706	12902.39
519.073	12972.44
519.44	13020.8
519.808	13121.82
520.175	13048.37
520.542	13249.95
520.909	13230.97
521.276	13229.84
521.643	13259.67
522.009	13398.19
522.376	13370.4
522.743	13406.78
523.11	13490.17
523.477	13517.51
523.843	13686.77
524.21	13656.04
524.577	13634.34
524.943	13671.86
525.31	13677.73
525.676	13775.58
526.043	13865.53
526.409	13907.33
526.776	13963.15
527.142	13962.7
527.508	14035.24
527.874	13962.47
528.241	13980.32
528.607	14008.8
528.973	14033.88
529.339	13981
529.705	14085.86
530.071	14108.68
530.437	14225.29
530.803	14119.76
531.169	14129.7
531.535	14163.14
531.901	14069.59
532.267	14119.08
532.632	14217.38
532.998	14072.53
533.364	14217.61
533.73	14107.1
534.095	14257.61
534.461	14209.47
534.826	14176.03
535.192	14200.43
535.557	14205.86
535.923	14103.03
536.288	14162.47
536.653	14139.19
537.019	14015.58
537.384	14119.3
537.749	14126.99
538.114	13987.33
538.479	13956.14
538.845	13963.6
539.21	14040.21
539.575	13933.55
539.94	13884.51
540.305	13976.48
540.67	13814.45
541.034	13823.72
541.399	13907.11
541.764	13738.07
542.129	13854.45
542.494	13738.52
542.858	13812.42
543.223	13761.35
543.587	13769.71
543.952	13635.25
544.316	13672.99
544.681	13628.92
545.045	13670.5
545.41	13623.05
545.774	13551.41
546.138	13548.47
546.503	13503.5
546.867	13376.27
547.231	13526.1
547.595	13492.65
547.959	13502.14
548.324	13401.81
548.688	13381.24
549.052	13310.29
549.416	13345.99
549.779	13231.42
550.143	13243.62
550.507	13277.52
550.871	13272.77
551.235	13185.32
551.599	13212.89
551.962	13199.78
552.326	13135.83
552.689	13168.82
553.053	13118.88
553.417	13041.82
553.78	13203.17
554.143	13049.73
554.507	13035.94
554.87	13014.7
555.234	13136.28
555.597	12958.43
555.96	13028.26
556.323	13040.24
556.686	12907.58
557.05	13072.1
557.413	12983.06
557.776	13017.86
558.139	13046.79
558.502	12921.14
558.865	12900.8
559.228	13015.38
559.59	12920.92
559.953	13040.01
560.316	13063.96
560.679	13031.42
561.041	12986
561.404	13091.76
561.767	13072.78
562.129	13055.15
562.492	13086.79
562.854	13073.23
563.217	12985.77
563.579	13054.02
563.941	13160.46
564.304	13016.06
564.666	13082.04
565.028	13119.78
565.39	13112.32
565.753	13168.59
566.115	13164.98
566.477	13189.84
566.839	13151.42
567.201	13272.32
567.563	13249.72
567.925	13232.32
568.287	13201.36
568.648	13246.11
569.01	13329.72
569.372	13295.82
569.734	13233.45
570.095	13238.65
570.457	13329.04
570.819	13385.09
571.18	13325.2
571.542	13396.16
571.903	13366.56
572.265	13464.63
572.626	13388.7
572.987	13489.49
573.349	13411.75
573.71	13453.56
574.071	13445.2
574.432	13482.03
574.794	13534.23
575.155	13541.24
575.516	13415.59
575.877	13571.3
576.238	13551.86
576.599	13602.03
576.96	13520
577.32	13462.82
577.681	13532.88
578.042	13510.51
578.403	13516.83
578.763	13630.73
579.124	13520
579.485	13562.93
579.845	13610.16
580.206	13584.18
580.566	13557.51
580.927	13510.28
581.287	13649.94
581.648	13573.33
582.008	13648.13
582.368	13620.33
582.728	13614.91
583.089	13575.59
583.449	13476.83
583.809	13504.86
584.169	13542.14
584.529	13498.76
584.889	13580.11
585.249	13501.24
585.609	13414.92
585.969	13605.65
586.329	13383.96
586.688	13456.27
587.048	13440.23
587.408	13455.59
587.768	13362.26
588.127	13423.5
588.487	13397.74
588.846	13456.95
589.206	13391.64
589.565	13444.29
589.925	13435.71
590.284	13366.33
590.643	13353.45
591.003	13349.15
591.362	13440.45
591.721	13356.84
592.08	13394.58
592.44	13416.05
592.799	13415.14
593.158	13293.56
593.517	13342.83
593.876	13402.94
594.235	13281.81
594.593	13312.09
594.952	13321.36
595.311	13257.41
595.67	13387.8
596.029	13400.9
596.387	13329.49
596.746	13393
597.104	13260.12
597.463	13265.32
597.822	13389.15
598.18	13213.34
598.538	13304.64
598.897	13262.38
599.255	13256.28
599.613	13410.17
599.972	13309.83
600.33	13310.06
600.688	13234.13
601.046	13345.09
601.404	13340.79
601.762	13316.84
602.12	13400.9
602.478	13382.37
602.836	13355.93
603.194	13219.21
603.552	13271.42
603.91	13203.85
604.268	13279.1
604.625	13277.74
604.983	13332.43
605.341	13188.03
605.698	13269.61
606.056	13290.85
606.413	13375.14
606.771	13327.91
607.128	13353
607.485	13337.86
607.843	13335.82
608.2	13393.22
608.557	13388.93
608.914	13300.57
609.272	13429.38
609.629	13458.76
609.986	13402.94
610.343	13393.67
610.7	13436.84
611.057	13420.79
611.414	13331.53
611.771	13411.07
612.127	13537.17
612.484	13466.89
612.841	13505.53
613.198	13421.92
613.554	13487.68
613.911	13583.95
614.267	13503.95
614.624	13542.82
614.98	13574.69
615.337	13584.63
615.693	13590.96
616.05	13589.83
616.406	13630.5
616.762	13635.47
617.118	13597.51
617.475	13691.74
617.831	13694.46
618.187	13659.43
618.543	13703.5
618.899	13741.01
619.255	13740.56
619.611	13659.43
619.967	13741.01
620.323	13780.78
620.678	13709.6
621.034	13715.92
621.39	13763.38
621.746	13684.51
622.101	13807.45
622.457	13664.4
622.812	13735.59
623.168	13844.06
623.523	13791.18
623.879	13751.4
624.234	13651.07
624.589	13769.03
624.945	13717.28
625.3	13736.49
625.655	13757.73
626.01	13790.05
626.365	13701.91
626.72	13624.18
627.075	13726.55
627.43	13665.08
627.785	13656.27
628.14	13709.6
628.495	13762.48
628.85	13694.91
629.205	13649.71
629.559	13641.12
629.914	13652.42
630.269	13625.98
630.623	13667.11
630.978	13521.13
631.332	13653.33
631.687	13637.28
632.041	13525.65
632.396	13627.34
632.75	13514.57
633.104	13516.61
633.459	13513.44
633.813	13604.29
634.167	13543.05
634.521	13519.55
634.875	13510.96
635.229	13578.75
635.583	13386.44
635.937	13484.74
636.291	13426.44
636.645	13452.2
636.999	13367.69
637.352	13399.77
637.706	13318.2
638.06	13381.24
638.413	13334.24
638.767	13237.07
639.121	13280
639.474	13240.46
639.828	13291.08
640.181	13284.98
640.534	13298.53
640.888	13218.76
641.241	13198.88
641.594	13181.02
641.947	13258.31
642.301	13253.79
642.654	13191.42
643.007	13159.1
643.36	13161.14
643.713	13228.71
644.066	13275.26
644.419	13146.67
644.771	13086.79
645.124	12947.58
645.477	12980.35
645.83	12848.15
646.182	12778.1
646.535	12752.11
646.888	12809.28
647.24	12690.64
647.593	12729.06
647.945	12684.09
648.298	12654.03
648.65	12678.21
649.002	12605.67
649.355	12726.57
649.707	12694.26
650.059	12740.36
650.411	12835.95
650.763	12892.22
651.115	12959.33
651.467	12928.37
651.819	12944.42
652.171	12994.59
652.523	12967.02
652.875	12977.86
653.227	12929.05
653.578	13041.14
653.93	12930.41
654.282	12905.55
654.633	12915.04
654.985	12948.71
655.337	13000.92
655.688	12957.53
656.039	13009.5
656.391	12852.44
656.742	12930.18
657.094	13072.55
657.445	13022.84
657.796	13018.99
658.147	12972.44
658.498	12953.46
658.849	12967.7
659.2	12975.38
659.551	13002.95
659.902	12995.04
660.253	12972.22
660.604	13068.26
660.955	12957.98
661.306	12984.19
661.656	12974.7
662.007	12948.04
662.358	12995.49
662.708	13064.42
663.059	13021.25
663.409	12844.54
663.76	13046.34
664.11	13040.46
664.461	13028.26
664.811	13032.78
665.161	13079.11
665.511	12951.88
665.862	13007.47
666.212	13051.31
666.562	13070.29
666.912	13043.63
667.262	13044.08
667.612	13121.36
667.962	13135.15
668.312	13089.27
668.662	13145.54
669.011	13042.72
669.361	13083.62
669.711	13038.88
670.06	12987.36
670.41	13003.85
670.76	12991.88
671.109	13027.13
671.459	12990.07
671.808	13011.08
672.157	13049.5
672.507	12859.45
672.856	12952.78
673.205	12942.61
673.554	12953.01
673.904	12881.82
674.253	13028.49
674.602	12981.48
674.951	12781.26
675.3	12672.34
675.649	12866.46
675.998	12808.38
676.346	12835.27
676.695	12917.53
677.044	12764.76
677.393	12756.4
677.741	12850.64
678.09	12745.33
678.438	12655.16
678.787	12787.14
679.135	12701.04
679.484	12673.47
679.832	12727.25
680.181	12591.43
680.529	12764.09
680.877	12674.82
681.225	12670.98
681.573	12686.35
681.922	12656.97
682.27	12534.03
682.618	12528.84
682.966	12520.48
683.314	12572.68
683.661	12538.55
684.009	12371.1
684.357	12432.79
684.705	12343.98
685.053	12408.16
685.4	12340.14
685.748	12303.98
686.095	12276.41
686.443	12275.74
686.79	12210.43
687.138	12257.66
687.485	12287.04
687.832	12219.69
688.18	12256.3
688.527	12064.44
688.874	12124.1
689.221	12087.04
689.568	12050.21
689.915	11988.06
690.262	11896.99
690.609	11862.87
690.956	11931.34
691.303	11844.11
691.65	11872.58
691.997	11769.54
692.344	11696.32
692.69	11712.81
693.037	11725.92
693.383	11558.02
693.73	11658.35
694.077	11528.19
694.423	11522.08
694.769	11496.55
695.116	11399.6
695.462	11452.26
695.808	11406.83
696.155	11410.22
696.501	11315.31
696.847	11256.1
697.193	11190.57
697.539	11207.97
697.885	11138.59
698.231	11098.82
698.577	11054.07
698.923	11043.9
699.269	10959.61
699.614	10921.87
699.96	10904.7
700.306	10882.33
700.651	10818.15
700.997	10770.47
701.342	10760.75
701.688	10789.67
702.033	10732.73
702.379	10690.02
702.724	10684.37
703.069	10634.65
703.415	10584.03
703.76	10529.34
704.105	10504.26
704.45	10480.98
704.795	10401.21
705.14	10355.34
705.485	10434.2
705.83	10324.38
706.175	10369.35
706.52	10275.79
706.865	10205.51
707.209	10278.05
707.554	10147.66
707.899	10180.65
708.243	10128.45
708.588	10036.02
708.932	10028.34
709.277	10055.46
709.621	10040.32
709.966	9969.81
710.31	9980.43
710.654	9918.51
710.998	9875.35
711.342	9880.55
711.687	9900.66
712.031	9810.49
712.375	9850.04
712.719	9797.16
713.063	9788.57
713.407	9771.17
713.75	9767.1
714.094	9775.46
714.438	9700.66
714.782	9724.17
715.125	9684.17
715.469	9659.53
715.812	9714.22
716.156	9594
716.499	9550.16
716.843	9617.28
717.186	9484.85
717.53	9519.65
717.873	9532.08
718.216	9545.86
718.559	9515.81
718.902	9449.37
719.246	9459.54
719.589	9449.14
719.932	9422.48
720.275	9369.82
720.617	9380.9
720.96	9379.99
721.303	9381.35
721.646	9361.24
721.989	9303.84
722.331	9332.31
722.674	9329.6
723.016	9327.34
723.359	9285.76
723.701	9307.68
724.044	9256.83
724.386	9256.15
724.729	9281.92
725.071	9242.14
725.413	9240.79
725.755	9241.92
726.097	9127.34
726.439	9184.52
726.782	9152.88
727.124	9237.17
727.465	9212.77
727.807	9119.66
728.149	9189.94
728.491	9163.73
728.833	9115.59
729.175	9129.15
729.516	9179.32
729.858	9119.21
730.199	9149.72
730.541	9121.7
730.882	9113.56
731.224	9099.77
731.565	9016.39
731.906	9121.02
732.248	9113.11
732.589	9013.45
732.93	9095.03
733.271	9044.18
733.612	9093.67
733.953	9022.94
734.294	9115.37
734.635	9031.75
734.976	9102.94
735.317	9109.27
735.658	9098.87
735.999	9124.18
736.339	9078.31
736.68	9050.51
737.021	9111.53
737.361	9113.11
737.702	9149.94
738.042	9067.23
738.383	9086.22
738.723	9143.62
739.063	9169.15
739.404	9172.09
739.744	9189.72
740.084	9164.41
740.424	9159.43
740.764	9126.44
741.104	9195.14
741.444	9223.61
741.784	9125.54
742.124	9236.04
742.464	9293.89
742.804	9243.95
743.143	9272.88
743.483	9269.04
743.823	9288.24
744.162	9263.16
744.502	9369.82
744.841	9392.87
745.181	9478.3
745.52	9378.41
745.86	9453.21
746.199	9528.01
746.538	9508.35
746.877	9598.52
747.216	9672.64
747.556	9564.4
747.895	9787.89
748.234	9743.6
748.573	9787.89
748.911	9858.85
749.25	9926.65
749.589	9888.91
749.928	10019.52
750.267	10144.49
750.605	10158.73
750.944	10192.85
751.283	10309.91
751.621	10418.16
751.96	10414.77
752.298	10470.13
752.636	10628.55
752.975	10720.75
753.313	10725.04
753.651	10944.47
753.989	10978.6
754.327	11093.85
754.666	11252.71
755.004	11361.64
755.342	11479.6
755.679	11577.68
756.017	11657.9
756.355	11870.55
756.693	11882.75
757.031	12111.22
757.368	12184.44
757.706	12334.72
758.044	12509.18
758.381	12658.1
758.719	12721.6
