Data from hue_230_FLMS001491_00038.txt Node
Date: Tue Feb 07 16:37:09 GMT 2017
User: dcchb
Spectrometer: FLMS00149
Trigger mode: 0
Integration Time (sec): 2.000000E-2
Scans to average: 10
Electric dark correction enabled: true
Nonlinearity correction enabled: false
Boxcar width: 0
XAxis mode: Wavelengths
Number of Pixels in Spectrum: 2048
>>>>>Begin Spectral Data<<<<<
341.393	-7.25
341.776	-7.25
342.16	-7.25
342.543	-50.63
342.927	-78.43
343.31	-66
343.693	-75.27
344.077	-76.62
344.46	-63.97
344.843	-55.15
345.226	-45.21
345.61	-39.56
345.993	-39.79
346.376	-7.47
346.759	28.69
347.142	18.97
347.525	48.12
347.908	63.71
348.291	75.92
348.674	106.65
349.057	126.99
349.44	149.36
349.823	128.12
350.206	161.79
350.588	189.59
350.971	202.01
351.354	227.1
351.737	236.36
352.119	240.66
352.502	243.6
352.884	266.42
353.267	267.78
353.65	288.11
354.032	285.18
354.414	280.2
354.797	311.16
355.179	289.24
355.562	324.05
355.944	326.3
356.326	331.95
356.709	340.32
357.091	309.81
357.473	316.36
357.855	307.1
358.238	328.34
358.62	322.69
359.002	328.56
359.384	318.4
359.766	347.77
360.148	336.02
360.53	327.89
360.912	347.77
361.294	316.14
361.676	327.66
362.057	318.4
362.439	312.97
362.821	315.68
363.203	330.37
363.584	336.25
363.966	315.91
364.348	299.86
364.729	309.81
365.111	313.2
365.493	345.06
365.874	304.84
366.256	320.2
366.637	302.35
367.019	300.09
367.4	308.45
367.781	326.3
368.163	295.8
368.544	307.55
368.925	319.53
369.306	305.51
369.688	312.75
370.069	312.07
370.45	303.71
370.831	307.32
371.212	324.27
371.593	311.62
371.974	306.19
372.355	293.54
372.736	297.15
373.117	299.86
373.498	314.1
373.879	304.16
374.26	327.66
374.641	306.64
375.021	303.03
375.402	286.76
375.783	317.27
376.163	313.2
376.544	308.9
376.925	306.87
377.305	307.32
377.686	308.45
378.066	311.16
378.447	327.43
378.827	324.5
379.208	336.7
379.588	325.85
379.968	339.64
380.349	335.12
380.729	326.76
381.109	322.69
381.489	327.66
381.87	301.67
382.25	321.11
382.63	317.94
383.01	320.66
383.39	322.01
383.77	330.6
384.15	330.6
384.53	348.23
384.91	322.69
385.29	341.22
385.67	341.67
386.049	350.71
386.429	352.74
386.809	338.73
387.189	325.63
387.568	338.28
387.948	344.61
388.328	355
388.707	376.7
389.087	354.78
389.466	378.96
389.846	350.94
390.225	345.51
390.605	356.36
390.984	354.1
391.363	375.12
391.743	364.27
392.122	367.43
392.501	336.7
392.881	371.05
393.26	369.02
393.639	350.49
394.018	345.97
394.397	380.09
394.776	354.1
395.155	392.07
395.534	390.71
395.913	390.94
396.292	380.54
396.671	379.64
397.05	389.58
397.429	372.63
397.808	384.16
398.186	381.44
398.565	378.96
398.944	371.5
399.323	391.84
399.701	404.27
400.08	394.78
400.458	374.89
400.837	408.56
401.215	406.3
401.594	391.61
401.972	398.39
402.351	403.82
402.729	406.98
403.107	428.45
403.486	412.18
403.864	433.19
404.242	425.06
404.62	431.84
404.999	429.58
405.377	447.88
405.755	471.61
406.133	448.34
406.511	444.72
406.889	444.27
407.267	480.88
407.645	446.08
408.023	492.63
408.401	480.65
408.779	460.31
409.156	469.8
409.534	487.43
409.912	488.56
410.29	480.2
410.667	505.51
411.045	503.02
411.422	504.61
411.8	507.77
412.178	523.81
412.555	522.23
412.933	533.53
413.31	539.18
413.687	555.23
414.065	546.41
414.442	562.91
414.819	571.72
415.197	587.32
415.574	604.26
415.951	581.21
416.328	583.02
416.705	593.64
417.082	609.91
417.46	627.99
417.837	631.83
418.214	631.16
418.591	625.05
418.967	655.79
419.344	638.16
419.721	649.01
420.098	669.8
420.475	678.39
420.852	656.69
421.228	700.98
421.605	700.53
421.982	684.71
422.358	696.24
422.735	720.64
423.111	731.04
423.488	758.16
423.864	763.58
424.241	754.77
424.617	782.11
424.994	780.3
425.37	784.37
425.746	788.44
426.123	809.23
426.499	817.14
426.875	826.4
427.251	857.82
427.627	883.8
428.003	878.61
428.379	836.12
428.756	877.25
429.132	916.12
429.507	886.74
429.883	901.21
430.259	909.79
430.635	922.67
431.011	934.42
431.387	962.9
431.763	991.15
432.138	978.94
432.514	999.96
432.89	994.31
433.265	1009.22
433.641	1039.28
434.016	1063.01
434.392	1060.75
434.767	1088.09
435.143	1093.74
435.518	1109.34
435.894	1122.89
436.269	1156.34
436.644	1145.27
437.02	1170.35
437.395	1199.5
437.77	1199.5
438.145	1227.52
438.52	1254.64
438.895	1260.74
439.271	1262.1
439.646	1277.92
440.021	1287.86
440.395	1327.18
440.77	1297.13
441.145	1325.6
441.52	1333.28
441.895	1364.47
442.27	1373.51
442.645	1408.76
443.019	1428.2
443.394	1406.5
443.769	1433.85
444.143	1393.4
444.518	1460.51
444.892	1453.73
445.267	1462.09
445.641	1479.95
446.016	1514.52
446.39	1507.06
446.764	1524.01
447.139	1507.97
447.513	1535.09
447.887	1550.91
448.262	1524.01
448.636	1543.9
449.01	1533.28
449.384	1571.24
449.758	1582.09
450.132	1610.79
450.506	1612.6
450.88	1651.47
451.254	1645.14
451.628	1648.3
452.002	1660.28
452.376	1707.96
452.75	1713.61
453.123	1725.59
453.497	1766.72
453.871	1741.41
454.244	1772.37
454.618	1769.66
454.992	1814.4
455.365	1841.97
455.739	1834.51
456.112	1871.35
456.486	1863.67
456.859	1888.52
457.232	1948.41
457.606	1898.47
457.979	1948.64
458.352	1978.46
458.725	1985.24
459.099	2049.42
459.472	2069.99
459.845	2051.91
460.218	2092.81
460.591	2116.09
460.964	2133.94
461.337	2156.09
461.71	2182.08
462.083	2190.44
462.456	2211.23
462.829	2239.25
463.201	2235.18
463.574	2248.51
463.947	2259.59
464.32	2358.79
464.692	2378.23
465.065	2364.44
465.438	2408.74
465.81	2422.97
466.183	2470.88
466.555	2489.64
466.928	2505.23
467.3	2498.9
467.672	2549.75
468.045	2612.57
468.417	2625
468.789	2634.49
469.161	2651.89
469.534	2700.03
469.906	2739.35
470.278	2749.29
470.65	2755.17
471.022	2843.07
471.394	2903.86
471.766	2891.44
472.138	2896.18
472.51	2979.12
472.882	3007.82
473.253	3056.18
473.625	3082.62
473.997	3126.23
474.369	3137.3
474.74	3176.4
475.112	3250.52
475.484	3275.83
475.855	3299.33
476.227	3347.02
476.598	3450.29
476.97	3451.87
477.341	3530.74
477.713	3579.55
478.084	3601.25
478.455	3669.72
478.827	3663.62
479.198	3780.9
479.569	3764.41
479.94	3892.09
480.311	3890.73
480.682	4008.24
481.053	4074.23
481.424	4099.31
481.795	4139.54
482.166	4206.88
482.537	4227.9
482.908	4295.24
483.279	4324.84
483.65	4441.68
484.021	4440.55
484.391	4499.53
484.762	4539.53
485.133	4598.51
485.503	4658.62
485.874	4723.48
486.244	4772.52
486.615	4882.34
486.985	4875.34
487.356	4960.53
487.726	4993.53
488.097	5072.17
488.467	5081.89
488.837	5133.18
489.207	5280.3
489.578	5280.52
489.948	5320.3
490.318	5423.8
490.688	5426.96
491.058	5482.1
491.428	5569.1
491.798	5630.12
492.168	5696.33
492.538	5699.95
492.908	5710.34
493.278	5821.08
493.648	5836.22
494.017	5870.57
494.387	5977.68
494.757	5944.69
495.126	6025.59
495.496	6040.96
495.866	6062.2
496.235	6116.66
496.605	6129.32
496.974	6192.37
497.344	6200.73
497.713	6220.16
498.082	6261.52
498.452	6295.64
498.821	6379.48
499.19	6377.22
499.559	6383.77
499.928	6454.73
500.298	6482.53
500.667	6541.51
501.036	6535.18
501.405	6636.65
501.774	6528.85
502.143	6596.65
502.512	6678
502.88	6657.44
503.249	6673.26
503.618	6737.89
503.987	6711.67
504.356	6741.28
504.724	6772.01
505.093	6766.81
505.462	6775.85
505.83	6842.29
506.199	6870.77
506.567	6947.15
506.936	6911.67
507.304	6986.92
507.672	6963.42
508.041	7063.08
508.409	7113.02
508.777	7045.22
509.145	7119.8
509.514	7168.61
509.882	7161.38
510.25	7152.79
510.618	7164.32
510.986	7146.69
511.354	7180.14
511.722	7219.01
512.09	7281.6
512.458	7263.75
512.826	7360.02
513.193	7313.69
513.561	7305.78
513.929	7367.25
514.297	7395.05
514.664	7481.37
515.032	7439.56
515.4	7470.98
515.767	7485.89
516.135	7563.18
516.502	7487.7
516.869	7569.96
517.237	7520.92
517.604	7510.3
517.972	7555.95
518.339	7597.07
518.706	7565.66
519.073	7570.18
519.44	7600.01
519.808	7690.18
520.175	7628.94
520.542	7679.78
520.909	7722.27
521.276	7693.79
521.643	7737.18
522.009	7745.32
522.376	7777.41
522.743	7703.06
523.11	7775.15
523.477	7841.14
523.843	7822.61
524.21	7916.39
524.577	7945.54
524.943	7904.41
525.31	7898.76
525.676	8012.88
526.043	7994.35
526.409	8016.72
526.776	8082.26
527.142	8055.14
527.508	8048.36
527.874	8045.2
528.241	8021.92
528.607	8074.12
528.973	8084.29
529.339	8110.73
529.705	8129.94
530.071	8196.38
530.437	8190.05
530.803	8192.99
531.169	8168.81
531.535	8151.64
531.901	8122.94
532.267	8169.04
532.632	8167.45
532.998	8210.84
533.364	8244.29
533.73	8162.94
534.095	8232.54
534.461	8199.54
534.826	8190.73
535.192	8211.07
535.557	8246.1
535.923	8181.47
536.288	8166.78
536.653	8177.85
537.019	8149.15
537.384	8172.2
537.749	8144.18
538.114	8158.87
538.479	8088.13
538.845	8157.74
539.21	8101.92
539.575	8102.37
539.94	8120.9
540.305	8104.41
540.67	8119.55
541.034	8078.19
541.399	8074.58
541.764	8089.26
542.129	8067.57
542.494	8098.76
542.858	8047.01
543.223	8039.32
543.587	8093.78
543.952	8012.66
544.316	8061.69
544.681	8056.27
545.045	8034.35
545.41	8056.27
545.774	7991.87
546.138	8000.45
546.503	7988.93
546.867	7920.68
547.231	7996.61
547.595	7956.16
547.959	7952.09
548.324	7977.4
548.688	7890.4
549.052	7936.73
549.416	7906.67
549.779	7880.91
550.143	7874.36
550.507	7901.47
550.871	7864.41
551.235	7835.49
551.599	7870.97
551.962	7879.55
552.326	7843.17
552.689	7834.36
553.053	7793.68
553.417	7781.93
553.78	7854.92
554.143	7848.82
554.507	7823.06
554.87	7809.27
555.234	7794.81
555.597	7828.71
555.96	7807.92
556.323	7842.27
556.686	7779.44
557.05	7830.29
557.413	7812.44
557.776	7817.18
558.139	7825.32
558.502	7894.24
558.865	7868.03
559.228	7821.25
559.59	7817.86
559.953	7776.28
560.316	7905.31
560.679	7830.74
561.041	7902.15
561.404	7864.86
561.767	7915.94
562.129	7907.12
562.492	7967.23
562.854	7937.4
563.217	7920
563.579	7904.18
563.941	8009.27
564.304	7957.29
564.666	7994.8
565.028	7974.24
565.39	8016.5
565.753	8009.04
566.115	8049.94
566.477	8054.92
566.839	8084.07
567.201	8176.95
567.563	8082.94
567.925	8119.09
568.287	8140.79
568.648	8155.03
569.01	8125.2
569.372	8242.71
569.734	8208.81
570.095	8190.05
570.457	8238.64
570.819	8186.21
571.18	8211.52
571.542	8251.75
571.903	8354.12
572.265	8294.68
572.626	8334
572.987	8333.1
573.349	8383.95
573.71	8437.96
574.071	8384.17
574.432	8387.11
574.794	8443.61
575.155	8398.86
575.516	8453.1
575.877	8504.85
576.238	8529.03
576.599	8492.19
576.96	8524.28
577.32	8567.22
577.681	8535.81
578.042	8592.08
578.403	8566.09
578.763	8517.73
579.124	8643.15
579.485	8670.04
579.845	8710.04
580.206	8656.03
580.566	8677.27
580.927	8707.33
581.287	8743.48
581.648	8755.46
582.008	8752.3
582.368	8719.3
582.728	8818.96
583.089	8785.52
583.449	8822.35
583.809	8803.14
584.169	8851.73
584.529	8829.36
584.889	8876.14
585.249	8824.84
585.609	8871.84
585.969	8890.15
586.329	8868.23
586.688	8962.91
587.048	8963.82
587.408	8940.77
587.768	8941.45
588.127	8935.12
588.487	8901.9
588.846	9000.43
589.206	8923.37
589.565	8959.3
589.925	8973.08
590.284	8955.91
590.643	9044.49
591.003	9065.28
591.362	9078.17
591.721	9053.31
592.08	9049.92
592.44	9061.67
592.799	9103.7
593.158	9063.02
593.517	8975.12
593.876	9093.98
594.235	9097.6
594.593	9115.9
594.952	9096.24
595.311	9110.03
595.67	9190.48
596.029	9218.5
596.387	9220.53
596.746	9208.11
597.104	9179.41
597.463	9144.15
597.822	9179.18
598.18	9175.79
598.538	9189.57
598.897	9287.88
599.255	9214.43
599.613	9345.5
599.972	9236.81
600.33	9266.86
600.688	9220.31
601.046	9248.1
601.404	9314.77
601.762	9283.13
602.12	9324.71
602.478	9341.89
602.836	9248.1
603.194	9287.65
603.552	9256.69
603.91	9284.94
604.268	9337.37
604.625	9291.49
604.983	9341.44
605.341	9216.47
605.698	9352.96
606.056	9390.93
606.413	9285.39
606.771	9317.48
607.128	9347.31
607.485	9351.6
607.843	9345.28
608.2	9323.58
608.557	9394.99
608.914	9407.2
609.272	9424.37
609.629	9501.2
609.986	9434.09
610.343	9414.88
610.7	9469.79
611.057	9509.79
611.414	9401.09
611.771	9521.32
612.127	9518.83
612.484	9453.3
612.841	9566.29
613.198	9444.03
613.554	9497.14
613.911	9496.01
614.267	9563.8
614.624	9520.87
614.98	9526.74
615.337	9554.31
615.693	9599.96
616.05	9574.65
616.406	9676.12
616.762	9574.42
617.118	9587.53
617.475	9625.04
617.831	9633.4
618.187	9640.86
618.543	9572.84
618.899	9641.99
619.255	9605.83
619.611	9641.77
619.967	9688.32
620.323	9731.48
620.678	9689.9
621.034	9737.36
621.39	9685.61
621.746	9644.25
622.101	9708.66
622.457	9680.86
622.812	9721.31
623.168	9677.47
623.523	9651.26
623.879	9721.31
624.234	9674.08
624.589	9694.42
624.945	9684.03
625.3	9661.65
625.655	9723.35
626.01	9691.48
626.365	9649.22
626.72	9656.68
627.075	9660.07
627.43	9626.17
627.785	9604.03
628.14	9669.79
628.495	9705.72
628.85	9687.19
629.205	9550.7
629.559	9665.27
629.914	9587.76
630.269	9608.09
630.623	9611.26
630.978	9571.71
631.332	9538.49
631.687	9525.61
632.041	9577.81
632.396	9509.57
632.75	9544.82
633.104	9583.69
633.459	9489.45
633.813	9483.8
634.167	9583.24
634.521	9545.27
634.875	9531.71
635.229	9467.31
635.583	9395.67
635.937	9449.45
636.291	9396.35
636.645	9411.72
636.999	9445.84
637.352	9456.69
637.706	9372.39
638.06	9459.62
638.413	9409.23
638.767	9372.17
639.121	9391.83
639.474	9336.46
639.828	9320.64
640.181	9310.48
640.534	9402.45
640.888	9300.53
641.241	9298.95
641.594	9306.86
641.947	9307.31
642.301	9228.44
642.654	9291.04
643.007	9273.64
643.36	9280.65
643.713	9259.86
644.066	9159.07
644.419	9239.74
644.771	9145.96
645.124	9071.16
645.477	9050.14
645.83	9010.14
646.182	9010.37
646.535	8969.92
646.888	8988.22
647.24	8964.72
647.593	8957.49
647.945	8952.07
648.298	8985.51
648.65	8931.95
649.002	8848.79
649.355	8928.34
649.707	8922.69
650.059	9005.85
650.411	9019.41
650.763	9042.23
651.115	9163.36
651.467	9164.49
651.819	9138.95
652.171	9111.38
652.523	9128.79
652.875	9165.17
653.227	9119.97
653.578	9143.47
653.93	9173.3
654.282	8984.38
654.633	9118.62
654.985	9097.15
655.337	9117.71
655.688	9075.91
656.039	9163.59
656.391	9058.5
656.742	9074.32
657.094	9064.38
657.445	9183.25
657.796	9024.16
658.147	9054.44
658.498	9052.63
658.849	9080.65
659.2	9089.46
659.551	9031.16
659.902	9128.33
660.253	9111.61
660.604	9106.64
660.955	9041.56
661.306	9085.62
661.656	9084.94
662.007	9115.68
662.358	9122.01
662.708	9121.78
663.059	9118.84
663.409	9096.02
663.76	9138.73
664.11	9117.49
664.461	9135.79
664.811	9148.45
665.161	9112.97
665.511	9073.19
665.862	9063.7
666.212	9154.1
666.562	9184.83
666.912	9110.48
667.262	9135.34
667.612	9091.95
667.962	9127.43
668.312	9114.77
668.662	9143.25
669.011	9151.16
669.361	9133.76
669.711	9114.77
670.06	9055.79
670.41	9015.57
670.76	9062.8
671.109	9107.32
671.459	9104.61
671.808	9094.44
672.157	9075.45
672.507	8989.35
672.856	9004.49
673.205	9017.38
673.554	9032.74
673.904	9046.08
674.253	9046.53
674.602	8998.85
674.951	8894.44
675.3	8802.24
675.649	8962.24
675.998	8997.49
676.346	9009.69
676.695	8992.07
677.044	8892.86
677.393	8942.58
677.741	8982.8
678.09	8913.42
678.438	8868.91
678.787	9001.78
679.135	8955.23
679.484	8861.67
679.832	8921.11
680.181	8848.11
680.529	8903.71
680.877	8838.85
681.225	8819.19
681.573	8882.01
681.922	8788.68
682.27	8755.46
682.618	8762.47
682.966	8758.4
683.314	8779.42
683.661	8762.24
684.009	8654.22
684.357	8607.22
684.705	8678.4
685.053	8649.02
685.4	8636.82
685.748	8561.34
686.095	8601.34
686.443	8545.75
686.79	8564.05
687.138	8541.68
687.485	8565.86
687.832	8523.6
688.18	8539.87
688.527	8492.42
688.874	8459.42
689.221	8454.9
689.568	8368.13
689.915	8422.36
690.262	8403.15
690.609	8306.21
690.956	8286.77
691.303	8269.37
691.65	8266.21
691.997	8222.14
692.344	8218.3
692.69	8142.37
693.037	8201.58
693.383	8074.8
693.73	8166.78
694.077	8050.17
694.423	8010.17
694.769	8078.42
695.116	7951.19
695.462	8002.26
695.808	7982.15
696.155	7984.63
696.501	7952.32
696.847	7936.95
697.193	7810.4
697.539	7836.62
697.885	7747.35
698.231	7829.84
698.577	7722.27
698.923	7722.27
699.269	7694.02
699.614	7664.87
699.96	7652.67
700.306	7658.99
700.651	7584.65
700.997	7533.57
701.342	7532.44
701.688	7484.53
702.033	7469.17
702.379	7489.28
702.724	7431.2
703.069	7420.13
703.415	7312.34
703.76	7405.89
704.105	7328.38
704.45	7334.03
704.795	7301.26
705.14	7265.33
705.485	7254.26
705.83	7256.74
706.175	7251.77
706.52	7159.35
706.865	7224.43
707.209	7152.34
707.554	7104.88
707.899	7145.79
708.243	7115.96
708.588	7142.17
708.932	7033.02
709.277	7091.1
709.621	7054.94
709.966	6977.66
710.31	6995.51
710.654	6907.15
710.998	6892.23
711.342	6907.83
711.687	6920.48
712.031	6830.09
712.375	6821.73
712.719	6876.87
713.063	6814.04
713.407	6895.4
713.75	6785.34
714.094	6844.1
714.438	6733.59
714.782	6772.24
715.125	6794.61
715.469	6770.88
715.812	6699.7
716.156	6708.74
716.499	6726.36
716.843	6733.82
717.186	6695.86
717.53	6682.07
717.873	6669.87
718.216	6628.96
718.559	6638.46
718.902	6589.64
719.246	6652.24
719.589	6601.17
719.932	6601.17
720.275	6606.14
720.617	6616.99
720.96	6590.1
721.303	6603.88
721.646	6561.4
721.989	6520.49
722.331	6510.1
722.674	6498.12
723.016	6516.2
723.359	6537.89
723.701	6496.09
724.044	6471
724.386	6465.13
724.729	6471
725.071	6456.77
725.413	6466.48
725.755	6475.3
726.097	6436.2
726.439	6398.24
726.782	6410.89
727.124	6411.79
727.465	6426.26
727.807	6438.69
728.149	6386.26
728.491	6409.08
728.833	6477.56
729.175	6438.69
729.516	6425.13
729.858	6366.6
730.199	6418.35
730.541	6368.41
730.882	6386.48
731.224	6415.41
731.565	6374.51
731.906	6451.34
732.248	6409.99
732.589	6348.97
732.93	6384.45
733.271	6319.59
733.612	6380.16
733.953	6366.37
734.294	6405.47
734.635	6376.77
734.976	6363.21
735.317	6322.31
735.658	6353.04
735.999	6376.77
736.339	6337.9
736.68	6414.73
737.021	6362.98
737.361	6329.08
737.702	6426.48
738.042	6334.51
738.383	6362.76
738.723	6379.71
739.063	6359.82
739.404	6439.82
739.744	6419.25
740.084	6358.46
740.424	6442.3
740.764	6432.81
741.104	6441.85
741.444	6378.58
741.784	6479.82
742.124	6458.35
742.464	6433.72
742.804	6481.62
743.143	6403.21
743.483	6543.54
743.823	6547.38
744.162	6521.62
744.502	6557.33
744.841	6565.01
745.181	6658.34
745.52	6594.61
745.86	6654.95
746.199	6682.52
746.538	6693.14
746.877	6762.52
747.216	6787.38
747.556	6787.6
747.895	6829.41
748.234	6816.53
748.573	6896.75
748.911	6956.64
749.25	6881.61
749.589	6945.11
749.928	7060.59
750.267	7125.67
750.605	7130.65
750.944	7223.3
751.283	7208.61
751.621	7314.6
751.96	7324.77
752.298	7436.17
752.636	7541.71
752.975	7533.57
753.313	7630.52
753.651	7695.38
753.989	7757.07
754.327	7871.87
754.666	7950.06
755.004	8023.73
755.342	8130.39
755.679	8191.18
756.017	8257.62
756.355	8438.41
756.693	8459.42
757.031	8616.71
757.368	8658.74
757.706	8782.58
758.044	8827.1
758.381	8940.32
758.719	9082.91
759.056	9181.21
759.394	9273.64
759.731	9416.01
760.068	9494.2
760.405	9612.39
760.743	9631.37
761.08	9846.51
761.417	9905.04
761.754	9989.33
762.091	10160.4
762.428	10204.92
762.765	10309.32
763.102	10515.19
763.438	10508.86
763.775	10653.94
764.112	10780.04
764.449	10911.11
764.785	10959.92
765.122	11138.22
765.458	11190.88
765.795	11216.41
766.131	11389.74
766.467	11512.23
766.804	11546.12
767.14	11613.69
767.476	11737.76
767.812	11773.91
768.148	11947.02
768.485	12023.4
768.821	11994.02
769.157	12141.59
769.492	12191.98
