Data from hue_36_FLMS001491_00033.txt Node
Date: Tue Feb 07 17:29:43 GMT 2017
User: dcchb
Spectrometer: FLMS00149
Trigger mode: 0
Integration Time (sec): 2.000000E-2
Scans to average: 10
Electric dark correction enabled: true
Nonlinearity correction enabled: false
Boxcar width: 0
XAxis mode: Wavelengths
Number of Pixels in Spectrum: 2048
>>>>>Begin Spectral Data<<<<<
341.393	-33.93
341.776	-33.93
342.16	-33.93
342.543	-60.37
342.927	-77.54
343.31	-81.16
343.693	-73.02
344.077	-79.12
344.46	-56.07
344.843	-33.93
345.226	-46.81
345.61	-47.94
345.993	-27.15
346.376	-15.4
346.759	23.02
347.142	19.41
347.525	53.3
347.908	74.09
348.291	86.3
348.674	95.34
349.057	109.12
349.44	110.48
349.823	152.74
350.206	167.42
350.588	203.36
350.971	227.08
351.354	211.27
351.737	230.25
352.119	240.87
352.502	272.28
352.884	280.87
353.267	290.36
353.65	297.14
354.032	292.39
354.414	324.03
354.797	301.66
355.179	310.47
355.562	316.8
355.944	327.65
356.326	329
356.709	319.06
357.091	340.3
357.473	367.65
357.855	365.39
358.238	343.92
358.62	346.18
359.002	367.19
359.384	350.02
359.766	347.08
360.148	333.75
360.53	342.34
360.912	330.81
361.294	321.77
361.676	336.01
362.057	339.4
362.439	328.78
362.821	339.62
363.203	338.95
363.584	328.1
363.966	316.8
364.348	318.38
364.729	322.68
365.111	312.73
365.493	318.61
365.874	326.06
366.256	326.52
366.637	299.17
367.019	330.13
367.4	297.37
367.781	324.71
368.163	314.09
368.544	322.22
368.925	324.93
369.306	322.22
369.688	325.61
370.069	316.8
370.45	330.36
370.831	303.01
371.212	313.18
371.593	309.57
371.974	317.48
372.355	325.61
372.736	307.53
373.117	312.28
373.498	309.12
373.879	308.89
374.26	333.75
374.641	335.1
375.021	318.16
375.402	320.42
375.783	322.9
376.163	331.04
376.544	308.44
376.925	322.68
377.305	324.26
377.686	316.8
378.066	313.86
378.447	301.43
378.827	318.16
379.208	319.96
379.588	333.97
379.968	329
380.349	352.96
380.729	347.31
381.109	333.3
381.489	320.19
381.87	335.1
382.25	326.29
382.63	314.77
383.01	342.34
383.39	341.43
383.77	338.27
384.15	348.89
384.53	332.39
384.91	331.04
385.29	325.61
385.67	345.73
386.049	353.63
386.429	341.43
386.809	355.44
387.189	334.43
387.568	372.62
387.948	326.74
388.328	354.31
388.707	354.76
389.087	373.07
389.466	341.43
389.846	347.31
390.225	369.23
390.605	355.44
390.984	355.22
391.363	380.53
391.743	366.74
392.122	361.54
392.501	382.11
392.881	366.52
393.26	361.54
393.639	353.18
394.018	368.1
394.397	368.32
394.776	367.87
395.155	369.91
395.534	391.15
395.913	370.13
396.292	384.37
396.671	392.28
397.05	385.27
397.429	381.2
397.808	369.91
398.186	378.94
398.565	396.12
398.944	396.35
399.323	390.7
399.701	384.14
400.08	379.17
400.458	405.38
400.837	383.46
401.215	392.5
401.594	378.27
401.972	387.76
402.351	394.76
402.729	385.95
403.107	402.9
403.486	390.47
403.864	399.74
404.242	373.3
404.62	408.1
404.999	410.58
405.377	416.91
405.755	405.84
406.133	426.4
406.511	410.36
406.889	427.53
407.267	417.81
407.645	404.48
408.023	438.15
408.401	429.79
408.779	409.68
409.156	428.21
409.534	438.6
409.912	423.01
410.29	424.14
410.667	436.12
411.045	454.2
411.422	454.88
411.8	428.66
412.178	427.76
412.555	468.43
412.933	447.87
413.31	451.03
413.687	453.52
414.065	464.59
414.442	456.91
414.819	467.08
415.197	479.51
415.574	467.76
415.951	457.81
416.328	463.91
416.705	466.63
417.082	468.89
417.46	487.64
417.837	475.21
418.214	474.76
418.591	485.38
418.967	511.37
419.344	489
419.721	490.35
420.098	497.36
420.475	486.96
420.852	512.05
421.228	494.2
421.605	504.14
421.982	501.65
422.358	512.5
422.735	503.46
423.111	489.45
423.488	534.65
423.864	525.16
424.241	531.26
424.617	528.09
424.994	525.38
425.37	518.6
425.746	535.32
426.123	534.19
426.499	524.7
426.875	530.13
427.251	545.95
427.627	566.06
428.003	545.49
428.379	548.66
428.756	567.41
429.132	576.68
429.507	579.39
429.883	578.49
430.259	581.65
430.635	580.07
431.011	576
431.387	579.84
431.763	614.64
432.138	596.57
432.514	606.28
432.89	599.05
433.265	613.97
433.641	626.4
434.016	615.1
434.392	618.49
434.767	634.76
435.143	625.27
435.518	643.57
435.894	646.51
436.269	645.83
436.644	671.14
437.02	659.39
437.395	677.47
437.77	666.62
438.145	660.52
438.52	664.81
438.895	680.86
439.271	670.01
439.646	690.58
440.021	701.2
440.395	682.67
440.77	688.09
441.145	708.43
441.52	693.06
441.895	686.73
442.27	689.9
442.645	715.89
443.019	720.18
443.394	718.82
443.769	741.42
444.143	726.28
444.518	709.78
444.892	738.48
445.267	720.63
445.641	705.94
446.016	726.28
446.39	745.94
446.764	747.52
447.139	748.65
447.513	756.11
447.887	750.69
448.262	770.57
448.636	764.25
449.01	768.99
449.384	791.36
449.758	771.02
450.132	785.94
450.506	805.83
450.88	789.33
451.254	792.27
451.628	813.51
452.002	805.6
452.376	797.92
452.75	840.63
453.123	834.98
453.497	824.13
453.871	867.07
454.244	862.32
454.618	863.23
454.992	860.97
455.365	865.26
455.739	895.09
456.112	899.38
456.486	909.1
456.859	906.16
457.232	914.98
457.606	915.65
457.979	931.47
458.352	960.17
458.725	985.71
459.099	970.12
459.472	957.23
459.845	969.44
460.218	994.3
460.591	980.96
460.964	1001.98
461.337	1015.09
461.71	1005.6
462.083	1051.02
462.456	1043.79
462.829	1064.12
463.201	1091.24
463.574	1071.81
463.947	1097.57
464.32	1111.35
464.692	1105.93
465.065	1108.42
465.438	1164.46
465.81	1176.66
466.183	1180.51
466.555	1174.18
466.928	1191.8
467.3	1173.05
467.672	1218.24
468.045	1239.26
468.417	1262.09
468.789	1264.35
469.161	1301.63
469.534	1326.94
469.906	1341.63
470.278	1354.74
470.65	1370.56
471.022	1406.71
471.394	1422.76
471.766	1434.96
472.138	1471.57
472.51	1494.4
472.882	1509.31
473.253	1548.86
473.625	1604.22
473.997	1616.43
474.369	1651.23
474.74	1641.74
475.112	1731.23
475.484	1744.33
475.855	1762.41
476.227	1813.26
476.598	1872.01
476.97	1888.28
477.341	1943.88
477.713	1993.82
478.084	2024.78
478.455	2112.23
478.827	2133.02
479.198	2208.28
479.569	2246.47
479.94	2320.59
480.311	2340.93
480.682	2431.77
481.053	2489.17
481.424	2548.15
481.795	2606.91
482.166	2675.16
482.537	2776.17
482.908	2856.85
483.279	2912.89
483.65	2989.72
484.021	3032.66
484.391	3121.02
484.762	3183.84
485.133	3255.25
485.503	3366.21
485.874	3453.67
486.244	3525.3
486.615	3643.49
486.985	3715.58
487.356	3777.5
487.726	3833.09
488.097	4005.74
488.467	4029.47
488.837	4147.21
489.207	4239.86
489.578	4372.51
489.948	4388.33
490.318	4543.36
490.688	4608.89
491.058	4719.4
491.428	4826.51
491.798	4908.54
492.168	5056.56
492.538	5068.09
492.908	5187.86
493.278	5318.48
493.648	5411.58
494.017	5495.42
494.387	5586.49
494.757	5722.08
495.126	5747.84
495.496	5872.36
495.866	5951.68
496.235	6078.91
496.605	6124.33
496.974	6183.76
497.344	6330.2
497.713	6370.88
498.082	6440.71
498.452	6577.65
498.821	6628.5
499.19	6738.1
499.559	6853.35
499.928	6914.14
500.298	6985.1
500.667	7054.02
501.036	7105.32
501.405	7255.15
501.774	7286.11
502.143	7337.86
502.512	7479.55
502.88	7563.16
503.249	7575.59
503.618	7696.72
503.987	7692.88
504.356	7805.64
504.724	7863.49
505.093	7908.69
505.462	7958.63
505.83	8054.68
506.199	8211.96
506.567	8306.87
506.936	8330.15
507.304	8415.12
507.672	8461.22
508.041	8532.18
508.409	8629.12
508.777	8707.09
509.145	8754.09
509.514	8771.04
509.882	8858.27
510.25	8925.61
510.618	8938.27
510.986	9052.84
511.354	9112.95
511.722	9135.32
512.09	9276.11
512.458	9281.54
512.826	9351.59
513.193	9452.6
513.561	9439.5
513.929	9572.6
514.297	9632.71
514.664	9708.42
515.032	9748.19
515.4	9846.27
515.767	9856.66
516.135	9958.13
516.502	9906.83
516.869	10006.49
517.237	10052.59
517.604	10094.17
517.972	10274.28
518.339	10336.65
518.706	10326.48
519.073	10315.41
519.44	10406.25
519.808	10511.33
520.175	10521.73
520.542	10684.44
520.909	10615.96
521.276	10724.44
521.643	10742.51
522.009	10905.9
522.376	10923.3
522.743	11030.64
523.11	11119
523.477	11197.19
523.843	11202.39
524.21	11394.7
524.577	11459.56
524.943	11468.82
525.31	11536.84
525.676	11647.8
526.043	11715.6
526.409	11727.8
526.776	11915.59
527.142	11882.15
527.508	11999.66
527.874	12035.36
528.241	12141.35
528.607	12230.38
528.973	12262.47
529.339	12258.41
529.705	12409.81
530.071	12527.33
530.437	12485.07
530.803	12592.86
531.169	12631.28
531.535	12648.23
531.901	12800.99
532.267	12899.07
532.632	12857.71
532.998	12943.13
533.364	13010.48
533.73	13090.48
534.095	13090.25
534.461	13174.99
534.826	13250.02
535.192	13301.09
535.557	13320.53
535.923	13421.09
536.288	13372.05
536.653	13605.72
537.019	13566.39
537.384	13577.02
537.749	13577.02
538.114	13622.21
538.479	13729.1
538.845	13885.26
539.21	13785.82
539.575	13955.76
539.94	13978.59
540.305	14005.71
540.67	14061.3
541.034	14046.38
541.399	14227.62
541.764	14247.28
542.129	14232.14
542.494	14284.34
542.858	14390.55
543.223	14449.08
543.587	14511.23
543.952	14473.94
544.316	14548.74
544.681	14583.09
545.045	14699.47
545.41	14739.7
545.774	14813.82
546.138	14852.69
546.503	14904.21
546.867	14933.36
547.231	15056.3
547.595	15084.09
547.959	15074.6
548.324	15151.89
548.688	15213.81
549.052	15252.45
549.416	15365.9
549.779	15336.29
550.143	15288.16
550.507	15468.27
550.871	15615.38
551.235	15498.32
551.599	15611.31
551.962	15638.2
552.326	15709.16
552.689	15800.69
553.053	15794.81
553.417	15913.45
553.78	15990.74
554.143	15933.11
554.507	16047.01
554.87	16082.49
555.234	16258.3
555.597	16172.65
555.96	16221.69
556.323	16288.13
556.686	16282.48
557.05	16476.6
557.413	16461.23
557.776	16538.75
558.139	16702.36
558.502	16704.84
558.865	16766.31
559.228	16777.38
559.59	16904.61
559.953	16893.76
560.316	17108
560.679	17069.81
561.041	17098.96
561.404	17299.4
561.767	17345.73
562.129	17295.79
562.492	17460.08
562.854	17458.5
563.217	17461.43
563.579	17519.96
563.941	17646.97
564.304	17722.44
564.666	17850.35
565.028	17789.79
565.39	17823.23
565.753	17948.43
566.115	18037.69
566.477	18138.7
566.839	18138.03
567.201	18230.9
567.563	18238.14
567.925	18380.05
568.287	18505.47
568.648	18466.6
569.01	18573.04
569.372	18691.23
569.734	18606.71
570.095	18770.33
570.457	18923.54
570.819	18917.21
571.18	19019.81
571.542	19069.07
571.903	19152.46
572.265	19258
572.626	19325.57
572.987	19305.23
573.349	19514.94
573.71	19617.99
574.071	19669.74
574.432	19749.06
574.794	19925.1
575.155	19923.29
575.516	19986.34
575.877	20163.74
576.238	20144.75
576.599	20252.77
576.96	20350.62
577.32	20475.82
577.681	20522.82
578.042	20818.18
578.403	20793.55
578.763	20926.88
579.124	20952.64
579.485	21237.38
579.845	21423.36
580.206	21558.27
580.566	21689.57
580.927	21733.64
581.287	21985.16
581.648	22006.17
582.008	22330.91
582.368	22412.49
582.728	22688.87
583.089	22732.93
583.449	22958.01
583.809	23118.01
584.169	23318.68
584.529	23430.09
584.889	23685.9
585.249	23790.76
585.609	23889.29
585.969	24129.73
586.329	24294.93
586.688	24536.28
587.048	24778.76
587.408	24848.13
587.768	25078.41
588.127	25451.96
588.487	25600.43
588.846	25921.32
589.206	25911.38
589.565	26080.87
589.925	26550.46
590.284	26593.4
590.643	26851.47
591.003	27072.48
591.362	27417.1
591.721	27528.97
592.08	27778.68
592.44	28122.85
592.799	28205.11
593.158	28394.48
593.517	28515.38
593.876	28728.71
594.235	28967.12
594.593	29182.26
594.952	29516.03
595.311	29682.81
595.67	29852.52
596.029	30160.31
596.387	30414.77
596.746	30638.71
597.104	30717.58
597.463	30979.04
597.822	31242.09
598.18	31346.49
598.538	31485.7
598.897	31896.99
599.255	31730.89
599.613	32386.92
599.972	32339.69
600.33	32614.93
600.688	32663.97
601.046	32904.19
601.404	33246.78
601.762	33379.66
602.12	33640.67
602.478	33744.85
602.836	34007.21
603.194	33870.04
603.552	34188
603.91	34164.72
604.268	34424.15
604.625	34520.42
604.983	34858.26
605.341	34783.46
605.698	35147.52
606.056	35289.21
606.413	35417.35
606.771	35575.53
607.128	35637.68
607.485	35683.1
607.843	35770.1
608.2	36108.4
608.557	36263.88
608.914	36292.35
609.272	36553.13
609.629	36728.72
609.986	36927.59
610.343	36944.09
610.7	37267.92
611.057	37293.68
611.414	37294.58
611.771	37452.32
612.127	37798.3
612.484	37897.96
612.841	38005.98
613.198	37900.9
613.554	38086.88
613.911	38390.6
614.267	38297.5
614.624	38492.97
614.98	38673.31
615.337	38735.68
615.693	38756.69
616.05	38881.44
616.406	39186.74
616.762	39088.89
617.118	39181.77
617.475	39203.23
617.831	39359.61
618.187	39473.74
618.543	39486.39
618.899	39815.87
619.255	39833.73
619.611	40005.7
619.967	40040.73
620.323	40098.8
620.678	40013.83
621.034	39989.43
621.39	40015.19
621.746	40131.35
622.101	40593.48
622.457	40359.36
622.812	40470.09
623.168	40587.61
623.523	40640.94
623.879	40752.12
624.234	40582.41
624.589	40752.8
624.945	40993.02
625.3	40948.27
625.655	41117.53
626.01	41001.83
626.365	40971.32
626.72	41007.03
627.075	41045.9
627.43	41216.52
627.785	41035.95
628.14	41108.27
628.495	41353.91
628.85	41136.74
629.205	41155.05
629.559	41390.52
629.914	41327.02
630.269	41298.09
630.623	41276.4
630.978	41084.99
631.332	41268.94
631.687	41329.96
632.041	41228.49
632.396	41336.96
632.75	41254.48
633.104	41251.09
633.459	41055.62
633.813	41214.03
634.167	41230.07
634.521	41152.56
634.875	41268.27
635.229	41121.83
635.583	41151.43
635.937	41122.05
636.291	41061.94
636.645	41186.23
636.999	41149.4
637.352	41113.47
637.706	41000.48
638.06	41248.83
638.413	41157.08
638.767	41080.25
639.121	41102.39
639.474	40908.95
639.828	40938.33
640.181	41026.01
640.534	40946.24
640.888	40837.32
641.241	40595.74
641.594	40965.9
641.947	41000.7
642.301	40907.14
642.654	40855.85
643.007	40952.79
643.36	40854.26
643.713	40766.13
644.066	40972.68
644.419	40639.81
644.771	40381.96
645.124	39980.84
645.477	40043.21
645.83	39795.99
646.182	39788.98
646.535	39786.27
646.888	39729.1
647.24	39621.53
647.593	39658.14
647.945	39581.3
648.298	39513.74
648.65	39444.58
649.002	39339.05
649.355	39516.9
649.707	39439.61
650.059	39654.97
650.411	40090.9
650.763	40168.86
651.115	40548.51
651.467	40344.9
651.819	40378.12
652.171	40311
652.523	40234.39
652.875	40187.62
653.227	40029.2
653.578	40401.85
653.93	40313.26
654.282	39952.59
654.633	39942.88
654.985	40034.4
655.337	40044.79
655.688	40176.99
656.039	40164.11
656.391	39870.34
656.742	40068.07
657.094	39997.56
657.445	40129.09
657.796	40137.67
658.147	39971.35
658.498	39975.19
658.849	40068.97
659.2	39944.68
659.551	39867.85
659.902	40038.92
660.253	39958.02
660.604	39964.8
660.955	39816.1
661.306	39994.17
661.656	39749.44
662.007	39839.15
662.358	39830.11
662.708	39888.19
663.059	39815.42
663.409	39612.04
663.76	39904.91
664.11	39849.77
664.461	39990.78
664.811	39865.82
665.161	39892.48
665.511	39690.23
665.862	39645.03
666.212	39826.04
666.562	39818.13
666.912	39719.15
667.262	39653.84
667.612	39815.65
667.962	39753.73
668.312	39653.84
668.662	39951.46
669.011	39794.18
669.361	39664.24
669.711	39604.81
670.06	39644.13
670.41	39500.85
670.76	39511.02
671.109	39638.48
671.459	39611.59
671.808	39552.38
672.157	39622.88
672.507	39440.06
672.856	39496.11
673.205	39603.45
673.554	39433.74
673.904	39448.43
674.253	39758.47
674.602	39602.55
674.951	39113.97
675.3	38839.4
675.649	39500.63
675.998	39458.37
676.346	39525.49
676.695	39512.83
677.044	39322.78
677.393	39349.9
677.741	39261.31
678.09	39240.3
678.438	39293.18
678.787	39294.98
679.135	39329.56
679.484	38871.04
679.832	39231.71
680.181	39003.92
680.529	38961.89
680.877	38983.35
681.225	38925.95
681.573	39051.83
681.922	38786.3
682.27	38673.98
682.618	38655.68
682.966	38580.43
683.314	38765.73
683.661	38566.64
684.009	38372.75
684.357	38361.45
684.705	38367.78
685.053	38358.96
685.4	38382.47
685.748	38264.05
686.095	38040.78
686.443	38019.99
686.79	37877.62
687.138	38127.78
687.485	37989.03
687.832	37874.46
688.18	37976.83
688.527	37775.02
688.874	37698.19
689.221	37617.06
689.568	37639.21
689.915	37537.74
690.262	37395.37
690.609	37308.14
690.956	37313.34
691.303	37182.72
691.65	37120.13
691.997	37041.48
692.344	36800.36
692.69	36802.85
693.037	36826.35
693.383	36537.99
693.73	36688.27
694.077	36333.03
694.423	36429.3
694.769	36328.28
695.116	36222.07
695.462	36226.82
695.808	35919.93
696.155	36156.99
696.501	35771.23
696.847	35844.45
697.193	35736.21
697.539	35748.18
697.885	35525.14
698.231	35301.87
698.577	35384.13
698.923	35314.52
699.269	35245.6
699.614	35049.22
699.96	34952.27
700.306	35036.79
700.651	34760.19
700.997	34751.37
701.342	34748.66
701.688	34660.08
702.033	34510.02
702.379	34513.64
702.724	34558.39
703.069	34524.26
703.415	34115.91
703.76	34111.62
704.105	34058.29
704.45	34010.38
704.795	33773.1
705.14	33791.63
705.485	33842.02
705.83	33614.91
706.175	33670.72
706.52	33521.8
706.865	33384.63
707.209	33397.06
707.554	33387.34
707.899	33374.01
708.243	33163.62
708.588	33096.28
708.932	32862.16
709.277	33007.69
709.621	32986.68
709.966	32694.71
710.31	32786
710.654	32566.12
710.998	32584.43
711.342	32582.84
711.687	32569.06
712.031	32432.34
712.375	32192.57
712.719	32294.26
713.063	32226.7
713.407	32174.49
713.75	32085.23
714.094	32033.71
714.438	31846.59
714.782	31879.59
715.125	31893.14
715.469	31803.66
715.812	31619.25
716.156	31455.42
716.499	31497.22
716.843	31578.35
717.186	31370.67
717.53	31439.82
717.873	31473.72
718.216	31457
718.559	31300.84
718.902	31018.59
719.246	31228.76
719.589	30973.39
719.932	31087.74
720.275	30915.77
720.617	30980.4
720.96	30787.41
721.303	30854.08
721.646	30822.21
721.989	30578.38
722.331	30690.69
722.674	30510.81
723.016	30649.56
723.359	30579.05
723.701	30617.7
724.044	30313.75
724.386	30331.6
724.729	30264.26
725.071	30305.16
725.413	30268.78
725.755	30315.56
726.097	30100.65
726.439	30036.7
726.782	30005.06
727.124	30116.47
727.465	30071.95
727.807	29930.26
728.149	29872.86
728.491	29772.97
728.833	29888.23
729.175	29686.42
729.516	29643.71
729.858	29685.74
730.199	29608.68
730.541	29537.05
730.882	29605.07
731.224	29704.73
731.565	29332.99
731.906	29543.83
732.248	29422.47
732.589	29314.46
732.93	29205.98
733.271	29088.25
733.612	29238.75
733.953	29227.45
734.294	29008.93
734.635	29033.78
734.976	29175.25
735.317	28940.91
735.658	28879.21
735.999	28895.71
736.339	28839.89
736.68	28858.2
737.021	28882.83
737.361	28699.78
737.702	28837.18
738.042	28786.11
738.383	28560.8
738.723	28749.72
739.063	28605.1
739.404	28710.4
739.744	28524.19
740.084	28299.79
740.424	28405.78
740.764	28398.55
741.104	28450.52
741.444	28342.96
741.784	28294.14
742.124	28232.22
742.464	28276.06
742.804	28183.41
743.143	27992.91
743.483	28065.9
743.823	27807.83
744.162	27910.42
744.502	28009.4
744.841	27887.15
745.181	27935.28
745.52	27801.73
745.86	27932.12
746.199	27831.78
746.538	27716.98
746.877	27756.98
747.216	27838.34
747.556	27665.46
747.895	27699.58
748.234	27480.38
748.573	27481.96
748.911	27511.56
749.25	27485.35
749.589	27320.84
749.928	27304.56
750.267	27305.02
750.605	27342.76
750.944	27146.83
751.283	27039.26
751.621	27246.04
751.96	27010.79
752.298	27035.87
752.636	27024.35
752.975	26880.85
753.313	26775.09
753.651	26893.73
753.989	26758.36
754.327	26654.41
754.666	26616.45
755.004	26717.01
755.342	26639.27
755.679	26701.19
756.017	26413.29
756.355	26407.41
756.693	26410.58
757.031	26418.49
757.368	26242.45
757.706	26182.79
