Data from hue_100_FLMS001491_00067.txt Node
Date: Tue Feb 07 17:03:30 GMT 2017
User: dcchb
Spectrometer: FLMS00149
Trigger mode: 0
Integration Time (sec): 2.000000E-2
Scans to average: 10
Electric dark correction enabled: true
Nonlinearity correction enabled: false
Boxcar width: 0
XAxis mode: Wavelengths
Number of Pixels in Spectrum: 2048
>>>>>Begin Spectral Data<<<<<
341.393	-13.47
341.776	-13.47
342.16	-13.47
342.543	-56.64
342.927	-63.42
343.31	-72
343.693	-35.17
344.077	-87.82
344.46	-51.67
344.843	-65
345.226	-43.53
345.61	-41.95
345.993	-0.37
346.376	4.38
346.759	20.65
347.142	16.58
347.525	44.83
347.908	58.61
348.291	72.63
348.674	69.46
349.057	110.36
349.44	123.47
349.823	146.97
350.206	163.47
350.588	205.96
350.971	227.65
351.354	233.52
351.737	221.55
352.119	262
352.502	254.09
352.884	275.78
353.267	271.72
353.65	312.39
354.032	276.46
354.414	319.62
354.797	308.78
355.179	332.05
355.562	315.33
355.944	331.15
356.326	359.85
356.709	335.44
357.091	336.12
357.473	348.32
357.855	351.49
358.238	345.61
358.62	334.77
359.002	332.96
359.384	356.01
359.766	343.13
360.148	351.04
360.53	344.93
360.912	338.38
361.294	329.57
361.676	336.12
362.057	334.54
362.439	328.44
362.821	315.1
363.203	322.79
363.584	345.84
363.966	313.52
364.348	332.96
364.729	329.79
365.111	332.96
365.493	319.17
365.874	320.3
366.256	318.04
366.637	323.69
367.019	329.57
367.4	331.83
367.781	327.31
368.163	300.87
368.544	296.12
368.925	319.85
369.306	324.37
369.688	318.49
370.069	314.43
370.45	323.47
370.831	312.62
371.212	316.69
371.593	325.5
371.974	317.14
372.355	331.15
372.736	337.93
373.117	301.32
373.498	309.68
373.879	311.71
374.26	327.76
374.641	322.34
375.021	331.83
375.402	337.93
375.783	323.92
376.163	330.92
376.544	329.79
376.925	307.87
377.305	322.11
377.686	348.1
378.066	333.41
378.447	320.53
378.827	346.29
379.208	347.65
379.588	324.6
379.968	324.37
380.349	315.56
380.729	339.51
381.109	348.32
381.489	346.74
381.87	344.26
382.25	334.09
382.63	347.42
383.01	337.7
383.39	364.14
383.77	360.53
384.15	335.22
384.53	346.29
384.91	365.72
385.29	363.69
385.67	364.14
386.049	357.82
386.429	372.28
386.809	362.79
387.189	380.64
387.568	362.79
387.948	354.43
388.328	361.88
388.707	377.02
389.087	345.84
389.466	374.76
389.846	351.26
390.225	356.91
390.605	363.24
390.984	399.4
391.363	384.03
391.743	375.89
392.122	393.75
392.501	380.87
392.881	374.54
393.26	389
393.639	396.46
394.018	379.06
394.397	388.1
394.776	379.28
395.155	402.33
395.534	406.18
395.913	405.05
396.292	402.56
396.671	399.4
397.05	399.85
397.429	404.14
397.808	412.96
398.186	402.33
398.565	416.57
398.944	405.27
399.323	397.59
399.701	375.22
400.08	393.75
400.458	418.83
400.837	398.27
401.215	430.81
401.594	416.57
401.972	414.31
402.351	415.44
402.729	410.47
403.107	427.19
403.486	426.51
403.864	433.97
404.242	451.6
404.62	436.91
404.999	438.94
405.377	439.17
405.755	432.84
406.133	433.07
406.511	450.02
406.889	451.82
407.267	457.93
407.645	451.82
408.023	454.08
408.401	449.56
408.779	472.39
409.156	482.33
409.534	477.81
409.912	459.28
410.29	478.04
410.667	488.66
411.045	497.47
411.422	483.01
411.8	498.83
412.178	494.99
412.555	499.05
412.933	517.59
413.31	491.82
413.687	491.15
414.065	508.09
414.442	521.2
414.819	523.91
415.197	522.1
415.574	519.85
415.951	524.36
416.328	523.91
416.705	534.08
417.082	516.91
417.46	535.89
417.837	534.53
418.214	551.03
418.591	552.61
418.967	562.78
419.344	582.44
419.721	585.38
420.098	558.94
420.475	587.41
420.852	572.5
421.228	562.1
421.605	570.92
421.982	595.1
422.358	593.06
422.735	584.02
423.111	605.94
423.488	587.19
423.864	610.24
424.241	593.06
424.617	603.46
424.994	612.72
425.37	591.03
425.746	628.09
426.123	622.44
426.499	644.36
426.875	643.68
427.251	628.09
427.627	679.61
428.003	652.05
428.379	659.28
428.756	634.64
429.132	672.84
429.507	676.23
429.883	703.57
430.259	706.51
430.635	687.75
431.011	702.89
431.387	698.37
431.763	732.72
432.138	710.12
432.514	727.52
432.89	743.12
433.265	741.99
433.641	756
434.016	769.56
434.392	759.61
434.767	762.55
435.143	772.72
435.518	780.86
435.894	783.34
436.269	791.25
436.644	781.99
437.02	807.52
437.395	834.41
437.77	801.65
438.145	819.27
438.52	841.87
438.895	876.67
439.271	862.66
439.646	854.3
440.021	854.98
440.395	868.31
440.77	889.33
441.145	889.55
441.52	879.84
441.895	892.72
442.27	863.11
442.645	902.21
443.019	903.34
443.394	929.33
443.769	909.89
444.143	928.42
444.518	955.54
444.892	909.67
445.267	944.47
445.641	943.56
446.016	966.61
446.39	990.34
446.764	952.6
447.139	976.78
447.513	959.61
447.887	1000.51
448.262	987.18
448.636	994.63
449.01	1013.17
449.384	1025.82
449.758	1017.69
450.132	1025.82
450.506	1062.43
450.88	1037.12
451.254	1051.13
451.628	1037.12
452.002	1045.03
452.376	1050.23
452.75	1083.9
453.123	1097.68
453.497	1128.87
453.871	1100.39
454.244	1162.54
454.618	1162.31
454.992	1141.3
455.365	1182.65
455.739	1181.97
456.112	1191.92
456.486	1206.83
456.859	1197.57
457.232	1219.49
457.606	1237.79
457.979	1227.62
458.352	1266.94
458.725	1279.6
459.099	1286.38
459.472	1305.81
459.845	1327.51
460.218	1337.22
460.591	1368.18
460.964	1358.47
461.337	1422.19
461.71	1405.25
462.083	1441.18
462.456	1451.57
462.829	1465.81
463.201	1494.96
463.574	1475.98
463.947	1545.58
464.32	1545.35
464.692	1577.67
465.065	1570.89
465.438	1598.69
465.81	1643.66
466.183	1644.56
466.555	1680.49
466.928	1730.43
467.3	1710.32
467.672	1734.73
468.045	1804.78
468.417	1842.97
468.789	1822.86
469.161	1847.49
469.534	1889.75
469.906	1960.26
470.278	1948.06
470.65	1973.82
471.022	2033.48
471.394	2053.82
471.766	2086.81
472.138	2137.2
472.51	2175.17
472.882	2246.81
473.253	2281.61
473.625	2304.2
473.997	2397.31
474.369	2429.4
474.74	2465.1
475.112	2522.05
475.484	2570.64
475.855	2663.07
476.227	2699
476.598	2774.02
476.97	2852.44
477.341	2944.41
477.713	2989.61
478.084	3031.42
478.455	3149.15
478.827	3195.48
479.198	3326.1
479.569	3404.74
479.94	3475.25
480.311	3574.91
480.682	3704.62
481.053	3837.72
481.424	3896.25
481.795	4008.79
482.166	4115.68
482.537	4193.42
482.908	4320.42
483.279	4463.7
483.65	4552.51
484.021	4661.66
484.391	4851.71
484.762	4968.54
485.133	5055.77
485.503	5220.74
485.874	5367.63
486.244	5457.57
486.615	5612.59
486.985	5751.12
487.356	5898.23
487.726	6046.25
488.097	6173.93
488.467	6359.92
488.837	6523.98
489.207	6705.45
489.578	6833.8
489.948	7028.6
490.318	7184.53
490.688	7314.02
491.058	7514.24
491.428	7640.56
491.798	7812.08
492.168	8038.74
492.538	8105.86
492.908	8309.7
493.278	8483.93
493.648	8586.3
494.017	8793.07
494.387	8939.96
494.757	9053.86
495.126	9271.48
495.496	9334.98
495.866	9514.64
496.235	9629.44
496.605	9857.68
496.974	10035.08
497.344	10124.11
497.713	10269.87
498.082	10402.75
498.452	10540.82
498.821	10640.48
499.19	10800.48
499.559	10980.59
499.928	11115.72
500.298	11164.31
500.667	11313.91
501.036	11362.95
501.405	11607.46
501.774	11672.09
502.143	11866.67
502.512	11877.74
502.88	12041.58
503.249	12110.73
503.618	12197.73
503.987	12358.4
504.356	12463.49
504.724	12526.99
505.093	12641.33
505.462	12708.68
505.83	12775.34
506.199	12890.37
506.567	13149.12
506.936	13149.12
507.304	13384.59
507.672	13404.93
508.041	13465.27
508.409	13593.85
508.777	13672.72
509.145	13792.26
509.514	13800.17
509.882	13861.64
510.25	14024.8
510.618	13988.87
510.986	14147.28
511.354	14210.33
511.722	14293.95
512.09	14468.4
512.458	14434.28
512.826	14554.5
513.193	14610.32
513.561	14699.13
513.929	14728.06
514.297	14798.79
514.664	14810.77
515.032	14872.91
515.4	14957.21
515.767	15076.3
516.135	15166.01
516.502	15039.69
516.869	15239.23
517.237	15302.51
517.604	15209.4
517.972	15392.22
518.339	15448.04
518.706	15476.97
519.073	15516.51
519.44	15564.65
519.808	15591.09
520.175	15658.66
520.542	15822.72
520.909	15801.03
521.276	15761.48
521.643	15916.05
522.009	15960.8
522.376	16056.16
522.743	16085.09
523.11	16160.79
523.477	16257.51
523.843	16220
524.21	16408.47
524.577	16472.19
524.943	16399.43
525.31	16437.17
525.676	16605.52
526.043	16549.93
526.409	16613.43
526.776	16691.62
527.142	16653.66
527.508	16688.46
527.874	16790.83
528.241	16787.21
528.607	16817.72
528.973	16832.86
529.339	16831.96
529.705	16977.49
530.071	16925.06
530.437	17050.03
530.803	17008.45
531.169	17080.99
531.535	16970.26
531.901	16909.7
532.267	16939.3
532.632	17077.15
532.998	16938.4
533.364	17012.74
533.73	17015.23
534.095	16984.04
534.461	17030.6
534.826	17157.83
535.192	17054.33
535.557	17060.88
535.923	16998.28
536.288	17037.6
536.653	16930.26
537.019	16851.62
537.384	16904.95
537.749	16950.83
538.114	16854.78
538.479	16873.99
538.845	16789.93
539.21	16786.08
539.575	16739.31
539.94	16717.61
540.305	16742.02
540.67	16662.02
541.034	16692.75
541.399	16639.42
541.764	16647.78
542.129	16620.21
542.494	16568.01
542.858	16620.89
543.223	16465.87
543.587	16574.56
543.952	16518.07
544.316	16484.62
544.681	16335.93
545.045	16350.16
545.41	16342.03
545.774	16321.69
546.138	16208.47
546.503	16285.08
546.867	16191.3
547.231	16196.72
547.595	16153.78
547.959	16122.15
548.324	16102.49
548.688	16016.39
549.052	16031.75
549.416	15900.23
549.779	16043.73
550.143	15877.41
550.507	15969.83
550.871	15829.95
551.235	15797.41
551.599	15914.02
551.962	15815.04
552.326	15811.87
552.689	15804.87
553.053	15699.78
553.417	15635.15
553.78	15824.98
554.143	15628.37
554.507	15632.22
554.87	15651.88
555.234	15657.07
555.597	15527.13
555.96	15564.42
556.323	15668.6
556.686	15533.69
557.05	15538.66
557.413	15549.73
557.776	15570.07
558.139	15609.39
558.502	15573.91
558.865	15598.32
559.228	15571.65
559.59	15585.89
559.953	15521.03
560.316	15683.29
560.679	15582.73
561.041	15610.52
561.404	15615.95
561.767	15607.13
562.129	15606
562.492	15629.73
562.854	15611.43
563.217	15565.1
563.579	15646
563.941	15678.99
564.304	15678.09
564.666	15702.5
565.028	15747.02
565.39	15802.61
565.753	15741.37
566.115	15838.99
566.477	15757.64
566.839	15830.85
567.201	15886.45
567.563	15822.72
567.925	16001.92
568.287	15896.16
568.648	15838.76
569.01	15975.26
569.372	15887.58
569.734	15813.45
570.095	15958.54
570.457	15955.6
570.819	15992.66
571.18	15960.12
571.542	15980.68
571.903	16069.94
572.265	16056.61
572.626	16045.76
572.987	16001.25
573.349	16096.61
573.71	16140.68
574.071	16139.55
574.432	16159.43
574.794	16259.54
575.155	16158.76
575.516	16181.81
575.877	16191.98
576.238	16155.82
576.599	16173.44
576.96	16267.68
577.32	16217.06
577.681	16221.13
578.042	16243.27
578.403	16202.82
578.763	16204.18
579.124	16196.04
579.485	16181.58
579.845	16139.77
580.206	16214.12
580.566	16150.17
580.927	16181.35
581.287	16260.67
581.648	16209.38
582.008	16188.59
582.368	16274.46
582.728	16289.37
583.089	16256.61
583.449	16190.17
583.809	16217.74
584.169	16216.83
584.529	16138.19
584.889	16342.48
585.249	16126.89
585.609	16088.93
585.969	16205.31
586.329	16155.82
586.688	16187.46
587.048	16151.75
587.408	16010.51
587.768	16082.6
588.127	16067.46
588.487	15999.89
588.846	16064.3
589.206	15989.27
589.565	15969.83
589.925	16137.51
590.284	16102.49
590.643	16015.03
591.003	16125.54
591.362	16087.57
591.721	16085.76
592.08	15997.4
592.44	16062.49
592.799	15983.39
593.158	15989.27
593.517	15906.11
593.876	15940.68
594.235	15930.51
594.593	15902.94
594.952	15999.89
595.311	15922.15
595.67	15932.32
596.029	16010.74
596.387	15977.29
596.746	15937.07
597.104	15910.17
597.463	15893.23
597.822	15949.5
598.18	15810.52
598.538	15811.19
598.897	15914.47
599.255	15760.12
599.613	16002.15
599.972	15904.53
600.33	15914.92
600.688	15819.56
601.046	15915.15
601.404	15962.15
601.762	15901.36
602.12	16056.61
602.478	15910.17
602.836	15868.14
603.194	15821.82
603.552	15931.87
603.91	15791.76
604.268	15884.41
604.625	15879.22
604.983	15928.93
605.341	15865.43
605.698	15839.44
606.056	15977.74
606.413	15924.86
606.771	15909.04
607.128	15980
607.485	15867.01
607.843	15872.66
608.2	16066.33
608.557	16033.11
608.914	15878.31
609.272	15960.12
609.629	16000.57
609.986	16118.08
610.343	16024.97
610.7	16070.85
611.057	16087.12
611.414	16081.47
611.771	16032.21
612.127	16177.06
612.484	16183.84
612.841	16186.1
613.198	16151.52
613.554	16111.75
613.911	16169.15
614.267	16168.02
614.624	16151.98
614.98	16131.19
615.337	16225.19
615.693	16177.96
616.05	16174.57
616.406	16301.35
616.762	16211.41
617.118	16319.66
617.475	16285.76
617.831	16285.98
618.187	16319.88
618.543	16295.93
618.899	16364.63
619.255	16373.44
619.611	16305.87
619.967	16419.54
620.323	16338.41
620.678	16394
621.034	16354.68
621.39	16362.82
621.746	16289.6
622.101	16433.32
622.457	16363.5
622.812	16452.53
623.168	16413.89
623.523	16386.77
623.879	16490.5
624.234	16345.19
624.589	16452.99
624.945	16372.08
625.3	16415.25
625.655	16302.03
626.01	16423.38
626.365	16468.58
626.72	16377.06
627.075	16331.63
627.43	16379.77
627.785	16360.11
628.14	16330.73
628.495	16336.38
628.85	16337.06
629.205	16321.01
629.559	16283.95
629.914	16278.98
630.269	16335.7
630.623	16220.45
630.978	16248.7
631.332	16302.71
631.687	16312.88
632.041	16177.74
632.396	16293.67
632.75	16214.8
633.104	16225.19
633.459	16087.35
633.813	16137.74
634.167	16167.34
634.521	16121.69
634.875	16142.03
635.229	16100.68
635.583	16010.74
635.937	16058.87
636.291	15999.66
636.645	15990.17
636.999	15862.94
637.352	16038.53
637.706	15871.53
638.06	15890.06
638.413	15877.41
638.767	15868.14
639.121	15880.35
639.474	15853.45
639.828	15751.53
640.181	15770.52
640.534	15840.12
640.888	15723.51
641.241	15717.41
641.594	15734.13
641.947	15672.89
642.301	15709.5
642.654	15775.26
643.007	15700.69
643.36	15730.52
643.713	15709.5
644.066	15778.88
644.419	15684.42
644.771	15587.7
645.124	15485.33
645.477	15393.35
645.83	15300.02
646.182	15316.52
646.535	15237.42
646.888	15264.54
647.24	15114.72
647.593	15212.79
647.945	15189.29
648.298	15021.38
648.65	15086.69
649.002	15142.96
649.355	15100.03
649.707	15173.92
650.059	15277.2
650.411	15429.74
650.763	15392.45
651.115	15537.08
651.467	15477.87
651.819	15471.77
652.171	15488.94
652.523	15410.98
652.875	15451.66
653.227	15435.16
653.578	15484.65
653.93	15486.91
654.282	15401.26
654.633	15346.8
654.985	15416.4
655.337	15452.56
655.688	15501.37
656.039	15626.57
656.391	15379.57
656.742	15496.4
657.094	15436.06
657.445	15575.27
657.796	15474.93
658.147	15479.23
658.498	15485.55
658.849	15572.1
659.2	15410.98
659.551	15426.8
659.902	15508.6
660.253	15427.93
660.604	15549.73
660.955	15457.76
661.306	15580.69
661.656	15507.02
662.007	15524.65
662.358	15460.92
662.708	15538.21
663.059	15510.86
663.409	15447.36
663.76	15542.27
664.11	15522.61
664.461	15459.57
664.811	15388.38
665.161	15486.68
665.511	15471.54
665.862	15569.62
666.212	15614.36
666.562	15498.43
666.912	15513.8
667.262	15538.66
667.612	15482.39
667.962	15570.97
668.312	15523.29
668.662	15635.15
669.011	15598.32
669.361	15567.81
669.711	15525.55
670.06	15474.03
670.41	15545.89
670.76	15459.79
671.109	15537.3
671.459	15464.99
671.808	15534.14
672.157	15511.54
672.507	15355.84
672.856	15383.41
673.205	15487.81
673.554	15453.24
673.904	15309.74
674.253	15394.26
674.602	15314.26
674.951	15150.65
675.3	15042.63
675.649	15342.73
675.998	15240.81
676.346	15278.33
676.695	15368.04
677.044	15204.88
677.393	15263.19
677.741	15315.39
678.09	15192.68
678.438	15151.55
678.787	15218.22
679.135	15336.63
679.484	15099.12
679.832	15239.46
680.181	15064.77
680.529	15152.45
680.877	15131.21
681.225	15058.45
681.573	15195.62
681.922	15034.27
682.27	14945.91
682.618	14881.5
682.966	14993.59
683.314	14986.36
683.661	14893.93
684.009	14766.93
684.357	14782.97
684.705	14745.23
685.053	14695.52
685.4	14649.42
685.748	14688.51
686.095	14514.05
686.443	14476.54
686.79	14521.96
687.138	14520.38
687.485	14521.28
687.832	14582.98
688.18	14463.43
688.527	14370.55
688.874	14388.41
689.221	14397.67
689.568	14309.09
689.915	14231.12
690.262	14249.2
690.609	14170.11
690.956	14140.5
691.303	14053.73
691.65	14131.46
691.997	14035.87
692.344	13961.75
692.69	13951.36
693.037	13994.07
693.383	13729.22
693.73	13874.3
694.077	13731.48
694.423	13776.22
694.769	13678.82
695.116	13633.62
695.462	13607.41
695.808	13583.46
696.155	13578.71
696.501	13450.8
696.847	13435.89
697.193	13401.77
697.539	13386.85
697.885	13301.2
698.231	13138.5
698.577	13227.08
698.923	13164.71
699.269	13121.32
699.614	12973.98
699.96	12987.54
700.306	12904.38
700.651	12907.09
700.997	12864.61
701.342	12810.37
701.688	12820.09
702.033	12713.87
702.379	12687.89
702.724	12706.87
703.069	12573.54
703.415	12500.1
703.76	12597.49
704.105	12493.09
704.45	12505.29
704.795	12328.12
705.14	12329.48
705.485	12355.47
705.83	12237.73
706.175	12271.17
706.52	12267.78
706.865	12223.49
707.209	12242.47
707.554	12107.79
707.899	12188.24
708.243	11981.24
708.588	12010.16
708.932	11942.82
709.277	11956.15
709.621	11854.46
709.966	11834.35
710.31	11847.23
710.654	11734.24
710.998	11719.32
711.342	11739.44
711.687	11712.77
712.031	11652.43
712.375	11546.45
712.719	11642.26
713.063	11565.66
713.407	11576.73
713.75	11513.91
714.094	11595.26
714.438	11533.57
714.782	11448.15
715.125	11467.81
715.469	11496.73
715.812	11403.63
716.156	11296.96
716.499	11287.47
716.843	11344.65
717.186	11368.15
717.53	11357.53
717.873	11274.36
718.216	11294.25
718.559	11322.95
718.902	11226.23
719.246	11267.36
719.589	11194.82
719.932	11127.48
720.275	11203.41
720.617	11136.52
720.96	11074.14
721.303	11145.1
721.646	11088.83
721.989	11030.08
722.331	11093.8
722.674	11041.15
723.016	11094.26
723.359	11037.76
723.701	11061.49
724.044	10943.53
724.386	10983.52
724.729	11037.76
725.071	11011.32
725.413	10969.06
725.755	10848.84
726.097	10932.45
726.439	10875.05
726.782	10899.91
727.124	11011.55
727.465	10834.38
727.807	10830.76
728.149	10826.01
728.491	10862.17
728.833	10847.71
729.175	10781.95
729.516	10825.34
729.858	10884.54
730.199	10896.75
730.541	10805.22
730.882	10797.99
731.224	10816.98
731.565	10755.73
731.906	10816.07
732.248	10837.54
732.589	10725.68
732.93	10766.36
733.271	10781.72
733.612	10755.28
733.953	10830.53
734.294	10765
734.635	10760.93
734.976	10812.91
735.317	10782.63
735.658	10755.73
735.999	10759.35
736.339	10766.13
736.68	10818.11
737.021	10835.28
737.361	10824.88
737.702	10788.95
738.042	10765.68
738.383	10822.63
738.723	10863.75
739.063	10837.54
739.404	10910.08
739.744	10906.69
740.084	10879.12
740.424	10876.63
740.764	10945.56
741.104	10954.15
741.444	10945.79
741.784	10939.01
742.124	10962.73
742.464	10963.41
742.804	10971.55
743.143	11042.73
743.483	11036.4
743.823	10995.28
744.162	11007.7
744.502	11114.82
744.841	11149.17
745.181	11189.17
745.52	11231.43
745.86	11334.93
746.199	11336.96
746.538	11370.18
746.877	11402.5
747.216	11539.67
747.556	11566.33
747.895	11608.37
748.234	11639.55
748.573	11656.28
748.911	11729.95
749.25	11877.06
749.589	11929.26
749.928	11976.72
750.267	12121.8
750.605	12131.29
750.944	12210.61
751.283	12310.04
751.621	12456.03
751.96	12442.02
752.298	12634.1
752.636	12685.17
752.975	12735.12
753.313	12793.42
753.651	12983.7
753.989	13114.77
754.327	13232.96
754.666	13346.4
755.004	13493.52
755.342	13662.32
755.679	13841.08
