Data from hue_290_FLMS001491_00061.txt Node
Date: Tue Feb 07 15:53:04 GMT 2017
User: dcchb
Spectrometer: FLMS00149
Trigger mode: 0
Integration Time (sec): 2.000000E-2
Scans to average: 10
Electric dark correction enabled: true
Nonlinearity correction enabled: false
Boxcar width: 0
XAxis mode: Wavelengths
Number of Pixels in Spectrum: 2048
>>>>>Begin Spectral Data<<<<<
341.393	-2.95
341.776	-2.95
342.16	-2.95
342.543	-68.71
342.927	-61.93
343.31	-58.77
343.693	-68.71
344.077	-68.94
344.46	-50.63
344.843	-73.23
345.226	-29.84
345.61	-28.49
345.993	-8.38
346.376	-14.7
346.759	11.51
347.142	21.23
347.525	32.98
347.908	70.72
348.291	71.62
348.674	109.14
349.057	84.5
349.44	121.56
349.823	122.69
350.206	156.82
350.588	186.42
350.971	200.21
351.354	213.09
351.737	240.21
352.119	249.24
352.502	267.55
352.884	252.41
353.267	284.5
353.65	291.05
354.032	284.05
354.414	296.48
354.797	299.64
355.179	306.87
355.562	330.37
355.944	314.1
356.326	336.02
356.709	319.53
357.091	341.67
357.473	351.62
357.855	331.73
358.238	345.97
358.62	329.24
359.002	342.58
359.384	345.29
359.766	337.6
360.148	327.89
360.53	329.47
360.912	340.77
361.294	332.86
361.676	323.82
362.057	333.76
362.439	324.27
362.821	332.63
363.203	337.83
363.584	325.85
363.966	340.54
364.348	320.2
364.729	346.19
365.111	338.73
365.493	318.4
365.874	320.43
366.256	326.08
366.637	318.62
367.019	314.1
367.4	306.19
367.781	298.74
368.163	317.27
368.544	311.39
368.925	300.77
369.306	313.88
369.688	293.54
370.069	340.32
370.45	320.43
370.831	332.86
371.212	333.08
371.593	309.81
371.974	340.77
372.355	314.55
372.736	310.71
373.117	324.72
373.498	339.64
373.879	313.42
374.26	334.67
374.641	310.26
375.021	320.43
375.402	331.05
375.783	334.21
376.163	319.3
376.544	330.6
376.925	316.81
377.305	335.8
377.686	334.44
378.066	342.12
378.447	320.43
378.827	344.84
379.208	339.64
379.588	341.45
379.968	342.58
380.349	346.64
380.729	318.4
381.109	344.61
381.489	333.08
381.87	343.93
382.25	332.86
382.63	342.8
383.01	350.94
383.39	351.16
383.77	317.04
384.15	348.68
384.53	359.75
384.91	330.15
385.29	351.16
385.67	340.32
386.049	366.08
386.429	353.2
386.809	358.17
387.189	368.56
387.568	373.31
387.948	363.37
388.328	394.78
388.707	380.09
389.087	392.52
389.466	378.28
389.846	391.16
390.225	365.17
390.605	383.03
390.984	375.12
391.363	374.21
391.743	371.95
392.122	374.89
392.501	384.83
392.881	402.01
393.26	375.34
393.639	390.94
394.018	398.85
394.397	389.58
394.776	396.81
395.155	394.1
395.534	402.69
395.913	412.18
396.292	399.98
396.671	409.69
397.05	424.16
397.429	414.89
397.808	415.79
398.186	406.3
398.565	407.66
398.944	412.18
399.323	431.16
399.701	429.13
400.08	423.03
400.458	441.56
400.837	432.97
401.215	448.79
401.594	458.96
401.972	436.58
402.351	459.41
402.729	438.84
403.107	442.23
403.486	459.63
403.864	459.41
404.242	491.5
404.62	456.25
404.999	480.88
405.377	474.1
405.755	473.42
406.133	493.08
406.511	482.23
406.889	497.37
407.267	505.96
407.645	491.5
408.023	522.46
408.401	537.6
408.779	524.49
409.156	535.11
409.534	546.64
409.912	546.86
410.29	553.42
410.667	543.25
411.045	538.28
411.422	577.15
411.8	580.76
412.178	569.01
412.555	594.55
412.933	619.18
413.31	615.56
413.687	614.66
414.065	620.76
414.442	677.26
414.819	640.65
415.197	667.76
415.574	657.14
415.951	675.67
416.328	664.83
416.705	665.05
417.082	700.76
417.46	700.31
417.837	709.8
418.214	705.05
418.591	745.28
418.967	753.86
419.344	747.76
419.721	765.16
420.098	770.81
420.475	777.14
420.852	781.43
421.228	786.63
421.605	806.97
421.982	811.72
422.358	825.73
422.735	846.97
423.111	823.02
423.488	845.39
423.864	865.5
424.241	847.42
424.617	867.76
424.994	883.13
425.37	888.55
425.746	909.34
426.123	915.44
426.499	919.74
426.875	940.98
427.251	957.25
427.627	979.85
428.003	1002.67
428.379	981.65
428.756	967.42
429.132	1013.52
429.507	1004.48
429.883	1029.34
430.259	1048.32
430.635	1069.34
431.011	1072.05
431.387	1105.72
431.763	1114.53
432.138	1116.57
432.514	1116.11
432.89	1125.83
433.265	1165.83
433.641	1186.62
434.016	1180.75
434.392	1208.99
434.767	1212.38
435.143	1201.54
435.518	1250.12
435.894	1253.06
436.269	1289.9
436.644	1305.04
437.02	1304.81
437.395	1305.94
437.77	1340.97
438.145	1341.65
438.52	1364.7
438.895	1374.86
439.271	1366.28
439.646	1383.23
440.021	1416.22
440.395	1419.61
440.77	1423.45
441.145	1409.89
441.52	1450.12
441.895	1485.37
442.27	1459.38
442.645	1472.04
443.019	1475.88
443.394	1504.35
443.769	1529.66
444.143	1521.98
444.518	1529.44
444.892	1539.38
445.267	1528.53
445.641	1548.87
446.016	1571.92
446.39	1553.39
446.764	1604.24
447.139	1581.64
447.513	1590.9
447.887	1568.53
448.262	1615.31
448.636	1601.98
449.01	1623.67
449.384	1662.54
449.758	1665.48
450.132	1646.72
450.506	1659.6
450.88	1665.03
451.254	1655.76
451.628	1696.66
452.002	1718.81
452.376	1709.09
452.75	1694.4
453.123	1750
453.497	1734.18
453.871	1785.93
454.244	1802.2
454.618	1780.5
454.992	1820.95
455.365	1816.89
455.739	1851.91
456.112	1845.14
456.486	1861.18
456.859	1874.74
457.232	1925.13
457.606	1909.09
457.979	1919.03
458.352	1968.52
458.725	1963.32
459.099	1953.15
459.472	2002.42
459.845	2044
460.218	2041.74
460.591	2029.99
460.964	2039.03
461.337	2093.72
461.71	2139.59
462.083	2165.35
462.456	2157.67
462.829	2134.62
463.201	2164.9
463.574	2191.57
463.947	2192.24
464.32	2272.92
464.692	2245.58
465.065	2276.99
465.438	2311.56
465.81	2327.38
466.183	2331.9
466.555	2356.76
466.928	2383.43
467.3	2328.06
467.672	2417.78
468.045	2462.75
468.417	2486.47
468.789	2485.12
469.161	2458.45
469.534	2502.29
469.906	2553.59
470.278	2622.74
470.65	2622.29
471.022	2668.16
471.394	2684.44
471.766	2711.1
472.138	2702.74
472.51	2764.43
472.882	2798.1
473.253	2853.24
473.625	2870.87
473.997	2880.59
474.369	2924.65
474.74	2968.27
475.112	2956.07
475.484	3042.17
475.855	3035.16
476.227	3075.16
476.598	3161.94
476.97	3153.12
477.341	3245.1
477.713	3220.47
478.084	3241.93
478.455	3286.23
478.827	3341.82
479.198	3431.76
479.569	3398.77
479.94	3501.36
480.311	3542.49
480.682	3574.81
481.053	3626.56
481.424	3668.36
481.795	3722.83
482.166	3737.74
482.537	3744.75
482.908	3876.04
483.279	3838.3
483.65	3920.56
484.021	4005.08
484.391	3994.46
484.762	4000.11
485.133	4066.55
485.503	4139.76
485.874	4180.67
486.244	4218.63
486.615	4276.71
486.985	4325.75
487.356	4359.42
487.726	4374.79
488.097	4467.89
488.467	4513.09
488.837	4549.92
489.207	4533.88
489.578	4633.99
489.948	4642.12
490.318	4726.42
490.688	4694.33
491.058	4825.85
491.428	4837.37
491.798	4871.04
492.168	4920.99
492.538	4954.43
492.908	5011.15
493.278	5086.63
493.648	5040.76
494.017	5118.95
494.387	5164.6
494.757	5188.32
495.126	5255.67
495.496	5218.83
495.866	5217.25
496.235	5334.53
496.605	5360.97
496.974	5334.99
497.344	5453.18
497.713	5452.95
498.082	5472.61
498.452	5494.3
498.821	5535.66
499.19	5529.78
499.559	5602.55
499.928	5623.57
500.298	5606.62
500.667	5630.8
501.036	5619.05
501.405	5703.79
501.774	5684.58
502.143	5753.96
502.512	5742.66
502.88	5761.64
503.249	5843.9
503.618	5822.88
503.987	5817.91
504.356	5920.73
504.724	5886.84
505.093	5938.36
505.462	5938.81
505.83	6021.07
506.199	6035.99
506.567	6051.58
506.936	6016.32
507.304	6097
507.672	6097.9
508.041	6129.99
508.409	6156.43
508.777	6201.86
509.145	6197.56
509.514	6237.34
509.882	6244.12
510.25	6246.15
510.618	6283.89
510.986	6288.18
511.354	6373.83
511.722	6406.6
512.09	6400.72
512.458	6416.31
512.826	6426.48
513.193	6505.13
513.561	6484.56
513.929	6560.49
514.297	6562.3
514.664	6627.16
515.032	6612.69
515.4	6632.35
515.767	6612.24
516.135	6645.23
516.502	6614.05
516.869	6705.57
517.237	6683.65
517.604	6749.86
517.972	6769.53
518.339	6809.3
518.706	6808.62
519.073	6834.61
519.44	6854.95
519.808	6906.02
520.175	6867.83
520.542	7014.72
520.909	7007.49
521.276	6983.53
521.643	7050.87
522.009	7106.69
522.376	7073.25
522.743	7145.56
523.11	7150.53
523.477	7230.3
523.843	7255.61
524.21	7346.01
524.577	7363.41
524.943	7446.12
525.31	7437.76
525.676	7498.55
526.043	7520.24
526.409	7552.1
526.776	7553.46
527.142	7573.8
527.508	7640.69
527.874	7713.68
528.241	7734.47
528.607	7704.64
528.973	7782.83
529.339	7756.39
529.705	7853.11
530.071	7838.88
530.437	7912.09
530.803	7959.55
531.169	7927.24
531.535	7928.36
531.901	7942.83
532.267	8016.05
532.632	8101.92
532.998	8130.39
533.364	8175.82
533.73	8225.98
534.095	8256.72
534.461	8253.1
534.826	8278.64
535.192	8291.75
535.557	8318.19
535.923	8350.05
536.288	8389.37
536.653	8383.49
537.019	8385.08
537.384	8421.01
537.749	8460.33
538.114	8500.78
538.479	8491.51
538.845	8536.71
539.21	8535.35
539.575	8553.21
539.94	8632.75
540.305	8668.68
540.67	8652.64
541.034	8636.82
541.399	8689.02
541.764	8676.37
542.129	8756.37
542.494	8774.67
542.858	8817.83
543.223	8792.98
543.587	8867.78
543.952	8833.88
544.316	8919.3
544.681	8867.1
545.045	8945.29
545.41	8964.04
545.774	8969.02
546.138	8980.31
546.503	8961.78
546.867	9084.72
547.231	9127.43
547.595	9162.68
547.959	9124.72
548.324	9125.85
548.688	9149.35
549.052	9207.65
549.416	9169.69
549.779	9205.17
550.143	9223.25
550.507	9310.93
550.871	9332.85
551.235	9278.16
551.599	9358.61
551.962	9376.46
552.326	9378.72
552.689	9457.36
553.053	9363.81
553.417	9443.58
553.78	9578.49
554.143	9507.08
554.507	9560.64
554.87	9543.01
555.234	9632.27
555.597	9530.58
555.96	9587.08
556.323	9715.44
556.686	9681.99
557.05	9732.16
557.413	9795.66
557.776	9743.46
558.139	9854.19
558.502	9826.17
558.865	9849.22
559.228	9884.47
559.59	9861.87
559.953	9945.49
560.316	9959.95
560.679	10003.34
561.041	10013.51
561.404	10121.3
561.767	10156.33
562.129	10103.45
562.492	10111.13
562.854	10138.93
563.217	10142.77
563.579	10189.1
563.941	10326.04
564.304	10310
564.666	10415.76
565.028	10367.4
565.39	10450.33
565.753	10459.6
566.115	10490.33
566.477	10584.57
566.839	10585.24
567.201	10620.5
567.563	10629.99
567.925	10697.78
568.287	10775.52
568.648	10656.2
569.01	10810.55
569.372	10861.4
569.734	10813.71
570.095	10936.42
570.457	11008.96
570.819	11013.93
571.18	10933.26
571.542	11108.85
571.903	11122.18
572.265	11167.83
572.626	11139.58
572.987	11256.64
573.349	11253.48
573.71	11295.28
574.071	11388.39
574.432	11401.49
574.794	11493.69
575.155	11488.27
575.516	11515.16
575.877	11602.17
576.238	11658.21
576.599	11773.01
576.96	11822.5
577.32	11851.2
577.681	11956.28
578.042	11960.35
578.403	12009.61
578.763	12087.13
579.124	12141.81
579.485	12267.46
579.845	12348.14
580.206	12369.15
580.566	12415.7
580.927	12513.56
581.287	12605.3
581.648	12617.06
582.008	12788.8
582.368	12864.73
582.728	12889.36
583.089	13025.41
583.449	13062.69
583.809	13232.86
584.169	13311.95
584.529	13318.96
584.889	13564.83
585.249	13586.75
585.609	13710.81
585.969	13985.83
586.329	13989.67
586.688	14104.93
587.048	14219.27
587.408	14324.13
587.768	14539.72
588.127	14504.24
588.487	14696.77
588.846	14956.65
589.206	14979.48
589.565	15095.18
589.925	15360.71
590.284	15475.51
590.643	15605.45
591.003	15760.48
591.362	15867.82
591.721	15960.47
592.08	16233.46
592.44	16266.45
592.799	16518.42
593.158	16623.5
593.517	16752.77
593.876	16854.68
594.235	17037.28
594.593	17195.69
594.952	17309.81
595.311	17512.52
595.67	17644.49
596.029	17835.45
596.387	18025.27
596.746	18060.53
597.104	18233.63
597.463	18331.71
597.822	18513.17
598.18	18583.45
598.538	18745.93
598.897	18933.27
599.255	18922.2
599.613	19273.15
599.972	19210.33
600.33	19519.25
600.688	19467.5
601.046	19682.86
601.404	19869.97
601.762	19915.17
602.12	20099.34
602.478	20167.82
602.836	20250.07
603.194	20257.53
603.552	20441.71
603.91	20412.78
604.268	20650.29
604.625	20621.82
604.983	20876.05
605.341	20987.23
605.698	21068.36
606.056	21201.01
606.413	21239.65
606.771	21338.18
607.128	21460.66
607.485	21474.68
607.843	21506.09
608.2	21739.3
608.557	21902.91
608.914	21884.61
609.272	22073.3
609.629	22144.49
609.986	22247.08
610.343	22119.86
610.7	22368.44
611.057	22466.06
611.414	22408.66
611.771	22662.21
612.127	22697.02
612.484	22757.81
612.841	22973.17
613.198	22895.2
613.554	22919.84
613.911	23094.29
614.267	23220.17
614.624	23165.25
614.98	23297
615.337	23417.45
615.693	23383.78
616.05	23516.66
616.406	23584.9
616.762	23673.49
617.118	23695.86
617.475	23711.45
617.831	23871.67
618.187	23904.67
618.543	23836.2
618.899	24117.77
619.255	24008.17
619.611	24080.48
619.967	24161.84
620.323	24182.85
620.678	24201.61
621.034	24220.37
621.39	24218.56
621.746	24194.83
622.101	24499
622.457	24286.58
622.812	24400.25
623.168	24499.23
623.523	24487.03
623.879	24574.48
624.234	24470.75
624.589	24608.38
624.945	24656.51
625.3	24663.97
625.655	24679.56
626.01	24623.29
626.365	24723.63
626.72	24751.88
627.075	24787.36
627.43	24736.51
627.785	24743.74
628.14	24827.81
628.495	24892.21
628.85	24794.36
629.205	24693.35
629.559	24880.46
629.914	24796.17
630.269	24810.63
630.623	24839.56
630.978	24793.91
631.332	24865.32
631.687	24902.83
632.041	24804.53
632.396	24791.2
632.75	24655.61
633.104	24809.73
633.459	24698.09
633.813	24774.48
634.167	24711.88
634.521	24687.92
634.875	24804.08
635.229	24717.98
635.583	24592.56
635.937	24530.41
636.291	24663.29
636.645	24644.54
636.999	24553.92
637.352	24799.56
637.706	24494.03
638.06	24714.36
638.413	24599.11
638.767	24568.15
639.121	24560.02
639.474	24430.3
639.828	24472.56
640.181	24394.15
640.534	24461.04
640.888	24365.9
641.241	24345.33
641.594	24438.89
641.947	24596.85
642.301	24462.17
642.654	24434.6
643.007	24426.91
643.36	24494.03
643.713	24394.82
644.066	24442.96
644.419	24289.29
644.771	24122.97
645.124	23922.52
645.477	23922.29
645.83	23794.84
646.182	23688.4
646.535	23652.92
646.888	23772.47
647.24	23509.88
647.593	23711.9
647.945	23602.76
648.298	23600.04
648.65	23499.25
649.002	23494.28
649.355	23602.3
649.707	23588.29
650.059	23711.9
650.411	23946.02
650.763	23896.98
651.115	24263.3
651.467	24180.82
651.819	24178.79
652.171	24177.66
652.523	24099.69
652.875	24186.47
653.227	23989.19
653.578	24300.14
653.93	24235.51
654.282	24066.92
654.633	24075.29
654.985	24067.38
655.337	24151.67
655.688	24102.85
656.039	24222.17
656.391	24039.13
656.742	24142.85
657.094	24182.63
657.445	24185.79
657.796	24035.06
658.147	24115.51
658.498	24100.82
658.849	24150.09
659.2	24098.79
659.551	24089.75
659.902	24091.56
660.253	24157.09
660.604	24207.48
660.955	24110.31
661.306	24156.19
661.656	24075.29
662.007	24147.83
662.358	24152.12
662.708	24172.68
663.059	24279.57
663.409	24219.24
663.76	24168.39
664.11	24257.65
664.461	24140.37
664.811	24200.48
665.161	24289.52
665.511	24156.64
665.862	24179.24
666.212	24139.69
666.562	24281.38
666.912	24210.2
667.262	24234.38
667.612	24234.83
667.962	24234.15
668.312	24210.87
668.662	24243.42
669.011	24179.46
669.361	24220.37
669.711	24143.76
670.06	24156.86
670.41	24136.75
670.76	24009.3
671.109	24092.91
671.459	24109.63
671.808	23957.32
672.157	24123.65
672.507	24024.89
672.856	23860.6
673.205	23890.66
673.554	24029.86
673.904	24047.26
674.253	24034.38
674.602	23998
674.951	23644.56
675.3	23527.73
675.649	23960.71
675.998	23921.39
676.346	23800.26
676.695	23908.74
677.044	23860.83
677.393	23797.78
677.741	23802.98
678.09	23797.1
678.438	23644.11
678.787	23777.89
679.135	23773.6
679.484	23595.98
679.832	23679.14
680.181	23446.15
680.529	23626.71
680.877	23525.24
681.225	23429.65
681.573	23666.03
681.922	23466.71
682.27	23381.97
682.618	23365.93
682.966	23273.72
683.314	23411.8
683.661	23254.06
684.009	23228.53
684.357	23198.7
684.705	23131.36
685.053	23035.76
685.4	23203.22
685.748	23019.72
686.095	23007.97
686.443	22897.01
686.79	22922.1
687.138	22882.1
687.485	22904.69
687.832	22840.52
688.18	22672.61
688.527	22610.01
688.874	22482.11
689.221	22504.03
689.568	22488.89
689.915	22365.95
690.262	22443.46
690.609	22313.3
690.956	22230.14
691.303	22248.44
691.65	22141.1
691.997	22151.72
692.344	21957.37
692.69	21914.44
693.037	22057.03
693.383	21715.35
693.73	21872.41
694.077	21607.1
694.423	21690.04
694.769	21627.44
695.116	21633.54
695.462	21402.81
695.808	21419.54
696.155	21502.02
696.501	21261.12
696.847	21197.85
697.193	21041.47
697.539	21059.09
697.885	20914.92
698.231	20872.21
698.577	20857.74
698.923	20843.73
699.269	20667.69
699.614	20573.91
699.96	20521.71
700.306	20507.92
700.651	20434.7
700.997	20397.19
701.342	20368.04
701.688	20298.66
702.033	20184.09
702.379	20222.5
702.724	20012.57
703.069	20119.68
703.415	19915.17
703.76	19855.51
704.105	19947.48
704.45	19749.52
704.795	19701.84
705.14	19630.43
705.485	19585.69
705.83	19625.23
706.175	19581.39
706.52	19448.51
706.865	19412.36
707.209	19327.61
707.554	19333.71
707.899	19322.87
708.243	19224.11
708.588	19056.21
708.932	19157
709.277	18943.44
709.621	19006.49
709.966	18866.16
710.31	18914.06
710.654	18773.73
710.998	18796.1
711.342	18734.86
711.687	18655.99
712.031	18617.8
712.375	18498.26
712.719	18632.72
713.063	18498.48
713.407	18584.36
713.75	18405.83
714.094	18470.01
714.438	18332.39
714.782	18337.13
715.125	18236.57
715.469	18304.82
715.812	18127.19
716.156	18140.3
716.499	18109.57
716.843	18129.45
717.186	18021.88
717.53	18122.9
717.873	18168.32
718.216	17973.07
718.559	18009.23
718.902	17868.89
719.246	17904.6
719.589	17834.55
719.932	17797.48
720.275	17780.76
720.617	17791.83
720.96	17767.2
721.303	17767.43
721.646	17833.87
721.989	17729.24
722.331	17704.15
722.674	17619.86
723.016	17637.71
723.359	17641.1
723.701	17650.37
724.044	17464.16
724.386	17438.4
724.729	17475.46
725.071	17451.73
725.413	17453.31
725.755	17404.95
726.097	17359.98
726.439	17250.61
726.782	17385.74
727.124	17406.99
727.465	17324.5
727.807	17303.26
728.149	17343.71
728.491	17273.43
728.833	17284.5
729.175	17258.97
729.516	17166.31
729.858	17236.82
730.199	17228.91
730.541	17064.4
730.882	17173.77
731.224	17275.92
731.565	17124.28
731.906	17149.37
732.248	17168.12
732.589	17087.9
732.93	17053.77
733.271	17118.86
733.612	17092.64
733.953	17110.04
734.294	17032.31
734.635	17020.33
734.976	17140.78
735.317	17023.27
735.658	17033.89
735.999	17065.07
736.339	16996.6
736.68	17045.41
737.021	17023.49
737.361	16974
737.702	17047.22
738.042	16976.71
738.383	16968.13
738.723	17085.41
739.063	16983.04
739.404	17103.04
739.744	17101.46
740.084	17021.01
740.424	17017.39
740.764	17037.05
741.104	17181
741.444	17150.27
741.784	17067.56
742.124	17051.97
742.464	17084.06
742.804	17142.81
743.143	17061.46
743.483	17122.25
743.823	17108.91
744.162	17099.65
744.502	17188.46
744.841	17230.49
745.181	17380.55
745.52	17339.64
745.86	17415.35
746.199	17330.15
746.538	17422.58
746.877	17522.24
747.216	17514.1
747.556	17484.5
747.895	17587.32
748.234	17618.51
748.573	17618.73
748.911	17651.73
749.25	17745.51
749.589	17770.37
749.928	17935.79
750.267	18054.65
750.605	17990.25
750.944	17972.85
751.283	18170.13
751.621	18263.91
751.96	18253.07
752.298	18388.43
752.636	18529.22
752.975	18415.77
753.313	18557.46
753.651	18799.94
753.989	18770.57
754.327	18723.11
754.666	18900.51
755.004	19040.16
755.342	19200.61
755.679	19371
756.017	19388.63
756.355	19509.98
756.693	19563.09
757.031	19758.56
757.368	19801.95
757.706	19967.14
758.044	19980.03
758.381	20099.12
