Data from hue_32_FLMS001491_00012.txt Node
Date: Tue Feb 07 17:22:57 GMT 2017
User: dcchb
Spectrometer: FLMS00149
Trigger mode: 0
Integration Time (sec): 2.000000E-2
Scans to average: 10
Electric dark correction enabled: true
Nonlinearity correction enabled: false
Boxcar width: 0
XAxis mode: Wavelengths
Number of Pixels in Spectrum: 2048
>>>>>Begin Spectral Data<<<<<
341.393	-1.45
341.776	-1.45
342.16	-1.45
342.543	-67.44
342.927	-60.44
343.31	-71.06
343.693	-77.38
344.077	-64.28
344.46	-47.78
344.843	-48.69
345.226	-32.87
345.61	-27.22
345.993	-28.35
346.376	4.87
346.759	18.21
347.142	6
347.525	31.76
347.908	45.1
348.291	92.78
348.674	84.64
349.057	114.25
349.44	120.12
349.823	133.46
350.206	157.64
350.588	217.52
350.971	216.62
351.354	224.08
351.737	260.69
352.119	253.23
352.502	267.01
352.884	281.48
353.267	280.57
353.65	316.28
354.032	288.71
354.414	324.64
354.797	319.44
355.179	337.07
355.562	349.5
355.944	315.83
356.326	341.59
356.709	331.87
357.091	330.51
357.473	369.38
357.855	342.49
358.238	332.32
358.62	350.4
359.002	336.62
359.384	324.19
359.766	361.7
360.148	313.57
360.53	345.88
360.912	354.92
361.294	338.65
361.676	340.23
362.057	320.12
362.439	349.04
362.821	365.09
363.203	325.09
363.584	331.87
363.966	344.98
364.348	344.52
364.729	345.88
365.111	328.71
365.493	323.51
365.874	334.36
366.256	322.6
366.637	326.9
367.019	290.29
367.4	318.31
367.781	296.62
368.163	327.35
368.544	319.67
368.925	311.08
369.306	316.5
369.688	308.59
370.069	333
370.45	299.78
370.831	329.61
371.212	321.47
371.593	328.71
371.974	325.54
372.355	338.42
372.736	324.19
373.117	316.05
373.498	313.79
373.879	313.57
374.26	327.58
374.641	305.43
375.021	318.54
375.402	316.73
375.783	342.49
376.163	323.28
376.544	337.75
376.925	339.55
377.305	353.56
377.686	326.9
378.066	328.03
378.447	348.37
378.827	317.86
379.208	328.93
379.588	358.76
379.968	337.29
380.349	350.85
380.729	360.57
381.109	345.88
381.489	364.41
381.87	363.73
382.25	356.05
382.63	351.53
383.01	355.6
383.39	347.69
383.77	340.91
384.15	342.72
384.53	353.34
384.91	361.93
385.29	356.95
385.67	356.28
386.049	369.83
386.429	366.45
386.809	355.6
387.189	375.71
387.568	351.3
387.948	355.82
388.328	361.25
388.707	349.27
389.087	370.29
389.466	387.46
389.846	364.41
390.225	383.39
390.605	370.96
390.984	350.63
391.363	360.34
391.743	373.68
392.122	384.07
392.501	368.25
392.881	388.59
393.26	354.24
393.639	372.32
394.018	392.66
394.397	359.67
394.776	381.13
395.155	400.79
395.534	393.34
395.913	394.92
396.292	394.02
396.671	387.01
397.05	411.19
397.429	396.95
397.808	401.02
398.186	397.18
398.565	399.66
398.944	389.95
399.323	436.05
399.701	398.76
400.08	392.43
400.458	420.46
400.837	411.19
401.215	415.94
401.594	411.42
401.972	444.86
402.351	394.69
402.729	401.92
403.107	408.03
403.486	437.18
403.864	404.41
404.242	423.84
404.62	438.53
404.999	439.89
405.377	433.11
405.755	427.46
406.133	446.67
406.511	442.15
406.889	428.14
407.267	448.7
407.645	430.4
408.023	446.67
408.401	439.66
408.779	445.99
409.156	475.37
409.534	445.31
409.912	471.08
410.29	435.6
410.667	457.52
411.045	481.47
411.422	460.45
411.8	459.32
412.178	489.83
412.555	494.13
412.933	479.66
413.31	493.45
413.687	505.65
414.065	477.18
414.442	493.67
414.819	489.61
415.197	497.97
415.574	500.68
415.951	522.6
416.328	487.35
416.705	492.77
417.082	485.76
417.46	497.97
417.837	505.65
418.214	512.43
418.591	527.57
418.967	531.19
419.344	497.74
419.721	538.42
420.098	517.63
420.475	529.15
420.852	532.77
421.228	528.47
421.605	542.03
421.982	555.37
422.358	544.52
422.735	536.84
423.111	533.22
423.488	582.26
423.864	556.72
424.241	578.64
424.617	563.05
424.994	572.99
425.37	549.94
425.746	564.41
426.123	587
426.499	577.74
426.875	591.07
427.251	575.71
427.627	584.29
428.003	575.93
428.379	618.42
428.756	602.82
429.132	623.61
429.507	637.85
429.883	619.55
430.259	631.07
430.635	634.46
431.011	656.16
431.387	655.03
431.763	628.59
432.138	653.22
432.514	658.41
432.89	669.26
433.265	668.13
433.641	693.22
434.016	692.09
434.392	680.79
434.767	665.19
435.143	707
435.518	709.71
435.894	697.28
436.269	721.69
436.644	710.84
437.02	726.89
437.395	734.8
437.77	727.34
438.145	719.2
438.52	712.2
438.895	751.97
439.271	769.82
439.646	780.67
440.021	768.02
440.395	770.5
440.77	761.91
441.145	766.66
441.52	791.97
441.895	773.44
442.27	780.9
442.645	802.37
443.019	808.24
443.394	803.72
443.769	801.46
444.143	819.54
444.518	812.08
444.892	814.34
445.267	810.28
445.641	826.32
446.016	822.03
446.39	843.95
446.764	834.91
447.139	817.05
447.513	838.52
447.887	861.35
448.262	846.43
448.636	816.6
449.01	864.51
449.384	869.71
449.758	888.01
450.132	883.95
450.506	880.33
450.88	871.52
451.254	878.75
451.628	901.12
452.002	908.13
452.376	914.91
452.75	908.8
453.123	929.59
453.497	930.05
453.871	934.11
454.244	961.91
454.618	971.63
454.992	977.73
455.365	981.8
455.739	986.32
456.112	995.13
456.486	1017.05
456.859	1001
457.232	1035.58
457.606	1026.77
457.979	1031.96
458.352	1057.27
458.725	1087.78
459.099	1102.25
459.472	1086.43
459.845	1100.66
460.218	1090.27
460.591	1109.25
460.964	1138.18
461.337	1142.47
461.71	1169.59
462.083	1172.53
462.456	1187.67
462.829	1172.98
463.201	1195.35
463.574	1217.72
463.947	1255.01
464.32	1235.12
464.692	1246.2
465.065	1272.18
465.438	1278.06
465.81	1310.15
466.183	1315.57
466.555	1340.66
466.928	1337.04
467.3	1345.4
467.672	1373.42
468.045	1391.5
468.417	1433.99
468.789	1429.47
469.161	1459.98
469.534	1471.05
469.906	1496.81
470.278	1486.64
470.65	1533.19
471.022	1543.36
471.394	1587.66
471.766	1633.76
472.138	1642.8
472.51	1645.28
472.882	1690.93
473.253	1709.91
473.625	1752.4
473.997	1819.06
474.369	1791.72
474.74	1858.84
475.112	1845.73
475.484	1885.28
475.855	1899.96
476.227	2014.76
476.598	2029.9
476.97	2066.97
477.341	2111.03
477.713	2141.54
478.084	2214.76
478.455	2237.81
478.827	2295.89
479.198	2374.75
479.569	2393.51
479.94	2449.1
480.311	2510.8
480.682	2564.81
481.053	2608.19
481.424	2680.96
481.795	2725.03
482.166	2784.91
482.537	2877.34
482.908	2950.33
483.279	2944.23
483.65	3099.71
484.021	3137.22
484.391	3187.84
484.762	3264.22
485.133	3302.41
485.503	3353.71
485.874	3484.33
486.244	3567.49
486.615	3616.98
486.985	3720.03
487.356	3814.26
487.726	3881.83
488.097	3976.52
488.467	4038.44
488.837	4117.98
489.207	4165.89
489.578	4299.45
489.948	4345.1
490.318	4447.92
490.688	4487.92
491.058	4602.72
491.428	4687.24
491.798	4804.97
492.168	4850.85
492.538	4964.06
492.908	5002.48
493.278	5074.12
493.648	5161.12
494.017	5249.71
494.387	5313.66
494.757	5363.38
495.126	5473.2
495.496	5502.81
495.866	5589.13
496.235	5713.2
496.605	5767.21
496.974	5831.61
497.344	5915.45
497.713	6008.33
498.082	6015.11
498.452	6160.87
498.821	6185.73
499.19	6203.35
499.559	6357.25
499.928	6380.75
500.298	6422.11
500.667	6548.43
501.036	6582.1
501.405	6642.21
501.774	6680.18
502.143	6681.99
502.512	6806.28
502.88	6823.68
503.249	6869.78
503.618	6961.98
503.987	6974.63
504.356	7090.11
504.724	7135.76
505.093	7197
505.462	7264.34
505.83	7287.39
506.199	7406.03
506.567	7442.19
506.936	7402.64
507.304	7568.52
507.672	7559.02
508.041	7631.34
508.409	7716.53
508.777	7829.07
509.145	7830.2
509.514	7870.2
509.882	7958.11
510.25	7969.18
510.618	7989.97
510.986	8041.72
511.354	8139.8
511.722	8203.53
512.09	8333.92
512.458	8278.55
512.826	8418.66
513.193	8365.56
513.561	8452.56
513.929	8401.94
514.297	8594.93
514.664	8584.08
515.032	8634.02
515.4	8721.48
515.767	8670.41
516.135	8732.1
516.502	8725.1
516.869	8857.07
517.237	8863.62
517.604	8807.13
517.972	8981.81
518.339	8976.39
518.706	8984.3
519.073	9056.61
519.44	9141.36
519.808	9195.14
520.175	9138.19
520.542	9302.93
520.909	9335.02
521.276	9300.22
521.643	9406.43
522.009	9521.68
522.376	9519.2
522.743	9611.17
523.11	9638.07
523.477	9756.25
523.843	9796.03
524.21	9860.66
524.577	9942.46
524.943	9984.05
525.31	10040.09
525.676	10143.36
526.043	10192.4
526.409	10241.89
526.776	10322.12
527.142	10350.82
527.508	10381.78
527.874	10457.48
528.241	10504.94
528.607	10591.71
528.973	10643.69
529.339	10634.2
529.705	10747.87
530.071	10768.66
530.437	10804.14
530.803	10898.82
531.169	10990.8
531.535	10978.14
531.901	11023.57
532.267	11100.17
532.632	11140.63
532.998	11205.71
533.364	11304.24
533.73	11365.48
534.095	11453.84
534.461	11376.33
534.826	11421.52
535.192	11511.01
535.557	11567.05
535.923	11608.64
536.288	11642.76
536.653	11601.86
537.019	11652.25
537.384	11748.97
537.749	11804.79
538.114	11846.82
538.479	11887.27
538.845	11946.93
539.21	11940.83
539.575	12002.07
539.94	12038.68
540.305	12163.88
540.67	12135.63
541.034	12242.97
541.399	12310.09
541.764	12337.2
542.129	12371.78
542.494	12416.75
542.858	12501.04
543.223	12520.25
543.587	12531.78
543.952	12577.88
544.316	12604.32
544.681	12616.74
545.045	12687.03
545.41	12777.19
545.774	12746.91
546.138	12884.53
546.503	12967.47
546.867	12903.52
547.231	13028.03
547.595	12965.21
547.959	13032.55
548.324	13072.1
548.688	13200.91
549.052	13230.06
549.416	13256.5
549.779	13314.13
550.143	13340.79
550.507	13443.39
550.871	13469.38
551.235	13511.41
551.599	13583.72
551.962	13549.15
552.326	13637.28
552.689	13682.93
553.053	13685.87
553.417	13740.1
553.78	13832.98
554.143	13773.32
554.507	13992.08
554.87	13896.03
555.234	14052.41
555.597	13988.91
555.96	14061.45
556.323	14122.47
556.686	14105.74
557.05	14210.83
557.413	14180.09
557.776	14301.9
558.139	14392.52
558.502	14428.45
558.865	14383.25
559.228	14496.7
559.59	14532.85
559.953	14565.85
560.316	14731.27
560.679	14688.78
561.041	14867.31
561.404	14859.17
561.767	14914.54
562.129	14821.66
562.492	15078.83
562.854	15096.45
563.217	15075.21
563.579	15076.79
563.941	15245.83
564.304	15258.48
564.666	15293.06
565.028	15305.26
565.39	15382.1
565.753	15554.07
566.115	15441.08
566.477	15608.53
566.839	15645.82
567.201	15727.4
567.563	15813.95
567.925	15914.74
568.287	15835.64
568.648	15903.89
569.01	15892.59
569.372	16072.02
569.734	15980.95
570.095	16185.92
570.457	16265.01
570.819	16326.7
571.18	16335.97
571.542	16442.86
571.903	16551.33
572.265	16555.4
572.626	16607.83
572.987	16742.96
573.349	16841.04
573.71	16931.43
574.071	16999.23
574.432	16965.56
574.794	17234.02
575.155	17243.29
575.516	17207.58
575.877	17454.58
576.238	17501.81
576.599	17564.86
576.96	17651.64
577.32	17782.71
577.681	17908.58
578.042	18072.87
578.403	18170.95
578.763	18246.88
579.124	18374.33
579.485	18530.49
579.845	18710.14
580.206	18836.47
580.566	19046.41
580.927	19139.51
581.287	19358.71
581.648	19418.83
582.008	19712.6
582.368	19770.23
582.728	20024.23
583.089	20096.77
583.449	20476.65
583.809	20548.29
584.169	20722.75
584.529	21017.2
584.889	21188.72
585.249	21254.03
585.609	21530.63
585.969	21849.04
586.329	21894.69
586.688	22235.25
587.048	22437.5
587.408	22683.6
587.768	22799.53
588.127	23055.11
588.487	23338.5
588.846	23824.13
589.206	23830.23
589.565	24115.65
589.925	24522.87
590.284	24590.44
590.643	24985.91
591.003	25318.78
591.362	25571.88
591.721	25786.79
592.08	26108.37
592.44	26450.05
592.799	26569.82
593.158	26934.79
593.517	27154.22
593.876	27559.63
594.235	27765.05
594.593	28055.43
594.952	28299.95
595.311	28559.6
595.67	28778.81
596.029	29249.3
596.387	29405.46
596.746	29713.24
597.104	29824.43
597.463	30069.17
597.822	30451.3
598.18	30560.68
598.538	30808.58
598.897	31194.79
599.255	31118.18
599.613	31896.69
599.972	31878.16
600.33	32261.88
600.688	32357.47
601.046	32688.31
601.404	33007.62
601.762	33160.39
602.12	33568.06
602.478	33763.76
602.836	33973.02
603.194	33957.65
603.552	34244.42
603.91	34478.09
604.268	34801.7
604.625	34839.66
604.983	35155.13
605.341	35161.01
605.698	35653.43
606.056	35839.18
606.413	35885.74
606.771	36340.41
607.128	36557.13
607.485	36515.55
607.843	36790.57
608.2	37143.78
608.557	37329.09
608.914	37363.89
609.272	37622.64
609.629	37814.95
609.986	38093.81
610.343	38076.41
610.7	38466.01
611.057	38585.33
611.414	38741.48
611.771	38859.44
612.127	39066.44
612.484	39287.23
612.841	39399.32
613.198	39446.77
613.554	39522.48
613.911	39844.73
614.267	40031.39
614.624	40036.59
614.98	40198.62
615.337	40560.19
615.693	40470.02
616.05	40588.89
616.406	40880.86
616.762	40826.85
617.118	41012.61
617.475	41105.49
617.831	41324.69
618.187	41401.07
618.543	41504.35
618.899	41941.85
619.255	41741.18
619.611	41832.93
619.967	42018.23
620.323	42266.81
620.678	42054.39
621.034	42201.73
621.39	42078.79
621.746	42294.83
622.101	42818.66
622.457	42521.27
622.812	42747.03
623.168	42773.24
623.523	42701.38
623.879	42939.34
624.234	42767.14
624.589	43073.12
624.945	43218.2
625.3	43151.08
625.655	43259.78
626.01	43270.63
626.365	43415.26
626.72	43389.04
627.075	43417.97
627.43	43454.8
627.785	43391.98
628.14	43614.8
628.495	43744.51
628.85	43671.3
629.205	43530.73
629.559	43761.69
629.914	43591.3
630.269	43813.66
630.623	43627.23
630.978	43746.1
631.332	43803.04
631.687	43797.17
632.041	43700.45
632.396	43833.78
632.75	43714.23
633.104	43757.85
633.459	43627
633.813	43693.44
634.167	43846.88
634.521	43710.62
634.875	43838.97
635.229	43784.96
635.583	43697.74
635.937	43569.83
636.291	43681.69
636.645	43627
636.999	43551.07
637.352	43838.97
637.706	43631.07
638.06	43882.82
638.413	43698.19
638.767	43712.2
639.121	43765.08
639.474	43583.61
639.828	43515.37
640.181	43587.23
640.534	43697.74
640.888	43619.32
641.241	43332.55
641.594	43460.23
641.947	43621.58
642.301	43473.79
642.654	43472.43
643.007	43558.76
643.36	43436.5
643.713	43376.39
644.066	43604.18
644.419	43352.43
644.771	43045.55
645.124	42657.08
645.477	42694.6
645.83	42413.02
646.182	42277.21
646.535	41986.14
646.888	42279.47
647.24	42171
647.593	42284.89
647.945	42250.54
648.298	42000.6
648.65	41952.92
649.002	42000.15
649.355	42049.42
649.707	42093.94
650.059	42262.74
650.411	42752.45
650.763	42830.64
651.115	43085.77
651.467	42944.76
651.819	42893.24
652.171	42987.47
652.523	42820.24
652.875	42825.44
653.227	42621.15
653.578	42983.63
653.93	42905.44
654.282	42838.1
654.633	42633.81
654.985	42627.25
655.337	42741.6
655.688	42856.4
656.039	43001.93
656.391	42501.38
656.742	42518.78
657.094	42619.57
657.445	42737.99
657.796	42610.08
658.147	42595.39
658.498	42611.44
658.849	42657.54
659.2	42585.45
659.551	42559.69
659.902	42501.38
660.253	42498.67
660.604	42605.11
660.955	42451.21
661.306	42486.02
661.656	42553.58
662.007	42507.48
662.358	42515.62
662.708	42526.24
663.059	42464.77
663.409	42361.27
663.76	42595.62
664.11	42625.22
664.461	42636.29
664.811	42573.02
665.161	42486.92
665.511	42418.45
665.862	42517.65
666.212	42469.07
666.562	42455.51
666.912	42213.71
667.262	42308.39
667.612	42177.78
667.962	42219.58
668.312	42194.95
668.662	42582.96
669.011	42326.25
669.361	42217.77
669.711	42326.92
670.06	42191.79
670.41	42104.56
670.76	42238.34
671.109	42386.58
671.459	42284.44
671.808	42022.53
672.157	42344.55
672.507	41975.07
672.856	42071.34
673.205	42151.34
673.554	42176.42
673.904	42153.37
674.253	42406.7
674.602	42142.52
674.951	41380.51
675.3	41346.16
675.649	42115.63
675.998	42020.72
676.346	42166.02
676.695	42045.58
677.044	41919.25
677.393	42036.76
677.741	41997.44
678.09	41856.43
678.438	41640.16
678.787	41854.85
679.135	41818.24
679.484	41543.22
679.832	41702.99
680.181	41602.42
680.529	41519.04
680.877	41438.81
681.225	41470
681.573	41611.01
681.922	41245.14
682.27	41170.57
682.618	41255.99
682.966	41229.55
683.314	41286.95
683.661	41244.92
684.009	41030.01
684.357	41033.17
684.705	40832.27
685.053	40945.49
685.4	40864.36
685.748	40707.31
686.095	40687.64
686.443	40581.43
686.79	40462.11
687.138	40580.98
687.485	40672.5
687.832	40453.98
688.18	40443.13
688.527	40285.85
688.874	40290.59
689.221	40162.91
689.568	40032.29
689.915	39912.98
690.262	39962.69
690.609	39778.29
690.956	39675.24
691.303	39633.66
691.65	39566.77
691.997	39530.61
692.344	39221.24
692.69	39208.14
693.037	39362.93
693.383	38882.95
693.73	39111.64
694.077	38917.07
694.423	38887.01
694.769	38753.01
695.116	38771.76
695.462	38678.43
695.808	38617.42
696.155	38669.62
696.501	38269.18
696.847	38376.97
697.193	38058.79
697.539	38312.11
697.885	38028.96
698.231	37797.55
698.577	37815.63
698.923	37723.88
699.269	37607.27
699.614	37440.5
699.96	37394.62
700.306	37424
700.651	37186.04
700.997	37231.01
701.342	37038.48
701.688	37044.8
702.033	36834.86
702.379	36857.69
702.724	36794.41
703.069	36939.49
703.415	36406.85
703.76	36508.09
704.105	36538.15
704.45	36329.57
704.795	36120.53
705.14	36056.13
705.485	36051.16
705.83	35967.54
706.175	35923.93
706.52	35751.5
706.865	35653.43
707.209	35662.92
707.554	35535.69
707.899	35546.54
708.243	35306.32
708.588	35285.08
708.932	35086.66
709.277	35217.96
709.621	35198.07
709.966	34913.11
710.31	35082.59
710.654	34789.49
710.998	34784.52
711.342	34754.69
711.687	34722.83
712.031	34476.96
712.375	34389.96
712.719	34586.56
713.063	34524.87
713.407	34484.42
713.75	34278.77
714.094	34328.26
714.438	34076.07
714.782	34217.76
715.125	33956.07
715.469	34055.5
715.812	33939.12
716.156	33743.65
716.499	33788.39
716.843	33716.53
717.186	33582.75
717.53	33813.02
717.873	33636.98
718.216	33491.22
718.559	33444.9
718.902	33140.72
719.246	33316.99
719.589	33124.45
719.932	33129.2
720.275	33134.85
720.617	32950.67
720.96	32950.22
721.303	32939.83
721.646	32861.64
721.989	32751.58
722.331	32926.27
722.674	32818.47
723.016	32775.54
723.359	32632.26
723.701	32637.91
724.044	32479.27
724.386	32267.53
724.729	32475.66
725.071	32458.71
725.413	32376.22
725.755	32284.7
726.097	32150.02
726.439	32027.76
726.782	32079.51
727.124	32219.39
727.465	32064.59
727.807	31961.77
728.149	31963.81
728.491	31911.15
728.833	31970.13
729.175	31765.17
729.516	31715.23
729.858	31698.73
730.199	31698.05
730.541	31682.91
730.882	31598.62
731.224	31562.46
731.565	31439.53
731.906	31481.33
732.248	31460.99
732.589	31335.57
732.93	31316.14
733.271	31295.8
733.612	31147.33
733.953	31324.05
734.294	31220.55
734.635	31094.22
734.976	31084.73
735.317	31026.43
735.658	31024.17
735.999	30875.93
736.339	30761.58
736.68	30903.95
737.021	30833.44
737.361	30677.96
737.702	30917.96
738.042	30729.49
738.383	30605.65
738.723	30688.13
739.063	30645.42
739.404	30625.08
739.744	30450.63
740.084	30341.02
740.424	30545.09
740.764	30429.38
741.104	30519.32
741.444	30307.35
741.784	30177.64
742.124	30119.34
742.464	30208.37
742.804	30194.36
743.143	29996.17
743.483	30011.99
743.823	29919.79
744.162	29895.39
744.502	29917.53
744.841	29846.57
745.181	29876.86
745.52	29706.01
745.86	29872.34
746.199	29649.29
746.538	29704.66
746.877	29787.37
747.216	29792.56
747.556	29499.24
747.895	29659.01
748.234	29562.29
748.573	29460.82
748.911	29407.72
749.25	29397.32
749.589	29160.94
749.928	29265.8
750.267	29167.72
750.605	29233.03
750.944	29126.82
751.283	29060.83
751.621	29156.42
751.96	28948.97
752.298	29004.56
752.636	28916.43
752.975	28786.71
753.313	28779.94
753.651	28821.74
753.989	28587.85
754.327	28681.86
754.666	28498.81
755.004	28544.69
755.342	28701.75
755.679	28499.04
756.017	28316.22
756.355	28336.56
756.693	28226.73
757.031	28228.31
757.368	28116.9
757.706	28103.34
