Data from hue_60_FLMS001491_45.txt Node
Date: Mon Feb 06 15:17:27 GMT 2017
User: dcchb
Spectrometer: FLMS00149
Trigger mode: 0
Integration Time (sec): 2.000000E-2
Scans to average: 10
Electric dark correction enabled: true
Nonlinearity correction enabled: false
Boxcar width: 0
XAxis mode: Wavelengths
Number of Pixels in Spectrum: 2048
>>>>>Begin Spectral Data<<<<<
341.393	-17.88
341.776	-17.88
342.16	-17.88
342.543	-56.98
342.927	-70.31
343.31	-56.98
343.693	-65.56
344.077	-68.05
344.46	-56.98
344.843	-60.59
345.226	-35.28
345.61	-13.81
345.993	-19.46
346.376	-10.2
346.759	-4.32
347.142	37.48
347.525	42
347.908	50.37
348.291	69.12
348.674	79.07
349.057	113.19
349.44	131.27
349.823	174.43
350.206	167.88
350.588	205.16
350.971	213.75
351.354	226.63
351.737	225.73
352.119	246.07
352.502	247.87
352.884	276.35
353.267	264.15
353.65	300.08
354.032	296.01
354.414	318.83
354.797	318.16
355.179	316.57
355.562	318.38
355.944	312.73
356.326	325.16
356.709	338.72
357.091	347.31
357.473	331.94
357.855	349.34
358.238	340.98
358.62	340.98
359.002	339.4
359.384	333.75
359.766	330.58
360.148	339.85
360.53	335.33
360.912	341.88
361.294	360.87
361.676	329.68
362.057	319.06
362.439	341.66
362.821	335.56
363.203	339.17
363.584	339.4
363.966	345.05
364.348	304.82
364.729	339.17
365.111	313.86
365.493	320.42
365.874	308.44
366.256	311.83
366.637	320.64
367.019	319.74
367.4	317.48
367.781	317.03
368.163	308.44
368.544	312.51
368.925	320.87
369.306	316.57
369.688	320.42
370.069	302.79
370.45	323.58
370.831	314.09
371.212	311.15
371.593	319.96
371.974	321.09
372.355	332.84
372.736	314.31
373.117	324.93
373.498	319.29
373.879	324.48
374.26	341.43
374.641	312.73
375.021	339.4
375.402	327.87
375.783	313.64
376.163	310.25
376.544	313.86
376.925	348.21
377.305	309.12
377.686	332.84
378.066	304.14
378.447	311.15
378.827	321.77
379.208	296.24
379.588	321.32
379.968	335.56
380.349	319.51
380.729	314.31
381.109	342.56
381.489	338.49
381.87	324.26
382.25	336.69
382.63	333.52
383.01	337.59
383.39	325.61
383.77	352.28
384.15	337.82
384.53	332.62
384.91	328.32
385.29	338.04
385.67	354.31
386.049	343.24
386.429	333.52
386.809	359.28
387.189	346.63
387.568	345.73
387.948	341.66
388.328	344.82
388.707	357.93
389.087	341.21
389.466	359.28
389.846	335.1
390.225	348.21
390.605	356.35
390.984	349.57
391.363	374.65
391.743	359.74
392.122	354.76
392.501	375.56
392.881	356.12
393.26	357.25
393.639	359.74
394.018	376.23
394.397	365.39
394.776	375.33
395.155	344.6
395.534	369.23
395.913	364.03
396.292	368.1
396.671	375.78
397.05	360.41
397.429	376.69
397.808	373.52
398.186	365.16
398.565	360.64
398.944	370.13
399.323	373.52
399.701	368.32
400.08	380.07
400.458	384.14
400.837	392.05
401.215	376.69
401.594	380.98
401.972	377.14
402.351	386.85
402.729	380.3
403.107	404.93
403.486	384.82
403.864	403.58
404.242	407.42
404.62	409.23
404.999	387.76
405.377	395.67
405.755	393.41
406.133	401.09
406.511	398.15
406.889	413.52
407.267	415.78
407.645	423.01
408.023	420.07
408.401	430.47
408.779	437.93
409.156	405.84
409.534	412.16
409.912	440.41
410.29	414.65
410.667	418.49
411.045	422.56
411.422	428.89
411.8	434.31
412.178	437.02
412.555	448.32
412.933	442.22
413.31	455.33
413.687	436.34
414.065	454.88
414.442	451.49
414.819	450.58
415.197	435.67
415.574	467.76
415.951	445.38
416.328	456.46
416.705	460.52
417.082	445.84
417.46	465.5
417.837	479.96
418.214	489.45
418.591	462.33
418.967	465.72
419.344	483.12
419.721	483.57
420.098	470.24
420.475	477.93
420.852	490.58
421.228	488.55
421.605	470.47
421.982	503.01
422.358	500.07
422.735	510.69
423.111	496.23
423.488	509.34
423.864	510.47
424.241	507.98
424.617	516.79
424.994	523.57
425.37	519.96
425.746	528.09
426.123	522.67
426.499	544.14
426.875	547.08
427.251	535.1
427.627	534.87
428.003	533.97
428.379	561.09
428.756	559.51
429.132	544.14
429.507	559.05
429.883	549.11
430.259	558.15
430.635	589.33
431.011	563.8
431.387	595.89
431.763	618.71
432.138	593.4
432.514	588.2
432.89	596.11
433.265	616.68
433.641	614.64
434.016	592.27
434.392	607.19
434.767	624.59
435.143	616.68
435.518	611.03
435.894	618.26
436.269	620.29
436.644	620.52
437.02	635.89
437.395	632.27
437.77	663.91
438.145	642.89
438.52	639.28
438.895	640.18
439.271	637.24
439.646	657.13
440.021	660.07
440.395	667.98
440.77	662.33
441.145	669.11
441.52	698.71
441.895	683.34
442.27	679.28
442.645	682.21
443.019	693.51
443.394	683.12
443.769	678.37
444.143	694.42
444.518	705.26
444.892	729.67
445.267	718.82
445.641	717.24
446.016	721.53
446.39	717.69
446.764	704.13
447.139	763.34
447.513	755.21
447.887	714.08
448.262	713.85
448.636	744.13
449.01	760.63
449.384	777.13
449.758	765.83
450.132	745.26
450.506	775.54
450.88	763.34
451.254	787.75
451.628	785.94
452.002	798.14
452.376	786.17
452.75	796.11
453.123	795.88
453.497	791.59
453.871	813.96
454.244	811.93
454.618	846.05
454.992	834.98
455.365	839.27
455.739	831.81
456.112	845.37
456.486	838.37
456.859	880.85
457.232	899.16
457.606	887.41
457.979	910.91
458.352	903.22
458.725	917.46
459.099	915.2
459.472	961.08
459.845	957.46
460.218	974.18
460.591	970.79
460.964	979.83
461.337	1001.3
461.71	1013.05
462.083	1015.09
462.456	999.27
462.829	1033.62
463.201	1061.64
463.574	1070.23
463.947	1067.97
464.32	1098.47
464.692	1089.43
465.065	1097.34
465.438	1128.76
465.81	1126.27
466.183	1169.21
466.555	1187.96
466.928	1187.74
467.3	1198.58
467.672	1218.7
468.045	1271.8
468.417	1251.92
468.789	1265.93
469.161	1278.58
469.534	1326.26
469.906	1354.06
470.278	1352.93
470.65	1370.33
471.022	1397
471.394	1444.68
471.766	1470.44
472.138	1480.84
472.51	1488.75
472.882	1555.64
473.253	1559.03
473.625	1611.91
473.997	1642.87
474.369	1674.73
474.74	1700.49
475.112	1767.83
475.484	1775.07
475.855	1852.8
476.227	1871.79
476.598	1939.13
476.97	1947.04
477.341	2044.89
477.713	2094.38
478.084	2137.09
478.455	2229.97
478.827	2243.98
479.198	2332.79
479.569	2392.45
479.94	2453.69
480.311	2542.28
480.682	2609.17
481.053	2720.35
481.424	2789.28
481.795	2860.46
482.166	2918.54
482.537	3041.47
482.908	3102.49
483.279	3168.25
483.65	3267.46
484.021	3371.41
484.391	3481.69
484.762	3569.82
485.133	3639.2
485.503	3717.61
485.874	3895.46
486.244	3975.01
486.615	4078.96
486.985	4216.13
487.356	4395.11
487.726	4445.96
488.097	4586.29
488.467	4669.23
488.837	4840.97
489.207	5035.09
489.578	5088.2
489.948	5202.32
490.318	5413.61
490.688	5474.4
491.058	5653.61
491.428	5816.32
491.798	5935.86
492.168	6125.23
492.538	6180.6
492.908	6317.32
493.278	6502.4
493.648	6626.92
494.017	6787.14
494.387	6917.98
494.757	7120.24
495.126	7248.14
495.496	7331.3
495.866	7492.88
496.235	7690.84
496.605	7822.14
496.974	7938.52
497.344	8099.42
497.713	8247.21
498.082	8369.92
498.452	8623.02
498.821	8717.03
499.19	8816.01
499.559	8956.8
499.928	9105.04
500.298	9236.79
500.667	9415.54
501.036	9479.27
501.405	9658.47
501.774	9793.16
502.143	9911.12
502.512	10128.52
502.88	10257.78
503.249	10308.63
503.618	10581.39
503.987	10533.93
504.356	10727.83
504.724	10859.57
505.093	10984.77
505.462	11127.14
505.83	11302.73
506.199	11348.83
506.567	11566.22
506.936	11632.21
507.304	11828.14
507.672	11880.34
508.041	11991.97
508.409	12212.31
508.777	12422.47
509.145	12527.33
509.514	12519.19
509.882	12738.62
510.25	12801.44
510.618	12976.13
510.986	13104.49
511.354	13217.7
511.722	13490.46
512.09	13570.46
512.458	13679.61
512.826	13798.03
513.193	13887.97
513.561	14010.45
513.929	14129.77
514.297	14262.65
514.664	14377.45
515.032	14496.54
515.4	14632.36
515.767	14723.43
516.135	14889.3
516.502	14905.57
516.869	15195.05
517.237	15247.93
517.604	15277.99
517.972	15535.83
518.339	15601.37
518.706	15719.11
519.073	15915.49
519.44	15916.62
519.808	16139.43
520.175	16189.6
520.542	16416.04
520.909	16531.97
521.276	16590.72
521.643	16792.52
522.009	16893.31
522.376	17055.57
522.743	17213.3
523.11	17401.1
523.477	17604.25
523.843	17767.64
524.21	17841.08
524.577	18035.66
524.943	18115.2
525.31	18130.12
525.676	18471.58
526.043	18501.86
526.409	18654.62
526.776	18807.39
527.142	18988.63
527.508	19122.18
527.874	19178.45
528.241	19311.55
528.607	19359.24
528.973	19532.11
529.339	19650.08
529.705	19835.16
530.071	19972.78
530.437	20083.96
530.803	20148.82
531.169	20372.32
531.535	20270.4
531.901	20407.57
532.267	20490.28
532.632	20693.21
532.998	20808.69
533.364	20890.27
533.73	20861.34
534.095	21139.75
534.461	21157.83
534.826	21332.97
535.192	21442.35
535.557	21535.22
535.923	21572.06
536.288	21719.63
536.653	21815.44
537.019	21820.41
537.384	21942.67
537.749	22047.08
538.114	22022.22
538.479	22112.16
538.845	22312.83
539.21	22160.52
539.575	22346.5
539.94	22426.95
540.305	22517.12
540.67	22526.84
541.034	22598.25
541.399	22724.57
541.764	22792.37
542.129	22857.22
542.494	22944.23
542.858	23170.44
543.223	23100.83
543.587	23232.58
543.952	23245.24
544.316	23293.37
544.681	23295.4
545.045	23529.3
545.41	23531.56
545.774	23795.5
546.138	23611.55
546.503	23808.39
546.867	23794.37
547.231	23976.52
547.595	24057.19
547.959	24114.59
548.324	24135.61
548.688	24185.78
549.052	24328.6
549.416	24337.18
549.779	24340.57
550.143	24484.98
550.507	24613.79
550.871	24708.02
551.235	24716.38
551.599	24844.29
551.962	24894.68
552.326	25083.38
552.689	25295.35
553.053	25092.65
553.417	25162.93
553.78	25597.94
554.143	25423.26
554.507	25565.85
554.87	25589.81
555.234	25888.1
555.597	25725.4
555.96	25838.84
556.323	26083.58
556.686	26031.38
557.05	26316.12
557.413	26303.23
557.776	26349.56
558.139	26618.25
558.502	26540.06
558.865	26768.31
559.228	26907.06
559.59	26956.33
559.953	27152.03
560.316	27387.5
560.679	27246.04
561.041	27571
561.404	27618
561.767	27777.77
562.129	27654.84
562.492	28056.64
562.854	27961.5
563.217	28103.19
563.579	28193.35
563.941	28361.03
564.304	28558.32
564.666	28662.95
565.028	28666.11
565.39	28778.2
565.753	28981.58
566.115	29036.04
566.477	29154.23
566.839	29228.13
567.201	29514.9
567.563	29472.42
567.925	29743.14
568.287	29681.23
568.648	29784.27
569.01	29951.95
569.372	30217.26
569.734	30118.95
570.095	30213.87
570.457	30384.26
570.819	30492.73
571.18	30331.15
571.542	30654.98
571.903	30676
572.265	30803
572.626	30948.54
572.987	30883
573.349	31110.57
573.71	31187.63
574.071	31243.44
574.432	31472.82
574.794	31611.8
575.155	31620.84
575.516	31517.56
575.877	31655.64
576.238	31679.36
576.599	31852.92
576.96	31917.1
577.32	31930.21
577.681	32104.89
578.042	32126.13
578.403	32230.99
578.763	32140.37
579.124	32341.27
579.485	32375.84
579.845	32470.98
580.206	32372.68
580.566	32503.98
580.927	32483.86
581.287	32762.95
581.648	32591.88
582.008	32579
582.368	32633.24
582.728	32807.7
583.089	32579.23
583.449	32743.74
583.809	32749.62
584.169	32910.29
584.529	32739.22
584.889	33120
585.249	32806.11
585.609	32750.75
585.969	32946.45
586.329	32779.22
586.688	32942.83
587.048	32977.41
587.408	32876.4
587.768	33031.87
588.127	32897.19
588.487	32963.17
588.846	33248.82
589.206	32909.39
589.565	33018.76
589.925	33234.8
590.284	33057.41
590.643	33076.16
591.003	33142.15
591.362	33254.69
591.721	33209.49
592.08	33196.39
592.44	33399.09
592.799	33381.69
593.158	33203.62
593.517	33255.14
593.876	33365.65
594.235	33260.57
594.593	33305.99
594.952	33520.45
595.311	33282.94
595.67	33282.49
596.029	33648.8
596.387	33559.54
596.746	33708.24
597.104	33509.37
597.463	33535.14
597.822	33724.51
598.18	33552.99
598.538	33721.8
598.897	33842.47
599.255	33546.66
599.613	34051.28
599.972	33853.77
600.33	33980.1
600.688	33914.79
601.046	34082.92
601.404	34141.9
601.762	34108.45
602.12	34164.27
602.478	34136.48
602.836	34260.31
603.194	34135.12
603.552	34184.61
603.91	33987.55
604.268	34315.68
604.625	34259.64
604.983	34443.36
605.341	34223.48
605.698	34491.49
606.056	34526.07
606.413	34459.4
606.771	34636.58
607.128	34685.39
607.485	34581.44
607.843	34632.06
608.2	34807.42
608.557	35072.72
608.914	34846.74
609.272	35018.94
609.629	35131.7
609.986	35204.24
610.343	35050.58
610.7	35361.08
611.057	35255.54
611.414	35242.89
611.771	35417.35
612.127	35421.41
612.484	35417.12
612.841	35586.38
613.198	35464.58
613.554	35338.48
613.911	35748.86
614.267	35674.29
614.624	35751.12
614.98	35857.56
615.337	35976.65
615.693	35933.72
616.05	35835.19
616.406	36080.15
616.762	36070.66
617.118	36010.1
617.475	35930.78
617.831	36272.69
618.187	36255.97
618.543	36247.15
618.899	36418
619.255	36380.94
619.611	36376.87
619.967	36448.5
620.323	36511.1
620.678	36515.85
621.034	36410.77
621.39	36492.8
621.746	36496.19
622.101	36895.95
622.457	36680.36
622.812	36670.19
623.168	36899.57
623.523	36853.92
623.879	36888.04
624.234	36766.24
624.589	36789.74
624.945	36902.28
625.3	36947.25
625.655	36970.98
626.01	37012.56
626.365	36992.22
626.72	36938.21
627.075	36908.83
627.43	36860.7
627.785	36897.08
628.14	36906.8
628.495	36942.73
628.85	36888.95
629.205	36789.51
629.559	37100.92
629.914	36949.06
630.269	36923.52
630.623	36907.7
630.978	36847.14
631.332	37005.78
631.687	36982.73
632.041	36877.87
632.396	36988.15
632.75	36815.73
633.104	36887.14
633.459	36722.4
633.813	36831.32
634.167	36772.34
634.521	36713.13
634.875	36836.52
635.229	36820.47
635.583	36535.73
635.937	36695.05
636.291	36617.31
636.645	36559.24
636.999	36450.54
637.352	36653.7
637.706	36428.17
638.06	36568.05
638.413	36490.76
638.767	36486.7
639.121	36561.95
639.474	36261.39
639.828	36316.98
640.181	36302.97
640.534	36327.15
640.888	36360.6
641.241	36150.66
641.594	36163.99
641.947	36348.62
642.301	36079.02
642.654	36324.44
643.007	36303.65
643.36	36082.19
643.713	36105.46
644.066	36269.75
644.419	36006.93
644.771	35796.32
645.124	35521.3
645.477	35369.66
645.83	35297.8
646.182	34981.2
646.535	34875.44
646.888	35057.58
647.24	34851.94
647.593	35132.61
647.945	34984.14
648.298	34847.87
648.65	34744.37
649.002	34707.53
649.355	34957.47
649.707	34754.31
650.059	34972.61
650.411	35420.74
650.763	35348.65
651.115	35761.52
651.467	35529.43
651.819	35603.78
652.171	35506.83
652.523	35474.07
652.875	35323.11
653.227	35308.2
653.578	35463.67
653.93	35400.85
654.282	35288.99
654.633	35302.55
654.985	35323.11
655.337	35436.1
655.688	35315.65
656.039	35435.2
656.391	35087.18
656.742	35044.25
657.094	35102.78
657.445	35269.78
657.796	35105.04
658.147	35071.82
658.498	35073.17
658.849	35141.65
659.2	35149.78
659.551	34998.83
659.902	35144.36
660.253	35157.92
660.604	35092.61
660.955	34890.81
661.306	35166.73
661.656	34969.22
662.007	35102.78
662.358	34987.07
662.708	35029.79
663.059	34999.28
663.409	34666.4
663.76	35038.37
664.11	34972.39
664.461	34969.45
664.811	34929.22
665.161	34899.17
665.511	34932.84
665.862	35005.15
666.212	35161.76
666.562	35029.79
666.912	34902.56
667.262	34889.9
667.612	34829.56
667.962	34894.2
668.312	34903.46
668.662	34911.37
669.011	34771.03
669.361	34844.48
669.711	34692.17
670.06	34704.6
670.41	34739.62
670.76	34712.51
671.109	34757.02
671.459	34622.11
671.808	34581.66
672.157	34681.09
672.507	34471.83
672.856	34549.8
673.205	34543.47
673.554	34705.27
673.904	34598.61
674.253	34749.34
674.602	34568.33
674.951	34031.62
675.3	33884.5
675.649	34461.89
675.998	34430.93
676.346	34350.03
676.695	34509.8
677.044	34275.68
677.393	34396.58
677.741	34463.02
678.09	34417.82
678.438	34335.57
678.787	34435.9
679.135	34312.97
679.484	34116.59
679.832	34189.13
680.181	34094.89
680.529	34244.95
680.877	34017.61
681.225	34080.43
681.573	34092.41
681.922	33865.3
682.27	33827.56
682.618	33847.22
682.966	33778.07
683.314	33874.34
683.661	33713.89
684.009	33519.32
684.357	33573.55
684.705	33474.8
685.053	33563.16
685.4	33384.86
685.748	33178.31
686.095	33481.35
686.443	33310.06
686.79	33197.06
687.138	33296.72
687.485	33187.57
687.832	33043.62
688.18	33022.61
688.527	32872.33
688.874	32839.11
689.221	32734.03
689.568	32762.73
689.915	32695.61
690.262	32751.65
690.609	32527.25
690.956	32458.78
691.303	32468.95
691.65	32265.79
691.997	32209.75
692.344	32138.56
692.69	32114.16
693.037	32024.89
693.383	31876.42
693.73	31952.35
694.077	31697.67
694.423	31746.48
694.769	31632.13
695.116	31637.78
695.462	31728.4
695.808	31335.19
696.155	31539.93
696.501	31329.32
696.847	31349.2
697.193	31054.07
697.539	31167.97
697.885	30999.16
698.231	30832.38
698.577	30876.22
698.923	30776.56
699.269	30650.92
699.614	30553.52
699.96	30419.74
700.306	30499.51
700.651	30360.53
700.997	30194.21
701.342	30229.46
701.688	30069.01
702.033	30055.68
702.379	30008.22
702.724	29840.09
703.069	29882.8
703.415	29610.72
703.76	29679.19
704.105	29721.9
704.45	29636.93
704.795	29325.98
705.14	29369.82
705.485	29367.79
705.83	29283.72
706.175	29198.75
706.52	29186.1
706.865	29094.35
707.209	29082.82
707.554	28981.81
707.899	28960.34
708.243	28775.49
708.588	28845.09
708.932	28603.06
709.277	28539.56
709.621	28603.51
709.966	28449.39
710.31	28450.3
710.654	28217.53
710.998	28349.96
711.342	28327.59
711.687	28351.54
712.031	28076.75
712.375	27954.94
712.719	28049.18
713.063	28010.53
713.407	28145.67
713.75	27898.45
714.094	27851.22
714.438	27765.8
714.782	27742.97
715.125	27522.64
715.469	27746.13
715.812	27507.27
716.156	27358.8
716.499	27436.99
716.843	27421.85
717.186	27307.28
717.53	27434.96
717.873	27271.12
718.216	27084.23
718.559	27073.84
718.902	26978.7
719.246	27067.73
719.589	27021.18
719.932	26786.16
720.275	26873.16
720.617	26862.99
720.96	26737.12
721.303	26763.11
721.646	26763.11
721.989	26624.81
722.331	26681.98
722.674	26672.49
723.016	26629.33
723.359	26420.07
723.701	26480.63
724.044	26412.61
724.386	26324.93
724.729	26416.68
725.071	26288.55
725.413	26241.99
725.755	26331.93
726.097	26108.89
726.439	25943.47
726.782	25852.4
727.124	26101.43
727.465	25984.15
727.807	25997.03
728.149	25842.23
728.491	25758.84
728.833	25868.22
729.175	25736.02
729.516	25611.05
729.858	25620.09
730.199	25610.6
730.541	25618.96
730.882	25502.13
731.224	25657.15
731.565	25453.77
731.906	25444.73
732.248	25529.24
732.589	25284.73
732.93	25226.88
733.271	25287.89
733.612	25214.68
733.953	25305.97
734.294	25208.57
734.635	25143.27
734.976	25152.53
735.317	25111.85
735.658	25095.81
735.999	25091.29
736.339	24934.23
736.68	24903.05
737.021	24964.97
737.361	24747.12
737.702	24863.05
738.042	24863.5
738.383	24642.71
738.723	24852.88
739.063	24666.44
739.404	24682.94
739.744	24616.5
740.084	24585.77
740.424	24691.07
740.764	24475.49
741.104	24672.09
741.444	24402.27
741.784	24336.06
742.124	24420.8
742.464	24321.59
742.804	24336.28
743.143	24297.86
743.483	24335.6
743.823	24062.39
744.162	24088.83
744.502	24222.61
744.841	24048.38
745.181	24148.94
745.52	23960.92
745.86	24000.47
746.199	23976.29
746.538	23895.16
746.877	24019.91
747.216	23859.91
747.556	23842.51
747.895	23931.77
748.234	23727.48
748.573	23840.93
748.911	23713.02
749.25	23673.47
749.589	23544.89
749.928	23584.44
750.267	23575.85
750.605	23571.1
750.944	23536.3
751.283	23295.86
751.621	23445.23
751.96	23252.47
752.298	23327.49
752.636	23321.17
752.975	23233.03
753.313	23078.91
753.651	23162.53
753.989	23082.75
754.327	22974.06
754.666	22770.9
755.004	22828.75
755.342	23012.47
755.679	22942.42
756.017	22651.58
756.355	22766.15
756.693	22679.15
