Data from hue_120_FLMS001491_00087.txt Node
Date: Tue Feb 07 17:00:09 GMT 2017
User: dcchb
Spectrometer: FLMS00149
Trigger mode: 0
Integration Time (sec): 2.000000E-2
Scans to average: 10
Electric dark correction enabled: true
Nonlinearity correction enabled: false
Boxcar width: 0
XAxis mode: Wavelengths
Number of Pixels in Spectrum: 2048
>>>>>Begin Spectral Data<<<<<
341.393	-19.7
341.776	-19.7
342.16	-19.7
342.543	-54.73
342.927	-65.58
343.31	-49.98
343.693	-59.93
344.077	-60.83
344.46	-44.11
344.843	-66.93
345.226	-39.14
345.61	-46.59
345.993	-11.34
346.376	-14.51
346.759	10.58
347.142	-3.21
347.525	34.53
347.908	68.43
348.291	66.85
348.674	106.85
349.057	109.33
349.44	125.83
349.823	140.97
350.206	165.15
350.588	172.61
350.971	231.59
351.354	228.88
351.737	253.96
352.119	230.69
352.502	277.69
352.884	257.13
353.267	307.97
353.65	286.05
354.032	306.62
354.414	305.94
354.797	319.72
355.179	321.98
355.562	315.88
355.944	308.42
356.326	313.17
356.709	337.12
357.091	356.11
357.473	326.05
357.855	330.57
358.238	338.25
358.62	346.39
359.002	335.09
359.384	345.49
359.766	314.53
360.148	328.08
360.53	348.88
360.912	341.19
361.294	323.11
361.676	330.34
362.057	329.21
362.439	330.12
362.821	332.38
363.203	336.45
363.584	322.66
363.966	309.55
364.348	308.2
364.729	325.6
365.111	310.91
365.493	334.64
365.874	310.23
366.256	320.63
366.637	316.11
367.019	327.63
367.4	302.77
367.781	329.89
368.163	331.02
368.544	290.35
368.925	306.62
369.306	323.56
369.688	319.05
370.069	292.83
370.45	336.45
370.831	304.36
371.212	308.42
371.593	308.65
371.974	321.53
372.355	310.23
372.736	318.37
373.117	311.14
373.498	317.24
373.879	298.93
374.26	326.73
374.641	301.64
375.021	315.43
375.402	320.63
375.783	314.75
376.163	331.47
376.544	357.24
376.925	336.45
377.305	327.86
377.686	324.69
378.066	334.64
378.447	345.49
378.827	328.76
379.208	350.91
379.588	324.69
379.968	346.84
380.349	333.51
380.729	340.29
381.109	340.51
381.489	352.94
381.87	324.69
382.25	342.55
382.63	356.33
383.01	350.91
383.39	369.44
383.77	351.36
384.15	344.81
384.53	354.07
384.91	336.67
385.29	365.15
385.67	367.41
386.049	349.78
386.429	341.19
386.809	362.89
387.189	358.82
387.568	368.31
387.948	363.79
388.328	363.79
388.707	374.86
389.087	364.47
389.466	376.9
389.846	348.42
390.225	378.03
390.605	391.13
390.984	383.9
391.363	359.72
391.743	369.89
392.122	376.44
392.501	387.07
392.881	373.73
393.26	382.09
393.639	383.22
394.018	378.03
394.397	407.63
394.776	395.88
395.155	399.04
395.534	393.62
395.913	385.94
396.292	405.37
396.671	400.4
397.05	424.58
397.429	401.08
397.808	378.25
398.186	392.04
398.565	410.79
398.944	414.64
399.323	413.73
399.701	434.52
400.08	421.19
400.458	404.69
400.837	409.21
401.215	437.69
401.594	437.69
401.972	430.45
402.351	433.17
402.729	424.13
403.107	449.21
403.486	449.44
403.864	450.57
404.242	459.15
404.62	434.75
404.999	458.25
405.377	453.51
405.755	452.6
406.133	448.76
406.511	460.51
406.889	459.38
407.267	468.42
407.645	454.63
408.023	486.5
408.401	462.09
408.779	472.26
409.156	488.98
409.534	475.2
409.912	487.63
410.29	495.76
410.667	480.4
411.045	502.09
411.422	513.16
411.8	498.02
412.178	503.67
412.555	501.19
412.933	505.03
413.31	531.02
413.687	531.7
414.065	523.56
414.442	542.77
414.819	503.22
415.197	518.81
415.574	537.12
415.951	517.46
416.328	573.05
416.705	556.33
417.082	541.41
417.46	580.51
417.837	551.36
418.214	568.53
418.591	534.18
418.967	551.13
419.344	562.2
419.721	591.81
420.098	579.38
420.475	590
420.852	591.81
421.228	605.82
421.605	591.81
421.982	604.01
422.358	611.02
422.735	616.44
423.111	624.12
423.488	627.06
423.864	650.11
424.241	624.35
424.617	621.41
424.994	623.44
425.37	611.02
425.746	634.29
426.123	646.72
426.499	650.34
426.875	636.1
427.251	677.68
427.627	653.05
428.003	688.53
428.379	685.36
428.756	673.16
429.132	683.33
429.507	686.27
429.883	704.12
430.259	695.08
430.635	703.44
431.011	715.19
431.387	720.16
431.763	721.07
432.138	730.11
432.514	741.86
432.89	779.37
433.265	775.98
433.641	766.72
434.016	746.83
434.392	801.52
434.767	800.84
435.143	785.02
435.518	794.74
435.894	822.53
436.269	828.86
436.644	815.3
437.02	833.61
437.395	853.04
437.77	849.65
438.145	861.63
438.52	859.14
438.895	867.73
439.271	869.31
439.646	889.2
440.021	898.01
440.395	906.6
440.77	925.13
441.145	877.22
441.52	895.98
441.895	919.26
442.27	928.75
442.645	940.27
443.019	942.53
443.394	913.61
443.769	939.59
444.143	954.51
444.518	966.71
444.892	971.91
445.267	975.53
445.641	989.54
446.016	997.9
446.39	987.5
446.764	975.53
447.139	987.95
447.513	991.57
447.887	987.73
448.262	1005.13
448.636	1028.41
449.01	1033.83
449.384	1022.3
449.758	1017.56
450.132	1055.75
450.506	1051.23
450.88	1077.9
451.254	1083.09
451.628	1089.87
452.002	1104.79
452.376	1129.19
452.75	1104.34
453.123	1149.08
453.497	1155.86
453.871	1151.79
454.244	1154.96
454.618	1156.31
454.992	1189.98
455.365	1192.69
455.739	1233.37
456.112	1209.42
456.486	1241.51
456.859	1256.2
457.232	1241.51
457.606	1272.69
457.979	1271.79
458.352	1295.97
458.725	1335.06
459.099	1348.4
459.472	1361.5
459.845	1375.06
460.218	1400.82
460.591	1376.19
460.964	1421.84
461.337	1425.91
461.71	1489.64
462.083	1496.87
462.456	1490.54
462.829	1482.86
463.201	1537.32
463.574	1519.24
463.947	1604.66
464.32	1571.44
464.692	1635.62
465.065	1627.26
465.438	1617.54
465.81	1688.05
466.183	1725.79
466.555	1749.29
466.928	1735.51
467.3	1755.17
467.672	1796.52
468.045	1837.88
468.417	1887.82
468.789	1855.05
469.161	1915.61
469.534	1929.17
469.906	1984.99
470.278	1996.74
470.65	2019.34
471.022	2079
471.394	2135.72
471.766	2106.34
472.138	2156.06
472.51	2212.55
472.882	2274.47
473.253	2287.81
473.625	2360.12
473.997	2430.63
474.369	2446
474.74	2521.25
475.112	2587.91
475.484	2597.4
475.855	2670.4
476.227	2708.81
476.598	2831.75
476.97	2855.25
477.341	2955.36
477.713	3008.01
478.084	3055.02
478.455	3162.13
478.827	3241.68
479.198	3358.51
479.569	3372.3
479.94	3483.93
480.311	3547.66
480.682	3660.88
481.053	3768.45
481.424	3878.95
481.795	3947.2
482.166	4039.4
482.537	4132.73
482.908	4339.05
483.279	4393.51
483.65	4507.41
484.021	4602.77
484.391	4684.35
484.762	4812.26
485.133	4927.74
485.503	5042.31
485.874	5196.21
486.244	5302.87
486.615	5458.12
486.985	5586.7
487.356	5736.53
487.726	5849.3
488.097	6013.81
488.467	6139.23
488.837	6273.92
489.207	6455.61
489.578	6581.48
489.948	6687.01
490.318	6842.49
490.688	6976.27
491.058	7128.36
491.428	7230.73
491.798	7399.54
492.168	7634.33
492.538	7783.48
492.908	7897.38
493.278	8072.97
493.648	8163.36
494.017	8296.01
494.387	8489.23
494.757	8656
495.126	8754.53
495.496	8853.28
495.866	8945.49
496.235	9133.28
496.605	9324.01
496.974	9382.08
497.344	9549.31
497.713	9646.48
498.082	9756.99
498.452	9950.88
498.821	10034.72
499.19	10153.59
499.559	10198.56
499.928	10370.53
500.298	10422.96
500.667	10595.84
501.036	10687.36
501.405	10839.67
501.774	10846.9
502.143	11033.79
502.512	11080.8
502.88	11196.05
503.249	11317.4
503.618	11377.51
503.987	11453.44
504.356	11508.36
504.724	11697.96
505.093	11736.6
505.462	11798.29
505.83	11866.54
506.199	12026.08
506.567	12248.45
506.936	12228.79
507.304	12354.21
507.672	12362.57
508.041	12477.82
508.409	12659.96
508.777	12632.85
509.145	12777.02
509.514	12824.93
509.882	12838.72
510.25	12936.79
510.618	13004.14
510.986	13046.62
511.354	13137.92
511.722	13334.52
512.09	13377.91
512.458	13330.91
512.826	13494.29
513.193	13552.37
513.561	13511.69
513.929	13700.84
514.297	13700.16
514.664	13799.37
515.032	13814.51
515.4	13850.44
515.767	13919.37
516.135	13941.74
516.502	13863.32
516.869	14101.73
517.237	14195.29
517.604	14014.05
517.972	14238
518.339	14275.06
518.706	14291.79
519.073	14354.83
519.44	14447.49
519.808	14563.19
520.175	14409.52
520.542	14641.38
520.909	14632.12
521.276	14628.27
521.643	14703.3
522.009	14770.64
522.376	14724.09
522.743	14813.35
523.11	14969.73
523.477	15041.14
523.843	15066.91
524.21	15162.27
524.577	15152.33
524.943	15148.71
525.31	15182.84
525.676	15376.95
526.043	15404.98
526.409	15357.97
526.776	15536.05
527.142	15492.66
527.508	15555.93
527.874	15560
528.241	15543.5
528.607	15606.33
528.973	15651.75
529.339	15582.82
529.705	15711.18
530.071	15800.9
530.437	15729.71
530.803	15776.04
531.169	15820.78
531.535	15806.32
531.901	15745.98
532.267	15771.29
532.632	15826.89
532.998	15830.5
533.364	15799.09
533.73	15797.51
534.095	15896.94
534.461	15837.06
534.826	15897.84
535.192	15822.37
535.557	15850.84
535.923	15707.57
536.288	15799.54
536.653	15768.36
537.019	15721.13
537.384	15760.9
537.749	15828.24
538.114	15702.14
538.479	15661.92
538.845	15707.79
539.21	15657.4
539.575	15707.34
539.94	15599.77
540.305	15615.59
540.67	15594.8
541.034	15552.54
541.399	15564.97
541.764	15519.1
542.129	15434.58
542.494	15592.77
542.858	15552.09
543.223	15442.72
543.587	15599.77
543.952	15369.05
544.316	15339.44
544.681	15302.83
545.045	15299.89
545.41	15353.9
545.774	15382.83
546.138	15241.14
546.503	15198.65
546.867	15216.51
547.231	15321.59
547.595	15353.45
547.959	15247.92
548.324	15103.52
548.688	15164.76
549.052	15115.27
549.416	15139.45
549.779	15073.23
550.143	14999.79
550.507	15057.41
550.871	15118.66
551.235	15011.54
551.599	15081.82
551.962	14983.97
552.326	14998.21
552.689	15002.05
553.053	14905.33
553.417	14841.6
553.78	15007.02
554.143	14840.25
554.507	14925.44
554.87	14894.48
555.234	14987.13
555.597	14892.9
555.96	14852.67
556.323	14867.59
556.686	14831.88
557.05	14916.4
557.413	14954.82
557.776	14883.86
558.139	14854.93
558.502	14946.23
558.865	14888.38
559.228	14891.32
559.59	14856.52
559.953	14847.48
560.316	14950.75
560.679	14882.05
561.041	14962.28
561.404	14873.01
561.767	14954.59
562.129	14851.09
562.492	15033.01
562.854	14921.6
563.217	14926.57
563.579	14970.86
563.941	15050.64
564.304	15096.28
564.666	15166.11
565.028	15152.1
565.39	15122.72
565.753	15117.75
566.115	15197.3
566.477	15250.63
566.839	15170.18
567.201	15304.64
567.563	15263.06
567.925	15287.47
568.287	15288.82
568.648	15240.01
569.01	15383.51
569.372	15350.06
569.734	15297.86
570.095	15364.07
570.457	15412.43
570.819	15478.42
571.18	15379.89
571.542	15470.06
571.903	15452.43
572.265	15510.74
572.626	15557.51
572.987	15527.46
573.349	15557.29
573.71	15607.68
574.071	15640.22
574.432	15642.94
574.794	15722.48
575.155	15722.71
575.516	15672.54
575.877	15607
576.238	15747.79
576.599	15701.24
576.96	15697.85
577.32	15749.83
577.681	15729.71
578.042	15767.68
578.403	15675.03
578.763	15641.35
579.124	15730.62
579.485	15794.12
579.845	15861.91
580.206	15666.21
580.566	15763.84
580.927	15807.45
581.287	15850.39
581.648	15816.04
582.008	15796.38
582.368	15896.71
582.728	15929.03
583.089	15869.6
583.449	15874.57
583.809	15725.87
584.169	15751.18
584.529	15756.15
584.889	15750.05
585.249	15697.4
585.609	15641.58
585.969	15772.42
586.329	15679.77
586.688	15654.46
587.048	15648.36
587.408	15676.61
587.768	15625.31
588.127	15578.98
588.487	15553
588.846	15700.11
589.206	15614.24
589.565	15588.93
589.925	15613.78
590.284	15612.43
590.643	15643.84
591.003	15625.76
591.362	15562.49
591.721	15616.04
592.08	15647
592.44	15567.46
592.799	15743.95
593.158	15598.19
593.517	15634.12
593.876	15637.29
594.235	15518.19
594.593	15616.04
594.952	15620.56
595.311	15592.32
595.67	15513.45
596.029	15632.77
596.387	15729.49
596.746	15667.12
597.104	15579.21
597.463	15559.1
597.822	15649.72
598.18	15513.67
598.538	15508.48
598.897	15556.38
599.255	15464.18
599.613	15654.01
599.972	15525.88
600.33	15508.25
600.688	15476.61
601.046	15598.19
601.404	15705.99
601.762	15623.05
602.12	15665.99
602.478	15605.42
602.836	15658.75
603.194	15604.52
603.552	15646.1
603.91	15539.89
604.268	15587.57
604.625	15505.99
604.983	15534.69
605.341	15475.26
605.698	15564.52
606.056	15631.19
606.413	15568.81
606.771	15663.5
607.128	15654.46
607.485	15505.99
607.843	15552.77
608.2	15710.5
608.557	15710.5
608.914	15674.57
609.272	15773.78
609.629	15794.8
609.986	15821.01
610.343	15821.24
610.7	15877.51
611.057	15825.53
611.414	15759.54
611.771	15821.46
612.127	15772.42
612.484	15740.11
612.841	15845.64
613.198	15779.66
613.554	15807.23
613.911	15901.23
614.267	15838.64
614.624	15894.68
614.98	15941.91
615.337	15961.12
615.693	15898.75
616.05	15973.32
616.406	16072.08
616.762	15895.36
617.118	15956.6
617.475	15980.33
617.831	15995.92
618.187	16124.73
618.543	16071.4
618.899	16103.49
619.255	15980.33
619.611	16117.05
619.967	16071.17
620.323	16149.59
620.678	16037.28
621.034	16060.1
621.39	16031.4
621.746	16056.03
622.101	16232.98
622.457	16073.89
622.812	16126.09
623.168	16154.11
623.523	16202.92
623.879	16157.5
624.234	16060.33
624.589	16213.54
624.945	16238.17
625.3	16187.1
625.655	16127.22
626.01	16123.83
626.365	16096.48
626.72	16077.28
627.075	16096.48
627.43	16110.72
627.785	15946.88
628.14	16129.03
628.495	16062.59
628.85	16048.12
629.205	15988.46
629.559	16063.94
629.914	16065.75
630.269	16020.33
630.623	16055.58
630.978	15932.87
631.332	15993.44
631.687	16064.85
632.041	16041.34
632.396	15975.36
632.75	15912.53
633.104	15861.46
633.459	15916.83
633.813	15857.62
634.167	15709.6
634.521	15822.59
634.875	15761.58
635.229	15784.18
635.583	15739.88
635.937	15784.85
636.291	15681.13
636.645	15796.6
636.999	15717.96
637.352	15694.01
637.706	15618.08
638.06	15676.16
638.413	15568.59
638.767	15645.65
639.121	15580.79
639.474	15487.23
639.828	15560.68
640.181	15597.74
640.534	15625.31
640.888	15529.94
641.241	15414.02
641.594	15538.31
641.947	15571.07
642.301	15505.31
642.654	15542.83
643.007	15441.81
643.36	15496.05
643.713	15441.59
644.066	15492.43
644.419	15323.62
644.771	15286.79
645.124	15113.46
645.477	15179.67
645.83	15075.49
646.182	15010.86
646.535	14888.61
646.888	14964.08
647.24	14835.73
647.593	14962.28
647.945	14920.92
648.298	14927.25
648.65	14808.61
649.002	14834.14
649.355	14937.19
649.707	14873.69
650.059	14946.01
650.411	15173.8
650.763	15159.33
651.115	15360.23
651.467	15204.53
651.819	15228.48
652.171	15203.85
652.523	15251.31
652.875	15183.97
653.227	15094.02
653.578	15294.24
653.93	15176.06
654.282	15140.8
654.633	15138.32
654.985	15125.21
655.337	15170.63
655.688	15221.48
656.039	15216.05
656.391	15123.63
656.742	15147.13
657.094	15101.48
657.445	15177.86
657.796	15151.88
658.147	15174.47
658.498	15195.49
658.849	15222.38
659.2	15107.81
659.551	15246.56
659.902	15228.03
660.253	15174.93
660.604	15177.64
660.955	15113.23
661.306	15282.27
661.656	15187.13
662.007	15215.6
662.358	15210.86
662.708	15147.36
663.059	15143.06
663.409	15101.93
663.76	15258.77
664.11	15226.22
664.461	15207.92
664.811	15228.71
665.161	15220.8
665.511	15240.01
665.862	15121.14
666.212	15191.87
666.562	15181.93
666.912	15146.45
667.262	15152.1
667.612	15289.27
667.962	15212.44
668.312	15227.35
668.662	15299.44
669.011	15218.31
669.361	15241.14
669.711	15159.11
670.06	15123.18
670.41	15203.63
670.76	15111.65
671.109	15237.98
671.459	15129.73
671.808	15083.85
672.157	15101.71
672.507	14970.64
672.856	15090.63
673.205	15050.86
673.554	15168.37
673.904	15020.58
674.253	15186.22
674.602	15052.22
674.951	14882.28
675.3	14770.87
675.649	14949.62
675.998	14939
676.346	14953.91
676.695	15059.9
677.044	14906.91
677.393	14916.4
677.741	14924.99
678.09	14870.98
678.438	14851.09
678.787	14950.98
679.135	14869.4
679.484	14794.37
679.832	14854.93
680.181	14768.38
680.529	14781.04
680.877	14755.5
681.225	14745.11
681.573	14736.29
681.922	14643.41
682.27	14614.71
682.618	14661.72
682.966	14521.61
683.314	14593.92
683.661	14519.12
684.009	14470.54
684.357	14369.3
684.705	14459.69
685.053	14422.63
685.4	14444.55
685.748	14330.65
686.095	14399.35
686.443	14331.56
686.79	14266.02
687.138	14326.13
687.485	14250.66
687.832	14264.22
688.18	14226.7
688.527	14165.46
688.874	14070.77
689.221	14038.01
689.568	13994.17
689.915	14046.82
690.262	13952.59
690.609	13952.81
690.956	13858.58
691.303	13851.12
691.65	13692.25
691.997	13776.77
692.344	13704.68
692.69	13629.88
693.037	13620.16
693.383	13527.06
693.73	13478.7
694.077	13373.17
694.423	13404.35
694.769	13398.48
695.116	13291.36
695.462	13328.87
695.808	13220.85
696.155	13346.27
696.501	13238.93
696.847	13184.47
697.193	13004.36
697.539	13137.69
697.885	12989.9
698.231	13030.8
698.577	13012.72
698.923	12885.72
699.269	12736.57
699.614	12806.85
699.96	12697.48
700.306	12742.67
700.651	12689.57
700.997	12625.16
701.342	12598.27
701.688	12520.08
702.033	12469.46
702.379	12492.51
702.724	12513.98
703.069	12480.99
703.415	12316.02
703.76	12337.03
704.105	12257.71
704.45	12267.43
704.795	12247.55
705.14	12059.3
705.485	12085.74
705.83	12045.52
706.175	12017.49
706.52	12017.04
706.865	12053.43
707.209	11949.25
707.554	11922.13
707.899	11913.99
708.243	11840.78
708.588	11834.67
708.932	11734.56
709.277	11701.8
709.621	11755.35
709.966	11667.9
710.31	11672.19
710.654	11565.08
710.998	11592.2
711.342	11601.23
711.687	11521.91
712.031	11498.19
712.375	11423.39
712.719	11502.93
713.063	11462.26
713.407	11432.43
713.75	11463.39
714.094	11337.51
714.438	11324.18
714.782	11385.42
715.125	11279.21
715.469	11382.48
715.812	11262.49
716.156	11206.22
716.499	11204.63
716.843	11229.27
717.186	11124.41
717.53	11151.98
717.873	11211.64
718.216	11102.94
718.559	11073.79
718.902	11021.14
719.246	11082.83
719.589	11038.31
719.932	11007.35
720.275	10923.51
720.617	10927.35
720.96	10908.15
721.303	11005.09
721.646	10951.53
721.989	10887.13
722.331	10949.95
722.674	10895.49
723.016	10957.41
723.359	10870.63
723.701	10902.5
724.044	10808.04
724.386	10871.31
724.729	10834.02
725.071	10808.94
725.413	10811.42
725.755	10769.17
726.097	10711.09
726.439	10726.23
726.782	10718.55
727.124	10822.05
727.465	10781.82
727.807	10704.53
728.149	10711.77
728.491	10620.02
728.833	10709.51
729.175	10621.83
729.516	10609.62
729.858	10654.59
730.199	10665.89
730.541	10669.73
730.882	10601.94
731.224	10697.3
731.565	10607.81
731.906	10599.23
732.248	10642.62
732.589	10602.62
732.93	10584.76
733.271	10620.02
733.612	10573.46
733.953	10601.49
734.294	10506.35
734.635	10500.25
734.976	10614.37
735.317	10504.99
735.658	10558.78
735.999	10554.71
736.339	10589.96
736.68	10603.97
737.021	10560.13
737.361	10520.13
737.702	10639.45
738.042	10530.3
738.383	10564.88
738.723	10616.85
739.063	10556.97
739.404	10663.18
739.744	10609.4
740.084	10608.27
740.424	10674.03
740.764	10616.18
741.104	10685.1
741.444	10596.29
741.784	10639
742.124	10641.94
742.464	10711.31
742.804	10756.28
743.143	10621.37
743.483	10729.62
743.823	10715.61
744.162	10695.27
744.502	10821.37
744.841	10744.31
745.181	10790.86
745.52	10787.47
745.86	10927.13
746.199	10960.57
746.538	10947.92
746.877	11057.97
747.216	11044.86
747.556	10996.5
747.895	11016.17
748.234	11057.75
748.573	11224.07
748.911	11206.89
749.25	11271.3
749.589	11290.28
749.928	11466.1
750.267	11459.77
750.605	11579.54
750.944	11550.61
751.283	11649.82
751.621	11799.2
751.96	11782.7
752.298	11925.29
752.636	12032.41
752.975	12060.21
753.313	12196.47
753.651	12251.16
753.989	12382
754.327	12436.92
754.666	12629.91
755.004	12702.67
755.342	12890.69
755.679	13016.34
