Data from hue_36_FLMS001491_00009.txt Node
Date: Tue Feb 07 17:29:20 GMT 2017
User: dcchb
Spectrometer: FLMS00149
Trigger mode: 0
Integration Time (sec): 2.000000E-2
Scans to average: 10
Electric dark correction enabled: true
Nonlinearity correction enabled: false
Boxcar width: 0
XAxis mode: Wavelengths
Number of Pixels in Spectrum: 2048
>>>>>Begin Spectral Data<<<<<
341.393	13.47
341.776	13.47
342.16	13.47
342.543	-61.78
342.927	-52.51
343.31	-66.75
343.693	-68.78
344.077	-67.88
344.46	-83.47
344.843	-49.57
345.226	-36.02
345.61	-52.29
345.993	-6.41
346.376	0.59
346.759	7.82
347.142	28.84
347.525	24.1
347.908	74.49
348.291	63.42
348.674	105.22
349.057	126.69
349.44	134.37
349.823	146.8
350.206	162.62
350.588	189.06
350.971	223.41
351.354	238.55
351.737	255.05
352.119	269.06
352.502	268.38
352.884	296.86
353.267	287.14
353.65	286.69
354.032	315.84
354.414	317.87
354.797	321.26
355.179	333.01
355.562	314.94
355.944	318.1
356.326	330.08
356.709	342.73
357.091	342.28
357.473	334.6
357.855	356.06
358.238	343.41
358.62	336.86
359.002	354.26
359.384	356.29
359.766	348.83
360.148	353.8
360.53	354.26
360.912	340.25
361.294	335.5
361.676	333.01
362.057	334.6
362.439	335.27
362.821	329.4
363.203	354.03
363.584	325.78
363.966	314.26
364.348	334.37
364.729	323.75
365.111	303.86
365.493	328.27
365.874	329.85
366.256	331.43
366.637	330.53
367.019	318.1
367.4	319.91
367.781	300.7
368.163	326.46
368.544	309.96
368.925	312.9
369.306	342.05
369.688	312.45
370.069	323.52
370.45	318.78
370.831	303.86
371.212	332.56
371.593	290.53
371.974	323.07
372.355	312
372.736	324.65
373.117	311.09
373.498	332.56
373.879	322.39
374.26	312.45
374.641	325.78
375.021	314.94
375.402	314.94
375.783	330.53
376.163	320.36
376.544	316.07
376.925	334.37
377.305	331.21
377.686	337.31
378.066	332.34
378.447	330.53
378.827	330.98
379.208	339.34
379.588	337.53
379.968	336.86
380.349	329.17
380.729	330.98
381.109	331.88
381.489	321.04
381.87	339.12
382.25	317.65
382.63	345.22
383.01	352.9
383.39	327.36
383.77	343.64
384.15	347.25
384.53	352.45
384.91	353.13
385.29	359
385.67	345.22
386.049	364.65
386.429	334.6
386.809	341.83
387.189	360.58
387.568	334.14
387.948	347.7
388.328	360.58
388.707	354.03
389.087	367.14
389.466	366.01
389.846	370.53
390.225	348.38
390.605	393.35
390.984	379.34
391.363	367.14
391.743	366.23
392.122	368.49
392.501	372.11
392.881	363.52
393.26	357.42
393.639	377.76
394.018	375.5
394.397	349.51
394.776	371.43
395.155	370.75
395.534	403.52
395.913	369.62
396.292	375.95
396.671	393.58
397.05	385.44
397.429	372.79
397.808	366.01
398.186	382.05
398.565	393.35
398.944	379.34
399.323	403.29
399.701	406.91
400.08	403.97
400.458	384.54
400.837	377.31
401.215	398.1
401.594	405.1
401.972	416.85
402.351	405.1
402.729	426.34
403.107	427.47
403.486	405.1
403.864	424.08
404.242	416.63
404.62	426.8
404.999	411.2
405.377	407.59
405.755	415.72
406.133	442.84
406.511	411.43
406.889	411.88
407.267	427.7
407.645	430.64
408.023	415.72
408.401	434.48
408.779	419.57
409.156	436.74
409.534	450.07
409.912	448.94
410.29	440.36
410.667	438.1
411.045	448.27
411.422	458.43
411.8	469.96
412.178	468.6
412.555	474.03
412.933	465.44
413.31	469.73
413.687	451.88
414.065	467.02
414.442	476.74
414.819	457.53
415.197	479.68
415.574	483.74
415.951	467.47
416.328	480.58
416.705	500.24
417.082	503.18
417.46	494.14
417.837	502.27
418.214	514.7
418.591	515.16
418.967	496.85
419.344	501.37
419.721	509.73
420.098	506.79
420.475	538.66
420.852	508.15
421.228	497.98
421.605	533.46
421.982	502.05
422.358	528.49
422.735	539.79
423.111	548.38
423.488	535.04
423.864	568.71
424.241	564.42
424.617	544.99
424.994	526.23
425.37	555.38
425.746	534.59
426.123	563.29
426.499	552.44
426.875	601.26
427.251	539.56
427.627	589.96
428.003	559.9
428.379	569.39
428.756	588.6
429.132	589.05
429.507	605.78
429.883	589.96
430.259	630.18
430.635	594.93
431.011	617.75
431.387	624.31
431.763	621.14
432.138	641.25
432.514	641.03
432.89	632.22
433.265	647.58
433.641	660.24
434.016	641.25
434.392	657.07
434.767	654.59
435.143	674.47
435.518	680.35
435.894	673.8
436.269	683.06
436.644	691.87
437.02	708.15
437.395	692.1
437.77	679.9
438.145	716.28
438.52	739.78
438.895	706.34
439.271	691.2
439.646	740.23
440.021	725.77
440.395	743.85
440.77	732.1
441.145	741.36
441.52	755.15
441.895	763.96
442.27	764.64
442.645	762.38
443.019	755.38
443.394	768.48
443.769	758.09
444.143	776.62
444.518	771.87
444.892	794.7
445.267	772.32
445.641	805.32
446.016	797.86
446.39	817.07
446.764	818.2
447.139	808.26
447.513	801.48
447.887	800.8
448.262	826.11
448.636	822.27
449.01	827.92
449.384	851.19
449.758	832.89
450.132	862.04
450.506	865.66
450.88	853.23
451.254	865.88
451.628	866.11
452.002	868.82
452.376	849.61
452.75	876.95
453.123	878.08
453.497	889.16
453.871	906.56
454.244	903.39
454.618	926.44
454.992	921.25
455.365	927.8
455.739	951.53
456.112	961.02
456.486	970.96
456.859	952.66
457.232	987.46
457.606	999.44
457.979	992.21
458.352	995.37
458.725	1005.54
459.099	1020.45
459.472	1051.86
459.845	1073.33
460.218	1069.49
460.591	1081.47
460.964	1098.19
461.337	1104.74
461.71	1136.38
462.083	1109.72
462.456	1115.37
462.829	1127.8
463.201	1163.05
463.574	1117.17
463.947	1173.44
464.32	1203.05
464.692	1201.92
465.065	1211.86
465.438	1230.39
465.81	1223.84
466.183	1254.8
466.555	1286.44
466.928	1281.46
467.3	1305.42
467.672	1360.33
468.045	1307.45
468.417	1383.61
468.789	1379.09
469.161	1407.34
469.534	1413.66
469.906	1452.76
470.278	1486.66
470.65	1474
471.022	1527.56
471.394	1535.24
471.766	1547.9
472.138	1595.81
472.51	1591.96
472.882	1649.36
473.253	1659.08
473.625	1687.33
473.997	1738.4
474.369	1739.08
474.74	1791.96
475.112	1807.1
475.484	1862.01
475.855	1918.73
476.227	1935.46
476.598	1981.33
476.97	2025.85
477.341	2052.74
477.713	2119.41
478.084	2130.48
478.455	2239.18
478.827	2262.23
479.198	2345.39
479.569	2373.86
479.94	2473.75
480.311	2497.93
480.682	2573.18
481.053	2652.27
481.424	2714.42
481.795	2715.78
482.166	2780.41
482.537	2865.38
482.908	2898.14
483.279	2980.18
483.65	3071.02
484.021	3178.81
484.391	3239.6
484.762	3301.07
485.133	3398.24
485.503	3458.13
485.874	3526.83
486.244	3639.82
486.615	3725.69
486.985	3762.08
487.356	3872.13
487.726	3956.87
488.097	4067.6
488.467	4146.47
488.837	4231.67
489.207	4329.29
489.578	4453.13
489.948	4590.75
490.318	4624.2
490.688	4645.67
491.058	4794.14
491.428	4924.08
491.798	4964.3
492.168	5126.56
492.538	5194.35
492.908	5269.83
493.278	5366.78
493.648	5455.37
494.017	5575.14
494.387	5636.15
494.757	5765.19
495.126	5806.54
495.496	5876.82
495.866	5964.28
496.235	6101.9
496.605	6162.01
496.974	6220.32
497.344	6339.64
497.713	6447.43
498.082	6536.01
498.452	6617.37
498.821	6675.9
499.19	6717.03
499.559	6810.81
499.928	6947.53
500.298	6965.38
500.667	7049.22
501.036	7091.25
501.405	7208.99
501.774	7264.58
502.143	7296.67
502.512	7444.24
502.88	7474.29
503.249	7538.7
503.618	7623.9
503.987	7697.11
504.356	7766.72
504.724	7903.89
505.093	7896.88
505.462	7951.8
505.83	8074.96
506.199	8112.92
506.567	8299.58
506.936	8194.28
507.304	8401.28
507.672	8451.22
508.041	8480.14
508.409	8575.73
508.777	8684.66
509.145	8634.26
509.514	8746.8
509.882	8827.93
510.25	8913.35
510.618	8894.37
510.986	8982.73
511.354	9051.65
511.722	9147.47
512.09	9262.95
512.458	9239.67
512.826	9290.74
513.193	9307.24
513.561	9469.72
513.929	9555.14
514.297	9570.74
514.664	9617.52
515.032	9670.62
515.4	9812.54
515.767	9838.98
516.135	9908.13
516.502	9798.98
516.869	9998.52
517.237	10069.26
517.604	10003.49
517.972	10172.76
518.339	10209.14
518.706	10285.97
519.073	10326.65
519.44	10306.54
519.808	10488.23
520.175	10489.13
520.542	10656.36
520.909	10680.31
521.276	10674.89
521.643	10807.77
522.009	10830.36
522.376	10860.19
522.743	10996.24
523.11	11107.65
523.477	11241.2
523.843	11261.99
524.21	11264.03
524.577	11363.23
524.943	11403.46
525.31	11502.66
525.676	11589.89
526.043	11674.86
526.409	11663.56
526.776	11798.93
527.142	11803.22
527.508	11940.62
527.874	12034.63
528.241	12047.28
528.607	12135.19
528.973	12185.81
529.339	12231.01
529.705	12301.96
530.071	12496.31
530.437	12522.07
530.803	12630.09
531.169	12678.23
531.535	12645.01
531.901	12707.38
532.267	12761.16
532.632	12857.43
532.998	12913.02
533.364	12941.95
533.73	13000.93
534.095	13095.84
534.461	13153.02
534.826	13182.62
535.192	13332.45
535.557	13392.11
535.923	13281.6
536.288	13406.12
536.653	13519.33
537.019	13492.67
537.384	13613.79
537.749	13652.89
538.114	13732.44
538.479	13735.6
538.845	13847.23
539.21	13833.45
539.575	13889.72
539.94	13937.18
540.305	14025.08
540.67	13948.48
541.034	14137.4
541.399	14097.62
541.764	14205.87
542.129	14248.35
542.494	14215.59
542.858	14351.18
543.223	14359.99
543.587	14465.98
543.952	14469.59
544.316	14516.6
544.681	14529.93
545.045	14621.45
545.41	14819.19
545.774	14756.82
546.138	14730.15
546.503	14874.78
546.867	14880.88
547.231	15048.33
547.595	15012.85
547.959	15138.05
548.324	15141.21
548.688	15161.55
549.052	15189.57
549.416	15280.19
549.779	15277.48
550.143	15271.15
550.507	15459.85
550.871	15450.13
551.235	15495.1
551.599	15497.36
551.962	15593.18
552.326	15665.72
552.689	15711.82
553.053	15699.84
553.417	15746.17
553.78	15940.29
554.143	16010.57
554.507	16007.63
554.87	16072.04
555.234	16138.25
555.597	16143.45
555.96	16198.81
556.323	16347.28
556.686	16380.05
557.05	16325.36
557.413	16495.07
557.776	16486.49
558.139	16605.35
558.502	16651.91
558.865	16709.08
559.228	16717.89
559.59	16775.97
559.953	16869.75
560.316	16977.32
560.679	17011.22
561.041	17075.17
561.404	17155.62
561.767	17272.46
562.129	17279.69
562.492	17434.26
562.854	17423.41
563.217	17358.33
563.579	17497.53
563.941	17540.02
564.304	17577.53
564.666	17768.71
565.028	17772.56
565.39	17798.32
565.753	17869.5
566.115	17944.53
566.477	17959.67
566.839	18072.89
567.201	18156.27
567.563	18274.46
567.925	18365.76
568.287	18406.66
568.648	18490.5
569.01	18566.43
569.372	18598.97
569.734	18589.71
570.095	18775.69
570.457	18810.49
570.819	18854.56
571.18	18859.08
571.542	18993.77
571.903	19083.26
572.265	19133.88
572.626	19184.5
572.987	19260.65
573.349	19319.41
573.71	19567.76
574.071	19586.07
574.432	19611.15
574.794	19929.33
575.155	19847.75
575.516	19963.46
575.877	20136.79
576.238	20134.53
576.599	20314.41
576.96	20330.68
577.32	20422.2
577.681	20647.73
578.042	20792.59
578.403	20807.05
578.763	21046.14
579.124	21090.66
579.485	21285.01
579.845	21440.71
580.206	21480.03
580.566	21614.26
580.927	21834.6
581.287	21963.86
581.648	22026.45
582.008	22201.37
582.368	22329.95
582.728	22518.65
583.089	22626.21
583.449	22805.87
583.809	23002.7
584.169	23273.65
584.529	23371.28
584.889	23670.25
585.249	23802.45
585.609	23931.26
585.969	24165.61
586.329	24340.29
586.688	24612.83
587.048	24711.36
587.408	24929.66
587.768	25070.44
588.127	25326.93
588.487	25509.53
588.846	25994.03
589.206	25808.28
589.565	26162.84
589.925	26582.49
590.284	26697.07
590.643	26910.85
591.003	27279.2
591.362	27460.89
591.721	27710.83
592.08	27836.7
592.44	28193.52
592.799	28512.16
593.158	28447.53
593.517	28817.69
593.876	28927.52
594.235	29178.36
594.593	29478.01
594.952	29553.26
595.311	29849.53
595.67	30116.41
596.029	30442.05
596.387	30717.3
596.746	30820.57
597.104	30994.35
597.463	31059.21
597.822	31467.56
598.18	31394.57
598.538	31684.96
598.897	32124.04
599.255	32148.22
599.613	32662.56
599.972	32652.39
600.33	32824.36
600.688	32891.71
601.046	33358.81
601.404	33564.23
601.762	33636.54
602.12	33970.1
602.478	34184.78
602.836	34237.89
603.194	34380.48
603.552	34500.93
603.91	34605.33
604.268	34993.8
604.625	35052.1
604.983	35257.75
605.341	35327.12
605.698	35497.06
606.056	35699.54
606.413	35908.35
606.771	36024.5
607.128	36231.5
607.485	36083.49
607.843	36267.44
608.2	36681.89
608.557	36887.53
608.914	36870.36
609.272	37185.83
609.629	37268.09
609.986	37499.27
610.343	37518.93
610.7	37826.94
611.057	37842.08
611.414	37979.71
611.771	37968.63
612.127	38292.24
612.484	38322.75
612.841	38682.51
613.198	38532.46
613.554	38691.55
613.911	38979.91
614.267	39100.81
614.624	39002.28
614.98	39200.24
615.337	39417.86
615.693	39565.65
616.05	39510.51
616.406	39856.49
616.762	39826.66
617.118	39839.77
617.475	39867.79
617.831	40173.1
618.187	40228.91
618.543	40304.17
618.899	40505.74
619.255	40548.68
619.611	40569.47
619.967	40830.48
620.323	40780.31
620.678	40830.71
621.034	40862.34
621.39	40844.49
621.746	40776.24
622.101	41343.69
622.457	40983.02
622.812	41324.7
623.168	41373.52
623.523	41450.35
623.879	41695.32
624.234	41269.11
624.589	41597.69
624.945	41676.33
625.3	41690.12
625.655	41577.81
626.01	41641.31
626.365	41782.55
626.72	41725.82
627.075	41847.18
627.43	41831.58
627.785	41761.76
628.14	41870.68
628.495	41990.22
628.85	41958.36
629.205	41931.02
629.559	42184.79
629.914	41894.86
630.269	41927.17
630.623	41796.56
630.978	41951.35
631.332	42153.38
631.687	42346.82
632.041	41996.1
632.396	42149.32
632.75	41936.89
633.104	42093.95
633.459	41901.64
633.813	41864.35
634.167	42020.28
634.521	41979.6
634.875	42100.28
635.229	41966.04
635.583	41898.7
635.937	41935.99
636.291	41900.73
636.645	41865.03
636.999	41870.23
637.352	41956.55
637.706	41869.32
638.06	41916.33
638.413	41837.91
638.767	41798.14
639.121	41883.79
639.474	41585.04
639.828	41718.59
640.181	41757.91
640.534	41694.64
640.888	41587.3
641.241	41457.81
641.594	41611.7
641.947	41780.51
642.301	41667.75
642.654	41536
643.007	41716.33
643.36	41747.97
643.713	41555.66
644.066	41737.35
644.419	41369.45
644.771	41157.48
645.124	40789.13
645.477	40704.61
645.83	40476.59
646.182	40559.98
646.535	40325.41
646.888	40376.71
647.24	40279.76
647.593	40556.14
647.945	40246.77
648.298	40184.85
648.65	40150.5
649.002	40133.55
649.355	40375.12
649.707	40277.95
650.059	40468.23
650.411	40960.87
650.763	40859.86
651.115	41354.53
651.467	41210.81
651.819	41248.32
652.171	41167.42
652.523	40967.88
652.875	40873.42
653.227	40863.02
653.578	41180.53
653.93	40893.76
654.282	40758.62
654.633	40694.44
654.985	40826.41
655.337	40812.63
655.688	40926.52
656.039	40912.29
656.391	40636.36
656.742	40840.65
657.094	40672.74
657.445	40892.85
657.796	40866.86
658.147	40728.34
658.498	40648.56
658.849	40731.5
659.2	40797.94
659.551	40671.16
659.902	40786.19
660.253	40705.06
660.604	40726.3
660.955	40527.44
661.306	40909.35
661.656	40603.59
662.007	40626.64
662.358	40623.71
662.708	40533.54
663.059	40532.86
663.409	40317.27
663.76	40717.04
664.11	40493.31
664.461	40546.19
664.811	40611.73
665.161	40512.52
665.511	40434.11
665.862	40608.57
666.212	40605.18
666.562	40727.66
666.912	40531.28
667.262	40556.59
667.612	40488.79
667.962	40607.44
668.312	40539.41
668.662	40673.42
669.011	40432.3
669.361	40370.15
669.711	40609.69
670.06	40457.61
670.41	40351.85
670.76	40442.92
671.109	40480.21
671.459	40378.97
671.808	40284.28
672.157	40440.21
672.507	40286.77
672.856	40138.75
673.205	40249.7
673.554	40190.95
673.904	40209.48
674.253	40474.11
674.602	40203.15
674.951	39912.31
675.3	39624.86
675.649	40293.32
675.998	40147.56
676.346	40136.49
676.695	40199.31
677.044	40026.21
677.393	40058.97
677.741	40191.4
678.09	39975.59
678.438	39921.13
678.787	40001.12
679.135	40032.76
679.484	39713.22
679.832	39918.19
680.181	39746.67
680.529	39827.12
680.877	39871.18
681.225	39727.23
681.573	39890.17
681.922	39603.17
682.27	39602.94
682.618	39571.53
682.966	39468.26
683.314	39417.41
683.661	39410.63
684.009	39171.77
684.357	39179.9
684.705	39045.89
685.053	39046.8
685.4	39031.88
685.748	38862.17
686.095	38845.9
686.443	38749.63
686.79	38787.37
687.138	38706.69
687.485	38687.94
687.832	38684.55
688.18	38595.96
688.527	38395.29
688.874	38448.62
689.221	38442.52
689.568	38228.06
689.915	38218.12
690.262	38226.71
690.609	38144.67
690.956	37957.11
691.303	37984.91
691.65	37662.2
691.997	37814.29
692.344	37637.8
692.69	37503.79
693.037	37505.6
693.383	37334.75
693.73	37243
694.077	37192.38
694.423	37174.31
694.769	37110.35
695.116	36958.72
695.462	37067.64
695.808	36753.3
696.155	36919.85
696.501	36474.44
696.847	36630.14
697.193	36413.87
697.539	36569.35
697.885	36246.42
698.231	36153.77
698.577	36147.44
698.923	36126.42
699.269	35851.4
699.614	35829.03
699.96	35722.37
700.306	35746.55
700.651	35638.75
700.997	35470.4
701.342	35434.46
701.688	35359.44
702.033	35256.84
702.379	35218.65
702.724	35174.13
703.069	35217.97
703.415	34661.6
703.76	34671.55
704.105	34799.68
704.45	34670.42
704.795	34506.35
705.14	34543.64
705.485	34506.58
705.83	34315.62
706.175	34352.68
706.52	34228.85
706.865	34206.47
707.209	34065.23
707.554	33940.72
707.899	34066.82
708.243	33751.34
708.588	33855.07
708.932	33570.78
709.277	33543.89
709.621	33583.44
709.966	33342.99
710.31	33397
710.654	33212.15
710.998	33154.98
711.342	33312.94
711.687	33157.69
712.031	33071.81
712.375	32904.59
712.719	32969.22
713.063	32914.08
713.407	33042.21
713.75	32800.63
714.094	32807.87
714.438	32527.65
714.782	32661.66
715.125	32616.68
715.469	32610.58
715.812	32416.46
716.156	32178.73
716.499	32044.04
716.843	32292.85
717.186	32125.17
717.53	32145.51
717.873	32218.28
718.216	32131.73
718.559	31836.82
718.902	31736.03
719.246	31811.73
719.589	31642.47
719.932	31600.21
720.275	31582.81
720.617	31545.75
720.96	31550.95
721.303	31470.73
721.646	31365.42
721.989	31244.07
722.331	31457.85
722.674	31262.82
723.016	31269.38
723.359	31163.62
723.701	31218.53
724.044	30940.8
724.386	30684.08
724.729	30942.15
725.071	30986.9
725.413	30951.87
725.755	30882.49
726.097	30694.25
726.439	30666.68
726.782	30627.81
727.124	30810.86
727.465	30673.23
727.807	30569.28
728.149	30511.66
728.491	30396.86
728.833	30521.6
729.175	30425.33
729.516	30284.77
729.858	30313.47
730.199	30261.27
730.541	30138.33
730.882	30133.81
731.224	30268.5
731.565	30090.88
731.906	30044.32
732.248	29993.48
732.589	29809.75
732.93	29848.85
733.271	29818.34
733.612	29824.89
733.953	29844.1
734.294	29748.96
734.635	29643.43
734.976	29598.91
735.317	29585.8
735.658	29508.29
735.999	29579.93
736.339	29358.47
736.68	29501.96
737.021	29364.57
737.361	29305.59
737.702	29366.37
738.042	29270.11
738.383	29259.94
738.723	29291.35
739.063	29130.9
739.404	29301.29
739.744	29165.48
740.084	29054.52
740.424	29029.89
740.764	28998.7
741.104	29113.95
741.444	28700.86
741.784	28870.79
742.124	28816.56
742.464	28796.67
742.804	28720.06
743.143	28565.94
743.483	28713.28
743.823	28403.24
744.162	28546.51
744.502	28539.5
744.841	28473.29
745.181	28582.67
745.52	28496.79
745.86	28553.74
746.199	28329.57
746.538	28288.44
746.877	28299.51
747.216	28295.89
747.556	28267.19
747.895	28163.92
748.234	28100.42
748.573	28103.81
748.911	28039.4
749.25	27965.28
749.589	27953.98
749.928	27935.45
750.267	28058.61
750.605	27712.41
750.944	27764.83
751.283	27581.56
751.621	27751.95
751.96	27616.14
752.298	27551.28
752.636	27605.07
752.975	27443.49
753.313	27281.46
753.651	27394
753.989	27299.08
754.327	27298.41
754.666	27048.92
755.004	27285.07
755.342	27148.13
755.679	27076.04
756.017	26927.79
756.355	27077.85
756.693	26961.47
757.031	26931.41
757.368	26838.53
