Data from hue_310_FLMS001491_38.txt Node
Date: Mon Feb 06 15:49:37 GMT 2017
User: dcchb
Spectrometer: FLMS00149
Trigger mode: 0
Integration Time (sec): 2.000000E-2
Scans to average: 10
Electric dark correction enabled: true
Nonlinearity correction enabled: false
Boxcar width: 0
XAxis mode: Wavelengths
Number of Pixels in Spectrum: 2048
>>>>>Begin Spectral Data<<<<<
341.393	-23.8
341.776	-23.8
342.16	-23.8
342.543	-71.03
342.927	-49.79
343.31	-66.06
343.693	-69.22
344.077	-87.07
344.46	-64.02
344.843	-62.22
345.226	-40.3
345.61	-26.74
345.993	-11.14
346.376	1.74
346.759	19.59
347.142	11.91
347.525	66.14
347.908	62.53
348.291	75.18
348.674	91.45
349.057	98.23
349.44	121.06
349.823	134.16
350.206	167.38
350.588	194.27
350.971	225.69
351.354	235.63
351.737	245.12
352.119	260.71
352.502	274.95
352.884	271.79
353.267	294.38
353.65	288.96
354.032	281.73
354.414	304.1
354.797	312.69
355.179	326.47
355.562	321.28
355.944	326.93
356.326	309.53
356.709	326.7
357.091	322.18
357.473	342.97
357.855	321.5
358.238	352.24
358.62	352.46
359.002	343.42
359.384	350.88
359.766	353.37
360.148	326.47
360.53	349.52
360.912	339.81
361.294	324.89
361.676	346.36
362.057	331.67
362.439	323.99
362.821	325.57
363.203	333.25
363.584	337.55
363.966	315.85
364.348	319.69
364.729	305.23
365.111	327.15
365.493	326.47
365.874	322.63
366.256	320.15
366.637	302.07
367.019	333.93
367.4	309.3
367.781	319.92
368.163	303.65
368.544	316.53
368.925	311.79
369.306	314.05
369.688	306.14
370.069	297.32
370.45	311.79
370.831	318.57
371.212	334.38
371.593	310.66
371.974	319.47
372.355	319.69
372.736	312.69
373.117	300.26
373.498	311.33
373.879	309.98
374.26	329.64
374.641	307.04
375.021	330.77
375.402	302.29
375.783	314.05
376.163	331.9
376.544	331.22
376.925	319.47
377.305	319.47
377.686	318.57
378.066	340.26
378.447	314.5
378.827	319.47
379.208	304.33
379.588	331.22
379.968	330.99
380.349	351.11
380.729	330.54
381.109	331.45
381.489	328.28
381.87	353.59
382.25	328.06
382.63	343.42
383.01	331.9
383.39	343.42
383.77	355.4
384.15	351.33
384.53	353.14
384.91	347.49
385.29	329.86
385.67	320.15
386.049	346.59
386.429	348.85
386.809	359.69
387.189	366.47
387.568	359.47
387.948	357.43
388.328	354.04
388.707	339.58
389.087	355.4
389.466	356.98
389.846	349.52
390.225	356.98
390.605	371.67
390.984	374.83
391.363	366.93
391.743	379.13
392.122	366.7
392.501	356.98
392.881	377.09
393.26	382.52
393.639	367.15
394.018	388.17
394.397	384.1
394.776	370.54
395.155	378
395.534	390.88
395.913	375.74
396.292	391.78
396.671	406.02
397.05	382.74
397.429	371.67
397.808	383.87
398.186	399.01
398.565	396.98
398.944	389.3
399.323	387.26
399.701	378.22
400.08	401.5
400.458	383.65
400.837	401.27
401.215	396.53
401.594	408.51
401.972	406.47
402.351	398.34
402.729	396.98
403.107	420.03
403.486	412.8
403.864	419.81
404.242	427.71
404.62	423.65
404.999	418.68
405.377	439.92
405.755	429.07
406.133	426.13
406.511	435.62
406.889	468.17
407.267	460.93
407.645	446.92
408.023	444.89
408.401	459.13
408.779	474.04
409.156	463.65
409.534	465
409.912	462.74
410.29	500.93
410.667	488.5
411.045	487.37
411.422	474.04
411.8	505.68
412.178	504.55
412.555	545.9
412.933	534.15
413.31	508.16
413.687	522.4
414.065	528.73
414.442	544.77
414.819	559.24
415.197	566.02
415.574	569.41
415.951	565.79
416.328	564.66
416.705	568.5
417.082	585.22
417.46	599.01
417.837	595.62
418.214	597.88
418.591	636.97
418.967	640.82
419.344	636.07
419.721	616.64
420.098	625.45
420.475	642.17
420.852	654.83
421.228	656.18
421.605	664.77
421.982	688.72
422.358	701.83
422.735	702.28
423.111	696.63
423.488	718.33
423.864	708.39
424.241	721.94
424.617	751.55
424.994	748.84
425.37	747.93
425.746	755.62
426.123	770.08
426.499	769.17
426.875	767.37
427.251	775.05
427.627	789.74
428.003	804.43
428.379	825.22
428.756	815.5
429.132	832.68
429.507	851.43
429.883	879.91
430.259	864.09
430.635	871.32
431.011	873.13
431.387	880.58
431.763	897.31
432.138	895.95
432.514	898.89
432.89	911.32
433.265	945.67
433.641	947.48
434.016	956.74
434.392	964.42
434.767	980.24
435.143	969.85
435.518	990.64
435.894	1005.33
436.269	1005.55
436.644	1030.86
437.02	1039.45
437.395	1042.39
437.77	1068.38
438.145	1047.36
438.52	1055.95
438.895	1063.86
439.271	1080.13
439.646	1084.87
440.021	1102.05
440.395	1127.81
440.77	1092.1
441.145	1114.02
441.52	1137.07
441.895	1126
442.27	1137.75
442.645	1141.37
443.019	1130.07
443.394	1166.45
443.769	1169.16
444.143	1180.24
444.518	1175.49
444.892	1152.44
445.267	1178.43
445.641	1187.02
446.016	1178.66
446.39	1187.47
446.764	1196.73
447.139	1201.71
447.513	1218.2
447.887	1196.28
448.262	1184.31
448.636	1205.55
449.01	1221.14
449.384	1218.65
449.758	1229.5
450.132	1265.43
450.506	1253.46
450.88	1263.4
451.254	1239.67
451.628	1265.21
452.002	1278.31
452.376	1277.18
452.75	1272.66
453.123	1291.65
453.497	1310.18
453.871	1282.38
454.244	1302.49
454.618	1295.71
454.992	1328.03
455.365	1321.93
455.739	1354.02
456.112	1347.69
456.486	1344.75
456.859	1407.35
457.232	1380.68
457.606	1385.2
457.979	1395.6
458.352	1380.68
458.725	1414.58
459.099	1394.69
459.472	1452.55
459.845	1489.16
460.218	1470.17
460.591	1470.17
460.964	1483.51
461.337	1486.22
461.71	1495.48
462.083	1528.7
462.456	1518.99
462.829	1494.13
463.201	1541.13
463.574	1508.14
463.947	1551.08
464.32	1573.9
464.692	1559.44
465.065	1590.85
465.438	1619.32
465.81	1611.86
466.183	1605.76
466.555	1668.59
466.928	1636.95
467.3	1661.81
467.672	1682.6
468.045	1696.61
468.417	1676.72
468.789	1672.65
469.161	1716.72
469.534	1728.47
469.906	1766.21
470.278	1754.46
470.65	1792.65
471.022	1818.64
471.394	1817.96
471.766	1852.08
472.138	1845.76
472.51	1858.64
472.882	1920.1
473.253	1900.9
473.625	1869.94
473.997	1917.62
474.369	1933.44
474.74	1947
475.112	1987.9
475.484	1986.32
475.855	2006.66
476.227	2025.64
476.598	2065.86
476.97	2092.98
477.341	2085.07
477.713	2143.83
478.084	2125.52
478.455	2151.96
478.827	2198.29
479.198	2217.72
479.569	2207.55
479.94	2256.37
480.311	2281.45
480.682	2331.17
481.053	2352.18
481.424	2394.44
481.795	2383.6
482.166	2393.31
482.537	2393.54
482.908	2466.53
483.279	2457.04
483.65	2524.61
484.021	2545.85
484.391	2562.35
484.762	2542.69
485.133	2548.11
485.503	2600.31
485.874	2628.79
486.244	2653.42
486.615	2695
486.985	2706.52
487.356	2723.93
487.726	2741.55
488.097	2780.2
488.467	2796.69
488.837	2846.63
489.207	2855.9
489.578	2866.75
489.948	2892.96
490.318	2944.03
490.688	2919.17
491.058	2967.31
491.428	2992.39
491.798	3004.6
492.168	3047.31
492.538	3057.48
492.908	3068.32
493.278	3109.45
493.648	3107.64
494.017	3128.66
494.387	3151.03
494.757	3197.81
495.126	3149.23
495.496	3164.14
495.866	3222.9
496.235	3237.36
496.605	3252.73
496.974	3277.81
497.344	3307.64
497.713	3311.48
498.082	3357.36
498.452	3304.7
498.821	3335.89
499.19	3352.84
499.559	3401.42
499.928	3393.29
500.298	3416.34
500.667	3429.44
501.036	3423.57
501.405	3451.82
501.774	3453.85
502.143	3493.4
502.512	3501.31
502.88	3472.61
503.249	3509.22
503.618	3519.38
503.987	3466.73
504.356	3529.78
504.724	3588.99
505.093	3580.17
505.462	3543.57
505.83	3610.23
506.199	3560.51
506.567	3621.76
506.936	3587.18
507.304	3648.65
507.672	3681.64
508.041	3658.59
508.409	3689.1
508.777	3684.8
509.145	3713.73
509.514	3712.6
509.882	3692.94
510.25	3686.39
510.618	3786.72
510.986	3729.77
511.354	3777.01
511.722	3798.7
512.09	3784.69
512.458	3769.55
512.826	3768.87
513.193	3781.07
513.561	3802.09
513.929	3825.82
514.297	3846.38
514.664	3823.11
515.032	3907.17
515.4	3869.66
515.767	3878.02
516.135	3896.32
516.502	3873.95
516.869	3915.31
517.237	3924.35
517.604	3887.74
517.972	3911.24
518.339	3925.93
518.706	3933.84
519.073	3969.77
519.44	3958.47
519.808	3939.49
520.175	3992.37
520.542	3995.98
520.909	4001.63
521.276	4007.51
521.643	4017.9
522.009	4049.99
522.376	4051.57
522.743	4096.32
523.11	4127.28
523.477	4104
523.843	4172.25
524.21	4150.78
524.577	4135.19
524.943	4214.28
525.31	4186.94
525.676	4242.3
526.043	4247.95
526.409	4240.95
526.776	4299.48
527.142	4285.24
527.508	4303.55
527.874	4315.52
528.241	4353.26
528.607	4358.68
528.973	4419.47
529.339	4376.99
529.705	4419.47
530.071	4447.72
530.437	4463.31
530.803	4490.88
531.169	4489.75
531.535	4522.75
531.901	4557.55
532.267	4550.32
532.632	4542.18
532.998	4584.67
533.364	4574.27
533.73	4625.8
534.095	4640.49
534.461	4682.97
534.826	4678.45
535.192	4668.06
535.557	4723.65
535.923	4734.49
536.288	4783.76
536.653	4804.32
537.019	4768.62
537.384	4774.72
537.749	4822.63
538.114	4845.23
538.479	4841.84
538.845	4868.95
539.21	4908.27
539.575	4889.07
539.94	4899.01
540.305	4995.05
540.67	4990.98
541.034	5004.09
541.399	5025.79
541.764	5045.67
542.129	5049.97
542.494	5063.07
542.858	5116.41
543.223	5094.94
543.587	5194.82
543.952	5102.17
544.316	5149.62
544.681	5206.35
545.045	5247.93
545.41	5247.25
545.774	5218.1
546.138	5258.32
546.503	5261.03
546.867	5278.21
547.231	5326.12
547.595	5337.42
547.959	5336.51
548.324	5414.93
548.688	5392.1
549.052	5421.48
549.416	5427.58
549.779	5410.86
550.143	5416.96
550.507	5495.15
550.871	5465.32
551.235	5484.76
551.599	5554.36
551.962	5544.87
552.326	5565.88
552.689	5615.83
553.053	5585.09
553.417	5580.8
553.78	5606.11
554.143	5610.18
554.507	5637.52
554.87	5675.71
555.234	5718.65
555.597	5659.89
555.96	5695.15
556.323	5770.4
556.686	5756.16
557.05	5769.27
557.413	5833.9
557.776	5778.99
558.139	5847.01
558.502	5908.25
558.865	5904.18
559.228	5902.6
559.59	5895.37
559.953	5914.35
560.316	5947.12
560.679	5963.16
561.041	5973.56
561.404	6036.38
561.767	6014.01
562.129	6000.9
562.492	6096.27
562.854	6049.94
563.217	6090.16
563.579	6067.34
563.941	6143.5
564.304	6108.92
564.666	6236.15
565.028	6159.32
565.39	6150.95
565.753	6246.32
566.115	6288.58
566.477	6265.75
566.839	6263.72
567.201	6337.84
567.563	6290.16
567.925	6339.42
568.287	6385.52
568.648	6369.03
569.01	6459.42
569.372	6450.16
569.734	6454.67
570.095	6473.66
570.457	6509.36
570.819	6533.32
571.18	6531.51
571.542	6595.91
571.903	6624.39
572.265	6645.86
572.626	6695.57
572.987	6738.74
573.349	6770.82
573.71	6817.6
574.071	6878.39
574.432	6908.67
574.794	6975.79
575.155	7028.45
575.516	7056.92
575.877	7068.44
576.238	7178.27
576.599	7164.26
576.96	7298.49
577.32	7318.61
577.681	7397.47
578.042	7474.31
578.403	7553.63
578.763	7579.39
579.124	7719.5
579.485	7785.71
579.845	7910.46
580.206	7962.66
580.566	8138.25
580.927	8173.73
581.287	8366.94
581.648	8455.75
582.008	8635.63
582.368	8714.73
582.728	8867.94
583.089	8996.75
583.449	9096.64
583.809	9266.13
584.169	9464.77
584.529	9660.47
584.889	9857.75
585.249	9953.34
585.609	10132.09
585.969	10417.28
586.329	10568.69
586.688	10828.8
587.048	10960.77
587.408	11172.74
587.768	11362.12
588.127	11582.9
588.487	11801.65
588.846	12247.97
589.206	12308.08
589.565	12528.19
589.925	12906.26
590.284	13027.61
590.643	13381.72
591.003	13646.12
591.362	13929.05
591.721	14195.71
592.08	14395.26
592.44	14762.71
592.799	15028.69
593.158	15279.98
593.517	15644.94
593.876	15889.23
594.235	16097.36
594.593	16398.82
594.952	16654.18
595.311	16964.23
595.67	17277.67
596.029	17752.46
596.387	17962.62
596.746	18232.22
597.104	18551.53
597.463	18860.22
597.822	19188.35
598.18	19549.7
598.538	19649.81
598.897	20126.86
599.255	20172.73
599.613	20766.39
599.972	20894.97
600.33	21255.64
600.688	21499.93
601.046	21840.94
601.404	22171.1
601.762	22412.9
602.12	22764.75
602.478	23094.46
602.836	23270.05
603.194	23379.65
603.552	23797.95
603.91	23922.92
604.268	24380.31
604.625	24402.9
604.983	24887.41
605.341	24912.72
605.698	25298.47
606.056	25579.6
606.413	25709.99
606.771	26184.78
607.128	26415.73
607.485	26399.91
607.843	26763.29
608.2	27097.07
608.557	27316.73
608.914	27407.12
609.272	27770.72
609.629	28050.72
609.986	28347.66
610.343	28371.61
610.7	28770.92
611.057	28777.7
611.414	29031.26
611.771	29170.91
612.127	29559.83
612.484	29594.86
612.841	29913.72
613.198	29935.87
613.554	30195.52
613.911	30405.23
614.267	30535.17
614.624	30789.18
614.98	30944.2
615.337	31252.21
615.693	31369.5
616.05	31425.32
616.406	31784.63
616.762	31709.6
617.118	31992.08
617.475	31993.66
617.831	32305.97
618.187	32536.25
618.543	32584.16
618.899	32851.72
619.255	32820.08
619.611	33041.77
619.967	33202.9
620.323	33375.77
620.678	33289.22
621.034	33351.37
621.39	33486.96
621.746	33504.81
622.101	34069.09
622.457	33807.18
622.812	34038.58
623.168	34159.71
623.523	34254.85
623.879	34430.44
624.234	34284.68
624.589	34459.36
624.945	34672.01
625.3	34738.68
625.655	34881.95
626.01	34816.19
626.365	34970.99
626.72	34960.59
627.075	35009.63
627.43	35142.28
627.785	35121.72
628.14	35196.07
628.495	35337.53
628.85	35329.4
629.205	35260.92
629.559	35439.9
629.914	35422.73
630.269	35514.25
630.623	35414.14
630.978	35398.55
631.332	35811.64
631.687	35657.3
632.041	35580.69
632.396	35705.43
632.75	35690.52
633.104	35765.09
633.459	35554.25
633.813	35719.22
634.167	35635.15
634.521	35692.1
634.875	35731.87
635.229	35809.16
635.583	35647.13
635.937	35700.46
636.291	35778.88
636.645	35700.46
636.999	35780.01
637.352	35939.1
637.706	35569.39
638.06	35788.59
638.413	35748.14
638.767	35708.59
639.121	35677.18
639.474	35526.23
639.828	35552.44
640.181	35703.85
640.534	35793.11
640.888	35704.75
641.241	35631.76
641.594	35599.22
641.947	35833.34
642.301	35650.07
642.654	35681.7
643.007	35678.09
643.36	35718.99
643.713	35628.6
644.066	35796.05
644.419	35454.36
644.771	35382.5
645.124	35044.21
645.477	35030.87
645.83	34783.65
646.182	34688.06
646.535	34567.16
646.888	34666.81
647.24	34558.57
647.593	34690.32
647.945	34730.32
648.298	34438.12
648.65	34547.27
649.002	34453.94
649.355	34470.44
649.707	34469.31
650.059	34660.49
650.411	35000.82
650.763	35095.28
651.115	35446.91
651.467	35273.35
651.819	35483.74
652.171	35281.04
652.523	35141.38
652.875	35223.18
653.227	35001.49
653.578	35406
653.93	35184.09
654.282	35199
654.633	35058.67
654.985	35097.09
655.337	35062.28
655.688	35147.71
656.039	35209.17
656.391	34994.94
656.742	35022.96
657.094	35080.36
657.445	35157.65
657.796	35020.03
658.147	35097.99
658.498	35074.71
658.849	35169.63
659.2	35099.12
659.551	34947.94
659.902	35052.12
660.253	34999.69
660.604	35042.4
660.955	34854.38
661.306	34900.48
661.656	34949.74
662.007	34995.62
662.358	34853.48
662.708	34885.11
663.059	34903.19
663.409	34780.03
663.76	34987.94
664.11	34856.41
664.461	35047.14
664.811	34957.2
665.161	34929.18
665.511	34734.61
665.862	34935.96
666.212	35042.85
666.562	34945.9
666.912	34970.99
667.262	34984.55
667.612	34872.68
667.962	34846.92
668.312	35013.25
668.662	34943.87
669.011	34914.94
669.361	34875.85
669.711	34811.44
670.06	34924.66
670.41	34663.42
670.76	34707.04
671.109	34744.55
671.459	34710.66
671.808	34678.57
672.157	34802.18
672.507	34633.14
672.856	34598.79
673.205	34707.49
673.554	34693.71
673.904	34489.64
674.253	34716.53
674.602	34700.71
674.951	34108.86
675.3	33902.31
675.649	34509.53
675.998	34425.46
676.346	34571.45
676.695	34654.16
677.044	34297.33
677.393	34513.37
677.741	34414.17
678.09	34320.38
678.438	34314.06
678.787	34547.5
679.135	34557.44
679.484	34219.14
679.832	34361.74
680.181	34065.25
680.529	34233.38
680.877	34170.56
681.225	34070.45
681.573	34380.72
681.922	34036.1
682.27	33880.85
682.618	33985.25
682.966	33865.48
683.314	34024.35
683.661	33835.2
684.009	33733.51
684.357	33658.25
684.705	33618.25
685.053	33619.16
685.4	33543.91
685.748	33365.38
686.095	33408.77
686.443	33323.8
686.79	33388.66
687.138	33247.42
687.485	33213.97
687.832	33282.67
688.18	33086.74
688.527	32996.58
688.874	33207.42
689.221	33008.33
689.568	32974.2
689.915	32916.35
690.262	32900.31
690.609	32734.21
690.956	32526.76
691.303	32596.13
691.65	32336.71
691.997	32508
692.344	32244.96
692.69	32318.63
693.037	32379.64
693.383	31979.43
693.73	32090.16
694.077	31833.67
694.423	31945.98
694.769	31839.54
695.116	31752.77
695.462	31694.24
695.808	31630.96
696.155	31648.81
696.501	31495.82
696.847	31397.3
697.193	31349.39
697.539	31253.34
697.885	31162.95
698.231	31011.54
698.577	30933.35
698.923	30875.95
699.269	30863.07
699.614	30716.64
699.96	30652.68
700.306	30649.52
700.651	30446.13
700.997	30451.78
701.342	30385.8
701.688	30324.56
702.033	30096.77
702.379	30169.31
702.724	30117.56
703.069	30094.96
703.415	29741.75
703.76	29895.19
704.105	29807.51
704.45	29791.24
704.795	29672.6
705.14	29659.49
705.485	29662.2
705.83	29378.82
706.175	29459.95
706.52	29299.05
706.865	29282.1
707.209	29280.29
707.554	29116.9
707.899	29226.51
708.243	29104.47
708.588	28952.61
708.932	28795.78
709.277	28701.55
709.621	28805.73
709.966	28605.73
710.31	28672.17
710.654	28415.45
710.998	28548.33
711.342	28582.68
711.687	28379.3
712.031	28301.33
712.375	28264.27
712.719	28281.45
713.063	28105.63
713.407	28264.5
713.75	27975.01
714.094	28078.97
714.438	27938.18
714.782	27946.99
715.125	27788.13
715.469	27770.5
715.812	27812.53
716.156	27607.11
716.499	27610.05
716.843	27693.44
717.186	27502.48
717.53	27630.16
717.873	27601.46
718.216	27455.7
718.559	27401.24
718.902	27256.61
719.246	27223.17
719.589	27109.5
719.932	26971.65
720.275	27012.33
720.617	27028.37
720.96	27006
721.303	27007.13
721.646	26954.25
721.989	26691.2
722.331	26836.29
722.674	26714.93
723.016	26723.29
723.359	26805.33
723.701	26644.43
724.044	26565.11
724.386	26407.6
724.729	26555.84
725.071	26372.34
725.413	26363.76
725.755	26406.69
726.097	26360.59
726.439	26271.78
726.782	26225
727.124	26223.65
727.465	26261.61
727.807	26187.49
728.149	26146.36
728.491	26063.88
728.833	26149.52
729.175	26016.87
729.516	25948.85
729.858	25954.95
730.199	25993.6
730.541	25771.46
730.882	25880.15
731.224	25927.38
731.565	25661.63
731.906	25830.21
732.248	25792.25
732.589	25535.3
732.93	25615.08
733.271	25453.27
733.612	25451.46
733.953	25601.29
734.294	25366.95
734.635	25368.3
734.976	25415.53
735.317	25400.84
735.658	25262.09
735.999	25224.8
736.339	25311.35
736.68	25374.86
737.021	25198.14
737.361	25065.26
737.702	25176.89
738.042	25124.47
738.383	24914.75
738.723	25104.13
739.063	24941.65
739.404	25025.94
739.744	24891.48
740.084	24918.37
740.424	24881.08
740.764	24754.08
741.104	24803.57
741.444	24696.46
741.784	24603.12
742.124	24621.65
742.464	24614.42
742.804	24499.62
743.143	24424.6
743.483	24641.09
743.823	24327.88
744.162	24419.4
744.502	24407.42
744.841	24198.84
745.181	24313.87
745.52	24265.05
745.86	24336.01
746.199	24181.44
746.538	24262.12
746.877	24211.72
747.216	24140.99
747.556	24046.08
747.895	24103.93
748.234	24054.44
748.573	24010.15
748.911	23948.9
749.25	23965.85
749.589	23818.74
749.928	23871.17
750.267	23833.88
750.605	23720.89
750.944	23715.92
751.283	23621
751.621	23702.58
751.96	23523.38
752.298	23458.07
752.636	23548.91
752.975	23355.25
753.313	23327
753.651	23501.23
753.989	23257.4
754.327	23185.76
754.666	23094.69
755.004	23147.8
755.342	23198.19
755.679	23114.58
756.017	22966.33
756.355	23140.56
756.693	22939.89
757.031	22988.03
757.368	22787.58
757.706	22747.81
758.044	22622.84
758.381	22722.72
758.719	22617.19
759.056	22637.3
759.394	22537.64
759.731	22497.19
760.068	22333.35
