Data from hue_60_FLMS001491_25.txt Node
Date: Mon Feb 06 15:17:08 GMT 2017
User: dcchb
Spectrometer: FLMS00149
Trigger mode: 0
Integration Time (sec): 2.000000E-2
Scans to average: 10
Electric dark correction enabled: true
Nonlinearity correction enabled: false
Boxcar width: 0
XAxis mode: Wavelengths
Number of Pixels in Spectrum: 2048
>>>>>Begin Spectral Data<<<<<
341.393	-29.79
341.776	-29.79
342.16	-29.79
342.543	-53.97
342.927	-55.32
343.31	-66.62
343.693	-65.04
344.077	-55.32
344.46	-69.33
344.843	-38.15
345.226	-47.64
345.61	-51.03
345.993	-24.36
346.376	-4.93
346.759	23.77
347.142	31.91
347.525	28.06
347.908	51.11
348.291	71.9
348.674	96.76
349.057	118.91
349.44	120.72
349.823	137.44
350.206	172.69
350.588	185.35
350.971	237.78
351.354	230.09
351.737	244.56
352.119	247.72
352.502	262.41
352.884	253.37
353.267	287.49
353.65	300.37
354.032	308.28
354.414	310.99
354.797	316.87
355.179	330.43
355.562	325.46
355.944	316.64
356.326	312.35
356.709	348.06
357.091	344.21
357.473	355.97
357.855	360.03
358.238	353.25
358.62	341.95
359.002	336.53
359.384	343.76
359.766	360.03
360.148	345.12
360.53	346.02
360.912	337.66
361.294	358
361.676	377.66
362.057	349.64
362.439	345.8
362.821	344.67
363.203	338.56
363.584	352.35
363.966	324.78
364.348	318.23
364.729	330.2
365.111	319.36
365.493	308.96
365.874	320.94
366.256	316.42
366.637	319.81
367.019	313.48
367.4	323.88
367.781	323.42
368.163	311.67
368.544	300.83
368.925	315.29
369.306	315.97
369.688	301.05
370.069	304.44
370.45	296.98
370.831	341.95
371.212	322.07
371.593	311.9
371.974	301.96
372.355	323.42
372.736	327.94
373.117	325.23
373.498	296.31
373.879	332.24
374.26	311.9
374.641	315.51
375.021	329.3
375.402	325.91
375.783	328.62
376.163	336.53
376.544	336.08
376.925	318.9
377.305	305.35
377.686	331.33
378.066	318.68
378.447	320.26
378.827	332.46
379.208	340.82
379.588	336.08
379.968	326.14
380.349	326.36
380.729	324.33
381.109	331.33
381.489	335.4
381.87	330.2
382.25	352.12
382.63	343.54
383.01	337.21
383.39	327.27
383.77	343.76
384.15	358.68
384.53	358.68
384.91	347.15
385.29	354.84
385.67	346.02
386.049	346.25
386.429	337.21
386.809	352.8
387.189	334.04
387.568	355.51
387.948	352.35
388.328	364.1
388.707	323.88
389.087	354.61
389.466	355.29
389.846	354.61
390.225	358.23
390.605	350.09
390.984	348.28
391.363	353.93
391.743	349.64
392.122	374.27
392.501	369.3
392.881	372.91
393.26	364.33
393.639	356.64
394.018	356.87
394.397	348.28
394.776	394.83
395.155	384.44
395.534	369.98
395.913	366.59
396.292	369.52
396.671	390.09
397.05	377.66
397.429	383.99
397.808	386.47
398.186	403.42
398.565	397.55
398.944	372.46
399.323	376.3
399.701	395.51
400.08	369.98
400.458	382.86
400.837	391.22
401.215	387.83
401.594	383.54
401.972	391.67
402.351	379.69
402.729	376.98
403.107	394.61
403.486	394.83
403.864	391.67
404.242	405.46
404.62	376.3
404.999	403.2
405.377	402.29
405.755	380.82
406.133	403.87
406.511	388.51
406.889	411.56
407.267	426.02
407.645	426.02
408.023	415.4
408.401	412.23
408.779	422.63
409.156	435.29
409.534	416.75
409.912	418.56
410.29	435.51
410.667	421.95
411.045	442.97
411.422	427.6
411.8	430.31
412.178	413.59
412.555	430.54
412.933	438.67
413.31	444.32
413.687	453.14
414.065	459.47
414.442	474.15
414.819	467.83
415.197	467.15
415.574	474.38
415.951	476.64
416.328	474.15
416.705	461.95
417.082	486.81
417.46	474.38
417.837	478.45
418.214	457.66
418.591	484.1
418.967	484.55
419.344	484.32
419.721	477.32
420.098	485
420.475	479.35
420.852	474.61
421.228	515.74
421.605	496.98
421.982	516.86
422.358	494.72
422.735	507.83
423.111	499.01
423.488	518.22
423.864	522.06
424.241	522.51
424.617	522.97
424.994	537.43
425.37	532.91
425.746	534.27
426.123	540.59
426.499	532.46
426.875	546.02
427.251	550.99
427.627	536.3
428.003	542.18
428.379	564.77
428.756	560.71
429.132	563.42
429.507	565.68
429.883	566.58
430.259	584.43
430.635	571.33
431.011	573.81
431.387	584.43
431.763	590.54
432.138	583.53
432.514	603.19
432.89	586.69
433.265	617.2
433.641	616.3
434.016	601.38
434.392	643.87
434.767	617.2
435.143	636.64
435.518	647.48
435.894	663.08
436.269	649.06
436.644	621.95
437.02	656.07
437.395	642.51
437.77	653.36
438.145	654.26
438.52	656.75
438.895	651.78
439.271	679.57
439.646	673.7
440.021	695.17
440.395	708.72
440.77	663.98
441.145	706.92
441.52	724.09
441.895	725.67
442.27	707.82
442.645	702.17
443.019	728.84
443.394	727.93
443.769	728.38
444.143	694.26
444.518	720.48
444.892	741.72
445.267	742.62
445.641	727.71
446.016	727.71
446.39	752.79
446.764	742.17
447.139	741.27
447.513	777.2
447.887	756.63
448.262	763.19
448.636	756.18
449.01	769.29
449.384	752.79
449.758	766.8
450.132	761.6
450.506	772.68
450.88	787.82
451.254	793.47
451.628	811.32
452.002	806.57
452.376	823.98
452.75	818.55
453.123	825.33
453.497	842.28
453.871	826.91
454.244	840.92
454.618	847.48
454.992	879.34
455.365	873.92
455.739	878.44
456.112	896.52
456.486	887.7
456.859	905.78
457.232	934.03
457.606	924.54
457.979	927.48
458.352	930.41
458.725	959.79
459.099	962.28
459.472	979.9
459.845	974.03
460.218	989.85
460.591	994.37
460.964	1038.89
461.337	1018.32
461.71	1031.43
462.083	1054.93
462.456	1032.33
462.829	1071.65
463.201	1072.78
463.574	1089.51
463.947	1097.41
464.32	1143.74
464.692	1101.48
465.065	1111.43
465.438	1138.32
465.81	1171.99
466.183	1166.34
466.555	1226
466.928	1235.49
467.3	1232.78
467.672	1254.7
468.045	1263.74
468.417	1299.22
468.789	1311.42
469.161	1318.88
469.534	1352.1
469.906	1382.83
470.278	1396.62
470.65	1395.94
471.022	1444.75
471.394	1475.71
471.766	1513.67
472.138	1531.08
472.51	1576.27
472.882	1654.69
473.253	1614.24
473.625	1676.16
473.997	1692.43
474.369	1731.97
474.74	1757.06
475.112	1812.42
475.484	1882.25
475.855	1916.83
476.227	1940.33
476.598	2032.76
476.97	2049.71
477.341	2106.43
477.713	2172.87
478.084	2165.18
478.455	2260.55
478.827	2357.27
479.198	2461.22
479.569	2497.38
479.94	2562.23
480.311	2648.79
480.682	2698.73
481.053	2835.45
481.424	2911.38
481.795	3012.62
482.166	3058.04
482.537	3129.9
482.908	3236.34
483.279	3368.54
483.65	3467.07
484.021	3577.35
484.391	3673.84
484.762	3736.22
485.133	3870.9
485.503	3937.57
485.874	4095.53
486.244	4157.67
486.615	4329.19
486.985	4404.67
487.356	4572.35
487.726	4680.37
488.097	4841.05
488.467	4915.85
488.837	5119.91
489.207	5214.82
489.578	5415.72
489.948	5557.41
490.318	5659.1
490.688	5762.15
491.058	5976.16
491.428	6082.82
491.798	6251.4
492.168	6506.09
492.538	6618.63
492.908	6651.62
493.278	6927.32
493.648	7019.97
494.017	7152.17
494.387	7326.4
494.757	7471.94
495.126	7681.42
495.496	7815.43
495.866	7919.61
496.235	8123.67
496.605	8245.93
496.974	8403.44
497.344	8570.89
497.713	8741.73
498.082	8865.12
498.452	9047.26
498.821	9171.78
499.19	9305.11
499.559	9494.48
499.928	9624.2
500.298	9786.45
500.667	9969.5
501.036	9980.8
501.405	10167.68
501.774	10310.96
502.143	10432.76
502.512	10583.04
502.88	10795.92
503.249	10776.03
503.618	11058.96
503.987	11150.94
504.356	11343.92
504.724	11456.92
505.093	11538.72
505.462	11731.26
505.83	11924.02
506.199	11985.72
506.567	12281.08
506.936	12314.29
507.304	12514.97
507.672	12681.74
508.041	12664.34
508.409	12875.86
508.777	13074.73
509.145	13174.61
509.514	13325.79
509.882	13431.55
510.25	13512.23
510.618	13674.94
510.986	13827.25
511.354	13920.13
511.722	14129.61
512.09	14350.4
512.458	14391.53
512.826	14534.35
513.193	14511.53
513.561	14779.54
513.929	14852.08
514.297	15066.54
514.664	15138.63
515.032	15338.4
515.4	15499.97
515.767	15645.28
516.135	15650.25
516.502	15688.67
516.869	16000.98
517.237	16140.86
517.604	16075.55
517.972	16346.73
518.339	16419.27
518.706	16497.24
519.073	16674.86
519.44	16885.02
519.808	17037.11
520.175	16973.16
520.542	17261.74
520.909	17324.33
521.276	17385.35
521.643	17647.04
522.009	17786.02
522.376	18033.69
522.743	18064.2
523.11	18372.21
523.477	18488.37
523.843	18590.97
524.21	18801.58
524.577	18958.64
524.943	19089.03
525.31	19186.88
525.676	19498.06
526.043	19509.81
526.409	19637.27
526.776	19821.22
527.142	19888.56
527.508	20013.08
527.874	20207.87
528.241	20405.61
528.607	20332.16
528.973	20644.02
529.339	20690.8
529.705	20917.01
530.071	21103.67
530.437	21089.21
530.803	21226.83
531.169	21406.71
531.535	21409.42
531.901	21467.05
532.267	21645.35
532.632	21815.51
532.998	21810.77
533.364	21943.42
533.73	22127.37
534.095	22274.94
534.461	22302.28
534.826	22576.85
535.192	22553.35
535.557	22768.71
535.923	22718.09
536.288	22813.23
536.653	22831.31
537.019	22851.19
537.384	23052.77
537.749	23094.8
538.114	23167.57
538.479	23333.67
538.845	23457.05
539.21	23354
539.575	23459.76
539.94	23616.6
540.305	23712.19
540.67	23796.48
541.034	23811.85
541.399	23907.21
541.764	24060.65
542.129	24109.01
542.494	24232.4
542.858	24269.69
543.223	24355.79
543.587	24481.43
543.952	24439.17
544.316	24557.36
544.681	24582.45
545.045	24764.14
545.41	24773.85
545.774	24885.49
546.138	24901.76
546.503	24984.7
546.867	24963
547.231	25228.76
547.595	25294.07
547.959	25188.31
548.324	25419.04
548.688	25458.13
549.052	25606.37
549.416	25575.42
549.779	25518.47
550.143	25769.31
550.507	25862.87
550.871	26029.64
551.235	26034.84
551.599	26252.23
551.962	26307.83
552.326	26363.87
552.689	26494.26
553.053	26415.84
553.417	26616.97
553.78	26799.34
554.143	26705.33
554.507	26938.54
554.87	27058.31
555.234	27211.53
555.597	27097.18
555.96	27300.57
556.323	27421.47
556.686	27422.37
557.05	27599.54
557.413	27777.17
557.776	27825.75
558.139	27974.9
558.502	27970.61
558.865	28095.8
559.228	28307.55
559.59	28438.16
559.953	28378.05
560.316	28762
560.679	28722.45
561.041	29002.9
561.404	29026.4
561.767	29307.07
562.129	29061.43
562.492	29481.3
562.854	29386.61
563.217	29440.4
563.579	29539.38
563.941	29809.2
564.304	29884.45
564.666	30055.3
565.028	30151.11
565.39	30246.25
565.753	30439.47
566.115	30639.24
566.477	30653.02
566.839	30821.83
567.201	30859.12
567.563	30929.4
567.925	31240.8
568.287	31299.56
568.648	31339.56
569.01	31471.76
569.372	31762.15
569.734	31653.9
570.095	31901.58
570.457	32017.28
570.819	32086.66
571.18	32058.86
571.542	32258.18
571.903	32215.47
572.265	32386.54
572.626	32564.16
572.987	32603.03
573.349	32741.33
573.71	32850.48
574.071	32899.74
574.432	32996.91
574.794	33218.38
575.155	33141.77
575.516	33188.77
575.877	33184.03
576.238	33340.63
576.599	33443.23
576.96	33466.96
577.32	33599.61
577.681	33676.45
578.042	33795.99
578.403	33735.65
578.763	33783.56
579.124	34012.48
579.485	34060.39
579.845	34159.82
580.206	33949.21
580.566	34014.74
580.927	34076.43
581.287	34256.09
581.648	34286.6
582.008	34335.86
582.368	34326.82
582.728	34375.41
583.089	34292.47
583.449	34255.41
583.809	34345.13
584.169	34531.79
584.529	34325.69
584.889	34617.66
585.249	34476.2
585.609	34461.74
585.969	34507.84
586.329	34554.84
586.688	34499.25
587.048	34689.07
587.408	34592.58
587.768	34626.02
588.127	34632.13
588.487	34729.3
588.846	34831.22
589.206	34701.73
589.565	34633.26
589.925	34822.86
590.284	34725.01
590.643	34863.76
591.003	34957.99
591.362	34956.19
591.721	34844.55
592.08	34880.48
592.44	34985.34
592.799	35105.79
593.158	35021.72
593.517	35014.04
593.876	35011.78
594.235	35026.24
594.593	35087.71
594.952	35221.94
595.311	35050.87
595.67	35175.61
596.029	35349.85
596.387	35343.75
596.746	35413.57
597.104	35255.39
597.463	35348.72
597.822	35398.89
598.18	35358.21
598.538	35353.46
598.897	35493.12
599.255	35376.74
599.613	35720.23
599.972	35542.61
600.33	35680.46
600.688	35425.78
601.046	35790.29
601.404	35885.2
601.762	35772.89
602.12	35968.59
602.478	35997.06
602.836	35877.29
603.194	35755.03
603.552	35937.63
603.91	35784.19
604.268	36010.62
604.625	35963.84
604.983	36227.56
605.341	35918.42
605.698	36193.44
606.056	36141.46
606.413	36193.89
606.771	36492.64
607.128	36437.73
607.485	36346.66
607.843	36405.86
608.2	36562.47
608.557	36761.56
608.914	36557.05
609.272	36758.62
609.629	36822.8
609.986	36879.52
610.343	36893.54
610.7	37112.51
611.057	37044.04
611.414	36988
611.771	37167.65
612.127	37134.89
612.484	37139.18
612.841	37345.28
613.198	37291.49
613.554	37329.91
613.911	37439.96
614.267	37551.6
614.624	37577.13
614.98	37594.53
615.337	37835.66
615.693	37746.17
616.05	37818.93
616.406	37914.75
616.762	37925.82
617.118	37852.38
617.475	37804.7
617.831	38148.64
618.187	38022.55
618.543	38125.37
618.899	38415.98
619.255	38378.92
619.611	38327.85
619.967	38536.66
620.323	38596.09
620.678	38413.27
621.034	38331.69
621.39	38513.15
621.746	38428.41
622.101	38728.06
622.457	38508.63
622.812	38671.34
623.168	38772.36
623.523	38749.98
623.879	38910.21
624.234	38554.28
624.589	38708.63
624.945	38835.41
625.3	38883.99
625.655	38871.11
626.01	38880.83
626.365	38954.95
626.72	38765.12
627.075	38875.86
627.43	38854.84
627.785	38778.01
628.14	38860.94
628.495	39079.92
628.85	38846.48
629.205	38923.31
629.559	39087.83
629.914	38925.8
630.269	38815.52
630.623	38817.55
630.978	38673.6
631.332	38914.05
631.687	38987.94
632.041	38850.09
632.396	38855.97
632.75	38872.69
633.104	38761.06
633.459	38686.93
633.813	38547.73
634.167	38726.93
634.521	38737.55
634.875	38761.74
635.229	38724.45
635.583	38463.66
635.937	38579.14
636.291	38587.73
636.645	38592.02
636.999	38485.13
637.352	38521.97
637.706	38428.41
638.06	38599.71
638.413	38381.63
638.767	38363.1
639.121	38536.2
639.474	38251.47
639.828	38321.75
640.181	38374.63
640.534	38411.91
640.888	38349.99
641.241	38143.9
641.594	38197.68
641.947	38291.01
642.301	38147.06
642.654	38134.63
643.007	38149.55
643.36	38117.68
643.713	38049.44
644.066	38308.19
644.419	37934.19
644.771	37738.49
645.124	37480.64
645.477	37353.86
645.83	37153.42
646.182	37154.32
646.535	36880.88
646.888	36945.96
647.24	36801.56
647.593	36984.38
647.945	37036.81
648.298	36739.19
648.65	36684.73
649.002	36719.08
649.355	36681.34
649.707	36724.05
650.059	36796.59
650.411	37235.67
650.763	37267.99
651.115	37589.34
651.467	37609.45
651.819	37423.92
652.171	37458.27
652.523	37409.45
652.875	37352.05
653.227	37226.41
653.578	37566.96
653.93	37291.94
654.282	37208.1
654.633	37151.38
654.985	37270.47
655.337	37246.75
655.688	37060.54
656.039	37289.68
656.391	36932.18
656.742	37065.96
657.094	37047.43
657.445	37291.49
657.796	37156.58
658.147	37004.27
658.498	36948.68
658.849	37038.39
659.2	37038.39
659.551	36963.82
659.902	37103.93
660.253	37009.69
660.604	37108.45
660.955	36801.11
661.306	36926.53
661.656	36819.19
662.007	36866.87
662.358	36954.1
662.708	36916.13
663.059	36908.45
663.409	36627.1
663.76	36933.76
664.11	36852.63
664.461	36933.53
664.811	36765.4
665.161	36813.31
665.511	36724.95
665.862	36776.93
666.212	36866.42
666.562	36937.38
666.912	36875.46
667.262	36895.34
667.612	36809.7
667.962	36600.21
668.312	36721.56
668.662	36894.21
669.011	36780.77
669.361	36683.15
669.711	36663.94
670.06	36687.67
670.41	36599.76
670.76	36536.26
671.109	36826.64
671.459	36664.62
671.808	36573.54
672.157	36618.06
672.507	36464.17
672.856	36420.55
673.205	36523.83
673.554	36637.27
673.904	36578.52
674.253	36624.84
674.602	36537.16
674.951	36020.11
675.3	35863.51
675.649	36404.73
675.998	36317.73
676.346	36296.26
676.695	36491.29
677.044	36173.33
677.393	36289.26
677.741	36353.21
678.09	36218.75
678.438	36111.18
678.787	36346.66
679.135	36154.57
679.484	35833.68
679.832	36202.48
680.181	35818.31
680.529	36040.68
680.877	35716.17
681.225	35870.06
681.573	36043.39
681.922	35750.06
682.27	35641.14
682.618	35638.43
682.966	35667.81
683.314	35642.72
683.661	35604.08
684.009	35478.88
684.357	35326.12
684.705	35419.22
685.053	35431.43
685.4	35256.52
685.748	35106.92
686.095	35209.74
686.443	35120.47
686.79	34990.99
687.138	35047.93
687.485	35067.37
687.832	34786.25
688.18	34907.37
688.527	34759.58
688.874	34769.75
689.221	34679.13
689.568	34530.89
689.915	34605.23
690.262	34438.68
690.609	34367.73
690.956	34284.79
691.303	34214.06
691.65	34092.03
691.997	34141.52
692.344	33930.68
692.69	33894.97
693.037	33995.31
693.383	33673.06
693.73	33813.84
694.077	33473.29
694.423	33466.73
694.769	33468.77
695.116	33408.88
695.462	33326.85
695.808	33311.93
696.155	33240.98
696.501	33009.34
696.847	33042.56
697.193	32737.49
697.539	32892.06
697.885	32659.75
698.231	32622.24
698.577	32592.41
698.923	32368.68
699.269	32376.37
699.614	32151.29
699.96	32096.6
700.306	32185.18
700.651	32086.88
700.997	32001.23
701.342	31836.49
701.688	31887.79
702.033	31745.65
702.379	31730.28
702.724	31558.53
703.069	31700
703.415	31217.98
703.76	31470.85
704.105	31393.12
704.45	31264.98
704.795	31165.1
705.14	31041.03
705.485	31045.78
705.83	30804.88
706.175	30881.72
706.52	30871.77
706.865	30737.99
707.209	30691.89
707.554	30609.18
707.899	30649.86
708.243	30427.72
708.588	30306.36
708.932	30229.76
709.277	30157.44
709.621	30190.89
709.966	30023.43
710.31	30130.78
710.654	29828.64
710.998	29810.78
711.342	29958.35
711.687	29797
712.031	29709.32
712.375	29582.09
712.719	29588.64
713.063	29595.87
713.407	29575.54
713.75	29487.63
714.094	29377.58
714.438	29215.77
714.782	29281.76
715.125	29205.38
715.469	29190.01
715.812	28995.89
716.156	28833.41
716.499	28922.22
716.843	28967.19
717.186	28778.04
717.53	28918.6
717.873	28906.17
718.216	28803.8
718.559	28650.59
718.902	28486.98
719.246	28483.59
719.589	28404.27
719.932	28310.26
720.275	28321.33
720.617	28263.03
720.96	28227.1
721.303	28171.96
721.646	28215.57
721.989	28017.16
722.331	28204.95
722.674	28132.86
723.016	28055.58
723.359	27947.78
723.701	28010.83
724.044	27775.58
724.386	27635.93
724.729	27772.42
725.071	27801.12
725.413	27670.95
725.755	27679.54
726.097	27576.94
726.439	27375.59
726.782	27428.47
727.124	27618.07
727.465	27333.79
727.807	27417.4
728.149	27290.17
728.491	27255.6
728.833	27295.6
729.175	27172.89
729.516	27055.15
729.858	27111.42
730.199	27114.13
730.541	26983.97
730.882	26863.74
731.224	27011.99
731.565	26725.67
731.906	26823.97
732.248	26955.27
732.589	26667.82
732.93	26697.19
733.271	26671.88
733.612	26693.35
733.953	26748.72
734.294	26534.03
734.635	26491.32
734.976	26585.56
735.317	26377.2
735.658	26446.35
735.999	26424.88
736.339	26304.89
736.68	26338.33
737.021	26259.24
737.361	26297.2
737.702	26324.55
738.042	26274.61
738.383	26136.08
738.723	26152.35
739.063	26107.83
739.404	26042.97
739.744	25955.97
740.084	25843.2
740.424	25953.26
740.764	25854.96
741.104	25958.23
741.444	25619.93
741.784	25769.08
742.124	25840.04
742.464	25657.9
742.804	25651.57
743.143	25576.32
743.483	25638.24
743.823	25488.86
744.162	25453.61
744.502	25441.18
744.841	25384.01
745.181	25457.9
745.52	25378.58
745.86	25307.4
746.199	25276.44
746.538	25270.56
746.877	25269.66
747.216	25258.14
747.556	25145.14
747.895	25151.47
748.234	25044.36
748.573	25031.7
748.911	25069.21
749.25	24932.49
749.589	24834.19
749.928	24985.83
750.267	24849.78
750.605	24792.16
750.944	24667.87
751.283	24603.01
751.621	24690.47
751.96	24569.11
752.298	24439.4
752.636	24544.48
752.975	24379.06
753.313	24272.85
753.651	24340.65
753.989	24283.92
754.327	24229.46
754.666	24128.22
755.004	24221.33
755.342	24266.52
755.679	24061.56
756.017	23845.07
756.355	23981.56
