Data from hue_250_FLMS001491_00038.txt Node
Date: Tue Feb 07 16:00:54 GMT 2017
User: dcchb
Spectrometer: FLMS00149
Trigger mode: 0
Integration Time (sec): 2.000000E-2
Scans to average: 10
Electric dark correction enabled: true
Nonlinearity correction enabled: false
Boxcar width: 0
XAxis mode: Wavelengths
Number of Pixels in Spectrum: 2048
>>>>>Begin Spectral Data<<<<<
341.393	-11.98
341.776	-11.98
342.16	-11.98
342.543	-60.11
342.927	-47.68
343.31	-60.11
343.693	-59.89
344.077	-53.33
344.46	-71.64
344.843	-63.05
345.226	-52.2
345.61	-38.64
345.993	-3.84
346.376	4.52
346.759	4.75
347.142	13.78
347.525	51.98
347.908	58.3
348.291	76.83
348.674	102.14
349.057	90.39
349.44	118.64
349.823	141.01
350.206	154.8
350.588	177.17
350.971	190.5
351.354	219.66
351.737	225.76
352.119	256.94
352.502	240.22
352.884	269.15
353.267	265.76
353.65	273.67
354.032	280.67
354.414	268.02
354.797	306.66
355.179	315.02
355.562	291.07
355.944	303.27
356.326	334.68
356.709	318.86
357.091	330.84
357.473	320.9
357.855	347.34
358.238	323.61
358.62	341.91
359.002	320.22
359.384	334.23
359.766	306.21
360.148	319.77
360.53	334
360.912	335.13
361.294	324.06
361.676	322.93
362.057	319.54
362.439	314.79
362.821	317.73
363.203	300.11
363.584	296.49
363.966	320.9
364.348	315.25
364.729	298.98
365.111	320.22
365.493	335.81
365.874	318.41
366.256	301.91
366.637	324.06
367.019	302.14
367.4	309.6
367.781	303.95
368.163	304.17
368.544	315.92
368.925	293.55
369.306	316.83
369.688	318.86
370.069	293.1
370.45	292.2
370.831	284.06
371.212	301.24
371.593	305.98
371.974	285.42
372.355	298.75
372.736	333.78
373.117	289.94
373.498	308.92
373.879	293.1
374.26	296.49
374.641	311.63
375.021	294.68
375.402	322.7
375.783	306.43
376.163	324.74
376.544	335.58
376.925	308.24
377.305	310.05
377.686	332.19
378.066	313.44
378.447	324.06
378.827	333.32
379.208	333.1
379.588	310.95
379.968	313.44
380.349	329.48
380.729	319.31
381.109	307.11
381.489	334.91
381.87	315.7
382.25	330.84
382.63	338.75
383.01	322.25
383.39	324.29
383.77	332.65
384.15	348.69
384.53	322.93
384.91	322.93
385.29	351.63
385.67	344.62
386.049	358.63
386.429	346.88
386.809	360.22
387.189	355.47
387.568	340.1
387.948	336.26
388.328	332.65
388.707	350.27
389.087	350.95
389.466	339.43
389.846	352.08
390.225	345.75
390.605	353.21
390.984	364.51
391.363	367.22
391.743	364.51
392.122	363.61
392.501	367.67
392.881	379.2
393.26	365.87
393.639	369.93
394.018	374.68
394.397	385.07
394.776	385.3
395.155	391.18
395.534	371.97
395.913	386.88
396.292	371.97
396.671	388.46
397.05	373.1
397.429	401.12
397.808	383.72
398.186	387.33
398.565	401.57
398.944	398.86
399.323	392.98
399.701	389.37
400.08	387.79
400.458	400.44
400.837	401.35
401.215	434.56
401.594	428.46
401.972	423.04
402.351	405.41
402.729	425.53
403.107	384.62
403.486	422.36
403.864	415.36
404.242	416.94
404.62	421.91
404.999	449.93
405.377	439.99
405.755	450.38
406.133	442.7
406.511	437.28
406.889	461.46
407.267	456.26
407.645	451.29
408.023	469.59
408.401	476.15
408.779	470.27
409.156	480.67
409.534	477.5
409.912	479.08
410.29	515.69
410.667	506.43
411.045	502.36
411.422	507.56
411.8	496.03
412.178	509.59
412.555	545.3
412.933	526.99
413.31	522.7
413.687	528.35
414.065	562.25
414.442	560.89
414.819	569.93
415.197	584.62
415.574	577.16
415.951	583.04
416.328	592.98
416.705	590.27
417.082	618.29
417.46	601.34
417.837	604.73
418.214	614
418.591	612.19
418.967	636.82
419.344	667.33
419.721	665.29
420.098	663.49
420.475	660.32
420.852	656.93
421.228	681.79
421.605	689.25
421.982	684.05
422.358	692.86
422.735	724.73
423.111	716.82
423.488	737.38
423.864	737.61
424.241	774.22
424.617	768.12
424.994	750.26
425.37	763.37
425.746	783.93
426.123	799.98
426.499	803.37
426.875	805.85
427.251	843.82
427.627	842.92
428.003	809.7
428.379	831.62
428.756	855.34
429.132	887.89
429.507	883.37
429.883	919.3
430.259	872.29
430.635	908.22
431.011	928.56
431.387	955.68
431.763	946.64
432.138	968.79
432.514	960.88
432.89	979.41
433.265	998.39
433.641	958.17
434.016	1014.66
434.392	1052.18
434.767	1045.62
435.143	1065.96
435.518	1086.53
435.894	1100.76
436.269	1118.39
436.644	1115
437.02	1135.56
437.395	1143.02
437.77	1167.2
438.145	1177.14
438.52	1192.06
438.895	1225.28
439.271	1218.73
439.646	1245.84
440.021	1248.33
440.395	1268.67
440.77	1261.66
441.145	1298.27
441.52	1285.62
441.895	1324.71
442.27	1310.7
442.645	1338.72
443.019	1387.31
443.394	1355.67
443.769	1382.56
444.143	1354.99
444.518	1395.67
444.892	1392.05
445.267	1387.53
445.641	1428.44
446.016	1426.18
446.39	1415.1
446.764	1474.09
447.139	1460.53
447.513	1464.37
447.887	1480.19
448.262	1470.24
448.636	1498.04
449.01	1514.54
449.384	1504.82
449.758	1490.81
450.132	1540.07
450.506	1529.23
450.88	1550.47
451.254	1552.28
451.628	1579.39
452.002	1609.45
452.376	1606.06
452.75	1624.14
453.123	1627.08
453.497	1623.46
453.871	1669.33
454.244	1683.35
454.618	1707.98
454.992	1721.99
455.365	1747.3
455.739	1750.46
456.112	1802.66
456.486	1801.76
456.859	1840.18
457.232	1850.35
457.606	1815.77
457.979	1870.69
458.352	1879.95
458.725	1949.33
459.099	1930.34
459.472	1970.57
459.845	2015.77
460.218	2011.02
460.591	2037.01
460.964	2022.55
461.337	2097.57
461.71	2088.76
462.083	2088.98
462.456	2069.32
462.829	2086.72
463.201	2161.07
463.574	2152.49
463.947	2169.89
464.32	2215.31
464.692	2267.74
465.065	2262.31
465.438	2317
465.81	2337.11
466.183	2320.16
466.555	2425.47
466.928	2361.75
467.3	2371.46
467.672	2424.57
468.045	2489.43
468.417	2507.28
468.789	2494.85
469.161	2521.52
469.534	2580.5
469.906	2615.3
470.278	2653.49
470.65	2671.34
471.022	2705.69
471.394	2733.26
471.766	2758.8
472.138	2761.06
472.51	2845.57
472.882	2853.26
473.253	2925.8
473.625	2942.75
473.997	2970.09
474.369	3036.3
474.74	3048.06
475.112	3071.33
475.484	3156.3
475.855	3194.04
476.227	3204.21
476.598	3295.05
476.97	3305.45
477.341	3392.45
477.713	3382.06
478.084	3432.9
478.455	3500.02
478.827	3504.09
479.198	3558.78
479.569	3609.62
479.94	3694.14
480.311	3709.51
480.682	3767.81
481.053	3875.6
481.424	3913.8
481.795	3892.33
482.166	3997.41
482.537	4046.67
482.908	4093.9
483.279	4149.95
483.65	4191.3
484.021	4259.32
484.391	4365.53
484.762	4356.5
485.133	4416.83
485.503	4361.69
485.874	4510.84
486.244	4561.24
486.615	4616.83
486.985	4686.43
487.356	4725.53
487.726	4764.85
488.097	4856.6
488.467	4826.77
488.837	5010.49
489.207	4978.17
489.578	5062.47
489.948	5095.23
490.318	5144.5
490.688	5168.68
491.058	5241.44
491.428	5296.81
491.798	5350.37
492.168	5434.43
492.538	5456.58
492.908	5518.27
493.278	5519.63
493.648	5588.33
494.017	5598.27
494.387	5648.89
494.757	5724.37
495.126	5722.11
495.496	5749.68
495.866	5753.75
496.235	5846.85
496.605	5931.14
496.974	5991.48
497.344	5921.2
497.713	6009.11
498.082	5988.32
498.452	6044.13
498.821	6050.46
499.19	6055.21
499.559	6131.36
499.928	6163
500.298	6193.28
500.667	6285.26
501.036	6179.5
501.405	6301.98
501.774	6362.09
502.143	6343.34
502.512	6295.88
502.88	6357.35
503.249	6396.67
503.618	6485.25
503.987	6411.58
504.356	6494.74
504.724	6529.77
505.093	6525.48
505.462	6512.6
505.83	6555.99
506.199	6622.2
506.567	6655.19
506.936	6680.73
507.304	6720.28
507.672	6715.76
508.041	6724.79
508.409	6759.37
508.777	6797.79
509.145	6830.78
509.514	6815.41
509.882	6806.15
510.25	6849.76
510.618	6859.25
510.986	6903.55
511.354	6940.83
511.722	6953.04
512.09	7032.13
512.458	7045.24
512.826	7077.55
513.193	7074.16
513.561	7014.28
513.929	7105.8
514.297	7141.06
514.664	7096.99
515.032	7183.09
515.4	7223.76
515.767	7172.24
516.135	7221.28
516.502	7142.64
516.869	7251.56
517.237	7255.63
517.604	7269.87
517.972	7294.05
518.339	7335.4
518.706	7267.15
519.073	7304.44
519.44	7314.38
519.808	7425.12
520.175	7383.53
520.542	7458.79
520.909	7428.73
521.276	7469.63
521.643	7446.36
522.009	7539.91
522.376	7525.68
522.743	7531.1
523.11	7566.35
523.477	7663.53
523.843	7646.58
524.21	7675.05
524.577	7692.68
524.943	7777.2
525.31	7706.01
525.676	7752.34
526.043	7795.05
526.409	7794.82
526.776	7837.08
527.142	7847.93
527.508	7877.98
527.874	7862.17
528.241	7934.71
528.607	7851.32
528.973	7962.28
529.339	7889.74
529.705	7927.25
530.071	8015.61
530.437	8036.4
530.803	7979.23
531.169	8023.07
531.535	7980.36
531.901	8033.91
532.267	8021.26
532.632	8044.31
532.998	8064.42
533.364	8036.62
533.73	8073.91
534.095	8121.59
534.461	8036.62
534.826	8042.95
535.192	8076.62
535.557	8098.32
535.923	8070.97
536.288	8096.06
536.653	8065.32
537.019	8016.74
537.384	8063.74
537.749	8086.12
538.114	8044.99
538.479	8080.92
538.845	8102.84
539.21	7990.52
539.575	8020.58
539.94	8016.06
540.305	8034.59
540.67	7996.85
541.034	7985.55
541.399	8024.2
541.764	8037.98
542.129	8039.34
542.494	7984.42
542.858	8035.27
543.223	8043.4
543.587	8047.47
543.952	7989.39
544.316	8057.64
544.681	7964.99
545.045	7983.07
545.41	8099.9
545.774	7967.25
546.138	8040.69
546.503	8013.35
546.867	7983.52
547.231	7981.94
547.595	8058.77
547.959	8030.52
548.324	7994.59
548.688	7990.07
549.052	7992.33
549.416	7982.61
549.779	8004.76
550.143	7944.65
550.507	7981.71
550.871	7959.11
551.235	7941.03
551.599	7917.76
551.962	7921.37
552.326	7959.79
552.689	7908.27
553.053	7885.44
553.417	7949.4
553.78	7959.56
554.143	7965.21
554.507	7974.71
554.87	7979.9
555.234	8071.2
555.597	7988.72
555.96	7945.55
556.323	7934.71
556.686	7983.52
557.05	8014.03
557.413	8018.09
557.776	8004.99
558.139	8052.44
558.502	8077.08
558.865	8018.32
559.228	8069.39
559.59	8070.52
559.953	8135.61
560.316	8130.63
560.679	8113.23
561.041	8105.78
561.404	8114.59
561.767	8168.15
562.129	8148.26
562.492	8166.11
562.854	8152.1
563.217	8157.3
563.579	8206.34
563.941	8198.65
564.304	8251.08
564.666	8240.01
565.028	8354.81
565.39	8294.25
565.753	8324.07
566.115	8364.98
566.477	8385.09
566.839	8343.51
567.201	8454.69
567.563	8395.94
567.925	8490.4
568.287	8470.06
568.648	8488.59
569.01	8478.87
569.372	8529.72
569.734	8541.02
570.095	8554.8
570.457	8638.42
570.819	8566.78
571.18	8571.53
571.542	8683.16
571.903	8592.77
572.265	8743.5
572.626	8684.74
572.987	8688.81
573.349	8755.25
573.71	8743.27
574.071	8804.97
574.432	8839.09
574.794	8901.91
575.155	8883.16
575.516	8843.16
575.877	8919.54
576.238	8877.96
576.599	8827.34
576.96	8932.87
577.32	8938.07
577.681	9047.45
578.042	8976.94
578.403	8991.18
578.763	9046.09
579.124	9094.9
579.485	9071.85
579.845	9006.99
580.206	9101.91
580.566	9105.52
580.927	9063.94
581.287	9209.25
581.648	9138.06
582.008	9136.03
582.368	9158.4
582.728	9202.47
583.089	9195.69
583.449	9212.87
583.809	9250.83
584.169	9215.8
584.529	9263.03
584.889	9312.52
585.249	9241.34
585.609	9223.26
585.969	9298.96
586.329	9283.15
586.688	9300.55
587.048	9318.63
587.408	9280.89
587.768	9303.48
588.127	9340.09
588.487	9312.07
588.846	9326.76
589.206	9397.04
589.565	9327.66
589.925	9398.4
590.284	9420.09
590.643	9432.75
591.003	9442.01
591.362	9500.99
591.721	9470.94
592.08	9442.69
592.44	9503.93
592.799	9505.51
593.158	9426.42
593.517	9534.21
593.876	9477.26
594.235	9464.38
594.593	9500.32
594.952	9491.5
595.311	9465.06
595.67	9558.84
596.029	9598.62
596.387	9632.29
596.746	9594.1
597.104	9573.53
597.463	9543.48
597.822	9629.35
598.18	9559.52
598.538	9586.87
598.897	9641.55
599.255	9572.63
599.613	9644.27
599.972	9610.37
600.33	9622.57
600.688	9565.62
601.046	9622.8
601.404	9695.56
601.762	9643.36
602.12	9727.65
602.478	9670.71
602.836	9720.65
603.194	9633.87
603.552	9772.17
603.91	9699.18
604.268	9728.11
604.625	9649.01
604.983	9690.82
605.341	9680.42
605.698	9726.3
606.056	9761.55
606.413	9734.43
606.771	9732.17
607.128	9745.28
607.485	9719.52
607.843	9701.89
608.2	9811.04
608.557	9805.84
608.914	9812.85
609.272	9778.05
609.629	9813.98
609.986	9912.51
610.343	9819.85
610.7	9847.88
611.057	9850.81
611.414	9835
611.771	9844.03
612.127	9906.86
612.484	9881.1
612.841	9939.4
613.198	9914.09
613.554	9890.36
613.911	9915.45
614.267	9999.51
614.624	9865.96
614.98	9922.9
615.337	9926.07
615.693	10018.72
616.05	9958.38
616.406	9992.05
616.762	9945.28
617.118	10018.72
617.475	9941.43
617.831	10028.44
618.187	10041.54
618.543	10014.65
618.899	10030.7
619.255	10067.76
619.611	10084.03
619.967	10056.23
620.323	10114.99
620.678	10042.22
621.034	9993.41
621.39	10086.74
621.746	10080.64
622.101	10144.37
622.457	10016.46
622.812	10089.45
623.168	10084.48
623.523	10149.34
623.879	10142.78
624.234	10059.85
624.589	10092.62
624.945	10074.09
625.3	10032.28
625.655	10068.44
626.01	10062.79
626.365	10099.17
626.72	10124.03
627.075	10059.85
627.43	10073.18
627.785	10075.89
628.14	10062.33
628.495	10084.03
628.85	10079.73
629.205	10043.35
629.559	10076.57
629.914	9959.96
630.269	10021.21
630.623	9980.53
630.978	10011.71
631.332	9993.86
631.687	10053.07
632.041	9952.96
632.396	9996.35
632.75	9967.65
633.104	9997.03
633.459	9903.69
633.813	9886.29
634.167	9899.85
634.521	9943.69
634.875	9899.17
635.229	9853.53
635.583	9827.31
635.937	9885.62
636.291	9774.21
636.645	9816.92
636.999	9804.94
637.352	9839.52
637.706	9752.51
638.06	9763.81
638.413	9702.57
638.767	9758.61
639.121	9718.39
639.474	9708.45
639.828	9695.11
640.181	9732.85
640.534	9758.84
640.888	9605.85
641.241	9654.89
641.594	9656.7
641.947	9617.83
642.301	9668.67
642.654	9617.15
643.007	9567.43
643.36	9614.44
643.713	9631.39
644.066	9633.87
644.419	9636.81
644.771	9542.12
645.124	9390.26
645.477	9469.81
645.83	9376.48
646.182	9279.3
646.535	9278.63
646.888	9282.69
647.24	9268.46
647.593	9305.74
647.945	9304.16
648.298	9254.67
648.65	9144.39
649.002	9226.65
649.355	9239.53
649.707	9270.49
650.059	9256.93
650.411	9362.69
650.763	9431.39
651.115	9474.1
651.467	9464.38
651.819	9401.79
652.171	9422.35
652.523	9446.76
652.875	9488.11
653.227	9422.8
653.578	9430.49
653.93	9431.84
654.282	9372.41
654.633	9370.38
654.985	9347.1
655.337	9485.4
655.688	9486.53
656.039	9516.81
656.391	9357.49
656.742	9423.71
657.094	9416.48
657.445	9465.51
657.796	9330.38
658.147	9384.84
658.498	9421.67
658.849	9449.47
659.2	9381
659.551	9394.33
659.902	9424.16
660.253	9385.52
660.604	9474.1
660.955	9339.87
661.306	9408.57
661.656	9345.97
662.007	9401.11
662.358	9480.43
662.708	9439.53
663.059	9434.33
663.409	9337.16
663.76	9362.69
664.11	9433.88
664.461	9404.05
664.811	9477.26
665.161	9388.23
665.511	9379.41
665.862	9419.41
666.212	9442.01
666.562	9388.45
666.912	9468.9
667.262	9411.5
667.612	9416.7
667.962	9392.75
668.312	9445.85
668.662	9480.65
669.011	9406.31
669.361	9417.83
669.711	9392.52
670.06	9395.01
670.41	9332.18
670.76	9414.67
671.109	9418.06
671.459	9415.8
671.808	9429.36
672.157	9383.71
672.507	9330.6
672.856	9340.32
673.205	9311.17
673.554	9305.97
673.904	9321.34
674.253	9379.64
674.602	9308
674.951	9211.74
675.3	9120.89
675.649	9273.2
675.998	9296.48
676.346	9262.81
676.695	9242.24
677.044	9171.28
677.393	9197.95
677.741	9196.14
678.09	9263.71
678.438	9230.94
678.787	9294.22
679.135	9175.35
679.484	9128.12
679.832	9127.9
680.181	9086.09
680.529	9095.81
680.877	9171.51
681.225	9073.89
681.573	9115.69
681.922	9034.56
682.27	9014.68
682.618	9031.4
682.966	9006.54
683.314	9089.48
683.661	9034.56
684.009	8967.45
684.357	8905.75
684.705	8910.05
685.053	8907.11
685.4	8921.8
685.748	8839.77
686.095	8852.65
686.443	8769.49
686.79	8826.66
687.138	8842.93
687.485	8851.29
687.832	8878.64
688.18	8792.31
688.527	8726.78
688.874	8705.76
689.221	8783.95
689.568	8631.19
689.915	8644.74
690.262	8644.97
690.609	8605.42
690.956	8592.54
691.303	8547.57
691.65	8495.37
691.997	8522.04
692.344	8437.07
692.69	8474.58
693.037	8384.64
693.383	8379.21
693.73	8434.35
694.077	8278.2
694.423	8350.06
694.769	8247.24
695.116	8314.36
695.462	8255.6
695.808	8245.21
696.155	8286.56
696.501	8233.68
696.847	8263.06
697.193	8114.81
697.539	8093.35
697.885	8050.18
698.231	8015.16
698.577	8013.12
698.923	7973.8
699.269	7993.24
699.614	7931.54
699.96	7891.09
700.306	7903.52
700.651	7907.59
700.997	7909.4
701.342	7811.77
701.688	7784.43
702.033	7732.9
702.379	7763.86
702.724	7766.58
703.069	7729.06
703.415	7677.31
703.76	7650.65
704.105	7650.65
704.45	7600.93
704.795	7654.04
705.14	7593.25
705.485	7560.48
705.83	7421.05
706.175	7513.7
706.52	7438
706.865	7447.26
707.209	7475.28
707.554	7412.23
707.899	7419.69
708.243	7403.2
708.588	7305.8
708.932	7280.26
709.277	7316.64
709.621	7257.89
709.966	7225.57
710.31	7241.62
710.654	7196.42
710.998	7169.3
711.342	7172.47
711.687	7159.81
712.031	7140.15
712.375	7127.72
712.719	7169.98
713.063	7077.55
713.407	7156.65
713.75	7070.55
714.094	7120.72
714.438	7091.34
714.782	6995.52
715.125	6981.06
715.469	6975.18
715.812	6959.59
716.156	6987.16
716.499	6908.07
716.843	6992.13
717.186	6934.05
717.53	6989.65
717.873	6948.52
718.216	6901.06
718.559	6923.43
718.902	6926.37
719.246	6894.73
719.589	6806.37
719.932	6835.53
720.275	6824.91
720.617	6765.25
720.96	6810.22
721.303	6837.79
721.646	6806.83
721.989	6729.09
722.331	6797.56
722.674	6789.43
723.016	6755.98
723.359	6736.32
723.701	6755.3
724.044	6749.43
724.386	6703.1
724.729	6745.81
725.071	6690.67
725.413	6664.01
725.755	6644.8
726.097	6659.94
726.439	6647.51
726.782	6651.12
727.124	6735.64
727.465	6665.14
727.807	6695.64
728.149	6642.99
728.491	6643.44
728.833	6714.17
729.175	6589.21
729.516	6599.83
729.858	6577
730.199	6606.15
730.541	6607.51
730.882	6639.6
731.224	6646.38
731.565	6578.13
731.906	6591.69
732.248	6562.99
732.589	6558.02
732.93	6588.98
733.271	6600.28
733.612	6585.14
733.953	6574.06
734.294	6575.19
734.635	6540.17
734.976	6575.19
735.317	6557.79
735.658	6575.19
735.999	6602.31
736.339	6524.57
736.68	6586.04
737.021	6570.9
737.361	6545.14
737.702	6563.67
738.042	6552.6
738.383	6544.23
738.723	6583.78
739.063	6570.22
739.404	6624.01
739.744	6535.2
740.084	6568.19
740.424	6562.54
740.764	6555.99
741.104	6591.92
741.444	6600.05
741.784	6650.45
742.124	6616.55
742.464	6594.4
742.804	6601.18
743.143	6622.88
743.483	6684.57
743.823	6689.32
744.162	6679.15
744.502	6686.15
744.841	6659.49
745.181	6714.17
745.52	6716.89
745.86	6713.5
746.199	6770.67
746.538	6836.88
746.877	6814.96
747.216	6848.41
747.556	6885.47
747.895	6889.76
748.234	6918.69
748.573	6951.91
748.911	7021.28
749.25	7044.33
749.589	6992.58
749.928	7086.59
750.267	7152.81
750.605	7174.95
750.944	7209.53
751.283	7233.26
751.621	7266.48
751.96	7333.82
752.298	7417.21
752.636	7471.22
752.975	7500.37
753.313	7600.93
753.651	7715.96
753.989	7713.02
754.327	7746.46
754.666	7845.22
755.004	7887.93
755.342	8048.38
755.679	8091.31
756.017	8179.22
756.355	8248.37
756.693	8332.89
757.031	8425.99
757.368	8499.44
757.706	8590.96
758.044	8648.13
758.381	8765.87
758.719	8909.14
759.056	8989.37
759.394	9011.29
759.731	9127.44
760.068	9266.65
760.405	9378.96
760.743	9429.58
761.08	9557.94
761.417	9647.88
761.754	9710.48
762.091	9861.44
762.428	9920.19
762.765	10016.46
763.102	10127.87
763.438	10201.09
763.775	10252.61
764.112	10405.83
764.449	10566.05
764.785	10561.76
765.122	10723.33
765.458	10840.17
765.795	10875.87
766.131	10973.27
766.467	11048.75
766.804	11178.46
767.14	11179.82
767.476	11309.76
767.812	11263.66
768.148	11402.41
768.485	11439.47
