Data from hue_290_FLMS001491_00053.txt Node
Date: Tue Feb 07 15:52:55 GMT 2017
User: dcchb
Spectrometer: FLMS00149
Trigger mode: 0
Integration Time (sec): 2.000000E-2
Scans to average: 10
Electric dark correction enabled: true
Nonlinearity correction enabled: false
Boxcar width: 0
XAxis mode: Wavelengths
Number of Pixels in Spectrum: 2048
>>>>>Begin Spectral Data<<<<<
341.393	-2.98
341.776	-2.98
342.16	-2.98
342.543	-45.69
342.927	-68.06
343.31	-52.92
343.693	-93.37
344.077	-68.74
344.46	-18.8
344.843	-55.86
345.226	-44.33
345.61	-34.62
345.993	-23.77
346.376	-17.67
346.759	5.83
347.142	34.08
347.525	44.93
347.908	41.31
348.291	80.41
348.674	91.25
349.057	112.27
349.44	125.83
349.823	149.56
350.206	149.33
350.588	176.45
350.971	193.62
351.354	208.31
351.737	248.76
352.119	255.09
352.502	263.23
352.884	263.68
353.267	271.59
353.65	281.53
354.032	278.37
354.414	294.64
354.797	288.76
355.179	311.59
355.562	329.89
355.944	330.57
356.326	305.71
356.709	322.89
357.091	329.21
357.473	339.38
357.855	343.68
358.238	336.67
358.62	339.84
359.002	325.37
359.384	340.51
359.766	334.64
360.148	349.33
360.53	335.77
360.912	355.43
361.294	312.27
361.676	330.12
362.057	338.71
362.439	324.24
362.821	315.88
363.203	340.74
363.584	303.45
363.966	321.76
364.348	307.07
364.729	337.12
365.111	321.08
365.493	323.11
365.874	298.93
366.256	306.39
366.637	313.4
367.019	288.76
367.4	312.04
367.781	322.89
368.163	303
368.544	309.55
368.925	312.04
369.306	305.03
369.688	294.64
370.069	288.99
370.45	295.09
370.831	291.25
371.212	306.16
371.593	311.59
371.974	295.54
372.355	308.65
372.736	307.52
373.117	299.84
373.498	327.86
373.879	318.37
374.26	314.3
374.641	309.78
375.021	293.96
375.402	321.98
375.783	339.16
376.163	311.81
376.544	333.73
376.925	309.33
377.305	332.6
377.686	319.27
378.066	328.08
378.447	321.76
378.827	308.65
379.208	309.78
379.588	323.56
379.968	325.6
380.349	334.19
380.729	315.2
381.109	333.96
381.489	347.29
381.87	312.94
382.25	331.7
382.63	333.06
383.01	329.89
383.39	344.81
383.77	333.96
384.15	337.12
384.53	343.68
384.91	351.59
385.29	345.71
385.67	346.62
386.049	346.62
386.429	365.82
386.809	338.93
387.189	336.45
387.568	327.86
387.948	362.43
388.328	347.29
388.707	338.93
389.087	352.72
389.466	361.76
389.846	370.12
390.225	361.98
390.605	363.34
390.984	352.72
391.363	368.08
391.743	376.44
392.122	377.35
392.501	364.24
392.881	368.54
393.26	369.21
393.639	370.57
394.018	363.56
394.397	397.69
394.776	389.33
395.155	385.03
395.534	382.55
395.913	372.38
396.292	388.65
396.671	375.54
397.05	387.97
397.429	399.72
397.808	391.36
398.186	393.62
398.565	403.79
398.944	412.83
399.323	391.59
399.701	406.5
400.08	400.4
400.458	411.92
400.837	405.14
401.215	396.56
401.594	427.07
401.972	422.55
402.351	412.15
402.729	414.86
403.107	420.51
403.486	438.14
403.864	412.83
404.242	425.48
404.62	434.3
404.999	454.86
405.377	447.63
405.755	449.44
406.133	437.01
406.511	435.43
406.889	448.76
407.267	452.15
407.645	467.52
408.023	472.26
408.401	492.83
408.779	490.34
409.156	479.49
409.534	498.7
409.912	509.55
410.29	495.09
410.667	533.95
411.045	518.81
411.422	542.09
411.8	524.46
412.178	521.3
412.555	541.86
412.933	538.93
413.31	556.33
413.687	549.55
414.065	591.81
414.442	580.06
414.819	579.83
415.197	584.12
415.574	610.79
415.951	599.26
416.328	597.91
416.705	623.67
417.082	638.36
417.46	636.33
417.837	639.94
418.214	665.93
418.591	657.79
418.967	671.13
419.344	646.04
419.721	677
420.098	706.83
420.475	717
420.852	695.31
421.228	691.92
421.605	729.66
421.982	749.77
422.358	745.7
422.735	735.53
423.111	758.81
423.488	781.86
423.864	794.51
424.241	783.67
424.617	778.47
424.994	806.94
425.37	820.05
425.746	815.76
426.123	835.64
426.499	826.6
426.875	836.32
427.251	849.2
427.627	869.09
428.003	861.63
428.379	888.52
428.756	911.12
429.132	887.84
429.507	893.49
429.883	942.76
430.259	953.83
430.635	942.76
431.011	950.44
431.387	985.24
431.763	992.93
432.138	1008.52
432.514	1025.47
432.89	1026.15
433.265	1052.36
433.641	1062.3
434.016	1081.29
434.392	1086.71
434.767	1065.92
435.143	1098.91
435.518	1096.88
435.894	1152.02
436.269	1149.76
436.644	1135.75
437.02	1148.4
437.395	1159.25
437.77	1146.14
438.145	1193.6
438.52	1203.54
438.895	1232.92
439.271	1258.23
439.646	1242.18
440.021	1260.94
440.395	1288.74
440.77	1265.46
441.145	1283.31
441.52	1285.8
441.895	1298.23
442.27	1333.26
442.645	1306.59
443.019	1345.91
443.394	1349.53
443.769	1335.74
444.143	1347.04
444.518	1378.23
444.892	1360.83
445.267	1352.69
445.641	1387.04
446.016	1386.59
446.39	1379.36
446.764	1395.63
447.139	1358.11
447.513	1385.23
447.887	1393.14
448.262	1439.02
448.636	1430.65
449.01	1426.13
449.384	1449.64
449.758	1441.95
450.132	1436.98
450.506	1439.69
450.88	1490.54
451.254	1451.9
451.628	1508.17
452.002	1500.26
452.376	1523.76
452.75	1515.62
453.123	1528.73
453.497	1548.17
453.871	1542.74
454.244	1571.44
454.618	1589.52
454.992	1574.15
455.365	1608.05
455.739	1641.5
456.112	1629.97
456.486	1637.43
456.859	1638.56
457.232	1642.85
457.606	1676.98
457.979	1674.49
458.352	1731.89
458.725	1715.17
459.099	1711.33
459.472	1750.42
459.845	1749.74
460.218	1769.63
460.591	1799.68
460.964	1787.71
461.337	1795.16
461.71	1831.32
462.083	1845.33
462.456	1850.08
462.829	1856.86
463.201	1865.9
463.574	1894.15
463.947	1910.42
464.32	1921.04
464.692	1945.67
465.065	1959.91
465.438	1964.88
465.81	1977.08
466.183	1971.66
466.555	2033.35
466.928	2065.21
467.3	2086.91
467.672	2088.49
468.045	2128.04
468.417	2118.32
468.789	2107.47
469.161	2149.05
469.534	2182.73
469.906	2201.48
470.278	2210.75
470.65	2256.4
471.022	2273.12
471.394	2296.17
471.766	2286.68
472.138	2302.5
472.51	2334.81
472.882	2367.35
473.253	2413.68
473.625	2422.94
473.997	2472.89
474.369	2460.46
474.74	2483.73
475.112	2519.21
475.484	2510.17
475.855	2614.13
476.227	2601.47
476.598	2636.5
476.97	2687.8
477.341	2668.59
477.713	2732.77
478.084	2730.28
478.455	2803.73
478.827	2818.41
479.198	2896.38
479.569	2895.7
479.94	2944.51
480.311	2963.95
480.682	3021.57
481.053	3051.4
481.424	3122.59
481.795	3111.74
482.166	3127.78
482.537	3149.93
482.908	3234.45
483.279	3236.26
483.65	3286.2
484.021	3314.45
484.391	3339.53
484.762	3370.04
485.133	3371.17
485.503	3403.03
485.874	3463.37
486.244	3554.21
486.615	3548.34
486.985	3584.72
487.356	3615.91
487.726	3626.3
488.097	3727.32
488.467	3752.4
488.837	3770.48
489.207	3813.87
489.578	3850.25
489.948	3858.61
490.318	3922.57
490.688	3892.96
491.058	3987.88
491.428	3981.77
491.798	4013.64
492.168	4098.38
492.538	4075.1
492.908	4114.88
493.278	4160.98
493.648	4148.32
494.017	4220.19
494.387	4236.23
494.757	4278.94
495.126	4273.52
495.496	4310.13
495.866	4350.35
496.235	4374.31
496.605	4365.94
496.974	4407.98
497.344	4410.01
497.713	4375.21
498.082	4437.81
498.452	4498.14
498.821	4512.16
499.19	4520.97
499.559	4506.05
499.928	4569.78
500.298	4595.77
500.667	4603
501.036	4647.52
501.405	4664.47
501.774	4620.4
502.143	4711.25
502.512	4686.61
502.88	4747.86
503.249	4722.55
503.618	4772.04
503.987	4770.45
504.356	4766.39
504.724	4806.38
505.093	4821.3
505.462	4837.8
505.83	4832.15
506.199	4859.49
506.567	4897
506.936	4901.07
507.304	4974.29
507.672	4980.84
508.041	4989.43
508.409	5008.87
508.777	5067.17
509.145	5073.27
509.514	5032.59
509.882	5050.9
510.25	5071.91
510.618	5127.05
510.986	5108.52
511.354	5120.73
511.722	5157.34
512.09	5209.76
512.458	5129.77
512.826	5200.27
513.193	5210.44
513.561	5188.97
513.929	5254.96
514.297	5256.99
514.664	5284.79
515.032	5331.12
515.4	5344.45
515.767	5303.1
516.135	5339.7
516.502	5324.79
516.869	5406.82
517.237	5365.92
517.604	5363.21
517.972	5434.84
518.339	5405.92
518.706	5398.69
519.073	5466.71
519.44	5458.8
519.808	5522.98
520.175	5456.99
520.542	5578.12
520.909	5571.79
521.276	5531.79
521.643	5548.74
522.009	5605.69
522.376	5680.71
522.743	5666.25
523.11	5665.57
523.477	5732.46
523.843	5722.07
524.21	5761.61
524.577	5803.42
524.943	5840.93
525.31	5810.88
525.676	5872.8
526.043	5846.58
526.409	5892.01
526.776	5980.59
527.142	5994.6
527.508	6000.7
527.874	6027.37
528.241	6065.56
528.607	6047.71
528.973	6037.76
529.339	6083.19
529.705	6154.37
530.071	6196.86
530.437	6155.05
530.803	6236.18
531.169	6267.59
531.535	6247.25
531.901	6261.26
532.267	6303.29
532.632	6267.36
532.998	6341.49
533.364	6411.99
533.73	6368.83
534.095	6352.56
534.461	6393.24
534.826	6434.36
535.192	6429.39
535.557	6501.26
535.923	6475.04
536.288	6555.72
536.653	6524.08
537.019	6541.71
537.384	6566.56
537.749	6554.36
538.114	6579.22
538.479	6598.2
538.845	6655.15
539.21	6595.26
539.575	6626.68
539.94	6670.74
540.305	6748.71
540.67	6719.1
541.034	6802.72
541.399	6761.14
541.764	6784.64
542.129	6761.14
542.494	6806.78
542.858	6843.17
543.223	6863.96
543.587	6802.49
543.952	6861.7
544.316	6923.84
544.681	6946.89
545.045	6926.1
545.41	6997.74
545.774	7003.62
546.138	7016.27
546.503	7016.72
546.867	6992.32
547.231	7080.68
547.595	7023.95
547.959	7100.56
548.324	7094.23
548.688	7146.66
549.052	7089.04
549.416	7114.57
549.779	7168.13
550.143	7164.06
550.507	7214.23
550.871	7231.18
551.235	7242.93
551.599	7242.93
551.962	7297.39
552.326	7331.06
552.689	7360.89
553.053	7284.06
553.417	7331.97
553.78	7432.3
554.143	7393.89
554.507	7333.1
554.87	7390.05
555.234	7463.49
555.597	7467.33
555.96	7458.52
556.323	7503.49
556.686	7476.15
557.05	7548.46
557.413	7567.67
557.776	7561.11
558.139	7604.73
558.502	7589.59
558.865	7566.09
559.228	7695.8
559.59	7711.62
559.953	7674.56
560.316	7772.86
560.679	7719.53
561.041	7731.05
561.404	7771.96
561.767	7874.1
562.129	7816.7
562.492	7867.1
562.854	7882.01
563.217	7905.29
563.579	7798.17
563.941	7922.24
564.304	7974.66
564.666	7973.31
565.028	7967.66
565.39	8051.27
565.753	8104.15
566.115	8057.82
566.477	8157.71
566.839	8071.61
567.201	8163.13
567.563	8181.44
567.925	8172.85
568.287	8277.48
568.648	8268.44
569.01	8288.1
569.372	8340.53
569.734	8322.9
570.095	8374.2
570.457	8451.49
570.819	8405.39
571.18	8438.15
571.542	8500.75
571.903	8546.17
572.265	8503.91
572.626	8590.69
572.987	8637.24
573.349	8687.86
573.71	8692.38
574.071	8741.2
574.432	8837.92
574.794	8838.14
575.155	8891.48
575.516	8884.02
575.877	9018.03
576.238	8971.93
576.599	9036.78
576.96	9073.17
577.32	9124.46
577.681	9186.38
578.042	9220.73
578.403	9330.56
578.763	9370.33
579.124	9364.91
579.485	9496.66
579.845	9544.34
580.206	9631.57
580.566	9752.47
580.927	9764.9
581.287	9851.9
581.648	9911.56
582.008	10018.68
582.368	10077.88
582.728	10188.84
583.089	10276.98
583.449	10336.41
583.809	10457.54
584.169	10509.51
584.529	10575.05
584.889	10830.86
585.249	10747.47
585.609	10903.17
585.969	11037.63
586.329	11165.31
586.688	11338.42
587.048	11422.48
587.408	11476.49
587.768	11655.7
588.127	11762.36
588.487	11799.87
588.846	12107.21
589.206	12151.73
589.565	12244.16
589.925	12398.5
590.284	12521.21
590.643	12639.4
591.003	12847.3
591.362	13015.66
591.721	13090.01
592.08	13190.8
592.44	13435.54
592.799	13563.89
593.158	13678.92
593.517	13790.78
593.876	13986.26
594.235	14074.39
594.593	14213.37
594.952	14343.31
595.311	14459.46
595.67	14555.96
596.029	14776.07
596.387	14950.75
596.746	15064.42
597.104	15160.01
597.463	15202.72
597.822	15414.92
598.18	15492.66
598.538	15641.35
598.897	15851.29
599.255	15910.95
599.613	16169.93
599.972	16272.07
600.33	16307.33
600.688	16381.22
601.046	16510.71
601.404	16717.71
601.762	16844.94
602.12	17034.54
602.478	17167.87
602.836	17304.81
603.194	17149.79
603.552	17333.29
603.91	17369.67
604.268	17619.38
604.625	17559.72
604.983	17672.94
605.341	17854.63
605.698	18019.14
606.056	18046.94
606.413	18078.35
606.771	18305.69
607.128	18288.06
607.485	18320.15
607.843	18461.85
608.2	18567.61
608.557	18829.52
608.914	18697.32
609.272	18853.25
609.629	18959.91
609.986	19094.14
610.343	18996.52
610.7	19172.11
611.057	19208.94
611.414	19283.97
611.771	19411.65
612.127	19519.9
612.484	19537.52
612.841	19652.77
613.198	19658.88
613.554	19733.45
613.911	19908.36
614.267	19902.26
614.624	19980
614.98	19982.94
615.337	20116.94
615.693	20166.88
616.05	20213.89
616.406	20354.22
616.762	20323.04
617.118	20462.7
617.475	20445.75
617.831	20465.86
618.187	20514.67
618.543	20538.85
618.899	20723.93
619.255	20669.7
619.611	20743.82
619.967	20804.83
620.323	20948.11
620.678	20819.98
621.034	20832.63
621.39	20893.65
621.746	20903.59
622.101	21226.29
622.457	21040.99
622.812	21063.81
623.168	21264.03
623.523	21229.91
623.879	21343.13
624.234	21177.25
624.589	21239.85
624.945	21303.58
625.3	21343.8
625.655	21358.04
626.01	21280.75
626.365	21363.92
626.72	21426.29
627.075	21448.43
627.43	21504.25
627.785	21384.71
628.14	21388.32
628.495	21471.71
628.85	21407.08
629.205	21447.3
629.559	21563.68
629.914	21396.01
630.269	21521.65
630.623	21370.47
630.978	21451.37
631.332	21493.63
631.687	21622.44
632.041	21489.11
632.396	21467.87
632.75	21398.49
633.104	21412.5
633.459	21329.34
633.813	21316.69
634.167	21404.37
634.521	21375.21
634.875	21341.32
635.229	21400.75
635.583	21259.06
635.937	21203.92
636.291	21310.58
636.645	21245.73
636.999	21289.12
637.352	21197.82
637.706	21233.52
638.06	21201.89
638.413	21171.6
638.767	21155.33
639.121	21273.07
639.474	21093.87
639.828	21200.53
640.181	21103.58
640.534	21123.7
640.888	21051.83
641.241	21006.18
641.594	21048.9
641.947	21024.49
642.301	21092.06
642.654	21169.8
643.007	21135.67
643.36	20996.02
643.713	21068.78
644.066	21146.75
644.419	21033.75
644.771	20923.02
645.124	20718.73
645.477	20649.81
645.83	20583.37
646.182	20502.02
646.535	20486.2
646.888	20528.91
647.24	20411.62
647.593	20459.08
647.945	20473.54
648.298	20511.96
648.65	20429.7
649.002	20403.71
649.355	20455.69
649.707	20478.29
650.059	20559.87
650.411	20737.27
650.763	20757.38
651.115	20993.08
651.467	20974.55
651.819	20937.49
652.171	20921.67
652.523	20884.61
652.875	20864.49
653.227	20908.11
653.578	20983.59
653.93	20915.34
654.282	20869.92
654.633	20831.27
654.985	20834.21
655.337	20949.46
655.688	20936.13
656.039	20960.31
656.391	20793.54
656.742	20926.64
657.094	20934.77
657.445	20984.49
657.796	20932.06
658.147	20883.93
658.498	21035.56
658.849	20983.59
659.2	21002.8
659.551	20912.63
659.902	21033.53
660.253	20878.05
660.604	20911.27
660.955	20874.89
661.306	20998.28
661.656	20976.36
662.007	20919.41
662.358	21010.93
662.708	20951.95
663.059	20975.68
663.409	20760.54
663.76	21051.61
664.11	21050.7
664.461	21008.67
664.811	21111.04
665.161	21065.39
665.511	20926.87
665.862	21032.4
666.212	21094.54
666.562	21037.14
666.912	20960.76
667.262	20993.3
667.612	20943.81
667.962	21043.02
668.312	20906.53
668.662	21043.92
669.011	20914.21
669.361	21045.28
669.711	20944.72
670.06	20961.21
670.41	20916.02
670.76	20862.46
671.109	20884.83
671.459	20942.91
671.808	20927.77
672.157	20920.09
672.507	20774.33
672.856	20848.9
673.205	20885.28
673.554	20906.98
673.904	20810.03
674.253	20990.59
674.602	20937.94
674.951	20596.93
675.3	20411.85
675.649	20816.13
675.998	20745.17
676.346	20775.23
676.695	20811.16
677.044	20711.73
677.393	20734.55
677.741	20786.3
678.09	20681
678.438	20558.97
678.787	20649.36
679.135	20599.87
679.484	20528.46
679.832	20627.66
680.181	20431.96
680.529	20570.49
680.877	20516.03
681.225	20369.82
681.573	20473.09
681.922	20418.86
682.27	20250.95
682.618	20253.66
682.966	20209.82
683.314	20274.9
683.661	20290.05
684.009	20032.43
684.357	20183.83
684.705	20077.17
685.053	20014.8
685.4	20019.32
685.748	19941.58
686.095	19814.35
686.443	19803.73
686.79	19797.18
687.138	19862.26
687.485	19903.62
687.832	19664.3
688.18	19715.6
688.527	19592.21
688.874	19552.66
689.221	19566.22
689.568	19510.41
689.915	19406.9
690.262	19378.21
690.609	19433.34
690.956	19266.34
691.303	19267.02
691.65	19192.45
691.997	19242.62
692.344	18975.28
692.69	18974.83
693.037	19057.08
693.383	18904.32
693.73	18961.49
694.077	18845.56
694.423	18731.89
694.769	18798.11
695.116	18697.77
695.462	18629.07
695.808	18658.68
696.155	18659.81
696.501	18413.03
696.847	18365.35
697.193	18424.78
697.539	18400.15
697.885	18192.02
698.231	18112.7
698.577	18087.62
698.923	18169.88
699.269	17992.25
699.614	17841.52
699.96	17885.36
700.306	17876.78
700.651	17754.75
700.997	17746.84
701.342	17627.29
701.688	17712.49
702.033	17535.99
702.379	17521.08
702.724	17497.35
703.069	17484.02
703.415	17258.49
703.76	17317.47
704.105	17250.13
704.45	17152.5
704.795	17087.42
705.14	17042.45
705.485	16921.32
705.83	16952.96
706.175	16955.22
706.52	16861.44
706.865	16949.34
707.209	16803.81
707.554	16815.56
707.899	16710.7
708.243	16691.04
708.588	16656.92
708.932	16602.46
709.277	16515
709.621	16621.67
709.966	16364.73
710.31	16408.11
710.654	16218.29
710.998	16231.4
711.342	16319.08
711.687	16235.24
712.031	16152.53
712.375	16178.52
712.719	16266.42
713.063	16066.65
713.407	16068.91
713.75	15964.74
714.094	15999.76
714.438	15923.61
714.782	15985.07
715.125	15879.09
715.469	15865.3
715.812	15752.54
716.156	15719.32
716.499	15766.55
716.843	15697.85
717.186	15639.77
717.53	15721.13
717.873	15668.47
718.216	15683.84
718.559	15649.72
718.902	15475.26
719.246	15486.33
719.589	15529.27
719.932	15384.86
720.275	15427.8
720.617	15457.18
720.96	15397.29
721.303	15419.44
721.646	15527.68
721.989	15382.83
722.331	15415.15
722.674	15341.93
723.016	15363.62
723.359	15289.73
723.701	15309.61
724.044	15209.73
724.386	15181.93
724.729	15196.85
725.071	15287.92
725.413	15118.66
725.755	15159.11
726.097	15154.81
726.439	15034.82
726.782	15128.6
727.124	15131.99
727.465	15046.79
727.807	15059.22
728.149	15033.91
728.491	15055.61
728.833	15080.47
729.175	14943.29
729.516	14944.65
729.858	15057.41
730.199	14953.24
730.541	15033.46
730.882	14969.28
731.224	14907.81
731.565	14809.29
731.906	14868.95
732.248	14929.96
732.589	14867.36
732.93	14801.38
733.271	14927.25
733.612	14888.38
733.953	14926.34
734.294	14865.78
734.635	14753.69
734.976	14853.58
735.317	14758.67
735.658	14829.4
735.999	14765.9
736.339	14802.28
736.68	14771.32
737.021	14807.48
737.361	14829.4
737.702	14893.58
738.042	14844.54
738.383	14860.13
738.723	14827.36
739.063	14817.65
739.404	14881.37
739.744	14904.88
740.084	14732.45
740.424	14879.79
740.764	14890.41
741.104	14915.05
741.444	14811.55
741.784	14766.58
742.124	14808.61
742.464	14871.43
742.804	14921.15
743.143	14830.98
743.483	14966.8
743.823	14946.68
744.162	14942.16
744.502	14916.18
744.841	14889.51
745.181	15029.84
745.52	15083.4
745.86	15110.97
746.199	15071.88
746.538	15175.38
746.877	15286.79
747.216	15272.1
747.556	15275.71
747.895	15292.44
748.234	15370.85
748.573	15396.16
748.911	15482.49
749.25	15549.83
749.589	15542.37
749.928	15636.38
750.267	15666.89
750.605	15680.68
750.944	15746.89
751.283	15844.29
751.621	15967.9
751.96	16011.29
752.298	16162.47
752.636	16179.42
752.975	16208.8
753.313	16223.26
753.651	16385.97
753.989	16460.77
754.327	16606.07
754.666	16551.39
755.004	16683.81
755.342	16908.67
755.679	16956.57
756.017	16990.92
756.355	17193.4
756.693	17205.38
757.031	17291.48
757.368	17367.86
757.706	17533.06
758.044	17550.23
758.381	17686.95
758.719	17709.1
759.056	17922.42
759.394	17964.68
