Data from hue_110_FLMS001491_00012.txt Node
Date: Tue Feb 07 17:00:57 GMT 2017
User: dcchb
Spectrometer: FLMS00149
Trigger mode: 0
Integration Time (sec): 2.000000E-2
Scans to average: 10
Electric dark correction enabled: true
Nonlinearity correction enabled: false
Boxcar width: 0
XAxis mode: Wavelengths
Number of Pixels in Spectrum: 2048
>>>>>Begin Spectral Data<<<<<
341.393	-0.45
341.776	-0.45
342.16	-0.45
342.543	-56.95
342.927	-67.79
343.31	-92.88
343.693	-70.28
344.077	-57.4
344.46	-58.98
344.843	-44.97
345.226	-48.81
345.61	-44.74
345.993	-0.9
346.376	9.72
346.759	2.03
347.142	35.25
347.525	34.58
347.908	66.66
348.291	68.92
348.674	105.76
349.057	96.04
349.44	138.75
349.823	121.35
350.206	182.59
350.588	184.18
350.971	210.16
351.354	236.15
351.737	210.62
352.119	253.33
352.502	251.29
352.884	260.78
353.267	245.87
353.65	274.8
354.032	287.22
354.414	305.3
354.797	306.21
355.179	328.35
355.562	320.44
355.944	319.54
356.326	321.8
356.709	322.03
357.091	342.36
357.473	332.19
357.855	335.13
358.238	349.14
358.62	347.79
359.002	331.97
359.384	329.26
359.766	351.86
360.148	322.03
360.53	338.3
360.912	333.32
361.294	338.97
361.676	340.56
362.057	310.5
362.439	317.51
362.821	318.41
363.203	317.05
363.584	324.06
363.966	344.62
364.348	333.78
364.729	310.27
365.111	321.12
365.493	319.31
365.874	306.88
366.256	319.99
366.637	324.51
367.019	314.79
367.4	316.38
367.781	315.92
368.163	304.17
368.544	293.33
368.925	293.33
369.306	311.86
369.688	334.68
370.069	328.58
370.45	296.72
370.831	309.37
371.212	295.13
371.593	311.18
371.974	294.91
372.355	295.59
372.736	315.92
373.117	320.67
373.498	311.4
373.879	308.24
374.26	326.09
374.641	294
375.021	316.6
375.402	300.78
375.783	319.09
376.163	336.26
376.544	335.58
376.925	296.49
377.305	328.13
377.686	324.96
378.066	312.53
378.447	348.01
378.827	324.74
379.208	338.07
379.588	336.26
379.968	345.75
380.349	320.44
380.729	311.4
381.109	345.98
381.489	349.37
381.87	320.44
382.25	330.39
382.63	330.39
383.01	326.55
383.39	327.9
383.77	341.23
384.15	342.36
384.53	352.31
384.91	348.92
385.29	321.35
385.67	359.31
386.049	351.4
386.429	355.92
386.809	351.18
387.189	361.35
387.568	348.24
387.948	353.44
388.328	344.62
388.707	348.92
389.087	357.5
389.466	370.84
389.846	367
390.225	351.63
390.605	362.7
390.984	354.34
391.363	363.15
391.743	378.07
392.122	351.18
392.501	376.04
392.881	367
393.26	369.71
393.639	353.21
394.018	372.19
394.397	362.25
394.776	369.03
395.155	371.52
395.534	396.37
395.913	390.05
396.292	375.58
396.671	380.1
397.05	365.87
397.429	380.1
397.808	382.36
398.186	379.2
398.565	385.53
398.944	387.79
399.323	377.39
399.701	400.22
400.08	401.35
400.458	390.05
400.837	407.45
401.215	391.18
401.594	395.92
401.972	387.11
402.351	407.45
402.729	411.97
403.107	407.22
403.486	408.35
403.864	400.67
404.242	411.06
404.62	420.33
404.999	421.68
405.377	417.39
405.755	413.1
406.133	425.75
406.511	414.23
406.889	413.55
407.267	427.11
407.645	425.75
408.023	427.33
408.401	442.47
408.779	448.35
409.156	462.36
409.534	450.84
409.912	449.25
410.29	455.58
410.667	439.76
411.045	450.84
411.422	477.05
411.8	468.24
412.178	472.3
412.555	458.97
412.933	468.01
413.31	473.89
413.687	483.6
414.065	468.69
414.442	447.9
414.819	465.07
415.197	491.74
415.574	516.6
415.951	498.74
416.328	514.11
416.705	497.61
417.082	503.94
417.46	503.72
417.837	489.7
418.214	477.28
418.591	534.22
418.967	506.88
419.344	509.14
419.721	511.85
420.098	511.17
420.475	509.59
420.852	531.51
421.228	532.19
421.605	557.5
421.982	532.19
422.358	534.9
422.735	533.55
423.111	531.51
423.488	541
423.864	562.7
424.241	561.57
424.617	572.87
424.994	552.75
425.37	540.78
425.746	574.45
426.123	580.55
426.499	586.65
426.875	567.44
427.251	586.65
427.627	572.87
428.003	610.38
428.379	594.11
428.756	579.42
429.132	598.18
429.507	610.38
429.883	625.97
430.259	636.14
430.635	630.49
431.011	650.38
431.387	629.81
431.763	658.74
432.138	643.82
432.514	679.53
432.89	649.25
433.265	664.39
433.641	701.9
434.016	670.49
434.392	692.64
434.767	697.16
435.143	721.11
435.518	712.07
435.894	699.87
436.269	701
436.644	722.92
437.02	741.45
437.395	728.12
437.77	762.92
438.145	746.65
438.52	755.69
438.895	750.94
439.271	765.63
439.646	772.41
440.021	777.61
440.395	778.96
440.77	780.54
441.145	779.19
441.52	787.1
441.895	783.03
442.27	797.72
442.645	796.14
443.019	785.74
443.394	823.03
443.769	814.89
444.143	810.37
444.518	820.54
444.892	809.47
445.267	840.2
445.641	840.66
446.016	859.41
446.39	864.38
446.764	864.61
447.139	851.73
447.513	855.57
447.887	852.86
448.262	857.38
448.636	861.67
449.01	887.21
449.384	877.94
449.758	890.82
450.132	898.73
450.506	914.78
450.88	942.8
451.254	952.74
451.628	918.39
452.002	964.72
452.376	951.16
452.75	960.2
453.123	990.26
453.497	973.99
453.871	990.93
454.244	1024.38
454.618	998.17
454.992	1009.69
455.365	1017.37
455.739	1026.19
456.112	1055.34
456.486	1077.26
456.859	1075.9
457.232	1088.33
457.606	1075
457.979	1089.46
458.352	1125.62
458.725	1150.03
459.099	1119.97
459.472	1174.43
459.845	1175.56
460.218	1187.99
460.591	1205.17
460.964	1203.81
461.337	1227.31
461.71	1254.88
462.083	1251.04
462.456	1279.74
462.829	1260.31
463.201	1271.15
463.574	1316.35
463.947	1326.97
464.32	1337.82
464.692	1356.12
465.065	1348.67
465.438	1396.12
465.81	1386.63
466.183	1425.95
466.555	1456.01
466.928	1467.98
467.3	1442.45
467.672	1500.07
468.045	1561.77
468.417	1564.93
468.789	1563.35
469.161	1599.28
469.534	1641.99
469.906	1651.03
470.278	1669.79
470.65	1713.85
471.022	1742.78
471.394	1822.55
471.766	1799.27
472.138	1830.23
472.51	1906.16
472.882	1901.42
473.253	1951.59
473.625	1997.24
473.997	2057.57
474.369	2068.19
474.74	2113.16
475.112	2164.46
475.484	2234.29
475.855	2283.56
476.227	2340.96
476.598	2398.13
476.97	2447.85
477.341	2504.34
477.713	2542.08
478.084	2609.65
478.455	2697.33
478.827	2763.77
479.198	2860.04
479.569	2873.6
479.94	3009.64
480.311	3010.77
480.682	3115.85
481.053	3243.3
481.424	3337.09
481.795	3429.29
482.166	3526.01
482.537	3570.08
482.908	3657.53
483.279	3756.51
483.65	3897.98
484.021	4007.58
484.391	4123.06
484.762	4208.93
485.133	4259.55
485.503	4392.43
485.874	4556.49
486.244	4664.74
486.615	4760.55
486.985	4876.48
487.356	5006.87
487.726	5160.09
488.097	5311.5
488.467	5410.71
488.837	5546.97
489.207	5666.74
489.578	5760.75
489.948	5945.38
490.318	6047.07
490.688	6175.88
491.058	6271.02
491.428	6462.65
491.798	6605.7
492.168	6763.44
492.538	6787.62
492.908	6942.64
493.278	7092.02
493.648	7179.02
494.017	7419.47
494.387	7533.14
494.757	7726.12
495.126	7798.66
495.496	7894.03
495.866	8018.77
496.235	8085.89
496.605	8288.82
496.974	8468.03
497.344	8530.85
497.713	8653.56
498.082	8756.61
498.452	8867.34
498.821	9023.27
499.19	9098.74
499.559	9239.31
499.928	9334.44
500.298	9444.95
500.667	9520.2
501.036	9600.88
501.405	9744.83
501.774	9780.99
502.143	9968.55
502.512	9996.57
502.88	10088.1
503.249	10109.56
503.618	10276.57
503.987	10310.01
504.356	10427.52
504.724	10575.77
505.093	10514.07
505.462	10662.09
505.83	10779.83
506.199	10776.89
506.567	10998.81
506.936	10996.32
507.304	11116.09
507.672	11236.77
508.041	11259.14
508.409	11340.72
508.777	11440.83
509.145	11465.24
509.514	11518.12
509.882	11601.5
510.25	11646.93
510.618	11735.74
510.986	11735.96
511.354	11907.94
511.722	11973.24
512.09	12123.97
512.458	11948.84
512.826	12160.58
513.193	12263.86
513.561	12266.34
513.929	12297.3
514.297	12408.04
514.664	12440.35
515.032	12495.94
515.4	12542.72
515.767	12519.67
516.135	12602.83
516.502	12584.08
516.869	12783.17
517.237	12769.38
517.604	12690.97
517.972	12770.96
518.339	12820.91
518.706	12842.37
519.073	12855.48
519.44	12911.52
519.808	12950.85
520.175	12991.52
520.542	13158.75
520.909	13115.36
521.276	13074.68
521.643	13134.8
522.009	13250.5
522.376	13330.72
522.743	13321.23
523.11	13434.45
523.477	13567.55
523.843	13478.74
524.21	13566.87
524.577	13556.93
524.943	13629.02
525.31	13635.12
525.676	13758.51
526.043	13793.99
526.409	13740.66
526.776	13868.56
527.142	13773.2
527.508	13854.32
527.874	13916.47
528.241	13901.1
528.607	13817.49
528.973	14031.72
529.339	14019.07
529.705	13996.92
530.071	14075.56
530.437	14044.6
530.803	14081.21
531.169	14115.79
531.535	14099.52
531.901	14031.95
532.267	13995.56
532.632	14059.52
532.998	14055
533.364	14092.74
533.73	13971.16
534.095	14164.6
534.461	14125.96
534.826	14121.89
535.192	14101.32
535.557	14127.76
535.923	14052.96
536.288	14057.94
536.653	14053.64
537.019	13944.94
537.384	13968.45
537.749	13927.77
538.114	14010.03
538.479	13916.24
538.845	13916.24
539.21	13869.47
539.575	13848.9
539.94	13843.7
540.305	13876.25
540.67	13868.34
541.034	13732.07
541.399	13765.06
541.764	13776.13
542.129	13686.65
542.494	13721
542.858	13605.74
543.223	13601.45
543.587	13572.07
543.952	13561.45
544.316	13553.54
544.681	13457.73
545.045	13558.97
545.41	13521
545.774	13512.64
546.138	13454.56
546.503	13416.82
546.867	13275.81
547.231	13510.61
547.595	13299.09
547.959	13317.84
548.324	13264.28
548.688	13286.88
549.052	13280.55
549.416	13223.16
549.779	13168.92
550.143	13191.29
550.507	13181.35
550.871	13179.77
551.235	13081.46
551.599	13091.86
551.962	13090.28
552.326	13099.32
552.689	13117.4
553.053	12952.2
553.417	13015.7
553.78	13129.37
554.143	12978.19
554.507	12940
554.87	12947.91
555.234	13018.87
555.597	12915.14
555.96	12901.36
556.323	12908.14
556.686	12983.61
557.05	12982.03
557.413	12964.18
557.776	12926.67
558.139	12928.25
558.502	12902.03
558.865	12901.36
559.228	12953.78
559.59	12887.34
559.953	12945.65
560.316	12987
560.679	12972.99
561.041	13005.08
561.404	13033.78
561.767	12967.57
562.129	12917.4
562.492	13051.18
562.854	12894.8
563.217	12899.55
563.579	12975.93
563.941	13004.86
564.304	13041.46
564.666	13120.78
565.028	13070.62
565.39	13068.58
565.753	13104.74
566.115	13114.68
566.477	13063.39
566.839	13098.86
567.201	13129.82
567.563	13183.16
567.925	13207.79
568.287	13150.16
568.648	13195.81
569.01	13141.12
569.372	13272.65
569.734	13177.51
570.095	13272.42
570.457	13300.22
570.819	13334.34
571.18	13229.26
571.542	13323.72
571.903	13291.63
572.265	13273.32
572.626	13343.15
572.987	13297.96
573.349	13343.83
573.71	13432.64
574.071	13388.35
574.432	13443.04
574.794	13414.34
575.155	13423.15
575.516	13388.12
575.877	13500.21
576.238	13427.9
576.599	13489.81
576.96	13454.34
577.32	13482.13
577.681	13578.17
578.042	13530.72
578.403	13460.44
578.763	13508.35
579.124	13519.42
579.485	13560.32
579.845	13498.18
580.206	13435.8
580.566	13508.35
580.927	13492.53
581.287	13498.85
581.648	13464.05
582.008	13549.93
582.368	13439.87
582.728	13466.54
583.089	13465.86
583.449	13486.88
583.809	13459.53
584.169	13512.19
584.529	13542.24
584.889	13445.75
585.249	13486.65
585.609	13406.43
585.969	13426.09
586.329	13432.87
586.688	13471.06
587.048	13411.17
587.408	13332.53
587.768	13358.52
588.127	13439.65
588.487	13344.28
588.846	13442.13
589.206	13377.5
589.565	13405.3
589.925	13379.08
590.284	13316.94
590.643	13343.6
591.003	13375.92
591.362	13429.7
591.721	13312.42
592.08	13337.73
592.44	13331.4
592.799	13296.6
593.158	13308.8
593.517	13298.86
593.876	13331.85
594.235	13224.06
594.593	13322.59
594.952	13388.57
595.311	13276.49
595.67	13253.89
596.029	13265.19
596.387	13305.41
596.746	13390.83
597.104	13234.68
597.463	13172.08
597.822	13278.07
598.18	13219.54
598.538	13189.94
598.897	13326.66
599.255	13207.56
599.613	13291.85
599.972	13147.45
600.33	13284.85
600.688	13154
601.046	13295.47
601.404	13328.46
601.762	13231.74
602.12	13236.04
602.478	13325.98
602.836	13310.16
603.194	13201.46
603.552	13226.77
603.91	13264.74
604.268	13246.66
604.625	13161.69
604.983	13253.21
605.341	13205.08
605.698	13267.67
606.056	13281.23
606.413	13302.48
606.771	13267.22
607.128	13263.15
607.485	13207.56
607.843	13244.17
608.2	13361.91
608.557	13341.12
608.914	13328.24
609.272	13315.58
609.629	13364.17
609.986	13423.6
610.343	13349.93
610.7	13414.11
611.057	13371.63
611.414	13350.38
611.771	13437.16
612.127	13326.66
612.484	13446.43
612.841	13458.4
613.198	13449.14
613.554	13402.36
613.911	13451.4
614.267	13458.4
614.624	13483.94
614.98	13439.19
615.337	13538.18
615.693	13525.97
616.05	13502.24
616.406	13570.94
616.762	13495.24
617.118	13569.59
617.475	13558.97
617.831	13575.69
618.187	13710.83
618.543	13735.46
618.899	13733.42
619.255	13721.22
619.611	13627.66
619.967	13671.28
620.323	13706.98
620.678	13666.53
621.034	13622.24
621.39	13584.5
621.746	13635.57
622.101	13739.98
622.457	13654.56
622.812	13697.27
623.168	13618.85
623.523	13694.1
623.879	13720.09
624.234	13604.39
624.589	13574.78
624.945	13631.28
625.3	13601.22
625.655	13615.46
626.01	13640.55
626.365	13688
626.72	13632.64
627.075	13601.9
627.43	13630.15
627.785	13509.48
628.14	13640.09
628.495	13651.62
628.85	13611.62
629.205	13613.65
629.559	13603.48
629.914	13526.65
630.269	13590.15
630.623	13445.3
630.978	13553.99
631.332	13588.12
631.687	13560.1
632.041	13568.91
632.396	13509.7
632.75	13485.97
633.104	13485.75
633.459	13392.64
633.813	13505.41
634.167	13407.11
634.521	13426.09
634.875	13506.31
635.229	13379.54
635.583	13324.17
635.937	13363.04
636.291	13408.69
636.645	13377.28
636.999	13347.22
637.352	13395.13
637.706	13255.7
638.06	13327.11
638.413	13248.47
638.767	13252.76
639.121	13260.44
639.474	13203.72
639.828	13233.55
640.181	13268.13
640.534	13197.85
640.888	13087.57
641.241	13069.03
641.594	13104.74
641.947	13195.59
642.301	13140.9
642.654	13173.89
643.007	13119.66
643.36	13143.84
643.713	13113.78
644.066	13128.02
644.419	13046.66
644.771	13007.12
645.124	12782.04
645.477	12904.97
645.83	12807.12
646.182	12701.81
646.535	12698.65
646.888	12643.96
647.24	12590.4
647.593	12612.78
647.945	12691.19
648.298	12580.46
648.65	12567.81
649.002	12595.6
649.355	12662.72
649.707	12618.43
650.059	12668.14
650.411	12797.86
650.763	12866.1
651.115	13006.89
651.467	12923.05
651.819	12985.2
652.171	12967.34
652.523	12939.32
652.875	12911.07
653.227	12898.42
653.578	12989.26
653.93	12902.49
654.282	12845.54
654.633	12838.08
654.985	12934.12
655.337	12894.12
655.688	12947.23
656.039	12953.78
656.391	12796.73
656.742	12893.9
657.094	12963.27
657.445	12969.15
657.796	12848.7
658.147	12846.67
658.498	12951.98
658.849	12939.55
659.2	12901.36
659.551	12927.8
659.902	12861.81
660.253	12927.12
660.604	12990.39
660.955	12877.63
661.306	12933.22
661.656	12919.43
662.007	12962.37
662.358	12934.58
662.708	13028.81
663.059	12977.96
663.409	12875.37
663.76	12957.63
664.11	12932.77
664.461	12970.05
664.811	12918.98
665.161	12942.71
665.511	13009.38
665.862	12961.92
666.212	12994.91
666.562	12955.14
666.912	12936.16
667.262	12925.99
667.612	12892.32
667.962	12987.23
668.312	12943.16
668.662	12971.86
669.011	12982.48
669.361	12955.59
669.711	12898.42
670.06	12863.39
670.41	12858.87
670.76	12940
671.109	12931.19
671.459	13006.89
671.808	12927.57
672.157	12903.84
672.507	12821.58
672.856	12897.74
673.205	12857.06
673.554	12922.15
673.904	12817.52
674.253	12895.03
674.602	12787.46
674.951	12624.07
675.3	12652.32
675.649	12806.44
675.998	12743.17
676.346	12774.81
676.695	12842.83
677.044	12733.45
677.393	12715.37
677.741	12753.34
678.09	12731.42
678.438	12673.57
678.787	12722.83
679.135	12668.82
679.484	12565.77
679.832	12646.22
680.181	12552.44
680.529	12568.71
680.877	12558.54
681.225	12502.95
681.573	12612.32
681.922	12424.98
682.27	12418.66
682.618	12501.82
682.966	12455.72
683.314	12436.74
683.661	12413.91
684.009	12326.46
684.357	12302.28
684.705	12332.56
685.053	12311.77
685.4	12260.92
685.748	12134.6
686.095	12269.73
686.443	12197.42
686.79	12110.19
687.138	12141.38
687.485	12125.1
687.832	12126.01
688.18	12118.33
688.527	11958.56
688.874	12034.71
689.221	11938.44
689.568	11906.35
689.915	11864.32
690.262	11842.63
690.609	11854.6
690.956	11801.72
691.303	11828.16
691.65	11679.69
691.997	11763.53
692.344	11674.72
692.69	11641.05
693.037	11559.24
693.383	11531.9
693.73	11460.94
694.077	11448.06
694.423	11476.31
694.769	11466.37
695.116	11393.15
695.462	11333.94
695.808	11279.7
696.155	11262.3
696.501	11216.43
696.847	11238.57
697.193	11109.09
697.539	11126.04
697.885	11079.93
698.231	11070.67
698.577	10990.22
698.923	11010.33
699.269	10970.56
699.614	10888.98
699.96	10855.99
700.306	10824.35
700.651	10763.11
700.997	10750.45
701.342	10727.18
701.688	10671.81
702.033	10627.52
702.379	10623
702.724	10565.82
703.069	10556.11
703.415	10461.65
703.76	10512.94
704.105	10506.84
704.45	10442.66
704.795	10387.52
705.14	10391.14
705.485	10285.83
705.83	10271.82
706.175	10336.68
706.52	10191.82
706.865	10162.67
707.209	10080.64
707.554	10131.03
707.899	10043.8
708.243	10103.46
708.588	10012.62
708.932	9947.31
709.277	9959.06
709.621	9955.44
709.966	9825.96
710.31	9888.78
710.654	9821.66
710.998	9793.19
711.342	9816.24
711.687	9769.23
712.031	9761.55
712.375	9698.95
712.719	9719.97
713.063	9711.84
713.407	9760.65
713.75	9639.29
714.094	9687.88
714.438	9615.79
714.782	9622.12
715.125	9561.1
715.469	9630.93
715.812	9497.38
716.156	9496.25
716.499	9569.69
716.843	9473.42
717.186	9456.7
717.53	9552.07
717.873	9466.64
718.216	9479.98
718.559	9487.43
718.902	9313.43
719.246	9387.32
719.589	9352.07
719.932	9338.74
720.275	9380.54
720.617	9306.42
720.96	9295.8
721.303	9278.17
721.646	9260.77
721.989	9279.98
722.331	9302.81
722.674	9223.03
723.016	9313.88
723.359	9281.11
723.701	9193.2
724.044	9172.41
724.386	9164.05
724.729	9181
725.071	9197.5
725.413	9170.83
725.755	9151.62
726.097	9088.57
726.439	9125.64
726.782	9148.69
727.124	9183.26
727.465	9102.59
727.807	9115.24
728.149	9137.39
728.491	9055.58
728.833	9120.44
729.175	9093.09
729.516	9027.11
729.858	9072.53
730.199	9020.55
730.541	9039.31
730.882	9014.9
731.224	9122.47
731.565	9012.19
731.906	9050.61
732.248	9071.4
732.589	9053.55
732.93	8995.02
733.271	8974.68
733.612	9091.74
733.953	9057.84
734.294	9026.43
734.635	8964.06
734.976	9095.35
735.317	9069.14
735.658	9015.58
735.999	9095.81
736.339	9033.66
736.68	9139.65
737.021	9064.62
737.361	9008.12
737.702	9102.36
738.042	9042.02
738.383	9055.81
738.723	9169.25
739.063	9136.03
739.404	9144.17
739.744	9112.08
740.084	9158.86
740.424	9118.4
740.764	9132.42
741.104	9143.04
741.444	9159.53
741.784	9134.9
742.124	9182.36
742.464	9135.13
742.804	9223.49
743.143	9200.66
743.483	9229.14
743.823	9196.37
744.162	9259.19
744.502	9282.02
744.841	9326.53
745.181	9335.57
745.52	9315.01
745.86	9378.06
746.199	9445.63
746.538	9464.16
746.877	9543.48
747.216	9487.43
747.556	9534.89
747.895	9705.96
748.234	9643.59
748.573	9700.08
748.911	9740.31
749.25	9816.01
749.589	9870.02
749.928	9953.18
750.267	10055.78
750.605	10085.38
750.944	10180.07
751.283	10227.98
751.621	10347.07
751.96	10378.94
752.298	10517.69
752.636	10612.6
752.975	10629.78
753.313	10739.15
753.651	10811.69
753.989	10910.45
754.327	10978.24
754.666	11162.42
755.004	11219.82
755.342	11405.58
755.679	11459.81
756.017	11606.7
756.355	11698.68
756.693	11802.85
757.031	12104.09
757.368	12013.7
757.706	12258.89
758.044	12422.95
758.381	12592.66
758.719	12660.46
759.056	12865.65
