Data from hue_280_FLMS001491_00013.txt Node
Date: Tue Feb 07 15:54:54 GMT 2017
User: dcchb
Spectrometer: FLMS00149
Trigger mode: 0
Integration Time (sec): 2.000000E-2
Scans to average: 10
Electric dark correction enabled: true
Nonlinearity correction enabled: false
Boxcar width: 0
XAxis mode: Wavelengths
Number of Pixels in Spectrum: 2048
>>>>>Begin Spectral Data<<<<<
341.393	-14.05
341.776	-14.05
342.16	-14.05
342.543	-58.57
342.927	-71.23
343.31	-80.04
343.693	-82.3
344.077	-51.34
344.46	-62.19
344.843	-66.48
345.226	-44.79
345.61	-29.87
345.993	-12.02
346.376	-2.08
346.759	19.62
347.142	26.17
347.525	56.91
347.908	47.41
348.291	75.89
348.674	105.04
349.057	100.07
349.44	133.51
349.823	137.58
350.206	149.56
350.588	195.66
350.971	210.8
351.354	218.48
351.737	247.86
352.119	259.61
352.502	248.99
352.884	270.91
353.267	257.58
353.65	274.53
354.032	282.66
354.414	298.48
354.797	282.66
355.179	307.52
355.562	308.42
355.944	317.46
356.326	317.01
356.709	318.14
357.091	322.89
357.473	321.53
357.855	336.45
358.238	310.01
358.62	320.18
359.002	332.83
359.384	321.76
359.766	327.86
360.148	353.62
360.53	327.63
360.912	317.46
361.294	327.63
361.676	339.61
362.057	314.3
362.439	336.22
362.821	318.37
363.203	321.76
363.584	335.77
363.966	331.25
364.348	314.53
364.729	328.08
365.111	312.04
365.493	296.9
365.874	320.4
366.256	311.14
366.637	306.62
367.019	300.51
367.4	296.45
367.781	317.69
368.163	291.93
368.544	332.6
368.925	326.28
369.306	317.24
369.688	314.75
370.069	293.51
370.45	316.33
370.831	317.24
371.212	319.95
371.593	319.72
371.974	307.75
372.355	321.53
372.736	319.5
373.117	330.8
373.498	319.27
373.879	318.59
374.26	296.9
374.641	297.35
375.021	306.16
375.402	307.29
375.783	335.99
376.163	325.6
376.544	323.56
376.925	323.56
377.305	324.02
377.686	328.99
378.066	328.31
378.447	328.31
378.827	312.72
379.208	325.6
379.588	327.86
379.968	324.24
380.349	334.41
380.729	340.51
381.109	331.93
381.489	329.89
381.87	333.96
382.25	324.02
382.63	346.16
383.01	319.72
383.39	338.71
383.77	351.13
384.15	330.12
384.53	327.63
384.91	365.6
385.29	369.44
385.67	355.88
386.049	366.5
386.429	346.39
386.809	358.59
387.189	360.17
387.568	347.52
387.948	364.69
388.328	367.18
388.707	365.37
389.087	358.82
389.466	360.63
389.846	358.37
390.225	354.98
390.605	382.55
390.984	363.34
391.363	353.62
391.743	361.76
392.122	378.7
392.501	384.13
392.881	393.39
393.26	381.42
393.639	364.24
394.018	362.21
394.397	383.68
394.776	376.9
395.155	393.62
395.534	402.21
395.913	413.73
396.292	394.3
396.671	394.75
397.05	413.28
397.429	426.61
397.808	398.37
398.186	401.53
398.565	402.43
398.944	400.17
399.323	416.22
399.701	413.05
400.08	429.78
400.458	411.7
400.837	420.96
401.215	427.07
401.594	433.84
401.972	432.49
402.351	410.34
402.729	450.12
403.107	429.32
403.486	467.06
403.864	430.68
404.242	446.73
404.62	471.13
404.999	454.41
405.377	429.32
405.755	449.44
406.133	452.38
406.511	479.04
406.889	472.49
407.267	474.07
407.645	494.18
408.023	467.52
408.401	487.4
408.779	504.8
409.156	491.92
409.534	496.67
409.912	509.32
410.29	533.5
410.667	511.13
411.045	559.94
411.422	524.24
411.8	573.28
412.178	548.64
412.555	564.24
412.933	581.19
413.31	584.12
413.687	594.52
414.065	596.55
414.442	570.11
414.819	582.54
415.197	613.27
415.574	606.04
415.951	646.04
416.328	650.34
416.705	614.86
417.082	655.99
417.46	641.3
417.837	660.51
418.214	666.61
418.591	658.02
418.967	666.15
419.344	700.05
419.721	699.37
420.098	724.68
420.475	737.11
420.852	710.67
421.228	730.56
421.605	745.02
421.982	746.6
422.358	751.58
422.735	767.85
423.111	777.56
423.488	776.89
423.864	801.97
424.241	804.68
424.617	843.78
424.994	837.68
425.37	836.55
425.746	833.38
426.123	854.62
426.499	869.31
426.875	879.48
427.251	886.94
427.627	890.78
428.003	908.18
428.379	919.93
428.756	951.35
429.132	965.81
429.507	948.63
429.883	932.14
430.259	980.04
430.635	996.32
431.011	998.12
431.387	1027.5
431.763	1028.18
432.138	1057.33
432.514	1038.12
432.89	1064.79
433.265	1101.4
433.641	1100.72
434.016	1105.47
434.392	1135.52
434.767	1143.66
435.143	1147.95
435.518	1175.75
435.894	1153.6
436.269	1199.25
436.644	1206.71
437.02	1218
437.395	1217.78
437.77	1268.4
438.145	1281.05
438.52	1243.54
438.895	1283.77
439.271	1296.65
439.646	1321.96
440.021	1322.63
440.395	1369.41
440.77	1332.13
441.145	1346.36
441.52	1385.01
441.895	1358.79
442.27	1378.9
442.645	1415.74
443.019	1423.65
443.394	1448.51
443.769	1421.39
444.143	1427.26
444.518	1440.15
444.892	1449.19
445.267	1468.62
445.641	1494.61
446.016	1488.05
446.39	1516.53
446.764	1510.88
447.139	1490.54
447.513	1507.94
447.887	1518.34
448.262	1528.51
448.636	1516.3
449.01	1554.04
449.384	1554.04
449.758	1606.47
450.132	1598.56
450.506	1615.28
450.88	1589.07
451.254	1581.61
451.628	1614.83
452.002	1643.53
452.376	1652.8
452.75	1665.68
453.123	1670.65
453.497	1695.51
453.871	1709.97
454.244	1767.59
454.618	1717.43
454.992	1775.28
455.365	1757.43
455.739	1801.49
456.112	1806.69
456.486	1798.78
456.859	1817.08
457.232	1853.47
457.606	1879.46
457.979	1860.47
458.352	1895.28
458.725	1894.82
459.099	1912
459.472	1931.88
459.845	1957.42
460.218	1940.47
460.591	1970.3
460.964	2009.62
461.337	2065.44
461.71	2034.03
462.083	2075.38
462.456	2076.06
462.829	2055.72
463.201	2101.82
463.574	2094.14
463.947	2144.08
464.32	2174.14
464.692	2214.36
465.065	2202.61
465.438	2236.51
465.81	2255.04
466.183	2239.9
466.555	2285.32
466.928	2332.55
467.3	2320.8
467.672	2328.94
468.045	2412.32
468.417	2380.91
468.789	2391.31
469.161	2408.71
469.534	2475.6
469.906	2491.64
470.278	2536.61
470.65	2532.09
471.022	2563.51
471.394	2592.21
471.766	2588.82
472.138	2637.4
472.51	2680.57
472.882	2708.14
473.253	2768.02
473.625	2745.2
473.997	2839.66
474.369	2808.7
474.74	2856.83
475.112	2914.91
475.484	2954
475.855	2998.52
476.227	2982.7
476.598	3056.15
476.97	3042.14
477.341	3097.73
477.713	3149.93
478.084	3145.64
478.455	3246.88
478.827	3255.01
479.198	3318.74
479.569	3336.37
479.94	3413.43
480.311	3419.75
480.682	3484.84
481.053	3538.4
481.424	3590.82
481.795	3624.27
482.166	3637.38
482.537	3674.44
482.908	3716.92
483.279	3699.97
483.65	3773.19
484.021	3877.14
484.391	3852.06
484.762	3927.09
485.133	3933.19
485.503	4006.41
485.874	4052.05
486.244	4061.77
486.615	4158.94
486.985	4193.52
487.356	4244.82
487.726	4255.21
488.097	4351.71
488.467	4360.75
488.837	4391.48
489.207	4432.61
489.578	4477.35
489.948	4535.21
490.318	4554.87
490.688	4552.15
491.058	4634.86
491.428	4664.02
491.798	4714.64
492.168	4810.9
492.538	4786.95
492.908	4886.83
493.278	4910.56
493.648	4932.03
494.017	4967.74
494.387	5008.41
494.757	5021.97
495.126	5062.42
495.496	5064.68
495.866	5073.27
496.235	5154.17
496.605	5187.84
496.974	5164.79
497.344	5213.38
497.713	5264.9
498.082	5259.03
498.452	5360.95
498.821	5322.08
499.19	5369.08
499.559	5397.56
499.928	5451.79
500.298	5401.62
500.667	5479.59
501.036	5428.97
501.405	5505.58
501.774	5484.56
502.143	5525.24
502.512	5583.77
502.88	5578.57
503.249	5614.95
503.618	5682.29
503.987	5648.85
504.356	5701.5
504.724	5682.29
505.093	5712.12
505.462	5657.66
505.83	5734.72
506.199	5769.07
506.567	5838.22
506.936	5838.67
507.304	5889.29
507.672	5862.4
508.041	5889.07
508.409	5914.83
508.777	5906.92
509.145	6020.36
509.514	5952.8
509.882	5979.01
510.25	5989.4
510.618	6065.79
510.986	6053.58
511.354	6122.51
511.722	6084.32
512.09	6138.33
512.458	6138.33
512.826	6192.34
513.193	6222.17
513.561	6201.38
513.929	6192.79
514.297	6281.37
514.664	6270.75
515.032	6291.77
515.4	6305.33
515.767	6331.77
516.135	6331.32
516.502	6331.77
516.869	6417.64
517.237	6418.55
517.604	6358.21
517.972	6458.32
518.339	6448.38
518.706	6438.66
519.073	6424.65
519.44	6494.02
519.808	6544.42
520.175	6586.68
520.542	6632.55
520.909	6604.53
521.276	6584.87
521.643	6655.38
522.009	6646.11
522.376	6698.54
522.743	6708.26
523.11	6787.58
523.477	6794.81
523.843	6777.18
524.21	6820.34
524.577	6919.32
524.943	6916.84
525.31	6877.97
525.676	6982.6
526.043	7004.07
526.409	7065.99
526.776	7125.65
527.142	7029.6
527.508	7065.53
527.874	7196.15
528.241	7139.43
528.607	7191.86
528.973	7227.79
529.339	7179.88
529.705	7264.63
530.071	7331.74
530.437	7293.55
530.803	7330.84
531.169	7414.45
531.535	7340.78
531.901	7399.31
532.267	7338.3
532.632	7501.46
532.998	7459.65
533.364	7525.86
533.73	7527.44
534.095	7594.79
534.461	7623.71
534.826	7588.68
535.192	7577.84
535.557	7645.41
535.923	7694.22
536.288	7719.53
536.653	7713.88
537.019	7705.07
537.384	7677.72
537.749	7740.32
538.114	7754.33
538.479	7760.43
538.845	7747.32
539.21	7794.1
539.575	7821.45
539.94	7733.77
540.305	7838.62
540.67	7801.11
541.034	7831.84
541.399	7887.21
541.764	7880.65
542.129	7871.39
542.494	7896.93
542.858	7958.39
543.223	7998.62
543.587	8016.02
543.952	7973.76
544.316	7996.81
544.681	8034.77
545.045	8043.14
545.41	8039.29
545.774	8073.19
546.138	8105.96
546.503	8137.14
546.867	8097.15
547.231	8171.49
547.595	8181.44
547.959	8177.37
548.324	8172.17
548.688	8146.18
549.052	8211.72
549.416	8224.15
549.779	8232.06
550.143	8210.59
550.507	8296.01
550.871	8284.94
551.235	8242.23
551.599	8319.96
551.962	8326.52
552.326	8381.66
552.689	8362.9
553.053	8359.74
553.417	8340.08
553.78	8454.88
554.143	8398.83
554.507	8377.82
554.87	8448.55
555.234	8521.77
555.597	8464.37
555.96	8496.68
556.323	8596.12
556.686	8542.11
557.05	8531.71
557.413	8569.22
557.776	8586.85
558.139	8649.45
558.502	8724.25
558.865	8684.93
559.228	8723.34
559.59	8697.13
559.953	8752.72
560.316	8836.56
560.679	8833.17
561.041	8848.31
561.404	8855.32
561.767	8897.58
562.129	8913.85
562.492	8961.76
562.854	9002.66
563.217	8948.87
563.579	8933.73
563.941	9111.36
564.304	9007.86
564.666	9142.77
565.028	9164.69
565.39	9115.42
565.753	9162.65
566.115	9225.7
566.477	9217.79
566.839	9237.68
567.201	9261.86
567.563	9383.67
567.925	9431.57
568.287	9399.26
568.648	9457.79
569.01	9420.05
569.372	9515.87
569.734	9410.56
570.095	9564.9
570.457	9569.65
570.819	9630.66
571.18	9633.38
571.542	9695.07
571.903	9743.2
572.265	9768.06
572.626	9850.32
572.987	9788.63
573.349	9863.2
573.71	9901.62
574.071	9933.71
574.432	9884.22
574.794	10032.69
575.155	10016.87
575.516	9997.89
575.877	10109.97
576.238	10062.07
576.599	10153.36
576.96	10112.01
577.32	10240.59
577.681	10253.47
578.042	10289.18
578.403	10355.84
578.763	10444.43
579.124	10454.6
579.485	10474.94
579.845	10474.26
580.206	10545.22
580.566	10568.04
580.927	10595.16
581.287	10656.63
581.648	10755.61
582.008	10847.13
582.368	10815.72
582.728	10933.46
583.089	10934.81
583.449	10986.56
583.809	11017.97
584.169	11097.97
584.529	11075.82
584.889	11227.01
585.249	11201.92
585.609	11251.41
585.969	11360.56
586.329	11429.26
586.688	11501.8
587.048	11610.95
587.408	11543.38
587.768	11663.38
588.127	11678.52
588.487	11825.64
588.846	11899.08
589.206	11929.81
589.565	11975.69
589.925	12088
590.284	12111.73
590.643	12180.2
591.003	12259.97
591.362	12339.07
591.721	12375.68
592.08	12468.33
592.44	12535
592.799	12593.3
593.158	12667.65
593.517	12645.73
593.876	12821.99
594.235	12834.87
594.593	12911.26
594.952	12989.45
595.311	12938.15
595.67	13051.59
596.029	13191.7
596.387	13199.38
596.746	13352.15
597.104	13365.93
597.463	13396.67
597.822	13478.47
598.18	13415.42
598.538	13537.91
598.897	13619.71
599.255	13574.29
599.613	13815.87
599.972	13719.37
600.33	13808.18
600.688	13791.46
601.046	14022.64
601.404	13976.54
601.762	14110.32
602.12	14111.68
602.478	14172.01
602.836	14283.2
603.194	14202.3
603.552	14282.29
603.91	14252.92
604.268	14333.14
604.625	14347.15
604.983	14393.03
605.341	14444.1
605.698	14482.51
606.056	14551.21
606.413	14625.34
606.771	14641.15
607.128	14682.74
607.485	14623.3
607.843	14635.28
608.2	14756.86
608.557	14839.79
608.914	14776.97
609.272	14896.97
609.629	14922.28
609.986	14980.35
610.343	15015.83
610.7	15146
611.057	15038.88
611.414	15124.08
611.771	15131.76
612.127	15153.23
612.484	15183.06
612.841	15254.7
613.198	15314.58
613.554	15300.57
613.911	15345.99
614.267	15378.54
614.624	15347.8
614.98	15372.66
615.337	15464.18
615.693	15538.08
616.05	15476.61
616.406	15583.73
616.762	15579.89
617.118	15648.81
617.475	15510.28
617.831	15668.25
618.187	15671.86
618.543	15745.53
618.899	15771.52
619.255	15588.02
619.611	15710.05
619.967	15710.28
620.323	15770.16
620.678	15735.59
621.034	15818.3
621.39	15764.06
621.746	15806.55
622.101	15952.31
622.457	15743.5
622.812	15856.72
623.168	15876.83
623.523	15935.81
623.879	16011.29
624.234	15912.99
624.589	15967.22
624.945	16063.26
625.3	16006.54
625.655	15882.25
626.01	16008.58
626.365	16042.25
626.72	16009.25
627.075	15914.34
627.43	16049.03
627.785	15911.63
628.14	15967.9
628.495	15948.69
628.85	15977.84
629.205	15894
629.559	15934.45
629.914	15922.48
630.269	15976.71
630.623	15892.42
630.978	15898.3
631.332	15959.99
631.687	15940.33
632.041	15898.3
632.396	15845.19
632.75	15824.17
633.104	15855.36
633.459	15710.28
633.813	15779.43
634.167	15780.79
634.521	15755.02
634.875	15765.64
635.229	15783.5
635.583	15722.03
635.937	15680.68
636.291	15723.84
636.645	15729.49
636.999	15669.38
637.352	15564.97
637.706	15597.97
638.06	15639.77
638.413	15605.87
638.767	15537.85
639.121	15629.83
639.474	15594.58
639.828	15507.35
640.181	15575.59
640.534	15519.55
640.888	15462.6
641.241	15431.19
641.594	15575.14
641.947	15491.53
642.301	15484.75
642.654	15485.43
643.007	15490.17
643.36	15480.23
643.713	15464.86
644.066	15475.71
644.419	15302.83
644.771	15248.37
645.124	15120.69
645.477	15138.09
645.83	14971.09
646.182	14888.38
646.535	14922.05
646.888	14951.88
647.24	14916.63
647.593	15008.15
647.945	14924.31
648.298	14837.53
648.65	14909.85
649.002	14930.41
649.355	14898.1
649.707	14907.59
650.059	14987.81
650.411	15209.73
650.763	15148.03
651.115	15420.12
651.467	15294.7
651.819	15323.4
652.171	15253.12
652.523	15299.89
652.875	15315.94
653.227	15127.02
653.578	15426.67
653.93	15294.92
654.282	15339.22
654.633	15186.22
654.985	15225.09
655.337	15297.41
655.688	15336.5
656.039	15314.81
656.391	15230.52
656.742	15317.29
657.094	15284.08
657.445	15384.86
657.796	15272.78
658.147	15221.03
658.498	15352.32
658.849	15297.41
659.2	15237.07
659.551	15204.53
659.902	15309.16
660.253	15340.8
660.604	15377.41
660.955	15244.75
661.306	15287.47
661.656	15296.05
662.007	15272.1
662.358	15274.13
662.708	15313.68
663.059	15373.34
663.409	15235.49
663.76	15337.18
664.11	15368.14
664.461	15457.86
664.811	15397.97
665.161	15387.35
665.511	15347.58
665.862	15316.84
666.212	15429.61
666.562	15308.71
666.912	15342.61
667.262	15295.83
667.612	15340.57
667.962	15388.71
668.312	15332.66
668.662	15393.23
669.011	15394.36
669.361	15337.86
669.711	15318.65
670.06	15319.55
670.41	15341.48
670.76	15292.66
671.109	15255.38
671.459	15358.2
671.808	15217.86
672.157	15275.94
672.507	15208.37
672.856	15142.84
673.205	15266.45
673.554	15269.84
673.904	15253.12
674.253	15281.36
674.602	15283.17
674.951	15039.11
675.3	14997.3
675.649	15172.89
675.998	15181.71
676.346	15182.61
676.695	15248.6
677.044	15092.22
677.393	15038.66
677.741	15014.03
678.09	15059.9
678.438	15039.79
678.787	15085.66
679.135	15120.46
679.484	14965.67
679.832	14994.59
680.181	14940.81
680.529	14918.44
680.877	14914.82
681.225	14880.47
681.573	14941.49
681.922	14870.08
682.27	14861.71
682.618	14770.87
682.966	14816.07
683.314	14768.83
683.661	14753.69
684.009	14702.4
684.357	14653.36
684.705	14644.54
685.053	14685
685.4	14593.47
685.748	14548.05
686.095	14642.96
686.443	14474.38
686.79	14400.93
687.138	14456.53
687.485	14453.14
687.832	14338.79
688.18	14444.55
688.527	14318
688.874	14243.88
689.221	14207.04
689.568	14075.97
689.915	14241.62
690.262	14108.74
690.609	14106.93
690.956	14028.29
691.303	13980.16
691.65	13949.2
691.997	13979.93
692.344	13833.49
692.69	13798.24
693.037	13756.21
693.383	13747.62
693.73	13751.01
694.077	13734.06
694.423	13617.9
694.769	13516.66
695.116	13535.42
695.462	13522.54
695.808	13426.27
696.155	13409.77
696.501	13375.88
696.847	13344.01
697.193	13256.33
697.539	13282.77
697.885	13167.3
698.231	13068.31
698.577	13090.69
698.923	13076
699.269	12962.33
699.614	12883.23
699.96	12902.9
700.306	12791.49
700.651	12791.49
700.997	12718.72
701.342	12699.96
701.688	12652.73
702.033	12639.17
702.379	12685.95
702.724	12516.46
703.069	12608.89
703.415	12426.3
703.76	12424.49
704.105	12329.8
704.45	12253.19
704.795	12285.51
705.14	12146.53
705.485	12205.29
705.83	12119.41
706.175	12198.96
706.52	12156.02
706.865	12008.46
707.209	12081
707.554	12015.91
707.899	11992.41
708.243	11871.74
708.588	11963.71
708.932	11707.9
709.277	11864.05
709.621	11794.9
709.966	11780.89
710.31	11726.43
710.654	11619.99
710.998	11641.46
711.342	11658.63
711.687	11564.17
712.031	11617.73
712.375	11496.83
712.719	11558.3
713.063	11677.39
713.407	11613.89
713.75	11485.31
714.094	11446.89
714.438	11492.31
714.782	11441.46
715.125	11396.27
715.469	11369.38
715.812	11329.38
716.156	11283.05
716.499	11284.86
716.843	11304.07
717.186	11249.61
717.53	11322.82
717.873	11251.87
718.216	11276.05
718.559	11193.56
718.902	11134.13
719.246	11081.93
719.589	11107.69
719.932	11054.58
720.275	11074.02
720.617	11110.17
720.96	11062.27
721.303	11024.98
721.646	11057.29
721.989	10911.76
722.331	11034.7
722.674	10946.56
723.016	10933.91
723.359	10975.94
723.701	10908.37
724.044	10924.42
724.386	10764.42
724.729	10849.84
725.071	10888.71
725.413	10885.32
725.755	10861.37
726.097	10793.8
726.439	10847.81
726.782	10830.18
727.124	10849.84
727.465	10729.17
727.807	10747.02
728.149	10868.6
728.491	10776.17
728.833	10792.67
729.175	10776.62
729.516	10749.96
729.858	10755.16
730.199	10754.48
730.541	10730.52
730.882	10716.06
731.224	10766.45
731.565	10684.42
731.906	10692.11
732.248	10628.6
732.589	10696.63
732.93	10668.38
733.271	10761.93
733.612	10726.91
733.953	10697.08
734.294	10697.08
734.635	10644.2
734.976	10672.9
735.317	10689.85
735.658	10687.81
735.999	10671.32
736.339	10660.47
736.68	10752.44
737.021	10679
737.361	10641.49
737.702	10773.91
738.042	10693.01
738.383	10675.61
738.723	10759.22
739.063	10702.95
739.404	10772.1
739.744	10788.83
740.084	10729.62
740.424	10730.3
740.764	10824.98
741.104	10736.4
741.444	10764.65
741.784	10792.67
742.124	10796.06
742.464	10771.88
742.804	10858.88
743.143	10864.53
743.483	10955.83
743.823	10851.2
744.162	10928.48
744.502	10931.2
744.841	10980.91
745.181	11039.44
745.52	11001.7
745.86	11104.07
746.199	11166.44
746.538	11215.03
746.877	11268.14
747.216	11293.9
747.556	11304.52
747.895	11424.97
748.234	11421.58
748.573	11409.38
748.911	11541.35
749.25	11616.15
749.589	11604.17
749.928	11818.86
750.267	11811.4
750.605	11906.31
750.944	11908.35
751.283	11975.24
751.621	12168
751.96	12156.25
752.298	12301.56
752.636	12351.95
752.975	12483.25
753.313	12479.4
753.651	12737.25
753.989	12800.98
754.327	12848.43
754.666	12965.04
755.004	13157.58
755.342	13282.77
755.679	13345.82
756.017	13464.01
756.355	13625.14
756.693	13711.91
757.031	13879.82
757.368	13940.38
757.706	14137.44
758.044	14166.59
758.381	14395.96
758.719	14472.57
759.056	14626.92
