Data from hue_140_FLMS001491_00011.txt Node
Date: Tue Feb 07 16:55:28 GMT 2017
User: dcchb
Spectrometer: FLMS00149
Trigger mode: 0
Integration Time (sec): 2.000000E-2
Scans to average: 10
Electric dark correction enabled: true
Nonlinearity correction enabled: false
Boxcar width: 0
XAxis mode: Wavelengths
Number of Pixels in Spectrum: 2048
>>>>>Begin Spectral Data<<<<<
341.393	-1.5
341.776	-1.5
342.16	-1.5
342.543	-66.81
342.927	-71.1
343.31	-75.62
343.693	-72.46
344.077	-39.46
344.46	-51.44
344.843	-50.08
345.226	-46.24
345.61	-23.19
345.993	-40.37
346.376	-9.63
346.759	17.71
347.142	26.75
347.525	24.26
347.908	76.92
348.291	63.36
348.674	82.34
349.057	117.14
349.44	121.89
349.823	135.9
350.206	187.2
350.588	207.54
350.971	210.02
351.354	213.86
351.737	245.28
352.119	254.32
352.502	262.22
352.884	273.3
353.267	283.69
353.65	285.73
354.032	296.35
354.414	300.42
354.797	306.52
355.179	337.48
355.562	331.15
355.944	342.22
356.326	322.34
356.709	334.54
357.091	343.35
357.473	342.67
357.855	333.41
358.238	339.74
358.62	352.17
359.002	351.94
359.384	311.04
359.766	326.86
360.148	339.74
360.53	319.62
360.912	333.64
361.294	328.21
361.676	320.08
362.057	336.35
362.439	320.08
362.821	315.1
363.203	308.78
363.584	330.92
363.966	331.38
364.348	316.01
364.729	321.66
365.111	290.47
365.493	328.89
365.874	323.69
366.256	332.96
366.637	321.88
367.019	325.05
367.4	320.08
367.781	327.99
368.163	324.14
368.544	299.74
368.925	326.86
369.306	317.82
369.688	307.2
370.069	306.52
370.45	316.91
370.831	315.1
371.212	329.57
371.593	338.61
371.974	307.87
372.355	323.69
372.736	315.1
373.117	325.73
373.498	309
373.879	325.73
374.26	327.99
374.641	308.33
375.021	287.76
375.402	321.43
375.783	352.84
376.163	333.41
376.544	322.79
376.925	319.17
377.305	346.06
377.686	342.67
378.066	330.7
378.447	325.95
378.827	324.14
379.208	331.15
379.588	341.32
379.968	322.79
380.349	349
380.729	334.09
381.109	341.32
381.489	339.28
381.87	340.19
382.25	337.03
382.63	316.46
383.01	350.58
383.39	346.29
383.77	342.9
384.15	313.52
384.53	340.41
384.91	348.55
385.29	342.45
385.67	358.49
386.049	343.58
386.429	349.23
386.809	342.9
387.189	356.23
387.568	355.33
387.948	339.96
388.328	350.36
388.707	347.42
389.087	357.59
389.466	388.78
389.846	349.23
390.225	363.69
390.605	375.89
390.984	361.43
391.363	380.64
391.743	383.13
392.122	354.2
392.501	356.69
392.881	365.27
393.26	383.58
393.639	381.09
394.018	385.16
394.397	398.72
394.776	371.15
395.155	385.39
395.534	371.15
395.913	406.63
396.292	400.75
396.671	399.62
397.05	394.88
397.429	384.71
397.808	408.66
398.186	390.13
398.565	396.23
398.944	388.55
399.323	395.1
399.701	397.14
400.08	421.77
400.458	404.14
400.837	398.72
401.215	415.22
401.594	386.06
401.972	422.67
402.351	399.62
402.729	415.22
403.107	424.48
403.486	397.59
403.864	422.67
404.242	422.45
404.62	425.84
404.999	420.41
405.377	433.07
405.755	418.83
406.133	416.8
406.511	429.23
406.889	435.55
407.267	435.1
407.645	433.07
408.023	430.36
408.401	441.88
408.779	467.87
409.156	451.82
409.534	468.1
409.912	457.93
410.29	451.15
410.667	450.92
411.045	457.7
411.422	460.19
411.8	466.29
412.178	442.78
412.555	481.2
412.933	498.83
413.31	496.34
413.687	487.08
414.065	500.18
414.442	485.5
414.819	499.73
415.197	492.28
415.574	515.1
415.951	512.84
416.328	492.95
416.705	506.29
417.082	519.39
417.46	505.61
417.837	513.97
418.214	526.17
418.591	528.66
418.967	503.57
419.344	524.14
419.721	533.86
420.098	524.82
420.475	543.8
420.852	539.05
421.228	544.7
421.605	553.06
421.982	538.83
422.358	527.53
422.735	556.45
423.111	541.09
423.488	580.63
423.864	580.18
424.241	565.95
424.617	577.47
424.994	576.57
425.37	576.57
425.746	592.61
426.123	593.06
426.499	572.27
426.875	601.65
427.251	565.95
427.627	598.26
428.003	609.11
428.379	593.97
428.756	609.11
429.132	610.92
429.507	621.09
429.883	606.85
430.259	624.93
430.635	657.69
431.011	634.42
431.387	662.21
431.763	656.11
432.138	668.77
432.514	645.04
432.89	680.29
433.265	661.76
433.641	667.41
434.016	705.83
434.392	687.3
434.767	684.59
435.143	730.46
435.518	716.9
435.894	702.21
436.269	733.85
436.644	731.36
437.02	746.73
437.395	749.9
437.77	752.16
438.145	777.01
438.52	758.93
438.895	777.47
439.271	767.97
439.646	759.16
440.021	800.29
440.395	773.4
440.77	792.38
441.145	789.44
441.52	815.2
441.895	821.53
442.27	811.14
442.645	825.15
443.019	838.03
443.394	810.23
443.769	832.83
444.143	834.87
444.518	843.23
444.892	846.62
445.267	841.42
445.641	857.24
446.016	856.11
446.39	852.04
446.764	887.75
447.139	912.6
447.513	904.92
447.887	911.47
448.262	886.16
448.636	893.62
449.01	921.42
449.384	916.67
449.758	912.38
450.132	939.5
450.506	938.37
450.88	939.27
451.254	946.27
451.628	983.11
452.002	995.76
452.376	957.8
452.75	981.75
453.123	972.94
453.497	991.47
453.871	1019.27
454.244	1012.94
454.618	1028.08
454.992	1007.74
455.365	1031.47
455.739	1075.76
456.112	1104.01
456.486	1085.93
456.859	1096.55
457.232	1116.44
457.606	1107.63
457.979	1128.42
458.352	1177.91
458.725	1172.48
459.099	1167.29
459.472	1203.22
459.845	1212.26
460.218	1208.19
460.591	1223.78
460.964	1214.52
461.337	1249.09
461.71	1292.93
462.083	1297.23
462.456	1293.84
462.829	1329.77
463.201	1277.11
463.574	1324.34
463.947	1332.25
464.32	1369.54
464.692	1386.04
465.065	1400.73
465.438	1449.76
465.81	1458.13
466.183	1472.81
466.555	1503.77
466.928	1546.48
467.3	1532.25
467.672	1562.53
468.045	1605.47
468.417	1609.31
468.789	1618.8
469.161	1630.78
469.534	1682.98
469.906	1719.81
470.278	1741.06
470.65	1785.35
471.022	1826.7
471.394	1832.13
471.766	1878.23
472.138	1877.32
472.51	1949.19
472.882	1986.7
473.253	2021.95
473.625	2074.38
473.997	2121.38
474.369	2095.62
474.74	2172.46
475.112	2227.14
475.484	2281.38
475.855	2326.35
476.227	2425.56
476.598	2422.85
476.97	2513.69
477.341	2613.35
477.713	2617.87
478.084	2683.63
478.455	2796.85
478.827	2859.44
479.198	2955.26
479.569	2982.83
479.94	3080
480.311	3151.19
480.682	3251.07
481.053	3341.92
481.424	3471.18
481.795	3526.77
482.166	3595.92
482.537	3710.72
482.908	3816.03
483.279	3890.15
483.65	3992.75
484.021	4145.29
484.391	4204.72
484.762	4305.51
485.133	4414.21
485.503	4507.31
485.874	4637.02
486.244	4731.26
486.615	4893.06
486.985	5013.51
487.356	5136.67
487.726	5257.57
488.097	5367.63
488.467	5513.39
488.837	5648.07
489.207	5766.94
489.578	5881.96
489.948	6022.53
490.318	6187.49
490.688	6221.84
491.058	6435.62
491.428	6580.7
491.798	6699.57
492.168	6837.19
492.538	6974.36
492.908	7100.91
493.278	7236.96
493.648	7369.16
494.017	7521.47
494.387	7684.18
494.757	7757.39
495.126	7883.72
495.496	7979.08
495.866	8084.62
496.235	8253.2
496.605	8354.89
496.974	8429.24
497.344	8608.9
497.713	8741.32
498.082	8829.91
498.452	8927.99
498.821	9070.13
499.19	9071.48
499.559	9314.64
499.928	9286.62
500.298	9404.36
500.667	9594.86
501.036	9607.06
501.405	9799.83
501.774	9813.39
502.143	9888.41
502.512	10028.07
502.88	10170.21
503.249	10142.42
503.618	10236.43
503.987	10332.02
504.356	10339.93
504.724	10477.78
505.093	10522.07
505.462	10662.86
505.83	10745.56
506.199	10809.07
506.567	10977.42
506.936	10948.72
507.304	11064.88
507.672	11142.16
508.041	11145.1
508.409	11275.49
508.777	11374.7
509.145	11420.8
509.514	11505.77
509.882	11513.23
510.25	11555.26
510.618	11627.35
510.986	11698.53
511.354	11782.37
511.722	11886.78
512.09	11952.76
512.458	11982.14
512.826	12030.05
513.193	12012.2
513.561	12118.41
513.929	12219.65
514.297	12289.48
514.664	12268.69
515.032	12370.15
515.4	12345.97
515.767	12476.82
516.135	12486.76
516.502	12373.54
516.869	12636.81
517.237	12598.17
517.604	12555.91
517.972	12658.96
518.339	12693.76
518.706	12704.38
519.073	12753.2
519.44	12708.23
519.808	12896.02
520.175	12831.16
520.542	12952.06
520.909	12990.93
521.276	12936.92
521.643	13065.73
522.009	13013.75
522.376	13129.91
522.743	13149.8
523.11	13248.1
523.477	13266.18
523.843	13357.7
524.21	13397.7
524.577	13412.61
524.943	13470.01
525.31	13432.27
525.676	13533.97
526.043	13489
526.409	13482.44
526.776	13610.35
527.142	13658.26
527.508	13610.12
527.874	13652.16
528.241	13660.97
528.607	13646.05
528.973	13710.91
529.339	13648.99
529.705	13755.88
530.071	13812.38
530.437	13785.03
530.803	13789.55
531.169	13837.24
531.535	13707.07
531.901	13685.15
532.267	13712.27
532.632	13741.19
532.998	13797.91
533.364	13822.32
533.73	13845.37
534.095	13808.08
534.461	13793.17
534.826	13691.93
535.192	13762.66
535.557	13767.63
535.923	13682.21
536.288	13732.61
536.653	13651.48
537.019	13576.22
537.384	13622.55
537.749	13638.6
538.114	13581.87
538.479	13538.26
538.845	13615.32
539.21	13446.06
539.575	13484.7
539.94	13507.07
540.305	13532.16
540.67	13424.59
541.034	13420.52
541.399	13372.61
541.764	13416
542.129	13326.51
542.494	13315.67
542.858	13299.4
543.223	13248.32
543.587	13320.64
543.952	13229.34
544.316	13122.23
544.681	13072.74
545.045	13115.9
545.41	13118.61
545.774	13062.57
546.138	13024.6
546.503	12961.33
546.867	12945.06
547.231	12946.41
547.595	12946.86
547.959	12886.3
548.324	12873.64
548.688	12854.44
549.052	12784.61
549.416	12824.61
549.779	12798.39
550.143	12707.55
550.507	12795.23
550.871	12773.99
551.235	12608.11
551.599	12694.44
551.962	12621.67
552.326	12547.1
552.689	12674.33
553.053	12562.01
553.417	12488.34
553.78	12578.96
554.143	12528.57
554.507	12528.12
554.87	12473.43
555.234	12525.86
555.597	12419.65
555.96	12463.94
556.323	12398.4
556.686	12382.81
557.05	12408.8
557.413	12411.28
557.776	12360.89
558.139	12401.34
558.502	12338.74
558.865	12319.76
559.228	12418.74
559.59	12432.75
559.953	12390.27
560.316	12420.1
560.679	12354.34
561.041	12450.38
561.404	12385.3
561.767	12497.38
562.129	12408.8
562.492	12444.05
562.854	12376.93
563.217	12417.39
563.579	12502.81
563.941	12465.75
564.304	12387.1
564.666	12513.88
565.028	12404.28
565.39	12517.04
565.753	12550.04
566.115	12476.37
566.477	12528.34
566.839	12547.1
567.201	12579.42
567.563	12500.55
567.925	12621.67
568.287	12591.39
568.648	12532.41
569.01	12597.72
569.372	12670.94
569.734	12586.65
570.095	12703.48
570.457	12698.96
570.819	12669.81
571.18	12676.36
571.542	12759.52
571.903	12718.17
572.265	12782.57
572.626	12717.72
572.987	12744.16
573.349	12741.67
573.71	12791.16
574.071	12764.27
574.432	12780.31
574.794	12878.62
575.155	12845.4
575.516	12743.93
575.877	12853.53
576.238	12818.05
576.599	12896.24
576.96	12877.03
577.32	12790.71
577.681	12882.91
578.042	12901.44
578.403	12841.78
578.763	12947.99
579.124	12918.62
579.485	12920.42
579.845	12907.32
580.206	12873.87
580.566	12846.07
580.927	12786.87
581.287	12886.3
581.648	12877.71
582.008	12918.39
582.368	12830.26
582.728	12919.75
583.089	12879.97
583.449	12881.33
583.809	12903.93
584.169	12902.57
584.529	12847.66
584.889	12914.1
585.249	12848.79
585.609	12830.26
585.969	12861.67
586.329	12792.97
586.688	12835
587.048	12794.32
587.408	12748.22
587.768	12791.16
588.127	12683.59
588.487	12728.11
588.846	12850.14
589.206	12655.35
589.565	12693.99
589.925	12774.89
590.284	12730.15
590.643	12721.11
591.003	12785.29
591.362	12783.93
591.721	12689.92
592.08	12662.8
592.44	12811.73
592.799	12730.37
593.158	12693.54
593.517	12646.31
593.876	12588.68
594.235	12676.59
594.593	12662.12
594.952	12676.36
595.311	12698.51
595.67	12656.48
596.029	12607.66
596.387	12681.56
596.746	12688.34
597.104	12596.59
597.463	12573.99
597.822	12630.94
598.18	12568.12
598.538	12545.74
598.897	12639.75
599.255	12532.64
599.613	12747.32
599.972	12620.32
600.33	12617.83
600.688	12588
601.046	12672.29
601.404	12712.07
601.762	12687.89
602.12	12720.88
602.478	12637.94
602.836	12663.25
603.194	12616.48
603.552	12663.48
603.91	12585.97
604.268	12644.5
604.625	12557.27
604.983	12643.14
605.341	12589.58
605.698	12632.07
606.056	12710.71
606.413	12577.16
606.771	12664.38
607.128	12722.69
607.485	12574.22
607.843	12656.93
608.2	12642.69
608.557	12703.71
608.914	12661.45
609.272	12672.52
609.629	12704.84
609.986	12738.51
610.343	12664.16
610.7	12793.19
611.057	12773.53
611.414	12769.69
611.771	12782.57
612.127	12787.55
612.484	12773.99
612.841	12860.99
613.198	12864.61
613.554	12745.29
613.911	12898.05
614.267	12935.11
614.624	12858.73
614.98	12940.54
615.337	12974.43
615.693	12908.45
616.05	12870.25
616.406	12918.84
616.762	12920.87
617.118	12878.84
617.475	12913.87
617.831	12940.08
618.187	13009.69
618.543	13002
618.899	13039.06
619.255	12992.51
619.611	13036.8
619.967	13066.86
620.323	13010.59
620.678	12966.3
621.034	12912.06
621.39	12963.59
621.746	12949.8
622.101	13128.78
622.457	12918.62
622.812	13003.58
623.168	12983.25
623.523	13018.05
623.879	13047.65
624.234	12980.99
624.589	12978.5
624.945	13013.98
625.3	13057.37
625.655	13026.86
626.01	13035.45
626.365	12928.11
626.72	13095.33
627.075	13007.65
627.43	12998.61
627.785	13006.07
628.14	13004.04
628.495	13027.99
628.85	13020.53
629.205	13009.46
629.559	13047.65
629.914	13044.49
630.269	12988.44
630.623	12977.82
630.978	12983.7
631.332	13001.32
631.687	12949.57
632.041	12944.83
632.396	12898.05
632.75	12788.22
633.104	12853.08
633.459	12832.74
633.813	12801.78
634.167	12816.02
634.521	12855.11
634.875	12794.1
635.229	12764.49
635.583	12746.19
635.937	12768.11
636.291	12688.56
636.645	12768.11
636.999	12703.93
637.352	12756.59
637.706	12645.63
638.06	12706.87
638.413	12612.41
638.767	12701.9
639.121	12623.71
639.474	12531.05
639.828	12497.84
640.181	12612.41
640.534	12562.92
640.888	12557.04
641.241	12452.41
641.594	12496.03
641.947	12593.65
642.301	12459.19
642.654	12522.24
643.007	12486.54
643.36	12464.84
643.713	12489.02
644.066	12531.28
644.419	12503.03
644.771	12437.72
645.124	12304.62
645.477	12341.91
645.83	12128.81
646.182	12123.16
646.535	12049.26
646.888	12174.23
647.24	12030.05
647.593	12152.76
647.945	12033.21
648.298	12003.61
648.65	12039.09
649.002	11945.99
649.355	12063.95
649.707	11993.44
650.059	12075.7
650.411	12246.54
650.763	12309.37
651.115	12392.75
651.467	12309.14
651.819	12339.65
652.171	12286.09
652.523	12304.62
652.875	12272.98
653.227	12258.52
653.578	12384.17
653.93	12338.97
654.282	12159.54
654.633	12229.14
654.985	12232.08
655.337	12287.22
655.688	12294.9
656.039	12267.11
656.391	12204.28
656.742	12233.89
657.094	12264.85
657.445	12322.47
657.796	12311.63
658.147	12301.23
658.498	12258.29
658.849	12280.67
659.2	12343.49
659.551	12213.1
659.902	12312.53
660.253	12300.33
660.604	12294.68
660.955	12265.98
661.306	12295.81
661.656	12337.39
662.007	12263.72
662.358	12336.94
662.708	12268.01
663.059	12315.47
663.409	12270.72
663.76	12391.4
664.11	12317.28
664.461	12439.53
664.811	12355.01
665.161	12354.34
665.511	12259.65
665.862	12383.71
666.212	12339.65
666.562	12385.97
666.912	12266.65
667.262	12330.61
667.612	12401.79
667.962	12338.07
668.312	12336.26
668.662	12393.88
669.011	12282.7
669.361	12382.36
669.711	12305.3
670.06	12366.31
670.41	12304.62
670.76	12269.82
671.109	12344.39
671.459	12342.81
671.808	12325.64
672.157	12316.37
672.507	12189.37
672.856	12180.56
673.205	12232.53
673.554	12263.49
673.904	12210.16
674.253	12274.34
674.602	12239.31
674.951	12025.53
675.3	12131.74
675.649	12195.47
675.998	12279.76
676.346	12239.99
676.695	12199.31
677.044	12109.14
677.393	12134.45
677.741	12241.57
678.09	12164.28
678.438	12078.64
678.787	12184.4
679.135	12094.91
679.484	12035.25
679.832	12047.23
680.181	11960.22
680.529	11985.31
680.877	11983.72
681.225	11963.16
681.573	11956.15
681.922	11915.03
682.27	11788.02
682.618	11873.9
682.966	11882.03
683.314	11884.07
683.661	11830.96
684.009	11697.63
684.357	11801.58
684.705	11733.79
685.053	11750.51
685.4	11703.05
685.748	11632.77
686.095	11577.41
686.443	11631.64
686.79	11544.87
687.138	11580.35
687.485	11655.15
687.832	11559.55
688.18	11570.18
688.527	11462.61
688.874	11533.57
689.221	11407.47
689.568	11386.9
689.915	11361.82
690.262	11404.98
690.609	11348.49
690.956	11237.53
691.303	11287.47
691.65	11245.44
691.997	11191.88
692.344	11130.19
692.69	11097.65
693.037	11055.16
693.383	11014.71
693.73	10966.58
694.077	10966.12
694.423	10902.17
694.769	10928.38
695.116	10866.69
695.462	10807.26
695.808	10769.75
696.155	10772.68
696.501	10753.02
696.847	10666.47
697.193	10637.77
697.539	10635.74
697.885	10570.88
698.231	10496.53
698.577	10508.73
698.923	10526.81
699.269	10497.89
699.614	10371.34
699.96	10380.83
700.306	10306.25
700.651	10246.82
700.997	10214.28
701.342	10204.56
701.688	10158.46
702.033	10099.71
702.379	10141.06
702.724	10094.28
703.069	10134.06
703.415	9978.58
703.76	9944.23
704.105	9890.9
704.45	9961.63
704.795	9922.31
705.14	9814.74
705.485	9904.68
705.83	9757.79
706.175	9797.79
706.52	9798.92
706.865	9733.61
707.209	9779.26
707.554	9646.84
707.899	9688.42
708.243	9626.27
708.588	9627.18
708.932	9582.66
709.277	9555.77
709.621	9532.72
709.966	9515.54
710.31	9474.19
710.654	9459.27
710.998	9419.72
711.342	9374.3
711.687	9341.76
712.031	9306.73
712.375	9267.86
712.719	9287.75
713.063	9282.55
713.407	9287.98
713.75	9232.61
714.094	9262.67
714.438	9181.99
714.782	9202.1
715.125	9131.37
715.469	9121.65
715.812	9137.7
716.156	9127.3
716.499	9142.9
716.843	9148.77
717.186	9014.54
717.53	9029.23
717.873	9118.26
718.216	9068.09
718.559	8994.65
718.902	8945.84
719.246	9010.02
719.589	8940.87
719.932	8885.95
720.275	8902.68
720.617	8937.02
720.96	8894.54
721.303	8890.25
721.646	8892.96
721.989	8825.39
722.331	8850.7
722.674	8867.87
723.016	8866.07
723.359	8799.18
723.701	8816.58
724.044	8738.39
724.386	8786.97
724.729	8836.24
725.071	8748.56
725.413	8800.08
725.755	8727.31
726.097	8662.23
726.439	8687.09
726.782	8720.08
727.124	8751.49
727.465	8721.44
727.807	8741.32
728.149	8781.55
728.491	8671.04
728.833	8696.13
729.175	8706.97
729.516	8703.58
729.858	8723.25
730.199	8683.92
730.541	8615
730.882	8675.11
731.224	8743.13
731.565	8645.06
731.906	8627.65
732.248	8673.53
732.589	8555.57
732.93	8558.5
733.271	8609.12
733.612	8578.39
733.953	8657.48
734.294	8661.55
734.635	8566.87
734.976	8615.45
735.317	8561.22
735.658	8619.75
735.999	8575.9
736.339	8558.5
736.68	8625.85
737.021	8576.13
737.361	8607.32
737.702	8611.84
738.042	8595.56
738.383	8620.65
738.723	8605.06
739.063	8649.57
739.404	8698.61
739.744	8727.09
740.084	8677.82
740.424	8673.3
740.764	8687.54
741.104	8783.36
741.444	8732.51
741.784	8738.84
742.124	8811.83
742.464	8736.58
742.804	8788.55
743.143	8769.12
743.483	8858.38
743.823	8783.58
744.162	8796.92
744.502	8871.94
744.841	8891.6
745.181	8961.21
745.52	8946.29
745.86	9064.48
746.199	9003.69
746.538	9036.01
746.877	9127.3
747.216	9136.57
747.556	9162.1
747.895	9224.7
748.234	9193.29
748.573	9238.03
748.911	9318.26
749.25	9422.44
749.589	9461.08
749.928	9513.96
750.267	9617.01
750.605	9700.39
750.944	9703.11
751.283	9798.25
751.621	9882.08
751.96	9932.48
752.298	9958.69
752.636	10094.96
752.975	10116.2
753.313	10287.5
753.651	10403.43
753.989	10484.1
754.327	10539.47
754.666	10625.79
755.004	10751.89
755.342	10931.1
755.679	11074.82
756.017	11052.9
756.355	11376.06
756.693	11387.36
757.031	11573.79
757.368	11637.74
757.706	11817.4
758.044	11894.69
758.381	12135.58
758.719	12330.61
759.056	12442.7
