Data from hue_210_FLMS001491_00100.txt Node
Date: Tue Feb 07 16:42:02 GMT 2017
User: dcchb
Spectrometer: FLMS00149
Trigger mode: 0
Integration Time (sec): 2.000000E-2
Scans to average: 10
Electric dark correction enabled: true
Nonlinearity correction enabled: false
Boxcar width: 0
XAxis mode: Wavelengths
Number of Pixels in Spectrum: 2048
>>>>>Begin Spectral Data<<<<<
341.393	-19.27
341.776	-19.27
342.16	-19.27
342.543	-48.64
342.927	-58.59
343.31	-88.64
343.693	-78.25
344.077	-62.43
344.46	-59.49
344.843	-38.25
345.226	-30.56
345.61	-38.02
345.993	-26.27
346.376	1.53
346.759	18.02
347.142	33.39
347.525	36.78
347.908	73.39
348.291	76.55
348.674	85.59
349.057	96.66
349.44	128.08
349.823	149.32
350.206	168.53
350.588	176.89
350.971	216.21
351.354	234.51
351.737	250.11
352.119	259.37
352.502	271.12
352.884	269.77
353.267	295.53
353.65	286.94
354.032	300.05
354.414	300.95
354.797	301.18
355.179	308.86
355.562	303.89
355.944	335.08
356.326	330.78
356.709	325.81
357.091	346.38
357.473	332.14
357.855	342.31
358.238	326.49
358.62	313.83
359.002	348.63
359.384	347.73
359.766	344.12
360.148	323.78
360.53	351.12
360.912	336.88
361.294	343.89
361.676	324.23
362.057	339.14
362.439	339.14
362.821	342.76
363.203	311.8
363.584	310.9
363.966	324.45
364.348	311.57
364.729	317.22
365.111	303.21
365.493	319.71
365.874	298.92
366.256	303.66
366.637	310.67
367.019	308.64
367.4	310.67
367.781	301.63
368.163	308.41
368.544	324.68
368.925	319.94
369.306	311.12
369.688	312.25
370.069	312.25
370.45	317
370.831	310.9
371.212	303.89
371.593	298.69
371.974	299.14
372.355	305.92
372.736	308.64
373.117	321.97
373.498	315.64
373.879	311.12
374.26	329.88
374.641	321.07
375.021	324.23
375.402	314.96
375.783	319.03
376.163	335.53
376.544	336.21
376.925	313.38
377.305	328.52
377.686	326.49
378.066	331.69
378.447	302.99
378.827	317.45
379.208	338.24
379.588	325.81
379.968	314.51
380.349	320.16
380.729	322.19
381.109	338.69
381.489	338.01
381.87	336.21
382.25	339.37
382.63	319.94
383.01	337.79
383.39	315.19
383.77	337.79
384.15	345.25
384.53	351.8
384.91	370.78
385.29	334.85
385.67	342.53
386.049	347.05
386.429	344.34
386.809	361.97
387.189	351.35
387.568	313.61
387.948	341.63
388.328	341.18
388.707	354.06
389.087	373.04
389.466	371.01
389.846	358.8
390.225	355.87
390.605	347.5
390.984	359.93
391.363	374.17
391.743	380.95
392.122	353.38
392.501	379.14
392.881	371.23
393.26	394.74
393.639	360.39
394.018	380.05
394.397	381.4
394.776	393.83
395.155	397.9
395.534	387.28
395.913	391.12
396.292	396.09
396.671	385.47
397.05	404.45
397.429	389.09
397.808	389.31
398.186	395.87
398.565	398.8
398.944	389.31
399.323	386.83
399.701	379.14
400.08	418.69
400.458	402.64
400.837	410.55
401.215	412.14
401.594	407.62
401.972	415.3
402.351	408.52
402.729	445.13
403.107	417.33
403.486	437.45
403.864	429.54
404.242	457.56
404.62	453.04
404.999	434.06
405.377	451.01
405.755	448.75
406.133	463.21
406.511	448.97
406.889	460.95
407.267	459.37
407.645	465.69
408.023	502.08
408.401	498.69
408.779	472.02
409.156	498.91
409.534	498.91
409.912	511.79
410.29	529.2
410.667	541.62
411.045	538.46
411.422	530.1
411.8	539.82
412.178	557.22
412.555	561.51
412.933	586.59
413.31	579.59
413.687	589.76
414.065	613.26
414.442	587.05
414.819	607.84
415.197	625.24
415.574	639.47
415.951	617.55
416.328	665.46
416.705	664.56
417.082	666.37
417.46	702.07
417.837	688.29
418.214	678.57
418.591	707.5
418.967	708.63
419.344	706.14
419.721	755.4
420.098	727.38
420.475	756.99
420.852	779.58
421.228	776.42
421.605	786.82
421.982	794.5
422.358	830.88
422.735	813.93
423.111	835.85
423.488	837.44
423.864	853.48
424.241	855.06
424.617	881.05
424.994	904.78
425.37	929.86
425.746	919.47
426.123	943.2
426.499	942.97
426.875	960.14
427.251	1020.71
427.627	1007.15
428.003	1013.93
428.379	1055.73
428.756	1044.44
429.132	1046.7
429.507	1056.19
429.883	1057.32
430.259	1074.04
430.635	1105.9
431.011	1118.78
431.387	1112.23
431.763	1143.87
432.138	1168.73
432.514	1171.89
432.89	1188.16
433.265	1223.87
433.641	1240.59
434.016	1256.63
434.392	1269.29
434.767	1329.85
435.143	1319.91
435.518	1335.95
435.894	1366.46
436.269	1394.94
436.644	1401.94
437.02	1408.27
437.395	1440.81
437.77	1481.26
438.145	1489.62
438.52	1542.5
438.895	1558.55
439.271	1559.45
439.646	1605.78
440.021	1617.3
440.395	1641.03
440.77	1627.25
441.145	1654.36
441.52	1689.62
441.895	1718.99
442.27	1712.89
442.645	1727.36
443.019	1765.77
443.394	1781.37
443.769	1802.83
444.143	1803.51
444.518	1822.95
444.892	1817.97
445.267	1877.41
445.641	1870.18
446.016	1904.98
446.39	1913.79
446.764	1916.96
447.139	1916.05
447.513	1931.64
447.887	1924.64
448.262	1962.15
448.636	1995.37
449.01	1995.82
449.384	2047.57
449.758	2039.21
450.132	2079.21
450.506	2025.65
450.88	2101.13
451.254	2090.74
451.628	2107.01
452.002	2141.13
452.376	2124.63
452.75	2170.06
453.123	2206.89
453.497	2261.58
453.871	2240.34
454.244	2273.78
454.618	2262.03
454.992	2332.54
455.365	2368.24
455.739	2432.42
456.112	2438.07
456.486	2412.31
456.859	2450.27
457.232	2510.16
457.606	2489.6
457.979	2526.2
458.352	2587.9
458.725	2602.36
459.099	2614.79
459.472	2654.79
459.845	2654.56
460.218	2730.27
460.591	2707.89
460.964	2731.62
461.337	2827.89
461.71	2820.89
462.083	2869.47
462.456	2864.27
462.829	2872.86
463.201	2961.45
463.574	2966.87
463.947	2970.49
464.32	3054.78
464.692	3060.65
465.065	3094.1
465.438	3165.06
465.81	3172.06
466.183	3238.5
466.555	3286.86
466.928	3295.22
467.3	3296.81
467.672	3331.16
468.045	3416.8
468.417	3450.7
468.789	3479.17
469.161	3486.41
469.534	3572.5
469.906	3614.09
470.278	3647.53
470.65	3663.58
471.022	3741.54
471.394	3804.14
471.766	3830.58
472.138	3866.28
472.51	3917.58
472.882	3988.54
473.253	3960.97
473.625	4057.01
473.997	4147.63
474.369	4184.24
474.74	4246.61
475.112	4293.16
475.484	4372.03
475.855	4438.47
476.227	4454.74
476.598	4579.71
476.97	4589.65
477.341	4706.94
477.713	4749.65
478.084	4779.93
478.455	4909.64
478.827	4914.16
479.198	5073.48
479.569	5020.38
479.94	5231.44
480.311	5224.44
480.682	5301.27
481.053	5468.73
481.424	5485.45
481.795	5583.53
482.166	5682.28
482.537	5740.13
482.908	5793.69
483.279	5786.68
483.65	5886.34
484.021	6037.75
484.391	6087.02
484.762	6118.2
485.133	6181.48
485.503	6290.17
485.874	6314.58
486.244	6403.16
486.615	6521.81
486.985	6577.17
487.356	6604.97
487.726	6793.66
488.097	6898.97
488.467	6868.69
488.837	6986.43
489.207	7052.19
489.578	7116.14
489.948	7183.94
490.318	7275.23
490.688	7298.73
491.058	7446.75
491.428	7488.79
491.798	7483.14
492.168	7659.63
492.538	7673.41
492.908	7816.01
493.278	7831.38
493.648	7901.2
494.017	7970.81
494.387	8005.61
494.757	8096.45
495.126	8098.94
495.496	8162.44
495.866	8157.92
496.235	8300.97
496.605	8293.06
496.974	8384.36
497.344	8343
497.713	8453.96
498.082	8503
498.452	8544.35
498.821	8580.28
499.19	8599.04
499.559	8690.79
499.928	8661.18
500.298	8719.49
500.667	8795.64
501.036	8704.35
501.405	8872.25
501.774	8827.51
502.143	8945.25
502.512	8913.61
502.88	8991.57
503.249	9017.11
503.618	8995.64
503.987	9041.29
504.356	9054.39
504.724	9071.57
505.093	9100.5
505.462	9114.96
505.83	9183.2
506.199	9266.14
506.567	9309.98
506.936	9199.7
507.304	9327.16
507.672	9404.67
508.041	9351.79
508.409	9360.6
508.777	9493.25
509.145	9494.84
509.514	9479.69
509.882	9512.01
510.25	9441.73
510.618	9535.96
510.986	9514.04
511.354	9579.13
511.722	9667.49
512.09	9626.58
512.458	9707.26
512.826	9749.52
513.193	9728.28
513.561	9765.34
513.929	9762.17
514.297	9864.54
514.664	9841.49
515.032	9883.98
515.4	9940.25
515.767	9899.34
516.135	9886.69
516.502	9773.92
516.869	9994.93
517.237	9982.51
517.604	9888.95
517.972	9912
518.339	9924.65
518.706	9979.34
519.073	9947.7
519.44	9992.22
519.808	10013.92
520.175	10006.69
520.542	10069.74
520.909	10089.17
521.276	10055.05
521.643	10047.14
522.009	10133.69
522.376	10144.76
522.743	10084.2
523.11	10225.66
523.477	10274.02
523.843	10237.64
524.21	10326.68
524.577	10290.97
524.943	10329.16
525.31	10296.4
525.676	10344.08
526.043	10420.01
526.409	10406.22
526.776	10426.11
527.142	10395.38
527.508	10417.75
527.874	10387.02
528.241	10416.84
528.607	10412.78
528.973	10406.9
529.339	10296.85
529.705	10431.08
530.071	10439.89
530.437	10466.56
530.803	10411.65
531.169	10495.49
531.535	10478.99
531.901	10393.34
532.267	10326.9
532.632	10364.87
532.998	10358.99
533.364	10375.94
533.73	10368.94
534.095	10391.31
534.461	10329.84
534.826	10347.24
535.192	10309.73
535.557	10337.3
535.923	10313.8
536.288	10292.1
536.653	10255.72
537.019	10216.4
537.384	10234.7
537.749	10232.89
538.114	10160.81
538.479	10210.3
538.845	10147.25
539.21	10100.24
539.575	10058.89
539.94	10068.38
540.305	10026.12
540.67	10016.86
541.034	10012.56
541.399	9991.55
541.764	9939.8
542.129	9892.11
542.494	9853.02
542.858	9830.42
543.223	9892.11
543.587	9833.36
543.952	9739.57
544.316	9759.91
544.681	9726.24
545.045	9745.22
545.41	9698.9
545.774	9637.66
546.138	9683.53
546.503	9630.2
546.867	9589.3
547.231	9595.85
547.595	9515.85
547.959	9583.87
548.324	9574.61
548.688	9530.31
549.052	9462.29
549.416	9403.09
549.779	9445.12
550.143	9404.44
550.507	9396.31
550.871	9364.44
551.235	9331.9
551.599	9339.36
551.962	9269.98
552.326	9276.54
552.689	9260.94
553.053	9168.52
553.417	9170.1
553.78	9233.83
554.143	9196.09
554.507	9107.27
554.87	9086.94
555.234	9104.56
555.597	9095.52
555.96	9057.11
556.323	9058.46
556.686	9016.43
557.05	8997.45
557.413	8986.37
557.776	9074.96
558.139	9062.08
558.502	8966.26
558.865	8938.47
559.228	8973.27
559.59	8948.18
559.953	8964.45
560.316	9056.43
560.679	8941.18
561.041	9019.37
561.404	9029.31
561.767	8981.63
562.129	8997.45
562.492	8977.11
562.854	9003.32
563.217	8952.48
563.579	8982.08
563.941	8954.51
564.304	8959.93
564.666	8966.71
565.028	8903.89
565.39	9026.15
565.753	8999.03
566.115	9029.99
566.477	9019.37
566.839	9006.94
567.201	9022.98
567.563	9048.97
567.925	9099.82
568.287	9045.81
568.648	9043.77
569.01	9070.44
569.372	9118.12
569.734	9074.06
570.095	9114.28
570.457	9138.69
570.819	9147.5
571.18	9130.55
571.542	9133.04
571.903	9151.57
572.265	9184.79
572.626	9126.71
572.987	9102.76
573.349	9156.31
573.71	9187.95
574.071	9182.3
574.432	9206.26
574.794	9244.45
575.155	9241.73
575.516	9213.71
575.877	9224.11
576.238	9223.2
576.599	9295.97
576.96	9235.18
577.32	9279.47
577.681	9238.34
578.042	9293.48
578.403	9293.26
578.763	9323.09
579.124	9349.98
579.485	9305.91
579.845	9378
580.206	9306.14
580.566	9359.02
580.927	9383.88
581.287	9396.53
581.648	9359.7
582.008	9482.86
582.368	9435.63
582.728	9367.61
583.089	9441.5
583.449	9381.39
583.809	9417.77
584.169	9427.72
584.529	9460.26
584.889	9488.06
585.249	9427.94
585.609	9410.77
585.969	9457.55
586.329	9525.12
586.688	9516.08
587.048	9492.35
587.408	9409.19
587.768	9435.63
588.127	9491.45
588.487	9458.68
588.846	9545.23
589.206	9486.02
589.565	9469.07
589.925	9518.56
590.284	9480.37
590.643	9535.06
591.003	9535.51
591.362	9564.66
591.721	9509.52
592.08	9493.03
592.44	9576.64
592.799	9472.69
593.158	9605.57
593.517	9516.08
593.876	9545
594.235	9491.9
594.593	9518.11
594.952	9551.1
595.311	9506.13
595.67	9549.75
596.029	9583.19
596.387	9547.26
596.746	9596.98
597.104	9520.82
597.463	9533.48
597.822	9523.99
598.18	9526.47
598.538	9555.17
598.897	9578
599.255	9515.17
599.613	9617.32
599.972	9518.11
600.33	9523.76
600.688	9582.97
601.046	9613.48
601.404	9658.67
601.762	9634.27
602.12	9583.42
602.478	9618.67
602.836	9628.16
603.194	9553.59
603.552	9546.13
603.91	9596.3
604.268	9661.84
604.625	9602.85
604.983	9608.5
605.341	9586.13
605.698	9617.77
606.056	9621.84
606.413	9568.73
606.771	9646.24
607.128	9652.8
607.485	9620.48
607.843	9680.59
608.2	9575.51
608.557	9665.9
608.914	9620.71
609.272	9650.31
609.629	9737.99
609.986	9712.23
610.343	9648.05
610.7	9740.25
611.057	9690.76
611.414	9668.84
611.771	9662.97
612.127	9711.78
612.484	9743.87
612.841	9768.95
613.198	9704.55
613.554	9688.95
613.911	9771.44
614.267	9818.89
614.624	9751.33
614.98	9852.79
615.337	9761.49
615.693	9793.36
616.05	9775.28
616.406	9816.63
616.762	9824.32
617.118	9818.44
617.475	9795.39
617.831	9800.36
618.187	9881.04
618.543	9901.38
618.899	9972.11
619.255	9853.92
619.611	9888.27
619.967	9875.84
620.323	9933.92
620.678	9832.45
621.034	9860.7
621.39	9841.49
621.746	9830.65
622.101	9919
622.457	9879.68
622.812	9920.36
623.168	9862.51
623.523	9923.98
623.879	9883.98
624.234	9815.05
624.589	9918.78
624.945	9882.17
625.3	9845.33
625.655	9870.19
626.01	9930.53
626.365	9855.96
626.72	9834.94
627.075	9806.01
627.43	9813.24
627.785	9847.14
628.14	9854.83
628.495	9813.47
628.85	9766.92
629.205	9785
629.559	9870.64
629.914	9802.4
630.269	9831.55
630.623	9721.27
630.978	9755.39
631.332	9718.33
631.687	9818.89
632.041	9689.41
632.396	9780.03
632.75	9698.45
633.104	9777.99
633.459	9648.5
633.813	9656.86
634.167	9711.78
634.521	9685.34
634.875	9672.01
635.229	9615.96
635.583	9617.54
635.937	9643.76
636.291	9547.26
636.645	9629.07
636.999	9571.22
637.352	9556.75
637.706	9476.76
638.06	9552.91
638.413	9494.38
638.767	9562.86
639.121	9488.06
639.474	9523.99
639.828	9475.17
640.181	9559.01
640.534	9479.47
640.888	9453.03
641.241	9447.6
641.594	9457.55
641.947	9451.45
642.301	9353.37
642.654	9427.04
643.007	9405.57
643.36	9414.61
643.713	9434.72
644.066	9448.96
644.419	9326.25
644.771	9367.38
645.124	9279.93
645.477	9241.51
645.83	9123.32
646.182	9135.3
646.535	9129.65
646.888	9123.32
647.24	9072.25
647.593	9151.57
647.945	9123.55
648.298	9058.24
648.65	9074.28
649.002	9060.5
649.355	9051.46
649.707	9036.54
650.059	9127.39
650.411	9243.09
650.763	9259.36
651.115	9363.77
651.467	9249.19
651.819	9272.69
652.171	9252.58
652.523	9287.61
652.875	9287.61
653.227	9256.2
653.578	9302.07
653.93	9329.19
654.282	9240.83
654.633	9185.01
654.985	9320.38
655.337	9265.24
655.688	9206.03
656.039	9300.26
656.391	9238.34
656.742	9306.82
657.094	9240.6
657.445	9361.05
657.796	9257.78
658.147	9242.41
658.498	9252.81
658.849	9288.06
659.2	9289.64
659.551	9289.64
659.902	9268.17
660.253	9278.12
660.604	9347.72
660.955	9253.26
661.306	9280.38
661.656	9333.26
662.007	9336.42
662.358	9359.02
662.708	9307.72
663.059	9329.19
663.409	9284.67
663.76	9401.28
664.11	9347.04
664.461	9353.6
664.811	9400.6
665.161	9385.01
665.511	9295.07
665.862	9380.71
666.212	9376.42
666.562	9407.83
666.912	9371
667.262	9369.19
667.612	9353.6
667.962	9385.01
668.312	9418.9
668.662	9366.7
669.011	9346.36
669.361	9335.52
669.711	9317.44
670.06	9304.78
670.41	9368.28
670.76	9311.56
671.109	9354.27
671.459	9280.83
671.808	9241.73
672.157	9374.61
672.507	9293.71
672.856	9260.04
673.205	9266.14
673.554	9316.53
673.904	9231.57
674.253	9248.51
674.602	9259.36
674.951	9143.43
675.3	9069.76
675.649	9250.1
675.998	9181.85
676.346	9236.54
676.695	9239.02
677.044	9182.98
677.393	9282.64
677.741	9221.62
678.09	9176.65
678.438	9111.34
678.787	9126.94
679.135	9147.73
679.484	9032.93
679.832	9127.16
680.181	9061.85
680.529	9082.19
680.877	9053.94
681.225	9076.32
681.573	9102.3
681.922	8983.89
682.27	8960.61
682.618	9015.98
682.966	8967.84
683.314	8975.98
683.661	8900.27
684.009	8912.48
684.357	8884.23
684.705	8831.35
685.053	8860.05
685.4	8832.71
685.748	8859.6
686.095	8798.13
686.443	8695.31
686.79	8734.86
687.138	8716.1
687.485	8731.01
687.832	8695.53
688.18	8695.53
688.527	8661.64
688.874	8584.8
689.221	8606.27
689.568	8583.45
689.915	8526.5
690.262	8539.61
690.609	8531.24
690.956	8445.15
691.303	8456.9
691.65	8444.02
691.997	8406.73
692.344	8393.4
692.69	8335.32
693.037	8314.98
693.383	8227.98
693.73	8293.28
694.077	8213.29
694.423	8272.49
694.769	8199.05
695.116	8158.15
695.462	8174.87
695.808	8145.27
696.155	8081.54
696.501	8099.84
696.847	8015.1
697.193	8001.77
697.539	8027.98
697.885	8012.39
698.231	7924.71
698.577	7888.78
698.923	7836.8
699.269	7794.31
699.614	7811.49
699.96	7747.99
700.306	7774.65
700.651	7707.09
700.997	7588.67
701.342	7627.99
701.688	7614.88
702.033	7611.04
702.379	7587.09
702.724	7486.98
703.069	7543.02
703.415	7419.64
703.76	7471.84
704.105	7453.53
704.45	7417.38
704.795	7375.12
705.14	7342.35
705.485	7324.72
705.83	7299.64
706.175	7292.18
706.52	7296.02
706.865	7232.75
707.209	7282.69
707.554	7169.92
707.899	7194.33
708.243	7144.39
708.588	7156.82
708.932	7018.97
709.277	7049.48
709.621	7079.98
709.966	7041.11
710.31	7022.36
710.654	7018.97
710.998	6985.97
711.342	7019.87
711.687	6950.5
712.031	6924.28
712.375	6852.87
712.719	6912.08
713.063	6884.96
713.407	6959.99
713.75	6851.97
714.094	6825.07
714.438	6832.53
714.782	6861.01
715.125	6855.13
715.469	6806.77
715.812	6783.72
716.156	6728.58
716.499	6781.01
716.843	6823.04
717.186	6733.55
717.53	6750.73
717.873	6731.29
718.216	6671.63
718.559	6698.3
718.902	6645.19
719.246	6671.41
719.589	6680.45
719.932	6670.95
720.275	6639.09
720.617	6639.54
720.96	6539.66
721.303	6600.67
721.646	6628.47
721.989	6573.1
722.331	6578.08
722.674	6653.33
723.016	6610.17
723.359	6579.88
723.701	6580.79
724.044	6505.31
724.386	6487.68
724.729	6554.57
725.071	6506.21
725.413	6559.55
725.755	6565.87
726.097	6557.74
726.439	6499.21
726.782	6455.37
727.124	6515.03
727.465	6500.79
727.807	6493.78
728.149	6458.08
728.491	6451.3
728.833	6459.66
729.175	6464.41
729.516	6479.1
729.858	6445.65
730.199	6451.98
730.541	6491.3
730.882	6478.64
731.224	6498.76
731.565	6418.98
731.906	6460.56
732.248	6451.53
732.589	6460.11
732.93	6404.97
733.271	6480.9
733.612	6442.03
733.953	6417.85
734.294	6430.51
734.635	6424.63
734.976	6432.32
735.317	6409.94
735.658	6424.86
735.999	6439.55
736.339	6445.42
736.68	6418.53
737.021	6502.37
737.361	6502.6
737.702	6490.62
738.042	6452.88
738.383	6473.22
738.723	6546.66
739.063	6447.01
739.404	6527.91
739.744	6576.49
740.084	6540.11
740.424	6518.42
740.764	6532.88
741.104	6570.39
741.444	6531.75
741.784	6555.7
742.124	6609.49
742.464	6646.77
742.804	6588.24
743.143	6596.38
743.483	6616.49
743.823	6660.11
744.162	6645.87
744.502	6798.63
744.841	6741.91
745.181	6796.6
745.52	6813.78
745.86	6806.77
746.199	6880.44
746.538	6917.05
746.877	7022.81
747.216	7011.06
747.556	6983.94
747.895	7115.46
748.234	7056.93
748.573	7217.15
748.911	7187.55
749.25	7259.87
749.589	7271.16
749.928	7420.77
750.267	7468.45
750.605	7563.81
750.944	7583.25
751.283	7586.86
751.621	7740.3
751.96	7781.21
752.298	7892.39
752.636	8001.99
752.975	8034.99
753.313	8128.54
753.651	8323.79
753.989	8359.95
754.327	8455.09
754.666	8596.1
755.004	8695.53
755.342	8811.24
755.679	8911.8
756.017	9051.68
756.355	9207.84
756.693	9268.63
757.031	9446.47
757.368	9560.14
757.706	9744.77
758.044	9848.72
758.381	10008.72
758.719	10107.93
759.056	10320.12
759.394	10441.02
759.731	10569.84
760.068	10651.64
760.405	10881.92
760.743	11033.78
761.08	11181.34
761.417	11306.09
761.754	11528.23
762.091	11625.85
762.428	11835.56
762.765	12007.09
763.102	12157.36
763.438	12378.15
763.775	12471.48
764.112	12562.33
764.449	12830.79
764.785	12999.38
765.122	13098.36
765.458	13205.25
765.795	13389.87
766.131	13555.75
766.467	13694.27
766.804	13872.12
767.14	13900.82
767.476	14231.43
