Data from hue_190_FLMS001491_00042.txt Node
Date: Tue Feb 07 16:45:19 GMT 2017
User: dcchb
Spectrometer: FLMS00149
Trigger mode: 0
Integration Time (sec): 2.000000E-2
Scans to average: 10
Electric dark correction enabled: true
Nonlinearity correction enabled: false
Boxcar width: 0
XAxis mode: Wavelengths
Number of Pixels in Spectrum: 2048
>>>>>Begin Spectral Data<<<<<
341.393	-6.96
341.776	-6.96
342.16	-6.96
342.543	-78.37
342.927	-53.97
343.31	-63.91
343.693	-73.63
344.077	-68.88
344.46	-72.27
344.843	-37.02
345.226	-48.54
345.61	-25.27
345.993	-18.71
346.376	-10.8
346.759	18.35
347.142	28.06
347.525	27.84
347.908	70.77
348.291	88.63
348.674	83.43
349.057	101.96
349.44	115.97
349.823	148.97
350.206	179.92
350.588	182.86
350.971	217.89
351.354	209.75
351.737	249.75
352.119	255.18
352.502	256.31
352.884	261.05
353.267	273.03
353.65	270.77
354.032	300.6
354.414	323.42
354.797	301.73
355.179	333.82
355.562	332.46
355.944	328.4
356.326	335.85
356.709	323.65
357.091	329.53
357.473	345.8
357.855	314.38
358.238	349.41
358.62	363.2
359.002	328.17
359.384	325.68
359.766	332.24
360.148	326.81
360.53	337.89
360.912	316.42
361.294	338.56
361.676	330.66
362.057	333.14
362.439	323.88
362.821	317.1
363.203	330.2
363.584	321.16
363.966	312.35
364.348	310.99
364.729	318.45
365.111	312.58
365.493	326.59
365.874	301.05
366.256	300.37
366.637	309.19
367.019	301.28
367.4	300.83
367.781	301.73
368.163	295.4
368.544	315.97
368.925	303.31
369.306	322.75
369.688	298.79
370.069	324.1
370.45	315.97
370.831	329.75
371.212	311.9
371.593	311.67
371.974	311.45
372.355	293.59
372.736	330.2
373.117	305.57
373.498	322.97
373.879	315.29
374.26	318.9
374.641	305.12
375.021	301.28
375.402	310.77
375.783	315.97
376.163	323.42
376.544	310.99
376.925	315.29
377.305	319.81
377.686	321.62
378.066	315.51
378.447	317.32
378.827	330.88
379.208	337.43
379.588	319.13
379.968	317.55
380.349	335.63
380.729	351.9
381.109	343.54
381.489	323.2
381.87	310.54
382.25	321.84
382.63	329.3
383.01	330.2
383.39	309.19
383.77	333.59
384.15	338.56
384.53	329.53
384.91	336.98
385.29	332.46
385.67	349.41
386.049	355.97
386.429	351.45
386.809	355.51
387.189	332.46
387.568	358.68
387.948	354.38
388.328	362.74
388.707	358
389.087	374.5
389.466	356.87
389.846	360.03
390.225	331.11
390.605	373.82
390.984	357.77
391.363	359.13
391.743	356.64
392.122	388.51
392.501	356.42
392.881	374.27
393.26	355.51
393.639	371.33
394.018	386.47
394.397	369.75
394.776	375.17
395.155	372.69
395.534	369.3
395.913	374.27
396.292	379.02
396.671	385.12
397.05	383.08
397.429	397.09
397.808	393.25
398.186	399.35
398.565	412.69
398.944	399.35
399.323	377.43
399.701	393.25
400.08	389.18
400.458	392.35
400.837	415.4
401.215	413.14
401.594	415.4
401.972	427.6
402.351	427.6
402.729	413.82
403.107	431.44
403.486	420.6
403.864	426.25
404.242	417.21
404.62	433.03
404.999	436.64
405.377	457.21
405.755	442.97
406.133	451.1
406.511	464.66
406.889	460.37
407.267	465.34
407.645	485.23
408.023	449.75
408.401	468.5
408.779	497.66
409.156	475.51
409.534	494.04
409.912	484.1
410.29	504.44
410.667	520.71
411.045	518.22
411.422	524.1
411.8	523.19
412.178	557.09
412.555	556.64
412.933	556.19
413.31	550.08
413.687	579.24
414.065	581.72
414.442	576.75
414.819	610.42
415.197	592.34
415.574	622.62
415.951	621.27
416.328	652.45
416.705	616.52
417.082	637.09
417.46	631.89
417.837	651.55
418.214	668.5
418.591	674.37
418.967	671.66
419.344	683.64
419.721	701.72
420.098	689.06
420.475	724.09
420.852	731.77
421.228	738.1
421.605	741.04
421.982	761.15
422.358	777.2
422.735	773.81
423.111	788.72
423.488	813.35
423.864	827.37
424.241	869.62
424.617	831.21
424.994	861.26
425.37	867.36
425.746	874.82
426.123	905.1
426.499	878.89
426.875	902.62
427.251	927.7
427.627	935.84
428.003	953.01
428.379	943.07
428.756	972.45
429.132	976.97
429.507	995.5
429.883	1024.87
430.259	1024.2
430.635	1053.35
431.011	1041.6
431.387	1075.72
431.763	1087.92
432.138	1092.22
432.514	1130.86
432.89	1129.28
433.265	1166.57
433.641	1147.13
434.016	1190.29
434.392	1204.08
434.767	1249.95
435.143	1264.42
435.518	1258.77
435.894	1277.3
436.269	1330.85
436.644	1343.28
437.02	1346.45
437.395	1337.86
437.77	1380.8
438.145	1412.43
438.52	1445.2
438.895	1450.85
439.271	1475.26
439.646	1495.14
440.021	1557.29
440.395	1504.18
440.77	1540.34
441.145	1538.76
441.52	1608.81
441.895	1643.84
442.27	1618.53
442.645	1630.73
443.019	1689.26
443.394	1675.93
443.769	1690.39
444.143	1697.4
444.518	1743.73
444.892	1747.34
445.267	1788.47
445.641	1805.87
446.016	1795.25
446.39	1813.78
446.764	1806.32
447.139	1843.16
447.513	1845.87
447.887	1843.84
448.262	1856.94
448.636	1889.71
449.01	1914.12
449.384	1923.61
449.758	1955.92
450.132	1950.27
450.506	1950.95
450.88	1996.15
451.254	2011.06
451.628	2019.42
452.002	2070.04
452.376	2072.3
452.75	2094
453.123	2106.2
453.497	2155.69
453.871	2134
454.244	2198.85
454.618	2240.44
454.992	2249.47
455.365	2250.38
455.739	2290.6
456.112	2323.15
456.486	2362.24
456.859	2386.87
457.232	2414.67
457.606	2422.35
457.979	2438.62
458.352	2485.4
458.725	2531.73
459.099	2550.03
459.472	2587.77
459.845	2628
460.218	2609.01
460.591	2656.92
460.964	2695.11
461.337	2710.03
461.71	2795.22
462.083	2799.74
462.456	2815.79
462.829	2837.26
463.201	2909.57
463.574	2907.54
463.947	2936.01
464.32	3029.12
464.692	3040.64
465.065	3034.54
465.438	3113.86
465.81	3189.11
466.183	3217.36
466.555	3244.48
466.928	3300.29
467.3	3283.35
467.672	3363.8
468.045	3442.21
468.417	3478.59
468.789	3465.26
469.161	3513.4
469.534	3591.59
469.906	3647.4
470.278	3713.17
470.65	3734.18
471.022	3801.98
471.394	3871.58
471.766	3911.8
472.138	3936.89
472.51	4022.76
472.882	4121.74
473.253	4161.74
473.625	4230.67
473.997	4282.64
474.369	4349.98
474.74	4347.95
475.112	4442.41
475.484	4546.36
475.855	4608.28
476.227	4657.55
476.598	4784.1
476.97	4794.72
477.341	4897.31
477.713	4971.66
478.084	5054.82
478.455	5182.73
478.827	5257.98
479.198	5363.07
479.569	5418.43
479.94	5565.55
480.311	5586.56
480.682	5671.98
481.053	5761.47
481.424	5911.07
481.795	5984.52
482.166	6046.44
482.537	6115.81
482.908	6222.03
483.279	6321.46
483.65	6488.69
484.021	6546.76
484.391	6670.15
484.762	6710.83
485.133	6748.11
485.503	6951.95
485.874	7022.23
486.244	7106.97
486.615	7266.97
486.985	7350.58
487.356	7466.06
487.726	7513.29
488.097	7704.47
488.467	7760.52
488.837	7826.73
489.207	7935.88
489.578	8035.99
489.948	8127.06
490.318	8216.1
490.688	8261.97
491.058	8415.87
491.428	8532.93
491.798	8563.43
492.168	8696.54
492.538	8728.63
492.908	8819.02
493.278	8961.84
493.648	8952.35
494.017	9041.61
494.387	9158.67
494.757	9172.23
495.126	9278.22
495.496	9326.58
495.866	9389.63
496.235	9446.12
496.605	9559.34
496.974	9621.26
497.344	9616.51
497.713	9671.43
498.082	9757.75
498.452	9799.11
498.821	9851.08
499.19	9853.34
499.559	9947.35
499.928	10012.89
500.298	9983.51
500.667	10011.98
501.036	10054.69
501.405	10192.77
501.774	10167.46
502.143	10247.23
502.512	10318.64
502.88	10314.57
503.249	10334.01
503.618	10399.09
503.987	10443.16
504.356	10509.37
504.724	10466.21
505.093	10492.2
505.462	10524.51
505.83	10539.88
506.199	10659.2
506.567	10635.69
506.936	10605.64
507.304	10713.66
507.672	10763.6
508.041	10813.32
508.409	10834.56
508.777	10904.16
509.145	10883.15
509.514	10912.3
509.882	10916.82
510.25	10931.28
510.618	10991.62
510.986	10947.78
511.354	11070.03
511.722	11093.99
512.09	11147.09
512.458	11071.39
512.826	11136.25
513.193	11106.42
513.561	11207.66
513.929	11194.32
514.297	11263.25
514.664	11265.73
515.032	11314.77
515.4	11297.6
515.767	11307.32
516.135	11317.94
516.502	11211.27
516.869	11416.69
517.237	11323.36
517.604	11247.2
517.972	11404.49
518.339	11408.33
518.706	11330.59
519.073	11292.17
519.44	11381.89
519.808	11421.44
520.175	11357.94
520.542	11503.47
520.909	11337.37
521.276	11399.97
521.643	11546.18
522.009	11459.85
522.376	11446.52
522.743	11508.67
523.11	11562.9
523.477	11565.39
523.843	11516.58
524.21	11565.84
524.577	11583.01
524.943	11573.07
525.31	11666.63
525.676	11630.25
526.043	11669.34
526.409	11658.94
526.776	11631.6
527.142	11618.49
527.508	11661.88
527.874	11602
528.241	11637.48
528.607	11590.25
528.973	11616.91
529.339	11548.67
529.705	11637.02
530.071	11609.68
530.437	11583.92
530.803	11554.99
531.169	11496.69
531.535	11487.65
531.901	11486.07
532.267	11418.27
532.632	11481.32
532.998	11377.82
533.364	11384.15
533.73	11340.08
534.095	11339.41
534.461	11297.37
534.826	11341.21
535.192	11277.26
535.557	11279.07
535.923	11209.01
536.288	11170.37
536.653	11187.77
537.019	11016.25
537.384	11003.37
537.749	11007.44
538.114	10948.91
538.479	10972.86
538.845	10847.44
539.21	10768.12
539.575	10791.17
539.94	10710.95
540.305	10783.71
540.67	10655.58
541.034	10654.45
541.399	10612.42
541.764	10597.96
542.129	10515.92
542.494	10490.61
542.858	10427.11
543.223	10331.3
543.587	10353.44
543.952	10212.88
544.316	10233.22
544.681	10175.59
545.045	10131.08
545.41	10108.03
545.774	10061.7
546.138	9977.63
546.503	9984.64
546.867	9934.24
547.231	9900.8
547.595	9800.91
547.959	9831.2
548.324	9693.12
548.688	9764.76
549.052	9675.72
549.416	9627.36
549.779	9604.54
550.143	9567.47
550.507	9571.99
550.871	9480.47
551.235	9426.91
551.599	9430.98
551.962	9389.17
552.326	9281.61
552.689	9333.36
553.053	9155.96
553.417	9139.69
553.78	9274.83
554.143	9243.42
554.507	9153.25
554.87	9147.37
555.234	9052.91
555.597	8977.21
555.96	8998.68
556.323	9004.78
556.686	8915.97
557.05	8949.41
557.413	8946.02
557.776	8847.04
558.139	8844.78
558.502	8904.89
558.865	8779.7
559.228	8774.5
559.59	8727.5
559.953	8777.66
560.316	8767.5
560.679	8699.02
561.041	8758.23
561.404	8729.76
561.767	8702.86
562.129	8636.88
562.492	8708.06
562.854	8605.92
563.217	8601.17
563.579	8623.77
563.941	8637.56
564.304	8620.15
564.666	8560.5
565.028	8637.1
565.39	8563.88
565.753	8619.7
566.115	8569.53
566.477	8631.23
566.839	8596.88
567.201	8659.48
567.563	8579.93
567.925	8661.28
568.287	8590.32
568.648	8604.11
569.01	8586.94
569.372	8632.81
569.734	8574.96
570.095	8618.8
570.457	8579.7
570.819	8626.03
571.18	8587.39
571.542	8611.12
571.903	8603.66
572.265	8631.23
572.626	8605.92
572.987	8604.56
573.349	8569.08
573.71	8575.18
574.071	8621.96
574.432	8554.85
574.794	8638.23
575.155	8605.47
575.516	8548.29
575.877	8589.42
576.238	8565.69
576.599	8626.03
576.96	8668.52
577.32	8566.6
577.681	8562.3
578.042	8634.62
578.403	8605.69
578.763	8511.91
579.124	8555.52
579.485	8607.5
579.845	8607.95
580.206	8528.18
580.566	8510.33
580.927	8548.97
581.287	8584
581.648	8529.08
582.008	8552.36
582.368	8449.31
582.728	8528.41
583.089	8513.04
583.449	8498.12
583.809	8499.25
584.169	8515.07
584.529	8511.46
584.889	8494.73
585.249	8372.25
585.609	8473.04
585.969	8478.46
586.329	8409.09
586.688	8439.37
587.048	8378.58
587.408	8356.88
587.768	8340.39
588.127	8328.18
588.487	8323.44
588.846	8387.39
589.206	8309.65
589.565	8308.75
589.925	8362.99
590.284	8352.37
590.643	8344.91
591.003	8334.74
591.362	8315.76
591.721	8255.87
592.08	8282.99
592.44	8289.77
592.799	8290.9
593.158	8175.65
593.517	8266.94
593.876	8253.84
594.235	8251.35
594.593	8196.66
594.952	8233.5
595.311	8180.39
595.67	8190.11
596.029	8208.87
596.387	8205.02
596.746	8243.44
597.104	8199.6
597.463	8153.27
597.822	8268.3
598.18	8127.06
598.538	8134.07
598.897	8197.57
599.255	8098.81
599.613	8214.06
599.972	8163.22
600.33	8176.78
600.688	8151.92
601.046	8200.73
601.404	8165.93
601.762	8156.66
602.12	8189.43
602.478	8155.53
602.836	8206.38
603.194	8129.55
603.552	8164.57
603.91	8141.98
604.268	8164.57
604.625	8141.3
604.983	8121.18
605.341	8061.53
605.698	8117.8
606.056	8082.77
606.413	8103.56
606.771	8132.48
607.128	8131.13
607.485	8070.34
607.843	8148.08
608.2	8113.95
608.557	8166.83
608.914	8130
609.272	8152.6
609.629	8170.45
609.986	8214.06
610.343	8118.25
610.7	8154.86
611.057	8207.06
611.414	8128.64
611.771	8161.86
612.127	8209.32
612.484	8215.19
612.841	8261.07
613.198	8219.49
613.554	8152.14
613.911	8223.1
614.267	8234.85
614.624	8194.86
614.98	8167.51
615.337	8211.13
615.693	8233.72
616.05	8198.7
616.406	8198.92
616.762	8256.55
617.118	8209.77
617.475	8230.33
617.831	8215.42
618.187	8251.12
618.543	8223.78
618.899	8289.77
619.255	8264.23
619.611	8284.34
619.967	8303.1
620.323	8345.81
620.678	8238.7
621.034	8237.79
621.39	8266.27
621.746	8234.85
622.101	8348.3
622.457	8235.98
622.812	8266.04
623.168	8260.84
623.523	8265.59
623.879	8315.76
624.234	8272.82
624.589	8278.47
624.945	8210.22
625.3	8204.8
625.655	8297.23
626.01	8236.44
626.365	8239.6
626.72	8226.94
627.075	8252.48
627.43	8214.06
627.785	8167.74
628.14	8202.99
628.495	8203.22
628.85	8245.02
629.205	8179.71
629.559	8228.3
629.914	8166.83
630.269	8217.68
630.623	8173.39
630.978	8184.46
631.332	8215.19
631.687	8156.66
632.041	8047.06
632.396	8146.04
632.75	8144.24
633.104	8152.37
633.459	8099.04
633.813	8071.24
634.167	8139.49
634.521	8098.59
634.875	8129.32
635.229	8061.07
635.583	8008.87
635.937	8073.73
636.291	8033.28
636.645	8078.02
636.999	7999.15
637.352	8080.06
637.706	7966.39
638.06	8006.16
638.413	7993.28
638.767	7943.79
639.121	7977.91
639.474	7852.49
639.828	7936.1
640.181	7970
640.534	7949.89
640.888	7874.19
641.241	7929.78
641.594	7865.82
641.947	7882.1
642.301	7870.57
642.654	7893.39
643.007	7917.35
643.36	7854.98
643.713	7824.47
644.066	7843.68
644.419	7827.63
644.771	7756.22
645.124	7686.39
645.477	7691.14
645.83	7671.93
646.182	7697.02
646.535	7634.64
646.888	7612.72
647.24	7573.85
647.593	7605.27
647.945	7552.61
648.298	7581.99
648.65	7575.44
649.002	7563.23
649.355	7650.01
649.707	7598.26
650.059	7634.64
650.411	7731.36
650.763	7692.5
651.115	7789.44
651.467	7782.66
651.819	7824.02
652.171	7812.49
652.523	7732.72
652.875	7809.1
653.227	7734.08
653.578	7797.58
653.93	7788.09
654.282	7774.75
654.633	7727.3
654.985	7789.44
655.337	7790.57
655.688	7816.79
656.039	7842.55
656.391	7804.13
656.742	7777.69
657.094	7794.41
657.445	7803
657.796	7770.23
658.147	7816.79
658.498	7780.85
658.849	7829.22
659.2	7822.44
659.551	7738.14
659.902	7810.91
660.253	7813.85
660.604	7764.36
660.955	7812.04
661.306	7839.61
661.656	7827.86
662.007	7799.16
662.358	7850.91
662.708	7874.64
663.059	7853.85
663.409	7804.13
663.76	7894.3
664.11	7822.66
664.461	7864.47
664.811	7895.2
665.161	7849.1
665.511	7815.2
665.862	7820.18
666.212	7875.09
666.562	7869.44
666.912	7906.5
667.262	7752.83
667.612	7873.06
667.962	7896.78
668.312	7918.48
668.662	7876.67
669.011	7881.87
669.361	7825.6
669.711	7871.25
670.06	7823.11
670.41	7837.8
670.76	7835.77
671.109	7871.7
671.459	7937.69
671.808	7832.15
672.157	7903.34
672.507	7842.1
672.856	7806.16
673.205	7753.51
673.554	7833.51
673.904	7811.59
674.253	7786.05
674.602	7836.22
674.951	7719.84
675.3	7597.58
675.649	7783.11
675.998	7737.01
676.346	7772.95
676.695	7742.21
677.044	7715.77
677.393	7746.73
677.741	7668.54
678.09	7697.92
678.438	7699.5
678.787	7778.14
679.135	7700.63
679.484	7621.08
679.832	7672.61
680.181	7534.53
680.529	7678.26
680.877	7583.35
681.225	7617.47
681.573	7594.87
681.922	7624.7
682.27	7539.28
682.618	7581.31
682.966	7538.38
683.314	7586.96
683.661	7506.74
684.009	7484.59
684.357	7426.97
684.705	7434.88
685.053	7484.14
685.4	7467.42
685.748	7423.8
686.095	7370.47
686.443	7341.54
686.79	7323.24
687.138	7396.23
687.485	7329.79
687.832	7309.91
688.18	7306.29
688.527	7219.97
688.874	7244.37
689.221	7182
689.568	7196.92
689.915	7143.36
690.262	7167.76
690.609	7140.19
690.956	7106.07
691.303	7078.73
691.65	7062.46
691.997	7027.2
692.344	6967.54
692.69	7037.15
693.037	6998.05
693.383	6930.26
693.73	6917.6
694.077	6904.04
694.423	6912.63
694.769	6863.59
695.116	6806.64
695.462	6767.1
695.808	6803.48
696.155	6817.94
696.501	6756.93
696.847	6723.03
697.193	6698.62
697.539	6716.93
697.885	6654.1
698.231	6620.21
698.577	6605.74
698.923	6612.3
699.269	6596.48
699.614	6455.69
699.96	6469.02
700.306	6451.85
700.651	6421.79
700.997	6475.13
701.342	6454.34
701.688	6414.34
702.033	6363.72
702.379	6360.78
702.724	6372.98
703.069	6344.28
703.415	6275.58
703.76	6252.53
704.105	6248.69
704.45	6258.86
704.795	6167.11
705.14	6188.58
705.485	6150.16
705.83	6089.15
706.175	6087.57
706.52	6110.84
706.865	6054.35
707.209	6079.43
707.554	6081.69
707.899	6089.83
708.243	6020.68
708.588	6011.41
708.932	5941.81
709.277	5946.33
709.621	5916.05
709.966	5887.8
710.31	5888.93
710.654	5899.55
710.998	5879.89
711.342	5827.46
711.687	5796.73
712.031	5847.12
712.375	5822.71
712.719	5824.52
713.063	5747.46
713.407	5827.46
713.75	5744.3
714.094	5723.28
714.438	5759.89
714.782	5745.43
715.125	5780
715.469	5717.18
715.812	5727.35
716.156	5662.94
716.499	5660.68
716.843	5705.43
717.186	5665.43
717.53	5703.17
717.873	5666.79
718.216	5601.03
718.559	5627.24
718.902	5605.32
719.246	5620.46
719.589	5583.85
719.932	5624.98
720.275	5577.07
720.617	5595.6
720.96	5552.66
721.303	5576.17
721.646	5594.25
721.989	5554.92
722.331	5577.52
722.674	5566.68
723.016	5579.33
723.359	5518.09
723.701	5552.89
724.044	5530.74
724.386	5525.09
724.729	5550.86
725.071	5577.75
725.413	5494.81
725.755	5529.16
726.097	5489.16
726.439	5434.48
726.782	5482.38
727.124	5562.38
727.465	5512.89
727.807	5510.86
728.149	5438.54
728.491	5465.21
728.833	5524.87
729.175	5472.89
729.516	5460.69
729.858	5426.34
730.199	5474.25
730.541	5515.83
730.882	5493.91
731.224	5506.56
731.565	5443.29
731.906	5452.33
732.248	5450.07
732.589	5471.54
732.93	5424.98
733.271	5481.48
733.612	5465.66
733.953	5488.49
734.294	5489.39
734.635	5457.07
734.976	5494.81
735.317	5482.38
735.658	5446.68
735.999	5466.34
736.339	5497.75
736.68	5513.12
737.021	5529.39
737.361	5474.7
737.702	5549.73
738.042	5536.62
738.383	5521.48
738.723	5541.37
739.063	5562.16
739.404	5607.58
739.744	5590.4
740.084	5567.13
740.424	5579.33
740.764	5620.46
741.104	5631.08
741.444	5556.73
741.784	5610.52
742.124	5684.86
742.464	5678.09
742.804	5711.76
743.143	5709.27
743.483	5724.64
743.823	5688.48
744.162	5733.68
744.502	5751.53
744.841	5787.01
745.181	5855.26
745.52	5842.6
745.86	5908.36
746.199	5893.45
746.538	5944.97
746.877	6001.47
747.216	6029.94
747.556	5998.98
747.895	6061.13
748.234	6104.97
748.573	6193.55
748.911	6210.5
749.25	6290.5
749.589	6326.66
749.928	6376.6
750.267	6537.72
750.605	6518.29
750.944	6548.57
751.283	6665.86
751.621	6725.29
751.96	6803.71
752.298	6925.51
752.636	6991.5
752.975	7114.21
753.313	7105.62
753.651	7300.42
753.989	7360.98
754.327	7413.63
754.666	7505.83
755.004	7745.6
755.342	7807.29
755.679	7919.83
756.017	8129.32
756.355	8170.9
756.693	8262.65
757.031	8523.89
757.368	8579.48
757.706	8742.86
758.044	8907.38
758.381	9059.47
758.719	9136.3
759.056	9390.08
759.394	9543.97
759.731	9628.04
760.068	9830.74
760.405	9946.9
760.743	10156.84
761.08	10253.11
761.417	10491.52
761.754	10616.49
762.091	10838.4
762.428	10929.92
762.765	11108
763.102	11344.83
763.438	11443.36
763.775	11618.04
764.112	11792.5
764.449	12001.08
764.785	12165.15
765.122	12247.18
765.458	12396.33
765.795	12580.05
766.131	12795.86
766.467	12928.06
766.804	13048.29
767.14	13154.95
