Data from hue_100_FLMS001491_00029.txt Node
Date: Tue Feb 07 17:02:56 GMT 2017
User: dcchb
Spectrometer: FLMS00149
Trigger mode: 0
Integration Time (sec): 2.000000E-2
Scans to average: 10
Electric dark correction enabled: true
Nonlinearity correction enabled: false
Boxcar width: 0
XAxis mode: Wavelengths
Number of Pixels in Spectrum: 2048
>>>>>Begin Spectral Data<<<<<
341.393	-17.43
341.776	-17.43
342.16	-17.43
342.543	-55.85
342.927	-59.69
343.31	-70.08
343.693	-74.15
344.077	-54.72
344.46	-40.25
344.843	-62.63
345.226	-61.5
345.61	-23.98
345.993	-14.49
346.376	-19.01
346.759	6.53
347.142	33.87
347.525	54.21
347.908	61.67
348.291	79.52
348.674	87.43
349.057	97.6
349.44	129.69
349.823	124.04
350.206	168.78
350.588	203.13
350.971	221.89
351.354	226.63
351.737	247.87
352.119	242.45
352.502	257.14
352.884	275.67
353.267	274.09
353.65	294.2
354.032	284.26
354.414	308.89
354.797	321.77
355.179	317.03
355.562	338.04
355.944	320.42
356.326	322.22
356.709	319.96
357.091	329.68
357.473	338.27
357.855	331.71
358.238	346.63
358.62	352.73
359.002	350.47
359.384	332.39
359.766	341.66
360.148	337.59
360.53	331.94
360.912	321.55
361.294	326.52
361.676	332.62
362.057	321.32
362.439	349.79
362.821	325.39
363.203	324.48
363.584	336.46
363.966	325.61
364.348	327.65
364.729	325.16
365.111	331.71
365.493	317.93
365.874	320.19
366.256	329.91
366.637	318.83
367.019	317.7
367.4	322.9
367.781	336.46
368.163	323.35
368.544	313.41
368.925	323.13
369.306	334.2
369.688	305.27
370.069	317.48
370.45	301.66
370.831	333.3
371.212	310.47
371.593	326.74
371.974	321.09
372.355	319.74
372.736	304.14
373.117	292.85
373.498	318.83
373.879	334.2
374.26	330.81
374.641	342.56
375.021	329.45
375.402	324.26
375.783	320.64
376.163	356.12
376.544	327.87
376.925	347.99
377.305	323.81
377.686	356.57
378.066	330.81
378.447	331.04
378.827	329
379.208	338.04
379.588	340.98
379.968	359.96
380.349	343.47
380.729	335.1
381.109	348.89
381.489	351.37
381.87	357.48
382.25	349.57
382.63	350.25
383.01	346.86
383.39	367.65
383.77	344.14
384.15	357.7
384.53	349.34
384.91	362
385.29	364.03
385.67	348.21
386.049	366.29
386.429	371.04
386.809	364.26
387.189	358.83
387.568	350.7
387.948	357.48
388.328	384.37
388.707	366.97
389.087	366.52
389.466	354.99
389.846	368.1
390.225	378.94
390.605	363.58
390.984	397.93
391.363	380.75
391.743	395.44
392.122	391.15
392.501	377.36
392.881	377.14
393.26	374.43
393.639	406.74
394.018	383.01
394.397	383.46
394.776	408.32
395.155	381.2
395.534	402
395.913	396.35
396.292	400.87
396.671	404.25
397.05	401.77
397.429	399.51
397.808	402.22
398.186	391.15
398.565	406.97
398.944	398.61
399.323	416.68
399.701	413.07
400.08	430.02
400.458	432.05
400.837	407.87
401.215	419.62
401.594	434.76
401.972	425.27
402.351	426.18
402.729	425.27
403.107	452.16
403.486	433.41
403.864	423.01
404.242	448.55
404.62	435.44
404.999	467.3
405.377	451.49
405.755	454.2
406.133	455.78
406.511	459.39
406.889	465.72
407.267	451.03
407.645	469.79
408.023	477.93
408.401	488.32
408.779	470.47
409.156	472.5
409.534	478.6
409.912	463.24
410.29	507.76
410.667	477.02
411.045	516.12
411.422	504.59
411.8	485.83
412.178	500.3
412.555	527.87
412.933	505.5
413.31	506.63
413.687	513.18
414.065	518.6
414.442	539.39
414.819	537.58
415.197	529.45
415.574	519.96
415.951	554.08
416.328	536.45
416.705	545.27
417.082	543.46
417.46	556.34
417.837	548.43
418.214	556.79
418.591	555.89
418.967	581.88
419.344	559.96
419.721	562.67
420.098	543.91
420.475	588.43
420.852	585.95
421.228	586.85
421.605	583.46
421.982	611.71
422.358	596.57
422.735	611.71
423.111	616.45
423.488	597.92
423.864	616.45
424.241	630.69
424.617	625.72
424.994	626.4
425.37	648.77
425.746	615.55
426.123	653.51
426.499	647.86
426.875	639.05
427.251	673.4
427.627	657.13
428.003	650.8
428.379	680.63
428.756	690.12
429.132	681.31
429.507	677.92
429.883	681.54
430.259	718.14
430.635	710.69
431.011	720.63
431.387	737.81
431.763	752.49
432.138	760.86
432.514	753.62
432.89	755.43
433.265	753.85
433.641	772.83
434.016	781.19
434.392	795.88
434.767	792.72
435.143	823.9
435.518	804.92
435.894	790.23
436.269	804.47
436.644	824.81
437.02	837.92
437.395	829.55
437.77	855.09
438.145	848.31
438.52	838.14
438.895	868.88
439.271	877.46
439.646	881.98
440.021	895.09
440.395	891.25
440.77	903
441.145	908.2
441.52	932.15
441.895	921.3
442.27	951.36
442.645	943.68
443.019	937.8
443.394	938.48
443.769	946.84
444.143	947.07
444.518	928.31
444.892	953.17
445.267	971.92
445.641	995.43
446.016	988.87
446.39	968.53
446.764	997.91
447.139	980.06
447.513	1010.79
447.887	978.93
448.262	1003.34
448.636	1013.96
449.01	1018.48
449.384	1061.19
449.758	1054.18
450.132	1067.74
450.506	1077.23
450.88	1070.45
451.254	1092.6
451.628	1105.71
452.002	1107.29
452.376	1105.25
452.75	1131.02
453.123	1131.24
453.497	1161.52
453.871	1162.65
454.244	1184.57
454.618	1182.09
454.992	1212.82
455.365	1206.49
455.739	1218.24
456.112	1251.01
456.486	1227.28
456.859	1238.36
457.232	1299.15
457.606	1263.67
457.979	1329.65
458.352	1317.9
458.725	1348.41
459.099	1355.42
459.472	1377.56
459.845	1381.63
460.218	1389.99
460.591	1410.1
460.964	1430.44
461.337	1453.49
461.71	1490.78
462.083	1477.45
462.456	1509.99
462.829	1516.09
463.201	1557.9
463.574	1579.82
463.947	1592.7
464.32	1603.32
464.692	1646.93
465.065	1632.25
465.438	1673.83
465.81	1693.26
466.183	1714.73
466.555	1740.72
466.928	1742.98
467.3	1763.09
467.672	1793.82
468.045	1847.38
468.417	1868.62
468.789	1909.98
469.161	1918.11
469.534	1948.62
469.906	2013.25
470.278	2030.65
470.65	2063.65
471.022	2100.26
471.394	2152.68
471.766	2176.86
472.138	2222.96
472.51	2259.57
472.882	2327.37
473.253	2399.23
473.625	2435.61
473.997	2449.85
474.369	2538.44
474.74	2567.14
475.112	2593.8
475.484	2661.6
475.855	2728.71
476.227	2768.71
476.598	2857.52
476.97	2915.15
477.341	2980.01
477.713	3076.05
478.084	3125.99
478.455	3234.24
478.827	3271.07
479.198	3388.13
479.569	3427.23
479.94	3598.75
480.311	3676.94
480.682	3798.06
481.053	3890.49
481.424	3979.53
481.795	4063.82
482.166	4170.71
482.537	4251.61
482.908	4423.81
483.279	4512.62
483.65	4579.06
484.021	4770.24
484.391	4873.52
484.762	4992.61
485.133	5075.32
485.503	5179.27
485.874	5332.49
486.244	5504.69
486.615	5668.75
486.985	5758.69
487.356	5955.97
487.726	6015.63
488.097	6220.83
488.467	6280.48
488.837	6540.59
489.207	6666.24
489.578	6832.11
489.948	6949.85
490.318	7093.57
490.688	7232.32
491.058	7399.33
491.428	7545.76
491.798	7705.76
492.168	7922.7
492.538	8093.09
492.908	8263.26
493.278	8383.93
493.648	8456.02
494.017	8648.78
494.387	8874.31
494.757	8938.49
495.126	9102.11
495.496	9274.53
495.866	9363.12
496.235	9505.94
496.605	9629.55
496.974	9854.85
497.344	9937.11
497.713	10095.3
498.082	10204.22
498.452	10366.03
498.821	10479.92
499.19	10593.82
499.559	10713.59
499.928	10869.06
500.298	10967.37
500.667	11081.26
501.036	11110.87
501.405	11337.3
501.774	11392.67
502.143	11618.65
502.512	11587.01
502.88	11729.15
503.249	11850.51
503.618	11942.93
503.987	12066.77
504.356	12228.12
504.724	12265.19
505.093	12338.18
505.462	12453.43
505.83	12475.8
506.199	12591.73
506.567	12871.95
506.936	12824.04
507.304	13023.36
507.672	13078.5
508.041	13162.11
508.409	13260.87
508.777	13356.68
509.145	13470.35
509.514	13447.98
509.882	13598.26
510.25	13632.38
510.618	13732.27
510.986	13789.67
511.354	13915.99
511.722	14004.35
512.09	14082.31
512.458	14065.82
512.826	14179.03
513.193	14314.4
513.561	14263.33
513.929	14400.5
514.297	14503.09
514.664	14496.77
515.032	14603.2
515.4	14765.23
515.767	14721.39
516.135	14757.1
516.502	14748.28
516.869	15051.1
517.237	15009.75
517.604	14891.78
517.972	15047.03
518.339	15178.56
518.706	15107.82
519.073	15239.12
519.44	15254.94
519.808	15447.7
520.175	15299.68
520.542	15461.49
520.909	15514.37
521.276	15563.18
521.643	15624.87
522.009	15689.95
522.376	15691.08
522.743	15735.83
523.11	15847.92
523.477	15903.28
523.843	15934.47
524.21	16116.38
524.577	16190.96
524.943	16112.77
525.31	16252.2
525.676	16373.1
526.043	16369.26
526.409	16327.45
526.776	16462.36
527.142	16464.62
527.508	16494.45
527.874	16518.41
528.241	16524.28
528.607	16622.81
528.973	16653.77
529.339	16620.1
529.705	16778.06
530.071	16812.86
530.437	16851.96
530.803	16865.29
531.169	16824.16
531.535	16802.47
531.901	16808.8
532.267	16824.39
532.632	16890.6
532.998	16791.17
533.364	16941.67
533.73	16827.1
534.095	16918.62
534.461	16987.77
534.826	16931.28
535.192	16865.07
535.557	16977.38
535.923	16840.66
536.288	16842.01
536.653	16862.81
537.019	16799.76
537.384	16888.57
537.749	16896.02
538.114	16805.41
538.479	16812.19
538.845	16719.98
539.21	16664.84
539.575	16699.87
539.94	16628.24
540.305	16722.47
540.67	16701
541.034	16727.22
541.399	16674.11
541.764	16624.39
542.129	16603.83
542.494	16654.9
542.858	16665.07
543.223	16527.22
543.587	16600.21
543.952	16514.57
544.316	16513.89
544.681	16434.12
545.045	16448.58
545.41	16435.25
545.774	16384.4
546.138	16393.44
546.503	16362.93
546.867	16227.12
547.231	16402.7
547.595	16277.28
547.959	16244.97
548.324	16208.13
548.688	16120.9
549.052	16199.77
549.416	16127.46
549.779	16131.75
550.143	16164.97
550.507	16121.36
550.871	16059.66
551.235	15943.73
551.599	16146.44
551.962	15990.96
552.326	16084.29
552.689	16038.19
553.053	15869.38
553.417	15928.14
553.78	16090.4
554.143	15958.42
554.507	15934.02
554.87	15872.1
555.234	15958.65
555.597	15723.17
555.96	15840.69
556.323	15822.61
556.686	15887.46
557.05	15868.03
557.413	15868.26
557.776	15861.7
558.139	15961.13
558.502	15894.47
558.865	15789.16
559.228	15955.03
559.59	15903.06
559.953	15927.69
560.316	16023.51
560.679	15877.75
561.041	15985.09
561.404	15945.54
561.767	16035.03
562.129	16008.14
562.492	16082.26
562.854	15989.61
563.217	16033.67
563.579	16050.85
563.941	16014.24
564.304	16023.51
564.666	16124.52
565.028	16138.53
565.39	16042.94
565.753	16131.07
566.115	16081.81
566.477	16155.48
566.839	16263.72
567.201	16212.65
567.563	16147.34
567.925	16296.72
568.287	16248.36
568.648	16317.73
569.01	16336.27
569.372	16398.86
569.734	16280.22
570.095	16381.46
570.457	16392.54
570.819	16477.5
571.18	16352.31
571.542	16465.75
571.903	16433.66
572.265	16529.48
572.626	16543.27
572.987	16527.9
573.349	16569.03
573.71	16630.72
574.071	16631.62
574.432	16545.53
574.794	16590.5
575.155	16550.27
575.516	16582.59
575.877	16666.2
576.238	16583.94
576.599	16747.1
576.96	16647.9
577.32	16654.45
577.681	16735.8
578.042	16799.08
578.403	16813.99
578.763	16775.35
579.124	16763.15
579.485	16853.31
579.845	16772.86
580.206	16732.19
580.566	16696.71
580.927	16800.66
581.287	16858.51
581.648	16651.06
582.008	16770.83
582.368	16746.2
582.728	16708.68
583.089	16703.26
583.449	16676.14
583.809	16742.81
584.169	16788.46
584.529	16695.58
584.889	16724.73
585.249	16623.72
585.609	16621.91
585.969	16737.38
586.329	16536.49
586.688	16687.22
587.048	16615.35
587.408	16559.54
587.768	16589.14
588.127	16532.19
588.487	16597.73
588.846	16610.38
589.206	16571.51
589.565	16537.84
589.925	16592.08
590.284	16560.21
590.643	16532.64
591.003	16531.29
591.362	16598.86
591.721	16526.77
592.08	16505.07
592.44	16469.6
592.799	16555.02
593.158	16490.16
593.517	16476.83
593.876	16449.26
594.235	16512.53
594.593	16462.59
594.952	16436.6
595.311	16372.87
595.67	16441.57
596.029	16509.82
596.387	16480.22
596.746	16503.04
597.104	16318.19
597.463	16342.82
597.822	16500.1
598.18	16414.91
598.538	16351.41
598.897	16458.07
599.255	16312.99
599.613	16500.33
599.972	16394.57
600.33	16390.5
600.688	16332.42
601.046	16364.29
601.404	16451.52
601.762	16376.49
602.12	16472.08
602.478	16429.14
602.836	16469.6
603.194	16369.71
603.552	16452.65
603.91	16343.5
604.268	16411.97
604.625	16402.7
604.983	16483.15
605.341	16387.79
605.698	16557.5
606.056	16412.65
606.413	16469.6
606.771	16552.3
607.128	16634.79
607.485	16402.93
607.843	16431.4
608.2	16484.28
608.557	16473.89
608.914	16422.14
609.272	16585.75
609.629	16646.99
609.986	16604.51
610.343	16579.2
610.7	16594.79
611.057	16599.99
611.414	16568.12
611.771	16663.04
612.127	16591.85
612.484	16670.95
612.841	16738.97
613.198	16667.33
613.554	16647.44
613.911	16840.21
614.267	16678.4
614.624	16733.77
614.98	16722.02
615.337	16851.73
615.693	16849.02
616.05	16815.8
616.406	16885.86
616.762	16726.54
617.118	16735.58
617.475	16784.62
617.831	16996.36
618.187	16834.56
618.543	16874.78
618.899	16959.98
619.255	16912.3
619.611	16888.57
619.967	16882.69
620.323	17023.03
620.678	16908
621.034	16915.23
621.39	16858.29
621.746	16853.77
622.101	17002.69
622.457	16862.35
622.812	16964.27
623.168	16967.44
623.523	16941
623.879	17083.14
624.234	16799.76
624.589	16957.27
624.945	16929.92
625.3	16924.72
625.655	16940.54
626.01	16917.04
626.365	16974.67
626.72	16994.55
627.075	16873.2
627.43	17004.04
627.785	16902.13
628.14	16971.73
628.495	16886.31
628.85	16925.63
629.205	16831.39
629.559	16959.07
629.914	16821.9
630.269	16862.81
630.623	16803.82
630.978	16763.37
631.332	16829.36
631.687	16933.76
632.041	16772.41
632.396	16828.46
632.75	16685.18
633.104	16666.43
633.459	16753.43
633.813	16712.07
634.167	16654.68
634.521	16696.26
634.875	16687.89
635.229	16629.59
635.583	16535.36
635.937	16660.32
636.291	16493.78
636.645	16498.52
636.999	16521.8
637.352	16505.3
637.706	16428.24
638.06	16459.43
638.413	16519.54
638.767	16399.31
639.121	16436.6
639.474	16319.77
639.828	16324.97
640.181	16291.52
640.534	16362.48
640.888	16328.36
641.241	16269.37
641.594	16241.13
641.947	16296.04
642.301	16172.88
642.654	16200.45
643.007	16268.7
643.36	16238.19
643.713	16169.49
644.066	16299.43
644.419	16095.14
644.771	16079.77
645.124	16006.56
645.477	15861.48
645.83	15801.59
646.182	15691.99
646.535	15602.73
646.888	15789.61
647.24	15611.76
647.593	15655.83
647.945	15589.17
648.298	15660.8
648.65	15618.77
649.002	15509.17
649.355	15626
649.707	15649.5
650.059	15662.16
650.411	15963.85
650.763	15944.64
651.115	16067.57
651.467	16146.67
651.819	16004.97
652.171	15971.3
652.523	15944.19
652.875	16043.39
653.227	15941.25
653.578	16063.05
653.93	16000.45
654.282	15848.37
654.633	15923.39
654.985	15978.08
655.337	15916.62
655.688	15978.99
656.039	15960.91
656.391	15881.59
656.742	15907.35
657.094	15965.2
657.445	16050.17
657.796	16034.58
658.147	15960.91
658.498	15930.4
658.849	16020.34
659.2	16046.78
659.551	16006.56
659.902	16044.3
660.253	15999.55
660.604	16066.44
660.955	15964.98
661.306	15996.84
661.656	16000.45
662.007	16014.69
662.358	16036.61
662.708	16010.62
663.059	16042.94
663.409	15848.14
663.76	16015.82
664.11	15982.6
664.461	16008.36
664.811	15993.45
665.161	16040.68
665.511	15999.78
665.862	16112.77
666.212	16062.83
666.562	16071.64
666.912	16105.31
667.262	16040.45
667.612	16034.35
667.962	16107.34
668.312	16072.09
668.662	16131.75
669.011	16006.33
669.361	15949.38
669.711	15979.66
670.06	15971.53
670.41	15945.54
670.76	15959.55
671.109	15993.68
671.459	15930.63
671.808	15947.35
672.157	15924.75
672.507	15866
672.856	15796.84
673.205	15896.5
673.554	15863.96
673.904	15849.95
674.253	15914.58
674.602	15894.02
674.951	15618.32
675.3	15551.88
675.649	15724.53
675.998	15750.52
676.346	15847.01
676.695	15753.46
677.044	15741.7
677.393	15777.41
677.741	15724.76
678.09	15780.57
678.438	15663.06
678.787	15676.4
679.135	15642.95
679.484	15526.8
679.832	15626.91
680.181	15491.54
680.529	15474.37
680.877	15514.82
681.225	15457.87
681.573	15502.61
681.922	15422.84
682.27	15381.49
682.618	15310.98
682.966	15293.81
683.314	15345.1
683.661	15255.84
684.009	15237.54
684.357	15237.54
684.705	15135.62
685.053	15186.92
685.4	15076.41
685.748	15059.91
686.095	15096.52
686.443	14975.85
686.79	14971.56
687.138	14924.1
687.485	14953.93
687.832	14874.61
688.18	14892.69
688.527	14770.2
688.874	14798.45
689.221	14655.18
689.568	14774.05
689.915	14745.35
690.262	14722.3
690.609	14623.09
690.956	14545.8
691.303	14551.45
691.65	14409.76
691.997	14483.66
692.344	14371.57
692.69	14353.94
693.037	14325.24
693.383	14262.42
693.73	14221.07
694.077	14150.79
694.423	14166.6
694.769	14018.81
695.116	14086.61
695.462	14040.96
695.808	13959.6
696.155	13998.93
696.501	13876.9
696.847	13719.61
697.193	13683.45
697.539	13713.28
697.885	13634.19
698.231	13655.66
698.577	13604.36
698.923	13576.11
699.269	13565.72
699.614	13427.64
699.96	13445.49
700.306	13328.66
700.651	13264.03
700.997	13299.74
701.342	13253.86
701.688	13145.84
702.033	13161.21
702.379	13137.48
702.724	13016.58
703.069	13107.88
703.415	12905.4
703.76	12842.57
704.105	12860.65
704.45	12808.22
704.795	12753.53
705.14	12716.93
705.485	12664.05
705.83	12627.21
706.175	12638.28
706.52	12571.62
706.865	12593.54
707.209	12504.95
707.554	12499.08
707.899	12505.63
708.243	12378.4
708.588	12342.02
708.932	12248.92
709.277	12232.64
709.621	12227.22
709.966	12100.67
710.31	12224.28
710.654	12068.81
710.998	12128.24
711.342	12034.91
711.687	12029.49
712.031	11999.66
712.375	11974.35
712.719	11937.74
713.063	11934.12
713.407	12006.66
713.75	11830.17
714.094	11842.15
714.438	11773
714.782	11761.02
715.125	11752.66
715.469	11824.07
715.812	11683.28
716.156	11688.93
716.499	11606.9
716.843	11689.38
717.186	11610.06
717.53	11684.64
717.873	11687.12
718.216	11584.07
718.559	11603.73
718.902	11490.74
719.246	11533.23
719.589	11538.88
719.932	11503.85
720.275	11519.67
720.617	11536.39
720.96	11415.94
721.303	11449.61
721.646	11418.2
721.989	11375.04
722.331	11396.28
722.674	11347.92
723.016	11356.06
723.359	11288.71
723.701	11394.02
724.044	11293.01
724.386	11139.34
724.729	11294.36
725.071	11235.38
725.413	11257.08
725.755	11179.56
726.097	11228.15
726.439	11135.27
726.782	11147.93
727.124	11220.24
727.465	11127.81
727.807	11172.11
728.149	11185.44
728.491	11211.65
728.833	11192.9
729.175	11118.1
729.516	11114.48
729.858	11116.06
730.199	11113.13
730.541	11184.76
730.882	11140.47
731.224	11135.95
731.565	11078.32
731.906	11104.54
732.248	11099.11
732.589	11007.82
732.93	11092.79
733.271	11034.26
733.612	11152.67
733.953	11104.99
734.294	11072.22
734.635	11048.49
734.976	11105.44
735.317	11008.72
735.658	11077.19
735.999	11008.27
736.339	11022.96
736.68	11064.54
737.021	11110.64
737.361	11044.2
737.702	11153.58
738.042	11127.14
738.383	11083.07
738.723	11105.44
739.063	11079.68
739.404	11165.55
739.744	11109.51
740.084	11142.28
740.424	11211.43
740.764	11137.53
741.104	11198.55
741.444	11195.16
741.784	11226.34
742.124	11239.22
742.464	11208.26
742.804	11255.95
743.143	11308.83
743.483	11335.27
743.823	11285.32
744.162	11222.73
744.502	11353.57
744.841	11320.35
745.181	11426.11
745.52	11408.26
745.86	11436.96
746.199	11452.55
746.538	11570.74
746.877	11590.4
747.216	11680.57
747.556	11663.62
747.895	11716.05
748.234	11828.36
748.573	11852.09
748.911	11849.6
749.25	11998.98
749.589	12011.41
749.928	12108.13
750.267	12204.62
750.605	12281.68
750.944	12316.48
751.283	12392.41
751.621	12509.7
751.96	12539.53
752.298	12665.63
752.636	12773.42
752.975	12890.03
753.313	12921.21
753.651	13060.19
753.989	13095.45
754.327	13251.37
754.666	13261.32
755.004	13503.57
755.342	13654.3
755.679	13799.83
756.017	13860.4
