Data from hue_160_FLMS001491_00088.txt Node
Date: Tue Feb 07 16:51:49 GMT 2017
User: dcchb
Spectrometer: FLMS00149
Trigger mode: 0
Integration Time (sec): 2.000000E-2
Scans to average: 10
Electric dark correction enabled: true
Nonlinearity correction enabled: false
Boxcar width: 0
XAxis mode: Wavelengths
Number of Pixels in Spectrum: 2048
>>>>>Begin Spectral Data<<<<<
341.393	-5.42
341.776	-5.42
342.16	-5.42
342.543	-55.14
342.927	-61.92
343.31	-67.12
343.693	-58.3
344.077	-76.83
344.46	-52.2
344.843	-46.33
345.226	-58.53
345.61	-21.92
345.993	-5.88
346.376	-1.36
346.759	4.07
347.142	-2.94
347.525	53.78
347.908	44.97
348.291	54.46
348.674	104.18
349.057	129.94
349.44	122.26
349.823	151.18
350.206	166.1
350.588	179.2
350.971	216.72
351.354	247.9
351.737	237.28
352.119	243.38
352.502	263.27
352.884	270.5
353.267	263.5
353.65	282.48
354.032	294.46
354.414	310.05
354.797	303.27
355.179	325.42
355.562	301.46
355.944	305.3
356.326	320.9
356.709	333.32
357.091	340.33
357.473	349.6
357.855	353.21
358.238	336.04
358.62	328.8
359.002	337.39
359.384	343.27
359.766	352.76
360.148	332.65
360.53	321.12
360.912	344.17
361.294	338.07
361.676	338.52
362.057	348.01
362.439	331.52
362.821	330.61
363.203	334.68
363.584	333.55
363.966	321.57
364.348	301.01
364.729	323.38
365.111	321.8
365.493	310.5
365.874	313.21
366.256	306.66
366.637	302.82
367.019	305.3
367.4	292.2
367.781	304.4
368.163	337.39
368.544	315.02
368.925	306.21
369.306	327.9
369.688	311.18
370.069	320.9
370.45	313.21
370.831	298.75
371.212	307.34
371.593	325.42
371.974	326.32
372.355	322.48
372.736	313.66
373.117	322.25
373.498	291.52
373.879	317.96
374.26	322.25
374.641	313.21
375.021	320.67
375.402	289.71
375.783	322.03
376.163	325.87
376.544	336.04
376.925	323.61
377.305	336.49
377.686	309.82
378.066	324.96
378.447	344.4
378.827	354.34
379.208	333.55
379.588	339.65
379.968	331.52
380.349	338.75
380.729	335.36
381.109	337.39
381.489	344.17
381.87	326.32
382.25	320.44
382.63	347.34
383.01	337.84
383.39	341.91
383.77	347.79
384.15	344.4
384.53	356.6
384.91	347.11
385.29	338.52
385.67	342.59
386.049	352.31
386.429	357.28
386.809	353.89
387.189	360.22
387.568	341.46
387.948	360.67
388.328	344.4
388.707	362.02
389.087	374.68
389.466	347.34
389.846	336.04
390.225	388.46
390.605	341.23
390.984	361.8
391.363	364.28
391.743	368.35
392.122	387.11
392.501	371.97
392.881	388.69
393.26	367.9
393.639	381.68
394.018	377.62
394.397	384.17
394.776	379.65
395.155	380.33
395.534	394.57
395.913	374.45
396.292	385.75
396.671	387.11
397.05	379.2
397.429	387.56
397.808	416.71
398.186	394.57
398.565	410.38
398.944	410.84
399.323	409.71
399.701	399.99
400.08	411.51
400.458	387.56
400.837	411.06
401.215	401.12
401.594	395.47
401.972	399.09
402.351	412.64
402.729	405.19
403.107	405.87
403.486	416.94
403.864	443.6
404.242	423.94
404.62	417.84
404.999	430.72
405.377	419.42
405.755	428.69
406.133	451.51
406.511	425.98
406.889	448.8
407.267	436.37
407.645	446.99
408.023	449.93
408.401	443.38
408.779	446.32
409.156	442.02
409.534	445.86
409.912	459.65
410.29	474.56
410.667	479.08
411.045	485.41
411.422	452.64
411.8	464.62
412.178	482.02
412.555	486.99
412.933	466.2
413.31	508.01
413.687	483.38
414.065	472.53
414.442	487.9
414.819	498.07
415.197	503.94
415.574	506.2
415.951	534.68
416.328	505.3
416.705	511.17
417.082	516.6
417.46	521.12
417.837	530.16
418.214	504.85
418.591	523.15
418.967	529.7
419.344	546.65
419.721	530.16
420.098	552.53
420.475	554.56
420.852	572.41
421.228	567.22
421.605	553.21
421.982	558.4
422.358	592.3
422.735	560.44
423.111	554.56
423.488	569.02
423.864	578.97
424.241	597.27
424.617	609.93
424.994	604.96
425.37	614.9
425.746	615.35
426.123	602.24
426.499	600.44
426.875	615.58
427.251	623.94
427.627	639.08
428.003	646.31
428.379	668.91
428.756	661.68
429.132	641.34
429.507	639.98
429.883	657.84
430.259	670.04
430.635	692.86
431.011	683.15
431.387	673.43
431.763	703.71
432.138	684.5
432.514	719.98
432.89	728.12
433.265	721.34
433.641	723.82
434.016	733.77
434.392	725.18
434.767	747.78
435.143	744.84
435.518	752.75
435.894	764.27
436.269	763.14
436.644	784.61
437.02	807.89
437.395	778.96
437.77	807.89
438.145	818.06
438.52	833.42
438.895	838.62
439.271	812.86
439.646	817.61
440.021	832.29
440.395	860.77
440.77	872.52
441.145	853.54
441.52	875.01
441.895	881.33
442.27	882.69
442.645	889.47
443.019	881.11
443.394	883.59
443.769	907.32
444.143	928.79
444.518	902.58
444.892	895.34
445.267	948.68
445.641	937.6
446.016	922.91
446.39	932.86
446.764	933.76
447.139	966.08
447.513	939.64
447.887	934.89
448.262	967.43
448.636	981.9
449.01	1009.24
449.384	971.95
449.758	991.16
450.132	996.58
450.506	1036.81
450.88	1019.41
451.254	1036.36
451.628	1013.53
452.002	1060.31
452.376	1055.79
452.75	1077.26
453.123	1080.65
453.497	1112.51
453.871	1109.12
454.244	1133.76
454.618	1149.12
454.992	1126.3
455.365	1142.12
455.739	1192.51
456.112	1191.38
456.486	1188.9
456.859	1229.35
457.232	1216.69
457.606	1208.78
457.979	1242.45
458.352	1261.21
458.725	1288.55
459.099	1283.58
459.472	1281.55
459.845	1333.3
460.218	1335.56
460.591	1356.57
460.964	1384.6
461.337	1391.83
461.71	1425.5
462.083	1433.63
462.456	1435.89
462.829	1456.91
463.201	1479.51
463.574	1485.16
463.947	1497.59
464.32	1535.55
464.692	1557.02
465.065	1572.39
465.438	1595.66
465.81	1591.6
466.183	1637.25
466.555	1684.02
466.928	1698.94
467.3	1699.62
467.672	1741.2
468.045	1762.44
468.417	1806.73
468.789	1818.94
469.161	1842.66
469.534	1876.56
469.906	1919.95
470.278	1949.78
470.65	1970.57
471.022	2029.78
471.394	2058.7
471.766	2096.89
472.138	2136.22
472.51	2204.91
472.882	2215.31
473.253	2260.73
473.625	2304.35
473.997	2359.26
474.369	2372.82
474.74	2455.98
475.112	2497.11
475.484	2564.23
475.855	2603.32
476.227	2668.4
476.598	2741.85
476.97	2795.63
477.341	2863.2
477.713	2927.38
478.084	2951.33
478.455	3058.22
478.827	3101.16
479.198	3258.45
479.569	3280.59
479.94	3396.52
480.311	3430.87
480.682	3531.21
481.053	3627.7
481.424	3745.44
481.795	3841.93
482.166	3897.3
482.537	3993.34
482.908	4109.27
483.279	4215.71
483.65	4371.41
484.021	4438.08
484.391	4541.58
484.762	4650.05
485.133	4692.76
485.503	4842.58
485.874	4967.1
486.244	5097.72
486.615	5270.37
486.985	5283.02
487.356	5440.31
487.726	5562.11
488.097	5748.1
488.467	5833.07
488.837	6003.01
489.207	6036.9
489.578	6207.97
489.948	6285.94
490.318	6448.64
490.688	6558.47
491.058	6676.89
491.428	6773.61
491.798	6953.04
492.168	7084.56
492.538	7219.47
492.908	7305.57
493.278	7433.02
493.648	7571.55
494.017	7740.36
494.387	7880.7
494.757	7964.54
495.126	8071.43
495.496	8127.92
495.866	8281.82
496.235	8398.2
496.605	8547.8
496.974	8662.82
497.344	8737.17
497.713	8811.52
498.082	8949.14
498.452	9029.14
498.821	9115.24
499.19	9192.3
499.559	9335.57
499.928	9436.36
500.298	9516.36
500.667	9630.93
501.036	9593.19
501.405	9831.83
501.774	9823.7
502.143	9933.98
502.512	10006.06
502.88	10057.59
503.249	10137.59
503.618	10253.06
503.987	10323.12
504.356	10337.58
504.724	10452.83
505.093	10518.37
505.462	10562.21
505.83	10609.89
506.199	10726.95
506.567	10794.97
506.936	10795.87
507.304	10958.58
507.672	11031.35
508.041	11125.13
508.409	11133.49
508.777	11217.78
509.145	11229.31
509.514	11230.21
509.882	11432.02
510.25	11425.01
510.618	11435.63
510.986	11493.94
511.354	11568.96
511.722	11634.04
512.09	11794.49
512.458	11745.23
512.826	11830.42
513.193	11822.29
513.561	11900.03
513.929	11938.22
514.297	12006.46
514.664	12074.03
515.032	12172.79
515.4	12203.52
515.767	12186.57
516.135	12203.07
516.502	12105.67
516.869	12285.78
517.237	12310.18
517.604	12274.71
517.972	12396.28
518.339	12424.31
518.706	12346.79
519.073	12456.85
519.44	12526.22
519.808	12509.28
520.175	12527.81
520.542	12583.4
520.909	12726.45
521.276	12575.49
521.643	12713.79
522.009	12755.37
522.376	12768.48
522.743	12783.62
523.11	12913.33
523.477	12983.84
523.843	12935.03
524.21	12958.53
524.577	13045.98
524.943	13019.77
525.31	13117.17
525.676	13157.85
526.043	13133.21
526.409	13192.42
526.776	13290.5
527.142	13247.34
527.508	13336.15
527.874	13305.86
528.241	13351.74
528.607	13298.63
528.973	13341.57
529.339	13299.99
529.705	13393.09
530.071	13468.35
530.437	13380.21
530.803	13431.96
531.169	13416.14
531.535	13393.09
531.901	13326.88
532.267	13339.99
532.632	13370.5
532.998	13352.42
533.364	13409.59
533.73	13344.28
534.095	13407.33
534.461	13343.38
534.826	13408.91
535.192	13389.03
535.557	13386.09
535.923	13258.63
536.288	13368.91
536.653	13288.92
537.019	13290.72
537.384	13195.59
537.749	13231.97
538.114	13287.33
538.479	13143.16
538.845	13134.34
539.21	13067.23
539.575	13111.52
539.94	13007.57
540.305	13084.4
540.67	13019.09
541.034	12959.66
541.399	13015.48
541.764	12903.84
542.129	12965.99
542.494	12898.19
542.858	12896.61
543.223	12847.12
543.587	12829.04
543.952	12767.12
544.316	12773.9
544.681	12645.77
545.045	12725.32
545.41	12725.09
545.774	12766.9
546.138	12636.96
546.503	12628.14
546.867	12533.68
547.231	12692.32
547.595	12601.93
547.959	12570.52
548.324	12443.29
548.688	12468.37
549.052	12363.74
549.416	12314.7
549.779	12311.77
550.143	12298.21
550.507	12326.46
550.871	12324.87
551.235	12217.31
551.599	12286
551.962	12210.75
552.326	12188.38
552.689	12261.82
553.053	12137.99
553.417	12115.16
553.78	12158.1
554.143	12080.13
554.507	12080.59
554.87	12032
555.234	12156.06
555.597	12022.51
555.96	12015.96
556.323	11994.03
556.686	12032.23
557.05	11958.56
557.413	12008.72
557.776	11947.71
558.139	11975.05
558.502	11982.28
558.865	11890.53
559.228	11994.49
559.59	12001.49
559.953	11934.15
560.316	12013.92
560.679	12008.72
561.041	12010.31
561.404	12021.6
561.767	11947.71
562.129	11957.43
562.492	11993.36
562.854	11985
563.217	11975.96
563.579	11968.5
563.941	11980.25
564.304	12049.4
564.666	12166.46
565.028	12003.07
565.39	11996.97
565.753	12003.53
566.115	12105.44
566.477	12072.45
566.839	12130.75
567.201	12127.82
567.563	12168.27
567.925	12110.87
568.287	12116.52
568.648	12103.86
569.01	12237.87
569.372	12255.27
569.734	12119.68
570.095	12249.4
570.457	12233.8
570.819	12287.13
571.18	12240.81
571.542	12300.02
571.903	12272.22
572.265	12260.92
572.626	12322.61
572.987	12355.38
573.349	12309.51
573.71	12378.43
574.071	12332.33
574.432	12328.04
574.794	12448.49
575.155	12428.6
575.516	12362.39
575.877	12447.36
576.238	12394.02
576.599	12464.76
576.96	12411.65
577.32	12446.9
577.681	12474.93
578.042	12468.82
578.403	12481.48
578.763	12493.68
579.124	12542.72
579.485	12479.22
579.845	12526.45
580.206	12415.04
580.566	12478.09
580.927	12486.23
581.287	12521.25
581.648	12412.33
582.008	12453.68
582.368	12424.76
582.728	12494.36
583.089	12407.13
583.449	12431.99
583.809	12487.81
584.169	12436.74
584.529	12299.79
584.889	12497.98
585.249	12339.34
585.609	12316.51
585.969	12360.35
586.329	12377.08
586.688	12332.33
587.048	12349.96
587.408	12298.66
587.768	12343.63
588.127	12326
588.487	12312.44
588.846	12328.94
589.206	12309.05
589.565	12344.08
589.925	12274.25
590.284	12244.65
590.643	12291.2
591.003	12333.01
591.362	12311.31
591.721	12288.94
592.08	12283.52
592.44	12264.99
592.799	12215.27
593.158	12162.84
593.517	12192.9
593.876	12191.77
594.235	12269.51
594.593	12142.73
594.952	12240.36
595.311	12178.66
595.67	12208.72
596.029	12225.44
596.387	12229.28
596.746	12214.82
597.104	12150.64
597.463	12051.43
597.822	12257.98
598.18	12117.2
598.538	12124.2
598.897	12207.36
599.255	12167.36
599.613	12252.56
599.972	12147.48
600.33	12192.22
600.688	12154.03
601.046	12181.15
601.404	12300.69
601.762	12227.7
602.12	12229.96
602.478	12118.78
602.836	12199.91
603.194	12135.5
603.552	12177.53
603.91	12181.15
604.268	12224.09
604.625	12169.17
604.983	12179.57
605.341	12211.66
605.698	12164.65
606.056	12164.88
606.413	12165.78
606.771	12202.39
607.128	12164.88
607.485	12159
607.843	12186.35
608.2	12204.65
608.557	12213.24
608.914	12201.26
609.272	12245.78
609.629	12248.04
609.986	12347.47
610.343	12191.32
610.7	12331.43
611.057	12271.09
611.414	12284.2
611.771	12226.57
612.127	12342.5
612.484	12326
612.841	12387.02
613.198	12368.94
613.554	12219.57
613.911	12323.74
614.267	12361.26
614.624	12350.86
614.98	12372.78
615.337	12385.89
615.693	12448.49
616.05	12384.08
616.406	12411.65
616.762	12417.53
617.118	12443.29
617.475	12422.05
617.831	12477.86
618.187	12554.25
618.543	12455.72
618.899	12587.47
619.255	12516.73
619.611	12476.28
619.967	12521.48
620.323	12603.51
620.678	12536.85
621.034	12476.06
621.39	12498.65
621.746	12506.11
622.101	12674.69
622.457	12527.58
622.812	12548.37
623.168	12558.31
623.523	12522.38
623.879	12597.86
624.234	12454.14
624.589	12553.79
624.945	12462.72
625.3	12516.06
625.655	12545.21
626.01	12550.63
626.365	12528.94
626.72	12496.85
627.075	12535.04
627.43	12488.71
627.785	12482.16
628.14	12469.95
628.495	12586.56
628.85	12463.85
629.205	12452.33
629.559	12558.54
629.914	12422.27
630.269	12471.31
630.623	12450.75
630.978	12488.71
631.332	12389.73
631.687	12485.55
632.041	12468.82
632.396	12400.13
632.75	12407.13
633.104	12371.43
633.459	12329.85
633.813	12309.28
634.167	12321.94
634.521	12302.73
634.875	12300.69
635.229	12250.75
635.583	12316.51
635.937	12244.42
636.291	12252.33
636.645	12230.64
636.999	12162.17
637.352	12185.67
637.706	12125.56
638.06	12214.14
638.413	12140.7
638.767	12121.94
639.121	12164.65
639.474	12029.29
639.828	12098.44
640.181	12051.89
640.534	12107.25
640.888	12058.89
641.241	11952.23
641.594	12043.53
641.947	11974.83
642.301	12047.37
642.654	12030.19
643.007	12036.75
643.36	12006.92
643.713	11969.85
644.066	11958.1
644.419	11955.62
644.771	11878.33
645.124	11788.62
645.477	11765.11
645.83	11669.07
646.182	11663.87
646.535	11535.29
646.888	11566.7
647.24	11480.83
647.593	11553.82
647.945	11526.93
648.298	11498
648.65	11505.23
649.002	11525.12
649.355	11600.82
649.707	11524.44
650.059	11603.31
650.411	11768.28
650.763	11747.71
651.115	11821.16
651.467	11789.07
651.819	11795.62
652.171	11725.34
652.523	11851.89
652.875	11772.57
653.227	11757.43
653.578	11778.45
653.93	11860.25
654.282	11714.49
654.633	11806.24
654.985	11746.36
655.337	11761.27
655.688	11821.38
656.039	11788.84
656.391	11691.44
656.742	11666.36
657.094	11741.61
657.445	11753.82
657.796	11768.96
658.147	11770.99
658.498	11741.39
658.849	11730.54
659.2	11795.62
659.551	11659.58
659.902	11776.64
660.253	11765.79
660.604	11806.92
660.955	11751.78
661.306	11781.84
661.656	11829.97
662.007	11837.2
662.358	11829.29
662.708	11767.6
663.059	11873.13
663.409	11665.23
663.76	11811.89
664.11	11808.96
664.461	11859.35
664.811	11877.65
665.161	11913.13
665.511	11829.07
665.862	11866.13
666.212	11887.6
666.562	11829.52
666.912	11826.58
667.262	11825.9
667.612	11910.42
667.962	11893.25
668.312	11823.64
668.662	11875.62
669.011	11875.39
669.361	11709.3
669.711	11818.22
670.06	11736.41
670.41	11806.47
670.76	11787.71
671.109	11856.64
671.459	11773.02
671.808	11821.38
672.157	11799.46
672.507	11643.54
672.856	11715.4
673.205	11819.12
673.554	11752.01
673.904	11719.47
674.253	11815.06
674.602	11657.55
674.951	11473.14
675.3	11534.39
675.649	11645.8
675.998	11597.66
676.346	11709.75
676.695	11733.93
677.044	11601.73
677.393	11589.53
677.741	11634.95
678.09	11571.45
678.438	11600.15
678.787	11577.77
679.135	11562.41
679.484	11516.53
679.832	11513.82
680.181	11411.23
680.529	11472.24
680.877	11380.04
681.225	11474.73
681.573	11451.68
681.922	11450.32
682.27	11370.77
682.618	11400.15
682.966	11302.98
683.314	11363.99
683.661	11282.42
684.009	11344.11
684.357	11213.94
684.705	11200.84
685.053	11261.4
685.4	11195.86
685.748	11224.79
686.095	11145.47
686.443	11142.76
686.79	11156.54
687.138	11087.84
687.485	11173.94
687.832	11044.68
688.18	11061.18
688.527	10959.03
688.874	10960.16
689.221	10906.38
689.568	10879.26
689.915	10942.76
690.262	10954.51
690.609	10860.51
690.956	10807.63
691.303	10763.11
691.65	10738.93
691.997	10705.03
692.344	10630.23
692.69	10641.75
693.037	10649.44
693.383	10570.8
693.73	10512.72
694.077	10500.97
694.423	10471.82
694.769	10355.89
695.116	10331.71
695.462	10311.59
695.808	10326.73
696.155	10320.63
696.501	10246.74
696.847	10206.74
697.193	10160.18
697.539	10149.34
697.885	10159.73
698.231	10031.83
698.577	10070.92
698.923	10014.65
699.269	9886.97
699.614	9954.77
699.96	9868.89
700.306	9925.84
700.651	9852.17
700.997	9807.2
701.342	9787.77
701.688	9713.64
702.033	9738.28
702.379	9679.97
702.724	9685.62
703.069	9679.75
703.415	9538.28
703.76	9550.48
704.105	9607.88
704.45	9563.14
704.795	9460.77
705.14	9432.97
705.485	9421
705.83	9416.93
706.175	9339.87
706.52	9349.13
706.865	9269.81
707.209	9333.31
707.554	9245.86
707.899	9243.37
708.243	9213.54
708.588	9189.36
708.932	9122.47
709.277	9098.52
709.621	9085.41
709.966	9018.07
710.31	9018.29
710.654	8981.91
710.998	8968.35
711.342	9016.49
711.687	8983.49
712.031	8953.21
712.375	8863.04
712.719	8895.81
713.063	8861.69
713.407	8904.4
713.75	8824.4
714.094	8769.26
714.438	8723.84
714.782	8773.1
715.125	8754.57
715.469	8737.4
715.812	8748.02
716.156	8667.57
716.499	8674.12
716.843	8707.57
717.186	8636.84
717.53	8695.14
717.873	8700.79
718.216	8650.39
718.559	8616.95
718.902	8598.87
719.246	8645.65
719.589	8532.21
719.932	8564.75
720.275	8513.9
720.617	8549.83
720.96	8531.3
721.303	8488.14
721.646	8532.66
721.989	8481.58
722.331	8472.55
722.674	8468.48
723.016	8519.78
723.359	8455.37
723.701	8462.6
724.044	8381.93
724.386	8391.64
724.729	8412.21
725.071	8442.26
725.413	8409.5
725.755	8397.75
726.097	8320.01
726.439	8315.26
726.782	8340.12
727.124	8394.36
727.465	8331.08
727.807	8299.89
728.149	8326.33
728.491	8337.18
728.833	8315.94
729.175	8266.22
729.516	8316.39
729.858	8287.24
730.199	8263.51
730.541	8305.32
730.882	8297.86
731.224	8305.54
731.565	8323.17
731.906	8309.61
732.248	8289.95
732.589	8250.63
732.93	8218.54
733.271	8241.82
733.612	8256.05
733.953	8287.24
734.294	8237.98
734.635	8255.15
734.976	8282.04
735.317	8205.66
735.658	8231.2
735.999	8278.65
736.339	8237.98
736.68	8235.04
737.021	8307.35
737.361	8288.6
737.702	8369.27
738.042	8294.92
738.383	8278.2
738.723	8301.93
739.063	8385.77
739.404	8319.1
739.744	8349.61
740.084	8290.86
740.424	8329.72
740.764	8311.65
741.104	8377.41
741.444	8398.65
741.784	8312.1
742.124	8416.73
742.464	8433.22
742.804	8431.42
743.143	8451.08
743.483	8463.05
743.823	8431.42
744.162	8503.73
744.502	8493.34
744.841	8503.05
745.181	8587.12
745.52	8561.58
745.86	8623.73
746.199	8609.27
746.538	8705.99
746.877	8689.94
747.216	8745.08
747.556	8787.34
747.895	8890.61
748.234	8894.46
748.573	8979.65
748.911	8989.14
749.25	9040.89
749.589	9061.23
749.928	9170.83
750.267	9256.03
750.605	9211.28
750.944	9367.66
751.283	9409.24
751.621	9569.01
751.96	9574.21
752.298	9664.83
752.636	9715
752.975	9849.01
753.313	9911.83
753.651	9947.08
753.989	10067.08
754.327	10133.07
754.666	10212.61
755.004	10371.93
755.342	10494.41
755.679	10566.5
756.017	10666.84
756.355	10888.08
756.693	10944.12
757.031	11097.11
757.368	11204.9
757.706	11325.13
758.044	11453.48
758.381	11565.8
758.719	11790.2
759.056	11943.64
759.394	12032.45
