Data from hue_34_FLMS001491_00031.txt Node
Date: Tue Feb 07 17:25:31 GMT 2017
User: dcchb
Spectrometer: FLMS00149
Trigger mode: 0
Integration Time (sec): 2.000000E-2
Scans to average: 10
Electric dark correction enabled: true
Nonlinearity correction enabled: false
Boxcar width: 0
XAxis mode: Wavelengths
Number of Pixels in Spectrum: 2048
>>>>>Begin Spectral Data<<<<<
341.393	-30.49
341.776	-30.49
342.16	-30.49
342.543	-69.81
342.927	-62.81
343.31	-81.34
343.693	-76.82
344.077	-69.81
344.46	-57.39
344.843	-40.21
345.226	-52.19
345.61	-30.04
345.993	-25.07
346.376	-6.77
346.759	18.54
347.142	39.11
347.525	28.26
347.908	43.4
348.291	101.25
348.674	93.12
349.057	115.94
349.44	137.41
349.823	155.26
350.206	162.27
350.588	190.97
350.971	203.85
351.354	230.74
351.737	233.68
352.119	247.47
352.502	261.02
352.884	290.18
353.267	268.03
353.65	293.34
354.032	303.06
354.414	310.74
354.797	315.26
355.179	324.3
355.562	318.65
355.944	346.9
356.326	318.65
356.709	324.75
357.091	325.2
357.473	339.21
357.855	326.79
358.238	338.76
358.62	328.82
359.002	345.99
359.384	358.65
359.766	342.83
360.148	335.6
360.53	334.69
360.912	343.06
361.294	320.01
361.676	323.4
362.057	342.83
362.439	340.57
362.821	342.38
363.203	333.79
363.584	310.06
363.966	314.81
364.348	337.18
364.729	308.48
365.111	333.34
365.493	316.84
365.874	328.37
366.256	313
366.637	320.01
367.019	324.53
367.4	326.11
367.781	315.49
368.163	300.57
368.544	312.32
368.925	335.37
369.306	309.38
369.688	305.77
370.069	304.19
370.45	308.03
370.831	325.2
371.212	320.46
371.593	320.91
371.974	315.71
372.355	310.06
372.736	329.27
373.117	311.64
373.498	311.87
373.879	349.84
374.26	310.97
374.641	322.72
375.021	321.81
375.402	322.49
375.783	328.14
376.163	320.01
376.544	326.79
376.925	326.56
377.305	324.98
377.686	321.59
378.066	339.67
378.447	335.82
378.827	340.34
379.208	323.62
379.588	318.65
379.968	318.88
380.349	319.55
380.729	323.62
381.109	318.42
381.489	317.75
381.87	328.14
382.25	327.92
382.63	341.47
383.01	335.82
383.39	342.6
383.77	349.61
384.15	351.64
384.53	343.96
384.91	340.12
385.29	343.73
385.67	353
386.049	352.77
386.429	349.84
386.809	349.38
387.189	325.2
387.568	369.04
387.948	343.51
388.328	361.81
388.707	334.92
389.087	362.94
389.466	353
389.846	350.29
390.225	385.09
390.605	364.75
390.984	362.26
391.363	368.82
391.743	355.49
392.122	349.84
392.501	367.46
392.881	356.61
393.26	388.7
393.639	374.02
394.018	374.24
394.397	390.51
394.776	389.38
395.155	366.11
395.534	371.08
395.913	367.24
396.292	377.86
396.671	383.28
397.05	386.67
397.429	367.01
397.808	380.8
398.186	376.05
398.565	387.8
398.944	391.42
399.323	400.23
399.701	380.12
400.08	387.12
400.458	405.65
400.837	397.74
401.215	397.52
401.594	406.33
401.972	398.87
402.351	392.77
402.729	417.63
403.107	419.44
403.486	407.24
403.864	409.49
404.242	417.18
404.62	423.96
404.999	417.18
405.377	435.71
405.755	436.16
406.133	424.18
406.511	421.92
406.889	438.42
407.267	424.18
407.645	429.16
408.023	421.7
408.401	454.92
408.779	409.49
409.156	420.79
409.534	453.34
409.912	459.89
410.29	450.4
410.667	444.97
411.045	457.86
411.422	436.84
411.8	461.92
412.178	461.02
412.555	443.84
412.933	454.24
413.31	457.4
413.687	468.7
414.065	465.54
414.442	461.7
414.819	465.31
415.197	474.58
415.574	470.51
415.951	478.65
416.328	491.75
416.705	502.6
417.082	485.2
417.46	479.1
417.837	510.96
418.214	495.14
418.591	500.11
418.967	504.63
419.344	500.57
419.721	499.44
420.098	507.8
420.475	510.74
420.852	525.88
421.228	494.01
421.605	502.6
421.982	517.06
422.358	505.31
422.735	531.75
423.111	544.41
423.488	530.62
423.864	517.74
424.241	557.06
424.617	543.73
424.994	558.19
425.37	559.32
425.746	570.39
426.123	573.78
426.499	583.05
426.875	567.46
427.251	555.93
427.627	583.5
428.003	572.88
428.379	572.65
428.756	556.16
429.132	584.18
429.507	567.46
429.883	587.12
430.259	584.63
430.635	607.46
431.011	630.28
431.387	595.48
431.763	628.25
432.138	602.94
432.514	626.44
432.89	620.56
433.265	629.38
433.641	625.08
434.016	625.53
434.392	651.07
434.767	649.26
435.143	663.27
435.518	657.85
435.894	672.09
436.269	673.89
436.644	659.88
437.02	664.63
437.395	660.34
437.77	678.19
438.145	690.84
438.52	673.44
438.895	706.21
439.271	707.11
439.646	718.64
440.021	705.98
440.395	698.53
440.77	716.15
441.145	698.3
441.52	730.16
441.895	720
442.27	762.93
442.645	734.01
443.019	748.24
443.394	733.33
443.769	757.06
444.143	740.11
444.518	749.6
444.892	737.4
445.267	779.43
445.641	748.02
446.016	776.72
446.39	771.97
446.764	791.86
447.139	771.97
447.513	751.18
447.887	812.2
448.262	786.21
448.636	788.69
449.01	799.77
449.384	814.91
449.758	816.72
450.132	807.9
450.506	823.04
450.88	833.66
451.254	827.34
451.628	816.49
452.002	832.53
452.376	847.45
452.75	861.01
453.123	863.04
453.497	855.13
453.871	875.7
454.244	897.62
454.618	879.31
454.992	912.53
455.365	891.06
455.739	911.18
456.112	935.13
456.486	957.5
456.859	935.58
457.232	967.9
457.606	930.84
457.979	950.95
458.352	983.94
458.725	996.6
459.099	987.78
459.472	1010.16
459.845	1016.71
460.218	1029.37
460.591	1033.89
460.964	1014.45
461.337	1057.39
461.71	1079.76
462.083	1089.93
462.456	1084.05
462.829	1118.4
463.201	1100.78
463.574	1113.43
463.947	1110.72
464.32	1133.09
464.692	1148.46
465.065	1147.55
465.438	1165.86
465.81	1189.14
466.183	1208.12
466.555	1216.03
466.928	1258.51
467.3	1263.03
467.672	1262.35
468.045	1305.97
468.417	1304.84
468.789	1301
469.161	1296.25
469.534	1325.63
469.906	1355.23
470.278	1418.28
470.65	1412.41
471.022	1412.63
471.394	1421.45
471.766	1489.69
472.138	1507.32
472.51	1521.1
472.882	1553.19
473.253	1564.94
473.625	1588.45
473.997	1623.93
474.369	1678.16
474.74	1679.07
475.112	1705.51
475.484	1755.67
475.855	1792.74
476.227	1822.34
476.598	1897.14
476.97	1890.36
477.341	1973.97
477.713	1990.47
478.084	2002.67
478.455	2075.44
478.827	2107.08
479.198	2158.6
479.569	2164.03
479.94	2290.58
480.311	2314.76
480.682	2363.57
481.053	2429.55
481.424	2493.73
481.795	2480.85
482.166	2584.58
482.537	2651.92
482.908	2712.94
483.279	2751.81
483.65	2814.18
484.021	2920.39
484.391	2971.91
484.762	3075.19
485.133	3058.92
485.503	3159.93
485.874	3229.99
486.244	3294.16
486.615	3376.42
486.985	3453.93
487.356	3527.15
487.726	3595.4
488.097	3696.19
488.467	3707.26
488.837	3822.06
489.207	3914.71
489.578	4012.56
489.948	4074.26
490.318	4154.03
490.688	4205.1
491.058	4295.27
491.428	4388.15
491.798	4426.56
492.168	4554.47
492.538	4601.02
492.908	4689.83
493.278	4806.44
493.648	4821.13
494.017	4904.52
494.387	4993.56
494.757	5081.91
495.126	5144.06
495.496	5208.69
495.866	5287.78
496.235	5356.71
496.605	5404.84
496.974	5465.41
497.344	5582.01
497.713	5613.2
498.082	5698.4
498.452	5767.32
498.821	5767.55
499.19	5833.99
499.559	5934.32
499.928	6013.87
500.298	6029.01
500.667	6090.25
501.036	6095.45
501.405	6231.04
501.774	6257.48
502.143	6326.63
502.512	6353.75
502.88	6444.59
503.249	6484.36
503.618	6548.99
503.987	6615.21
504.356	6678.48
504.724	6701.76
505.093	6708.54
505.462	6808.65
505.83	6873.96
506.199	6888.65
506.567	7060.17
506.936	6968.19
507.304	7097.23
507.672	7169.77
508.041	7115.76
508.409	7203.67
508.777	7273.95
509.145	7323.44
509.514	7316.88
509.882	7379.71
510.25	7406.6
510.618	7478.46
510.986	7520.72
511.354	7567.27
511.722	7663.09
512.09	7778.11
512.458	7707.61
512.826	7761.62
513.193	7800.71
513.561	7846.59
513.929	7914.38
514.297	7990.09
514.664	8031.22
515.032	8040.71
515.4	8065.11
515.767	8183.98
516.135	8189.86
516.502	8158.22
516.869	8316.41
517.237	8323.64
517.604	8323.19
517.972	8397.99
518.339	8455.39
518.706	8469.62
519.073	8423.75
519.44	8489.96
519.808	8643.63
520.175	8630.52
520.542	8662.16
520.909	8769.5
521.276	8676.85
521.643	8770.18
522.009	8791.65
522.376	8908.25
522.743	8907.58
523.11	9016.95
523.477	9048.36
523.843	9182.15
524.21	9202.94
524.577	9229.6
524.943	9324.06
525.31	9392.31
525.676	9415.36
526.043	9434.57
526.409	9557.95
526.776	9582.59
527.142	9593.89
527.508	9630.72
527.874	9765.18
528.241	9746.42
528.607	9792.75
528.973	9886.53
529.339	9888.34
529.705	10068
530.071	10044.5
530.437	10071.16
530.803	10193.64
531.169	10181.22
531.535	10144.38
531.901	10253.53
532.267	10304.15
532.632	10356.8
532.998	10366.3
533.364	10458.95
533.73	10516.35
534.095	10557.7
534.461	10603.35
534.826	10656.46
535.192	10673.41
535.557	10693.97
535.923	10678.15
536.288	10810.35
536.653	10849.22
537.019	10821.2
537.384	10858.94
537.749	10959.27
538.114	10952.72
538.479	10965.83
538.845	11056.9
539.21	11060.74
539.575	11234.97
539.94	11208.08
540.305	11261.64
540.67	11296.44
541.034	11331.47
541.399	11404.69
541.764	11373.73
542.129	11518.13
542.494	11447.62
542.858	11531.01
543.223	11617.79
543.587	11645.13
543.952	11625.02
544.316	11695.98
544.681	11758.12
545.045	11819.59
545.41	11888.74
545.774	11905.01
546.138	11849.65
546.503	11957.44
546.867	11966.25
547.231	12088.74
547.595	12147.72
547.959	12121.05
548.324	12155.4
548.688	12174.16
549.052	12225.68
549.416	12312.68
549.779	12251.44
550.143	12351.78
550.507	12472
550.871	12434.04
551.235	12515.62
551.599	12641.04
551.962	12619.34
552.326	12641.04
552.689	12702.96
553.053	12662.05
553.417	12850.07
553.78	12920.8
554.143	12813.46
554.507	12909.05
554.87	12912.44
555.234	13040.58
555.597	13008.49
555.96	12989.73
556.323	13116.28
556.686	12992.44
557.05	13177.29
557.413	13197.41
557.776	13263.85
558.139	13324.86
558.502	13396.05
558.865	13398.53
559.228	13442.15
559.59	13437.85
559.953	13540.45
560.316	13663.16
560.679	13787.22
561.041	13761.23
561.404	13689.82
561.767	13878.52
562.129	13887.56
562.492	13990.38
562.854	13955.58
563.217	14002.13
563.579	14022.24
563.941	14105.86
564.304	14121.9
564.666	14197.38
565.028	14252.29
565.39	14305.85
565.753	14325.29
566.115	14416.58
566.477	14435.57
566.839	14531.16
567.201	14606.41
567.563	14495.23
567.925	14551.5
568.287	14704.71
568.648	14778.83
569.01	14816.57
569.372	14866.97
569.734	14913.52
570.095	14952.62
570.457	15027.42
570.819	15092.72
571.18	15165.04
571.542	15277.13
571.903	15227.41
572.265	15341.98
572.626	15386.5
572.987	15460.85
573.349	15568.87
573.71	15684.57
574.071	15731.8
574.432	15801.18
574.794	15951.46
575.155	15919.14
575.516	15977.45
575.877	16142.87
576.238	16125.92
576.599	16360.04
576.96	16407.49
577.32	16522.52
577.681	16574.95
578.042	16782.4
578.403	16853.81
578.763	16992.34
579.124	17136.29
579.485	17325.89
579.845	17420.12
580.206	17527.01
580.566	17691.3
580.927	17863.73
581.287	18073.21
581.648	18167.45
582.008	18293.54
582.368	18548.23
582.728	18684.49
583.089	18862.57
583.449	19091.49
583.809	19154.09
584.169	19436.57
584.529	19605.15
584.889	19921.07
585.249	20025.02
585.609	20067.06
585.969	20533.94
586.329	20726.25
586.688	20962.85
587.048	21118.1
587.408	21259.34
587.768	21571.2
588.127	21789.5
588.487	21980.23
588.846	22417.28
589.206	22459.76
589.565	22708.34
589.925	23039.41
590.284	23293.41
590.643	23604.37
591.003	23871.93
591.362	24126.84
591.721	24261.98
592.08	24607.28
592.44	24946.48
592.799	25116.19
593.158	25296.07
593.517	25598.89
593.876	25875.04
594.235	25982.38
594.593	26287.68
594.952	26740.78
595.311	26760.21
595.67	27173.08
596.029	27486.07
596.387	27783.69
596.746	27964.02
597.104	28286.28
597.463	28326.05
597.822	28716.32
598.18	28923.32
598.538	29101.85
598.897	29537.32
599.255	29669.29
599.613	30234.7
599.972	30170.52
600.33	30570.28
600.688	30595.37
601.046	30924.4
601.404	31320.09
601.762	31331.62
602.12	31693.87
602.478	31862.23
602.836	32136.8
603.194	32184.93
603.552	32411.37
603.91	32508.09
604.268	32801.19
604.625	32865.14
604.983	33260.83
605.341	33198.69
605.698	33716.87
606.056	33883.19
606.413	34077.08
606.771	34275.05
607.128	34569.73
607.485	34572.44
607.843	34704.19
608.2	35110.28
608.557	35248.35
608.914	35282.7
609.272	35534.45
609.629	35642.92
609.986	35936.92
610.343	36039.97
610.7	36391.15
611.057	36367.19
611.414	36405.38
611.771	36558.83
612.127	36973.28
612.484	36964.47
612.841	37234.06
613.198	37128.3
613.554	37277
613.911	37619.36
614.267	37877.66
614.624	37818.23
614.98	38084.89
615.337	38258.44
615.693	38269.06
616.05	38309.06
616.406	38690.75
616.762	38673.8
617.118	38756.28
617.475	38790.41
617.831	38943.4
618.187	39123.28
618.543	39235.37
618.899	39451.63
619.255	39596.94
619.611	39579.99
619.967	39683.94
620.323	39842.58
620.678	39757.61
621.034	39837.16
621.39	39941.34
621.746	39966.19
622.101	40422
622.457	40089.13
622.812	40357.82
623.168	40382.91
623.523	40452.06
623.879	40619.06
624.234	40364.83
624.589	40686.63
624.945	40771.15
625.3	40838.94
625.655	40777.47
626.01	40884.81
626.365	41024.7
626.72	40909.45
627.075	40835.1
627.43	40998.94
627.785	41062.89
628.14	41145.82
628.495	41062.89
628.85	41096.33
629.205	41074.41
629.559	41282.32
629.914	41127.07
630.269	41236.44
630.623	41155.77
630.978	41106.05
631.332	41386.04
631.687	41536.55
632.041	41270.79
632.396	41489.09
632.75	41269.66
633.104	41430.34
633.459	41164.13
633.813	41337.01
634.167	41321.87
634.521	41356.21
634.875	41367.06
635.229	41373.39
635.583	41233.51
635.937	41276.89
636.291	41346.05
636.645	41216.56
636.999	41118.03
637.352	41334.75
637.706	41164.58
638.06	41333.39
638.413	41241.87
638.767	41185.15
639.121	41348.98
639.474	41118.26
639.828	41088.43
640.181	41143.79
640.534	41154.86
640.888	40925.94
641.241	41065.6
641.594	40993.29
641.947	41108.99
642.301	41022.21
642.654	41046.84
643.007	40955.32
643.36	41045.04
643.713	40984.47
644.066	41232.6
644.419	40854.31
644.771	40616.12
645.124	40308.11
645.477	40244.83
645.83	40001
646.182	39929.59
646.535	39697.73
646.888	39834.22
647.24	39626.77
647.593	39951.51
647.945	39802.36
648.298	39510.39
648.65	39538.18
649.002	39461.12
649.355	39762.36
649.707	39638.75
650.059	39772.98
650.411	40252.29
650.763	40286.86
651.115	40597.14
651.467	40444.15
651.819	40507.2
652.171	40435.11
652.523	40398.95
652.875	40350.37
653.227	40344.04
653.578	40489.8
653.93	40307.43
654.282	40315.11
654.633	40136.36
654.985	40315.34
655.337	40312.85
655.688	40370.25
656.039	40488.67
656.391	40151.95
656.742	40232.63
657.094	40306.07
657.445	40316.02
657.796	40338.84
658.147	40112.86
658.498	40132.29
658.849	40149.24
659.2	40104.5
659.551	39942.24
659.902	40149.69
660.253	40284.6
660.604	40213.65
660.955	40069.7
661.306	40136.36
661.656	40095.23
662.007	39987.66
662.358	39999.41
662.708	40081.9
663.059	40149.01
663.409	39795.8
663.76	40098.62
664.11	40029.7
664.461	40020.43
664.811	40163.93
665.161	39980.43
665.511	39905.86
665.862	39939.53
666.212	40097.72
666.562	39927.78
666.912	39900.21
667.262	39864.05
667.612	39932.07
667.962	40011.39
668.312	39836.93
668.662	40081.22
669.011	39884.62
669.361	39971.84
669.711	39846.42
670.06	39866.99
670.41	39728.91
670.76	39754.9
671.109	39849.59
671.459	39800.55
671.808	39787.44
672.157	39838.97
672.507	39596.49
672.856	39618.41
673.205	39637.16
673.554	39699.54
673.904	39642.59
674.253	39763.71
674.602	39617.96
674.951	39065.65
675.3	39050.51
675.649	39568.24
675.998	39471.52
676.346	39528.01
676.695	39678.29
677.044	39380.9
677.393	39569.37
677.741	39584.96
678.09	39279.21
678.438	39411.18
678.787	39380
679.135	39296.38
679.484	39170.96
679.832	39313.56
680.181	39028.82
680.529	39267.68
680.877	39099.33
681.225	39134.35
681.573	39218.19
681.922	38889.84
682.27	38862.5
682.618	38879.67
682.966	38777.75
683.314	38888.03
683.661	38695.49
684.009	38554.25
684.357	38519.91
684.705	38467.93
685.053	38585.44
685.4	38377.08
685.748	38197.88
686.095	38294.15
686.443	38161.04
686.79	38094.38
687.138	38191.78
687.485	38278.78
687.832	37958.79
688.18	38029.75
688.527	38012.12
688.874	37762.86
689.221	37819.36
689.568	37607.84
689.915	37509.76
690.262	37589.08
690.609	37571.91
690.956	37368.75
691.303	37462.31
691.65	37163.1
691.997	37164.46
692.344	37008.53
692.69	36908.42
693.037	37005.14
693.383	36542.56
693.73	36917.24
694.077	36630.01
694.423	36690.12
694.769	36374.42
695.116	36394.31
695.462	36246.29
695.808	36282.68
696.155	36369.68
696.501	36143.47
696.847	36050.37
697.193	35805.85
697.539	35978.28
697.885	35688.34
698.231	35568.12
698.577	35501.91
698.923	35563.15
699.269	35346.66
699.614	35182.37
699.96	35174.68
700.306	35081.8
700.651	34957.06
700.997	34802.71
701.342	34781.7
701.688	34814.01
702.033	34671.42
702.379	34682.94
702.724	34446.34
703.069	34594.36
703.415	34253.58
703.76	34166.12
704.105	34250.19
704.45	34261.26
704.795	33895.85
705.14	33872.34
705.485	33907.37
705.83	33790.31
706.175	33764.55
706.52	33795.74
706.865	33639.36
707.209	33567.49
707.554	33299.25
707.899	33515.97
708.243	33306.93
708.588	33114.62
708.932	33063.55
709.277	33052.03
709.621	32975.19
709.966	32906.04
710.31	33013.61
710.654	32644.35
710.998	32705.59
711.342	32711.47
711.687	32499.27
712.031	32405.04
712.375	32316.45
712.719	32342.67
713.063	32262.67
713.407	32430.12
713.75	32179.28
714.094	32212.05
714.438	32020.42
714.782	32160.07
715.125	31899.51
715.469	32029.91
715.812	31838.05
716.156	31742.23
716.499	31720.76
716.843	31811.16
717.186	31499.07
717.53	31646.87
717.873	31698.62
718.216	31553.53
718.559	31391.96
718.902	31315.12
719.246	31300.89
719.589	31228.57
719.932	31097.05
720.275	31098.18
720.617	31044.62
720.96	30911.07
721.303	30902.03
721.646	30969.6
721.989	30707.68
722.331	30955.81
722.674	30649.83
723.016	30818.64
723.359	30783.61
723.701	30746.32
724.044	30432.21
724.386	30358.76
724.729	30466.56
725.071	30351.08
725.413	30277.64
725.755	30327.58
726.097	30247.35
726.439	30093.91
726.782	30078.32
727.124	30312.66
727.465	29954.71
727.807	30056.4
728.149	29910.19
728.491	29929.85
728.833	30068.38
729.175	29810.76
729.516	29820.25
729.858	29844.65
730.199	29630.65
730.541	29759.01
730.882	29725.79
731.224	29707.93
731.565	29374.16
731.906	29581.16
732.248	29522.85
732.589	29429.07
732.93	29251
733.271	29392.01
733.612	29349.52
733.953	29380.26
734.294	29303.88
734.635	29296.64
734.976	29218.23
735.317	28923.77
735.658	29077.89
735.999	28973.72
736.339	28931.91
736.68	29065.46
737.021	28925.13
737.361	28852.59
737.702	28902.98
738.042	28910.67
738.383	28684.91
738.723	28813.27
739.063	28641.75
739.404	28690.79
739.744	28681.97
740.084	28551.35
740.424	28514.29
740.764	28438.36
741.104	28553.84
741.444	28494.63
741.784	28375.31
742.124	28447.18
742.464	28304.13
742.804	28321.53
743.143	28284.02
743.483	28196.33
743.823	28159.73
744.162	28047.41
744.502	28102.1
744.841	27965.15
745.181	28151.36
745.52	27947.75
745.86	28073.85
746.199	27873.41
746.538	27932.84
746.877	27986.62
747.216	27910.47
747.556	27772.84
747.895	27756.35
748.234	27732.62
748.573	27504.6
748.911	27672.73
749.25	27613.07
749.589	27458.28
749.928	27480.2
750.267	27509.8
750.605	27350.71
750.944	27251.95
751.283	27174.89
751.621	27337.83
751.96	27042.69
752.298	27135.35
752.636	27009.02
752.975	27033.2
753.313	26890.83
753.651	27055.57
753.989	26831.4
754.327	26857.16
754.666	26676.83
755.004	26870.72
755.342	26758.41
755.679	26687.9
756.017	26602.48
756.355	26602.7
756.693	26396.83
757.031	26468.24
757.368	26392.99
757.706	26339.43
758.044	26220.34
