Data from hue_270_FLMS001491_00094.txt Node
Date: Tue Feb 07 15:57:56 GMT 2017
User: dcchb
Spectrometer: FLMS00149
Trigger mode: 0
Integration Time (sec): 2.000000E-2
Scans to average: 10
Electric dark correction enabled: true
Nonlinearity correction enabled: false
Boxcar width: 0
XAxis mode: Wavelengths
Number of Pixels in Spectrum: 2048
>>>>>Begin Spectral Data<<<<<
341.393	-6.93
341.776	-6.93
342.16	-6.93
342.543	-48.74
342.927	-62.53
343.31	-57.33
343.693	-76.31
344.077	-81.06
344.46	-41.28
344.843	-48.52
345.226	-44
345.61	-43.09
345.993	-22.53
346.376	-8.97
346.759	5.49
347.142	30.13
347.525	51.37
347.908	76
348.291	76.45
348.674	86.85
349.057	96.79
349.44	114.87
349.823	141.76
350.206	173.63
350.588	177.02
350.971	203.68
351.354	207.07
351.737	242.55
352.119	252.72
352.502	245.04
352.884	272.38
353.267	281.42
353.65	289.33
354.032	274.87
354.414	299.05
354.797	310.34
355.179	295.43
355.562	306.73
355.944	330.23
356.326	305.6
356.709	344.24
357.091	327.07
357.473	333.17
357.855	337.24
358.238	313.96
358.62	339.5
359.002	324.81
359.384	341.3
359.766	349.44
360.148	326.39
360.53	336.11
360.912	335.88
361.294	348.99
361.676	331.14
362.057	327.29
362.439	350.12
362.821	314.64
363.203	323
363.584	336.56
363.966	315.54
364.348	308.76
364.729	302.21
365.111	298.37
365.493	329.55
365.874	324.58
366.256	328.88
366.637	307.86
367.019	293.4
367.4	298.14
367.781	316.22
368.163	317.35
368.544	299.95
368.925	318.48
369.306	311.93
369.688	301.08
370.069	311.02
370.45	302.44
370.831	307.63
371.212	311.25
371.593	322.1
371.974	307.86
372.355	304.24
372.736	307.18
373.117	309.22
373.498	297.01
373.879	291.59
374.26	302.66
374.641	326.16
375.021	306.96
375.402	306.5
375.783	314.64
376.163	337.01
376.544	350.8
376.925	341.76
377.305	339.5
377.686	338.14
378.066	333.85
378.447	316.67
378.827	334.53
379.208	340.63
379.588	340.63
379.968	321.64
380.349	330.23
380.729	334.75
381.109	332.27
381.489	343.56
381.87	347.18
382.25	341.53
382.63	326.16
383.01	339.27
383.39	341.76
383.77	335.66
384.15	324.36
384.53	346.5
384.91	336.78
385.29	347.18
385.67	341.98
386.049	359.38
386.429	341.53
386.809	360.51
387.189	352.6
387.568	356.22
387.948	358.48
388.328	344.69
388.707	378.82
389.087	366.61
389.466	376.33
389.846	376.33
390.225	360.51
390.605	374.52
390.984	375.43
391.363	375.88
391.743	376.78
392.122	383.34
392.501	387.41
392.881	355.09
393.26	404.81
393.639	392.6
394.018	398.25
394.397	384.69
394.776	393.96
395.155	395.09
395.534	393.28
395.913	391.25
396.292	387.18
396.671	406.61
397.05	395.99
397.429	413.62
397.808	398.25
398.186	381.76
398.565	413.85
398.944	400.96
399.323	406.84
399.701	419.49
400.08	402.32
400.458	430.12
400.837	419.72
401.215	417.23
401.594	425.6
401.972	436.44
402.351	414.3
402.729	423.79
403.107	441.19
403.486	434.41
403.864	436.22
404.242	448.42
404.62	456.78
404.999	435.99
405.377	452.26
405.755	470.79
406.133	464.01
406.511	485.71
406.889	446.39
407.267	458.36
407.645	462.66
408.023	481.64
408.401	481.87
408.779	500.62
409.156	483
409.534	500.4
409.912	517.12
410.29	501.3
410.667	500.17
411.045	504.92
411.422	521.86
411.8	524.58
412.178	544.92
412.555	555.08
412.933	559.83
413.31	564.8
413.687	578.36
414.065	584.46
414.442	590.34
414.819	579.04
415.197	585.82
415.574	606.83
415.951	607.96
416.328	630.11
416.705	626.04
417.082	613.39
417.46	647.74
417.837	652.71
418.214	652.48
418.591	652.93
418.967	661.07
419.344	660.39
419.721	670.11
420.098	682.99
420.475	691.8
420.852	694.97
421.228	710.11
421.605	706.94
421.982	730.67
422.358	733.84
422.735	751.92
423.111	764.12
423.488	769.77
423.864	781.29
424.241	786.94
424.617	782.87
424.994	806.6
425.37	813.16
425.746	809.09
426.123	825.36
426.499	835.08
426.875	860.84
427.251	872.59
427.627	864.91
428.003	871.01
428.379	891.12
428.756	903.78
429.132	919.37
429.507	932.93
429.883	930.89
430.259	946.94
430.635	961.63
431.011	948.52
431.387	988.07
431.763	976.99
432.138	1005.24
432.514	1023.55
432.89	1035.52
433.265	1057.22
433.641	1075.3
434.016	1098.8
434.392	1111.23
434.767	1101.28
435.143	1120.27
435.518	1122.98
435.894	1159.81
436.269	1193.49
436.644	1196.42
437.02	1239.36
437.395	1233.48
437.77	1249.08
438.145	1262.86
438.52	1250.66
438.895	1289.75
439.271	1288.17
439.646	1339.24
440.021	1329.75
440.395	1356.19
440.77	1338.57
441.145	1367.94
441.52	1390.77
441.895	1396.87
442.27	1416.08
442.645	1422.63
443.019	1452.91
443.394	1460.6
443.769	1460.37
444.143	1452.01
444.518	1470.77
444.892	1468.28
445.267	1478.9
445.641	1498.11
446.016	1513.48
446.39	1534.49
446.764	1558.45
447.139	1557.54
447.513	1560.71
447.887	1565.68
448.262	1573.14
448.636	1564.55
449.01	1579.46
449.384	1599.8
449.758	1587.15
450.132	1627.6
450.506	1645.45
450.88	1641.38
451.254	1634.83
451.628	1680.25
452.002	1663.08
452.376	1696.75
452.75	1686.13
453.123	1673.02
453.497	1736.3
453.871	1769.74
454.244	1778.1
454.618	1829.18
454.992	1826.69
455.365	1837.54
455.739	1821.49
456.112	1864.43
456.486	1854.26
456.859	1884.99
457.232	1932.9
457.606	1919.57
457.979	1956.18
458.352	1957.31
458.725	1978.78
459.099	2012.22
459.472	2037.08
459.845	2001.83
460.218	2052.45
460.591	2087.7
460.964	2103.52
461.337	2120.24
461.71	2166.12
462.083	2177.64
462.456	2192.33
462.829	2191.88
463.201	2207.47
463.574	2229.39
463.947	2214.25
464.32	2285.43
464.692	2290.63
465.065	2315.72
465.438	2346.9
465.81	2360.01
466.183	2390.29
466.555	2442.04
466.928	2446.56
467.3	2446.11
467.672	2477.07
468.045	2520.68
468.417	2527.91
468.789	2517.07
469.161	2566.33
469.534	2619.21
469.906	2673.22
470.278	2685.2
470.65	2693.11
471.022	2771.98
471.394	2778.75
471.766	2802.26
472.138	2812.88
472.51	2873.89
472.882	2883.38
473.253	2967.9
473.625	2940.56
473.997	3004.51
474.369	3014.68
474.74	3024.85
475.112	3070.95
475.484	3141
475.855	3176.71
476.227	3195.01
476.598	3245.18
476.97	3263.04
477.341	3319.31
477.713	3420.09
478.084	3424.39
478.455	3473.43
478.827	3526.53
479.198	3603.82
479.569	3575.57
479.94	3668.9
480.311	3659.41
480.682	3702.35
481.053	3812.63
481.424	3835
481.795	3871.38
482.166	3915.45
482.537	3959.06
482.908	4034.99
483.279	4074.54
483.65	4129.45
484.021	4161.77
484.391	4199.51
484.762	4232.5
485.133	4237.7
485.503	4337.13
485.874	4372.84
486.244	4435.21
486.615	4528.31
486.985	4574.19
487.356	4561.76
487.726	4622.77
488.097	4716.33
488.467	4725.82
488.837	4785.26
489.207	4805.37
489.578	4942.54
489.948	4937.34
490.318	4977.79
490.688	4964.23
491.058	5063.44
491.428	5056.21
491.798	5153.83
492.168	5229.99
492.538	5248.52
492.908	5272.7
493.278	5328.74
493.648	5323.09
494.017	5392.7
494.387	5457.55
494.757	5500.94
495.126	5524.22
495.496	5524.45
495.866	5566.48
496.235	5586.59
496.605	5611.67
496.974	5629.53
497.344	5681.28
497.713	5701.39
498.082	5772.35
498.452	5786.81
498.821	5816.41
499.19	5786.59
499.559	5848.73
499.928	5858.67
500.298	5920.59
500.667	5939.12
501.036	5958.78
501.405	5968.05
501.774	5997.2
502.143	6034.04
502.512	6038.33
502.88	6039.46
503.249	6048.27
503.618	6131.89
503.987	6112.45
504.356	6144.09
504.724	6163.52
505.093	6168.72
505.462	6180.47
505.83	6196.29
506.199	6227.7
506.567	6293.92
506.936	6318.77
507.304	6343.63
507.672	6408.49
508.041	6354.93
508.409	6370.75
508.777	6485.78
509.145	6470.18
509.514	6441.94
509.882	6503.18
510.25	6446.68
510.618	6529.39
510.986	6527.58
511.354	6596.73
511.722	6627.24
512.09	6639.22
512.458	6583.4
512.826	6655.71
513.193	6665.88
513.561	6644.64
513.929	6621.14
514.297	6732.77
514.664	6761.02
515.032	6751.53
515.4	6709.72
515.767	6762.15
516.135	6755.15
516.502	6759.21
516.869	6843.28
517.237	6851.42
517.604	6853.9
517.972	6939.78
518.339	6922.83
518.706	6924.86
519.073	6907.91
519.44	6904.75
519.808	6941.13
520.175	6921.92
520.542	6988.14
520.909	7001.47
521.276	6983.84
521.643	7061.81
522.009	7023.39
522.376	7076.49
522.743	7163.5
523.11	7117.85
523.477	7200.79
523.843	7288.24
524.21	7274.91
524.577	7307.68
524.943	7246.21
525.31	7266.32
525.676	7374.57
526.043	7348.35
526.409	7409.59
526.776	7493.66
527.142	7387.67
527.508	7429.93
527.874	7484.62
528.241	7504.51
528.607	7486.2
528.973	7507.44
529.339	7587.67
529.705	7567.33
530.071	7602.81
530.437	7628.8
530.803	7672.19
531.169	7649.14
531.535	7663.15
531.901	7695.69
532.267	7657.95
532.632	7699.53
532.998	7769.36
533.364	7737.72
533.73	7700.21
534.095	7823.14
534.461	7747.66
534.826	7740.21
535.192	7832.18
535.557	7834.44
535.923	7727.78
536.288	7796.7
536.653	7850.03
537.019	7831.05
537.384	7830.83
537.749	7841.9
538.114	7852.52
538.479	7857.49
538.845	7919.41
539.21	7897.04
539.575	7959.64
539.94	7928.45
540.305	7977.04
540.67	7892.07
541.034	7936.13
541.399	7988.34
541.764	8007.32
542.129	7951.5
542.494	7965.51
542.858	7967.54
543.223	7979.52
543.587	8022.01
543.952	8034.89
544.316	8053.87
544.681	7990.14
545.045	7971.61
545.41	8071.5
545.774	8003.93
546.138	8063.36
546.503	7997.15
546.867	8066.07
547.231	8043.02
547.595	8098.39
547.959	8113.3
548.324	8097.03
548.688	8100.42
549.052	8118.73
549.416	8094.77
549.779	8125.96
550.143	8092.97
550.507	8179.97
550.871	8167.54
551.235	8087.09
551.599	8187.43
551.962	8160.31
552.326	8167.31
552.689	8250.93
553.053	8196.47
553.417	8165.28
553.78	8277.14
554.143	8237.14
554.507	8293.86
554.87	8237.82
555.234	8290.93
555.597	8215.45
555.96	8238.27
556.323	8281.21
556.686	8270.36
557.05	8352.85
557.413	8357.36
557.776	8302.9
558.139	8349.23
558.502	8384.26
558.865	8448.21
559.228	8468.55
559.59	8444.37
559.953	8499.73
560.316	8568.21
560.679	8473.75
561.041	8521.43
561.404	8629.67
561.767	8694.08
562.129	8619.5
562.492	8659.05
562.854	8667.87
563.217	8694.53
563.579	8636.91
563.941	8747.41
564.304	8833.96
564.666	8782.44
565.028	8810.46
565.39	8854.3
565.753	8884.36
566.115	8957.58
566.477	8932.49
566.839	8960.51
567.201	9030.79
567.563	8955.77
567.925	9138.36
568.287	9099.27
568.648	9180.39
569.01	9195.31
569.372	9196.66
569.734	9160.73
570.095	9240.51
570.457	9327.28
570.819	9309.66
571.18	9243.67
571.542	9398.24
571.903	9324.57
572.265	9370.9
572.626	9384.23
572.987	9442.76
573.349	9482.76
573.71	9483.44
574.071	9516.88
574.432	9641.4
574.794	9626.71
575.155	9611.12
575.516	9609.08
575.877	9652.02
576.238	9680.49
576.599	9808.17
576.96	9784.67
577.32	9820.6
577.681	9810.66
578.042	9787.38
578.403	9867.38
578.763	9885.23
579.124	9902.18
579.485	9958.23
579.845	9997.1
580.206	10015.85
580.566	9989.41
580.927	10062.86
581.287	10094.04
581.648	10081.39
582.008	10181.05
582.368	10110.99
582.728	10179.69
583.089	10276.64
583.449	10231.44
583.809	10256.52
584.169	10283.42
584.529	10341.27
584.889	10379.23
585.249	10301.72
585.609	10349.85
585.969	10377.65
586.329	10434.82
586.688	10444.99
587.048	10486.57
587.408	10508.72
587.768	10536.52
588.127	10585.78
588.487	10564.31
588.846	10645.89
589.206	10515.05
589.565	10591.2
589.925	10699.68
590.284	10620.13
590.643	10762.5
591.003	10753.46
591.362	10813.57
591.721	10856.73
592.08	10815.15
592.44	10896.06
592.799	10928.37
593.158	10915.26
593.517	10897.86
593.876	10976.73
594.235	10894.47
594.593	11006.11
594.952	10976.96
595.311	10950.52
595.67	10961.36
596.029	11099.21
596.387	11067.35
596.746	11075.03
597.104	11062.15
597.463	11117.29
597.822	11150.96
598.18	11086.56
598.538	11171.75
598.897	11193.9
599.255	11097.63
599.613	11229.38
599.972	11196.84
600.33	11284.52
600.688	11135.37
601.046	11210.4
601.404	11319.1
601.762	11287.91
602.12	11338.98
602.478	11364.97
602.836	11343.73
603.194	11278.87
603.552	11329.94
603.91	11249.72
604.268	11418.75
604.625	11398.41
604.983	11388.25
605.341	11347.79
605.698	11449.26
606.056	11449.71
606.413	11378.98
606.771	11434.8
607.128	11469.37
607.485	11406.55
607.843	11395.25
608.2	11538.52
608.557	11494.46
608.914	11436.61
609.272	11524.06
609.629	11552.54
609.986	11603.16
610.343	11548.92
610.7	11536.26
611.057	11609.26
611.414	11615.81
611.771	11629.14
612.127	11598.64
612.484	11637.96
612.841	11684.51
613.198	11644.51
613.554	11643.83
613.911	11730.38
614.267	11693.77
614.624	11740.33
614.98	11731.97
615.337	11795.92
615.693	11809.25
616.05	11752.53
616.406	11771.74
616.762	11777.61
617.118	11759.76
617.475	11673.66
617.831	11854
618.187	11918.4
618.543	11874.56
618.899	11923.15
619.255	11884.5
619.611	11857.16
619.967	11868.01
620.323	11828.91
620.678	11880.21
621.034	11875.69
621.39	11947.33
621.746	11854.45
622.101	12032.75
622.457	11940.77
622.812	11921.79
623.168	11955.46
623.523	11994.11
623.879	11961.56
624.234	11914.56
624.589	11900.77
624.945	11898.06
625.3	11905.75
625.655	11978.51
626.01	11968.57
626.365	12042.92
626.72	11963.15
627.075	11910.27
627.43	11867.56
627.785	11880.44
628.14	11924.28
628.495	11950.49
628.85	11850.61
629.205	11827.1
629.559	11933.32
629.914	11811.96
630.269	11907.78
630.623	11843.38
630.978	11822.58
631.332	11856.93
631.687	11871.4
632.041	11828.23
632.396	11883.37
632.75	11757.28
633.104	11777.61
633.459	11665.3
633.813	11748.01
634.167	11698.52
634.521	11691.06
634.875	11739.42
635.229	11669.37
635.583	11635.02
635.937	11688.35
636.291	11582.82
636.645	11635.92
636.999	11635.47
637.352	11613.78
637.706	11566.09
638.06	11626.21
638.413	11621.01
638.767	11576.49
639.121	11599.99
639.474	11574.46
639.828	11540.33
640.181	11551.63
640.534	11497.4
640.888	11517.06
641.241	11358.64
641.594	11502.37
641.947	11475.48
642.301	11550.05
642.654	11530.61
643.007	11519.54
643.36	11430.73
643.713	11380.11
644.066	11434.12
644.419	11424.85
644.771	11311.86
645.124	11257.85
645.477	11223.05
645.83	11140.79
646.182	11060.12
646.535	11048.37
646.888	11092.21
647.24	10982.83
647.593	11096.73
647.945	11052.89
648.298	10983.96
648.65	10929.27
649.002	10965.21
649.355	11002.27
649.707	11042.49
650.059	11040.91
650.411	11164.3
650.763	11154.81
651.115	11240.9
651.467	11276.16
651.819	11292.43
652.171	11221.47
652.523	11241.36
652.875	11181.25
653.227	11154.81
653.578	11331.52
653.93	11216.27
654.282	11284.07
654.633	11175.14
654.985	11201.13
655.337	11237.74
655.688	11224.18
656.039	11261.47
656.391	11181.02
656.742	11184.41
657.094	11172.88
657.445	11244.29
657.796	11192.32
658.147	11203.62
658.498	11191.41
658.849	11213.11
659.2	11232.54
659.551	11204.97
659.902	11269.38
660.253	11276.16
660.604	11259.44
660.955	11169.72
661.306	11252.88
661.656	11174.69
662.007	11201.58
662.358	11257.18
662.708	11196.84
663.059	11173.79
663.409	11162.94
663.76	11251.98
664.11	11230.28
664.461	11255.82
664.811	11211.98
665.161	11204.75
665.511	11203.17
665.862	11183.51
666.212	11239.55
666.562	11230.96
666.912	11214.69
667.262	11266.22
667.612	11250.62
667.962	11256.95
668.312	11229.83
668.662	11298.08
669.011	11198.65
669.361	11236.61
669.711	11138.08
670.06	11171.98
670.41	11129.27
670.76	11138.08
671.109	11223.05
671.459	11144.64
671.808	11072.77
672.157	11132.21
672.507	11107.35
672.856	11147.57
673.205	11150.74
673.554	11127.91
673.904	11138.76
674.253	11120.46
674.602	11162.71
674.951	10928.6
675.3	10869.62
675.649	11055.83
675.998	11053.11
676.346	10993.23
676.695	11023.06
677.044	11010.4
677.393	11049.27
677.741	11093.11
678.09	11010.18
678.438	10934.92
678.787	10968.82
679.135	11018.99
679.484	10910.74
679.832	10895.6
680.181	10881.37
680.529	10944.64
680.877	10900.12
681.225	10871.42
681.573	10905.77
681.922	10810.18
682.27	10790.3
682.618	10821.93
682.966	10801.14
683.314	10843.4
683.661	10827.58
684.009	10649.96
684.357	10647.7
684.705	10674.82
685.053	10667.36
685.4	10691.77
685.748	10553.69
686.095	10571.09
686.443	10582.39
686.79	10586.23
687.138	10557.76
687.485	10506.01
687.832	10483.64
688.18	10459
688.527	10397.54
688.874	10404.32
689.221	10396.63
689.568	10336.07
689.915	10343.53
690.262	10253.13
690.609	10271.44
690.956	10230.99
691.303	10189.86
691.65	10180.82
691.997	10169.29
692.344	10098.79
692.69	10091.78
693.037	10101.73
693.383	9990.32
693.73	10003.88
694.077	9949.19
694.423	9940.15
694.769	9874.84
695.116	9910.77
695.462	9892.69
695.808	9850.89
696.155	9908.96
696.501	9810.21
696.847	9803.2
697.193	9628.74
697.539	9681.4
697.885	9604.11
698.231	9557.33
698.577	9571.8
698.923	9612.93
699.269	9458.58
699.614	9493.38
699.96	9396.66
700.306	9420.39
700.651	9397.56
700.997	9377
701.342	9349.66
701.688	9346.49
702.033	9266.27
702.379	9266.04
702.724	9262.2
703.069	9249.09
703.415	9097.23
703.76	9103.56
704.105	9072.6
704.45	9083
704.795	9082.32
705.14	8995.09
705.485	8927.97
705.83	8995.09
706.175	8943.79
706.52	8913.06
706.865	8902.66
707.209	8888.65
707.554	8850.23
707.899	8871.02
708.243	8781.76
708.588	8808.65
708.932	8730.46
709.277	8777.24
709.621	8733.85
709.966	8692.27
710.31	8698.82
710.654	8580.18
710.998	8594.87
711.342	8610.47
711.687	8610.24
712.031	8569.56
712.375	8521.88
712.719	8459.28
713.063	8490.24
713.407	8452.73
713.75	8436.23
714.094	8463.12
714.438	8424.03
714.782	8426.06
715.125	8411.15
715.469	8426.52
715.812	8375.67
716.156	8294.99
716.499	8374.99
716.843	8369.57
717.186	8268.1
717.53	8278.95
717.873	8347.65
718.216	8360.53
718.559	8287.99
718.902	8211.15
719.246	8242.79
719.589	8150.82
719.932	8116.92
720.275	8209.57
720.617	8151.95
720.96	8165.73
721.303	8160.76
721.646	8139.07
721.989	8101.33
722.331	8146.52
722.674	8116.47
723.016	8093.64
723.359	8067.88
723.701	8058.62
724.044	8065.4
724.386	8019.07
724.729	8036.24
725.071	8015.91
725.413	8054.32
725.755	8030.37
726.097	7959.64
726.439	8000.76
726.782	7994.21
727.124	7992.4
727.465	8005.96
727.807	8010.93
728.149	7925.51
728.491	7907.21
728.833	7971.84
729.175	7927.77
729.516	7971.61
729.858	7922.8
730.199	7946.53
730.541	7895.91
730.882	7969.58
731.224	7979.52
731.565	7904.27
731.906	7922.57
732.248	7911.95
732.589	7868.11
732.93	7905.4
733.271	7909.47
733.612	7910.15
733.953	7889.81
734.294	7879.19
734.635	7866.76
734.976	7873.99
735.317	7838.51
735.658	7867.43
735.999	7839.64
736.339	7841.9
736.68	7909.92
737.021	7880.32
737.361	7884.84
737.702	7871.28
738.042	7889.35
738.383	7878.96
738.723	7869.24
739.063	7872.18
739.404	7867.43
739.744	7931.39
740.084	7899.07
740.424	7948.79
740.764	7933.65
741.104	7983.14
741.444	7962.12
741.784	7891.39
742.124	7923.93
742.464	7941.1
742.804	7999.41
743.143	7982.91
743.483	7966.87
743.823	7980.2
744.162	8028.79
744.502	8113.76
744.841	8050.93
745.181	8133.42
745.52	8136.35
745.86	8176.13
746.199	8224.26
746.538	8279.17
746.877	8286.63
747.216	8342.22
747.556	8327.76
747.895	8347.42
748.234	8355.11
748.573	8427.42
748.911	8470.13
749.25	8532.95
749.589	8542.67
749.928	8652.27
750.267	8754.64
750.605	8823.12
750.944	8795.32
751.283	8857.01
751.621	8983.11
751.96	8986.05
752.298	9104.69
752.636	9162.99
752.975	9172.71
753.313	9292.48
753.651	9409.54
753.989	9431.69
754.327	9541.29
754.666	9573.6
755.004	9723.88
755.342	9890.66
755.679	9982.86
756.017	10038.9
756.355	10271.66
756.693	10288.84
757.031	10434.15
757.368	10588.72
757.706	10682.5
758.044	10743.97
758.381	10917.52
758.719	11010.63
759.056	11202.94
759.394	11348.47
759.731	11463.27
760.068	11690.61
760.405	11774.22
760.743	11892.87
761.08	12115.68
761.417	12219.41
761.754	12301.89
762.091	12487.43
762.428	12610.59
