Data from hue_110_FLMS001491_00082.txt Node
Date: Tue Feb 07 17:01:56 GMT 2017
User: dcchb
Spectrometer: FLMS00149
Trigger mode: 0
Integration Time (sec): 2.000000E-2
Scans to average: 10
Electric dark correction enabled: true
Nonlinearity correction enabled: false
Boxcar width: 0
XAxis mode: Wavelengths
Number of Pixels in Spectrum: 2048
>>>>>Begin Spectral Data<<<<<
341.393	-16.26
341.776	-16.26
342.16	-16.26
342.543	-61
342.927	-60.1
343.31	-70.72
343.693	-61.91
344.077	-69.59
344.46	-56.48
344.843	-56.71
345.226	-39.76
345.61	-6.99
345.993	-24.62
346.376	-7.44
346.759	26
347.142	17.19
347.525	39.34
347.908	56.74
348.291	71.88
348.674	85.89
349.057	97.19
349.44	144.87
349.823	150.74
350.206	158.65
350.588	198.88
350.971	213.57
351.354	215.38
351.737	233.68
352.119	249.27
352.502	268.71
352.884	286.11
353.267	261.25
353.65	292.21
354.032	306.9
354.414	299.44
354.797	301.48
355.179	320.68
355.562	318.2
355.944	320.91
356.326	318.88
356.709	316.62
357.091	341.02
357.473	333.11
357.855	353
358.238	338.54
358.62	338.76
359.002	310.06
359.384	333.34
359.766	341.25
360.148	335.6
360.53	336.5
360.912	319.78
361.294	344.19
361.676	321.36
362.057	332.89
362.439	297.18
362.821	323.62
363.203	325.43
363.584	311.42
363.966	331.3
364.348	338.76
364.729	311.64
365.111	301.93
365.493	311.87
365.874	323.17
366.256	298.76
366.637	307.35
367.019	315.49
367.4	310.29
367.781	309.61
368.163	302.83
368.544	310.06
368.925	325.2
369.306	324.98
369.688	319.78
370.069	321.36
370.45	311.19
370.831	306.22
371.212	296.73
371.593	285.66
371.974	312.77
372.355	299.89
372.736	296.5
373.117	315.49
373.498	314.36
373.879	318.2
374.26	310.06
374.641	296.73
375.021	318.42
375.402	329.27
375.783	306.9
376.163	313.9
376.544	335.6
376.925	329.95
377.305	300.57
377.686	330.63
378.066	324.98
378.447	336.28
378.827	335.82
379.208	309.38
379.588	342.6
379.968	323.17
380.349	339.44
380.729	324.75
381.109	334.69
381.489	331.08
381.87	322.04
382.25	323.85
382.63	335.6
383.01	320.68
383.39	322.72
383.77	353.9
384.15	348.03
384.53	337.41
384.91	330.63
385.29	343.28
385.67	354.81
386.049	353.23
386.429	354.13
386.809	355.03
387.189	352.1
387.568	341.7
387.948	352.77
388.328	355.49
388.707	358.87
389.087	366.11
389.466	367.01
389.846	343.06
390.225	372.21
390.605	365.43
390.984	362.72
391.363	355.03
391.743	366.11
392.122	378.76
392.501	369.27
392.881	356.61
393.26	393.68
393.639	369.72
394.018	384.64
394.397	381.25
394.776	372.66
395.155	388.7
395.534	382.83
395.913	380.57
396.292	369.95
396.671	389.16
397.05	382.6
397.429	390.96
397.808	393.68
398.186	380.34
398.565	374.24
398.944	396.39
399.323	382.83
399.701	390.74
400.08	395.94
400.458	393.22
400.837	391.42
401.215	402.94
401.594	394.35
401.972	414.24
402.351	404.75
402.729	408.59
403.107	410.4
403.486	416.5
403.864	425.77
404.242	394.13
404.62	413.56
404.999	392.55
405.377	421.25
405.755	411.3
406.133	413.34
406.511	423.73
406.889	416.95
407.267	429.61
407.645	428.93
408.023	428.93
408.401	421.92
408.779	437.74
409.156	476.84
409.534	435.26
409.912	448.36
410.29	451.08
410.667	460.34
411.045	445.2
411.422	465.99
411.8	425.54
412.178	450.4
412.555	481.13
412.933	452.43
413.31	484.97
413.687	497.85
414.065	474.8
414.442	491.98
414.819	495.82
415.197	506.67
415.574	484.3
415.951	469.61
416.328	479.55
416.705	484.3
417.082	503.05
417.46	501.02
417.837	508.93
418.214	500.79
418.591	531.3
418.967	519.32
419.344	504.18
419.721	528.14
420.098	522.26
420.475	508.93
420.852	517.51
421.228	535.59
421.605	532.88
421.982	544.86
422.358	547.8
422.735	556.38
423.111	567.23
423.488	538.76
423.864	539.89
424.241	551.19
424.617	574.24
424.994	564.29
425.37	552.54
425.746	566.33
426.123	590.28
426.499	570.62
426.875	575.14
427.251	580.11
427.627	581.69
428.003	599.55
428.379	587.12
428.756	605.65
429.132	608.36
429.507	620.56
429.883	623.95
430.259	604.74
430.635	637.51
431.011	639.77
431.387	636.38
431.763	652.88
432.138	645.42
432.514	663.05
432.89	667.57
433.265	690.84
433.641	697.17
434.016	691.07
434.392	679.77
434.767	698.53
435.143	712.31
435.518	723.16
435.894	722.26
436.269	712.54
436.644	693.33
437.02	720.67
437.395	729.94
437.77	711.63
438.145	738.07
438.52	723.84
438.895	755.25
439.271	743.72
439.646	774.01
440.021	796.6
440.395	775.59
440.77	763.16
441.145	764.74
441.52	816.26
441.895	783.72
442.27	800.67
442.645	803.16
443.019	802.48
443.394	807.45
443.769	811.97
444.143	816.26
444.518	827.56
444.892	818.3
445.267	813.1
445.641	855.58
446.016	847.45
446.39	855.13
446.764	849.71
447.139	854.68
447.513	862.36
447.887	875.25
448.262	858.3
448.636	886.32
449.01	871.63
449.384	884.96
449.758	878.86
450.132	896.26
450.506	920.67
450.88	911.85
451.254	911.18
451.628	915.02
452.002	923.38
452.376	940.1
452.75	937.84
453.123	969.71
453.497	981.91
453.871	1003.6
454.244	963.15
454.618	999.99
454.992	993.66
455.365	1019.87
455.739	1014
456.112	1047.22
456.486	1068.69
456.859	1071.85
457.232	1096.26
457.606	1089.03
457.979	1109.59
458.352	1111.4
458.725	1169.02
459.099	1141
459.472	1155.92
459.845	1163.83
460.218	1197.27
460.591	1211.06
460.964	1183.26
461.337	1234.78
461.71	1270.49
462.083	1248.34
462.456	1248.34
462.829	1276.14
463.201	1306.87
463.574	1298.06
463.947	1319.08
464.32	1342.8
464.692	1342.13
465.065	1406.3
465.438	1417.38
465.81	1405.85
466.183	1426.87
466.555	1472.97
466.928	1492.18
467.3	1464.83
467.672	1528.11
468.045	1539.86
468.417	1561.55
468.789	1562.68
469.161	1616.02
469.534	1663.02
469.906	1687.65
470.278	1681.55
470.65	1719.97
471.022	1799.29
471.394	1782.57
471.766	1814.43
472.138	1864.15
472.51	1929.45
472.882	1955.22
473.253	1945.95
473.625	2006.52
473.997	2023.24
474.369	2094.42
474.74	2125.83
475.112	2168.32
475.484	2213.06
475.855	2311.59
476.227	2322.21
476.598	2415.09
476.97	2448.76
477.341	2542.77
477.713	2595.65
478.084	2634.97
478.455	2694.41
478.827	2768.53
479.198	2867.06
479.569	2895.31
479.94	3025.25
480.311	3108.63
480.682	3179.37
481.053	3253.26
481.424	3362.41
481.795	3420.94
482.166	3513.14
482.537	3590.43
482.908	3709.97
483.279	3774.15
483.65	3925.79
484.021	4043.07
484.391	4147.7
484.762	4185.89
485.133	4313.57
485.503	4441.71
485.874	4521.93
486.244	4653.23
486.615	4806.67
486.985	4942.26
487.356	5074.23
487.726	5122.14
488.097	5331.63
488.467	5368.46
488.837	5554.22
489.207	5714.67
489.578	5830.82
489.948	5944.72
490.318	6132.96
490.688	6173.86
491.058	6338.83
491.428	6558.03
491.798	6614.76
492.168	6795.54
492.538	6896.1
492.908	7061.52
493.278	7173.61
493.648	7281.63
494.017	7442.98
494.387	7592.13
494.757	7648.17
495.126	7848.17
495.496	7981.27
495.866	8051.55
496.235	8256.07
496.605	8350.76
496.974	8397.31
497.344	8563.86
497.713	8675.27
498.082	8782.83
498.452	8958.87
498.821	8985.31
499.19	9113.67
499.559	9245.42
499.928	9351.18
500.298	9411.74
500.667	9614
501.036	9629.59
501.405	9789.14
501.774	9822.81
502.143	9924.05
502.512	9995.91
502.88	10203.81
503.249	10196.81
503.618	10333.98
503.987	10426.86
504.356	10518.16
504.724	10514.54
505.093	10677.47
505.462	10653.97
505.83	10770.58
506.199	10847.86
506.567	11040.85
506.936	11004.7
507.304	11180.51
507.672	11293.95
508.041	11365.14
508.409	11404.91
508.777	11511.12
509.145	11551.57
509.514	11598.58
509.882	11625.25
510.25	11728.97
510.618	11801.29
510.986	11844
511.354	11943.65
511.722	12021.17
512.09	12102.29
512.458	12107.49
512.826	12215.29
513.193	12188.62
513.561	12289.41
513.929	12340.48
514.297	12414.83
514.664	12513.81
515.032	12444.21
515.4	12558.55
515.767	12658.89
516.135	12757.19
516.502	12628.38
516.869	12777.53
517.237	12806.91
517.604	12822.73
517.972	12885.55
518.339	12923.06
518.706	12970.52
519.073	12968.03
519.44	13004.64
519.808	13124.64
520.175	13096.17
520.542	13122.83
520.909	13292.77
521.276	13200.35
521.643	13267.01
522.009	13318.31
522.376	13354.69
522.743	13375.48
523.11	13471.75
523.477	13594.91
523.843	13543.84
524.21	13677.85
524.577	13771.4
524.943	13680.56
525.31	13856.6
525.676	13848.01
526.043	13912.19
526.409	13890.95
526.776	14033.32
527.142	13983.38
527.508	13967.1
527.874	14046.88
528.241	13957.16
528.607	13937.73
528.973	14105.63
529.339	14032.64
529.705	14083.49
530.071	14225.63
530.437	14152.86
530.803	14116.48
531.169	14198.96
531.535	14188.12
531.901	14136.14
532.267	14151.28
532.632	14106.31
532.998	14127.55
533.364	14179.98
533.73	14099.98
534.095	14204.84
534.461	14213.65
534.826	14223.14
535.192	14159.19
535.557	14219.3
535.923	14172.52
536.288	14223.14
536.653	14148.12
537.019	14095.24
537.384	14011.17
537.749	14080.1
538.114	14054.79
538.479	13876.03
538.845	14015.69
539.21	13941.57
539.575	13923.49
539.94	13942.7
540.305	13903.38
540.67	13835.36
541.034	13918.07
541.399	13908.8
541.764	13734.57
542.129	13803.72
542.494	13725.75
542.858	13779.99
543.223	13815.47
543.587	13756.49
543.952	13678.98
544.316	13648.02
544.681	13698.64
545.045	13616.61
545.41	13604.85
545.774	13560.79
546.138	13528.25
546.503	13584.06
546.867	13422.94
547.231	13509.72
547.595	13418.19
547.959	13348.82
548.324	13371.87
548.688	13330.06
549.052	13378.65
549.416	13349.49
549.779	13237.41
550.143	13223.85
550.507	13320.57
550.871	13250.29
551.235	13207.12
551.599	13244.64
551.962	13141.36
552.326	13163.51
552.689	13183.17
553.053	13024.53
553.417	13074.92
553.78	13203.96
554.143	13062.72
554.507	12949.96
554.87	13133.91
555.234	13142.04
555.597	12954.02
555.96	13007.36
556.323	13037.64
556.686	13001.93
557.05	12930.97
557.413	12910.86
557.776	12974.36
558.139	13031.99
558.502	12949.05
558.865	12956.96
559.228	12968.03
559.59	12964.87
559.953	12926.45
560.316	12987.7
560.679	12990.18
561.041	13008.49
561.404	12952.22
561.767	13111.31
562.129	12985.44
562.492	13073.12
562.854	13086.9
563.217	13012.1
563.579	13079.22
563.941	13064.76
564.304	13033.57
564.666	13091.42
565.028	13170.52
565.39	13093.91
565.753	13082.83
566.115	13150.4
566.477	13129.16
566.839	13201.02
567.201	13201.02
567.563	13202.15
567.925	13233.56
568.287	13266.56
568.648	13191.76
569.01	13322.15
569.372	13257.07
569.734	13254.58
570.095	13198.09
570.457	13295.48
570.819	13317.86
571.18	13379.78
571.542	13326.22
571.903	13404.63
572.265	13384.07
572.626	13462.49
572.987	13406.44
573.349	13442.82
573.71	13480.56
574.071	13471.3
574.432	13454.35
574.794	13534.57
575.155	13539.32
575.516	13401.7
575.877	13485.08
576.238	13457.97
576.599	13444.86
576.96	13591.75
577.32	13512.2
577.681	13583.16
578.042	13528.25
578.403	13490.51
578.763	13543.84
579.124	13556.04
579.485	13569.6
579.845	13651.86
580.206	13530.51
580.566	13550.39
580.927	13567.34
581.287	13550.62
581.648	13503.61
582.008	13518.3
582.368	13537.74
582.728	13543.16
583.089	13514.69
583.449	13521.01
583.809	13512.88
584.169	13495.93
584.529	13452.77
584.889	13566.89
585.249	13420.9
585.609	13420
585.969	13413.45
586.329	13466.55
586.688	13454.8
587.048	13436.95
587.408	13410.96
587.768	13476.5
588.127	13414.8
588.487	13406.67
588.846	13448.47
589.206	13373.22
589.565	13419.77
589.925	13460.9
590.284	13419.32
590.643	13356.05
591.003	13448.93
591.362	13411.41
591.721	13401.47
592.08	13399.44
592.44	13328.25
592.799	13432.43
593.158	13364.86
593.517	13374.13
593.876	13423.39
594.235	13310.17
594.593	13305.65
594.952	13257.74
595.311	13262.26
595.67	13330.51
596.029	13339.1
596.387	13303.17
596.746	13358.53
597.104	13237.41
597.463	13243.28
597.822	13268.37
598.18	13185.88
598.538	13251.87
598.897	13316.73
599.255	13210.06
599.613	13395.82
599.972	13295.94
600.33	13337.74
600.688	13247.58
601.046	13298.2
601.404	13302.26
601.762	13258.65
602.12	13328.25
602.478	13349.27
602.836	13333.9
603.194	13240.12
603.552	13259.1
603.91	13202.15
604.268	13234.47
604.625	13218.88
604.983	13297.07
605.341	13205.99
605.698	13263.39
606.056	13312.88
606.413	13236.05
606.771	13291.19
607.128	13319.89
607.485	13256.61
607.843	13283.51
608.2	13378.65
608.557	13407.8
608.914	13311.98
609.272	13363.28
609.629	13372.77
609.986	13377.74
610.343	13279.89
610.7	13373.67
611.057	13344.97
611.414	13345.65
611.771	13434.24
612.127	13506.55
612.484	13391.07
612.841	13509.94
613.198	13430.4
613.554	13505.2
613.911	13521.69
614.267	13506.55
614.624	13477.17
614.98	13549.94
615.337	13542.26
615.693	13552.88
616.05	13534.8
616.406	13610.96
616.762	13542.03
617.118	13604.4
617.475	13620.45
617.831	13596.94
618.187	13696.83
618.543	13568.24
618.899	13704.06
619.255	13727.11
619.611	13643.27
619.967	13678.75
620.323	13780.44
620.678	13693.67
621.034	13671.52
621.39	13640.79
621.746	13644.63
622.101	13846.88
622.457	13655.47
622.812	13690.5
623.168	13733.66
623.523	13736.6
623.879	13754.23
624.234	13638.75
624.589	13744.51
624.945	13658.64
625.3	13723.27
625.655	13693.21
626.01	13706.32
626.365	13669.71
626.72	13679.43
627.075	13633.33
627.43	13717.39
627.785	13602.59
628.14	13684.85
628.495	13615.93
628.85	13681.69
629.205	13649.15
629.559	13641.69
629.914	13627.9
630.269	13672.87
630.623	13615.93
630.978	13528.25
631.332	13685.53
631.687	13631.97
632.041	13629.71
632.396	13572.54
632.75	13539.09
633.104	13496.83
633.459	13493.9
633.813	13456.84
634.167	13538.19
634.521	13506.1
634.875	13482.15
635.229	13466.78
635.583	13395.14
635.937	13399.21
636.291	13313.11
636.645	13408.25
636.999	13288.48
637.352	13415.48
637.706	13231.08
638.06	13352.88
638.413	13345.88
638.767	13356.5
639.121	13320.57
639.474	13165.32
639.828	13264.3
640.181	13240.12
640.534	13241.25
640.888	13168.71
641.241	13137.52
641.594	13184.07
641.947	13190.18
642.301	13151.98
642.654	13209.38
643.007	13184.07
643.36	13125.54
643.713	13121.03
644.066	13225.2
644.419	13098.2
644.771	13111.76
645.124	12927.13
645.477	12902.5
645.83	12856.63
646.182	12728.94
646.535	12807.36
646.888	12763.97
647.24	12754.48
647.593	12808.04
647.945	12719.45
648.298	12639
648.65	12599.91
649.002	12573.02
649.355	12642.85
649.707	12609.4
650.059	12690.08
650.411	12900.69
650.763	12823.63
651.115	13008.49
651.467	12929.39
651.819	12992.44
652.171	12965.1
652.523	12919
652.875	12934.36
653.227	12911.99
653.578	12991.31
653.93	13023.4
654.282	12914.02
654.633	12939.56
654.985	12895.95
655.337	12927.58
655.688	12950.18
656.039	13027.47
656.391	12922.61
656.742	12962.61
657.094	12994.02
657.445	12971.2
657.796	12862.73
658.147	12962.39
658.498	12882.61
658.849	12993.57
659.2	12914.48
659.551	12912.22
659.902	12986.11
660.253	13000.12
660.604	13034.25
660.955	13002.61
661.306	13000.58
661.656	13051.2
662.007	12993.12
662.358	13111.53
662.708	13031.76
663.059	13090.07
663.409	12967.81
663.76	13022.27
664.11	12978.88
664.461	13002.61
664.811	13010.97
665.161	12996.28
665.511	12983.4
665.862	12971.2
666.212	13111.31
666.562	13068.6
666.912	13038.99
667.262	12975.49
667.612	12987.24
667.962	13052.78
668.312	13036.73
668.662	13101.14
669.011	13057.07
669.361	13044.64
669.711	13044.87
670.06	13000.8
670.41	13023.17
670.76	12973.68
671.109	13002.38
671.459	12996.06
671.808	13066.56
672.157	12918.32
672.507	12989.28
672.856	12937.08
673.205	12960.13
673.554	12947.24
673.904	12876.96
674.253	12924.87
674.602	12901.14
674.951	12731.43
675.3	12659.34
675.649	12876.96
675.998	12829.51
676.346	12834.25
676.695	12851.65
677.044	12768.49
677.393	12787.47
677.741	12883.74
678.09	12777.08
678.438	12754.03
678.787	12774.82
679.135	12768.72
679.484	12700.25
679.832	12762.39
680.181	12665.67
680.529	12658.66
680.877	12700.7
681.225	12617.31
681.573	12711.32
681.922	12578.44
682.27	12563.53
682.618	12518.78
682.966	12531.66
683.314	12544.77
683.661	12494.83
684.009	12363.76
684.357	12470.42
684.705	12403.08
685.053	12425
685.4	12353.81
685.748	12274.72
686.095	12295.96
686.443	12241.73
686.79	12186.36
687.138	12246.25
687.485	12226.59
687.832	12203.76
688.18	12171.67
688.527	12133.48
688.874	12101.16
689.221	12025.01
689.568	11955.86
689.915	11991.34
690.262	11951.11
690.609	11953.6
690.956	11872.7
691.303	11849.87
691.65	11728.97
691.997	11771.46
692.344	11716.09
692.69	11670.67
693.037	11652.36
693.383	11584.57
693.73	11567.62
694.077	11511.8
694.423	11543.21
694.769	11488.3
695.116	11423.89
695.462	11379.15
695.808	11318.36
696.155	11341.41
696.501	11269.55
696.847	11307.74
697.193	11173.28
697.539	11262.32
697.885	11182.54
698.231	11120.85
698.577	11129.21
698.923	11043.57
699.269	10973.06
699.614	10864.59
699.96	10898.48
700.306	10905.26
700.651	10871.14
700.997	10701.88
701.342	10812.61
701.688	10729.45
702.033	10739.17
702.379	10660.98
702.724	10589.57
703.069	10649.45
703.415	10493.07
703.76	10560.64
704.105	10513.64
704.45	10488.78
704.795	10446.97
705.14	10342.12
705.485	10401.32
705.83	10347.09
706.175	10306.64
706.52	10251.95
706.865	10193.42
707.209	10206.3
707.554	10197.49
707.899	10190.71
708.243	10120.88
708.588	10044.27
708.932	10016.7
709.277	10042.69
709.621	10067.09
709.966	10011.05
710.31	9946.87
710.654	9874.1
710.998	9875.91
711.342	9850.38
711.687	9843.37
712.031	9799.08
712.375	9822.58
712.719	9756.59
713.063	9747.55
713.407	9766.31
713.75	9708.69
714.094	9676.6
714.438	9651.51
714.782	9705.3
715.125	9661.68
715.469	9642.92
715.812	9614.9
716.156	9543.04
716.499	9541.68
716.843	9576.03
717.186	9464.62
717.53	9566.77
717.873	9534.45
718.216	9461.69
718.559	9476.15
718.902	9377.85
719.246	9415.59
719.589	9395.25
719.932	9395.47
720.275	9382.14
720.617	9344.18
720.96	9435.25
721.303	9429.6
721.646	9315.25
721.989	9291.3
722.331	9332.2
722.674	9328.36
723.016	9257.85
723.359	9284.52
723.701	9306.89
724.044	9247
724.386	9151.19
724.729	9286.1
725.071	9282.03
725.413	9242.93
725.755	9274.8
726.097	9145.99
726.439	9192.09
726.782	9243.39
727.124	9204.97
727.465	9138.53
727.807	9209.49
728.149	9144.86
728.491	9185.54
728.833	9162.94
729.175	9120.45
729.516	9151.86
729.858	9179.43
730.199	9105.09
730.541	9111.86
730.882	9084.97
731.224	9071.41
731.565	9096.05
731.906	9123.62
732.248	9103.28
732.589	9097.63
732.93	9059.44
733.271	9129.04
733.612	9087.91
733.953	9131.98
734.294	9025.77
734.635	9104.41
734.976	9117.97
735.317	9010.62
735.658	9050.85
735.999	9143.05
736.339	9134.92
736.68	9126.78
737.021	9084.97
737.361	9050.62
737.702	9152.99
738.042	9107.57
738.383	9089.72
738.723	9124.29
739.063	9090.17
739.404	9163.16
739.744	9148.25
740.084	9117.51
740.424	9120
740.764	9099.66
741.104	9168.59
741.444	9227.79
741.784	9104.41
742.124	9191.64
742.464	9208.13
742.804	9172.65
743.143	9213.78
743.483	9262.14
743.823	9296.27
744.162	9269.6
744.502	9371.07
744.841	9337.62
745.181	9356.83
745.52	9364.97
745.86	9382.82
746.199	9471.4
746.538	9508.01
746.877	9585.3
747.216	9660.55
747.556	9658.07
747.895	9705.07
748.234	9658.07
748.573	9758.63
748.911	9828
749.25	9893.09
749.589	9918.17
749.928	10091.05
750.267	10131.95
750.605	10137.83
750.944	10226.64
751.283	10260.08
751.621	10411.94
751.96	10478.16
752.298	10579.62
752.636	10595.22
752.975	10683.12
753.313	10714.53
753.651	10995.43
753.989	11023
754.327	11113.62
754.666	11187.06
755.004	11334.63
755.342	11465.25
755.679	11609.2
756.017	11639.48
756.355	11908.18
756.693	11910.89
757.031	12121.5
757.368	12162.63
757.706	12359.01
758.044	12440.14
758.381	12614.6
758.719	12709.74
759.056	13033.34
