Data from hue_170_FLMS001491_00069.txt Node
Date: Tue Feb 07 16:49:02 GMT 2017
User: dcchb
Spectrometer: FLMS00149
Trigger mode: 0
Integration Time (sec): 2.000000E-2
Scans to average: 10
Electric dark correction enabled: true
Nonlinearity correction enabled: false
Boxcar width: 0
XAxis mode: Wavelengths
Number of Pixels in Spectrum: 2048
>>>>>Begin Spectral Data<<<<<
341.393	-21.52
341.776	-21.52
342.16	-21.52
342.543	-53.16
342.927	-81.86
343.31	-68.53
343.693	-71.69
344.077	-53.16
344.46	-52.03
344.843	-40.73
345.226	-33.5
345.61	-26.5
345.993	-38.47
346.376	-2.54
346.759	19.15
347.142	19.6
347.525	40.85
347.908	50.56
348.291	70.9
348.674	71.13
349.057	114.97
349.44	113.16
349.823	141.41
350.206	159.94
350.588	215.31
350.971	217.11
351.354	235.42
351.737	250.56
352.119	246.49
352.502	251.69
352.884	248.07
353.267	301.86
353.65	286.94
354.032	287.39
354.414	289.88
354.797	324
355.179	305.25
355.562	308.18
355.944	330.1
356.326	330.33
356.709	322.19
357.091	340.95
357.473	346.15
357.855	319.94
358.238	330.33
358.62	316.77
359.002	343.66
359.384	336.66
359.766	327.84
360.148	324.23
360.53	340.5
360.912	330.1
361.294	353.83
361.676	309.09
362.057	330.1
362.439	318.35
362.821	323.55
363.203	339.6
363.584	309.09
363.966	322.65
364.348	322.19
364.729	314.06
365.111	317.45
365.493	315.64
365.874	302.99
366.256	334.62
366.637	314.06
367.019	327.39
367.4	313.61
367.781	297.11
368.163	314.06
368.544	309.31
368.925	328.07
369.306	320.61
369.688	304.57
370.069	293.72
370.45	286.26
370.831	305.47
371.212	291.69
371.593	321.52
371.974	312.7
372.355	304.79
372.736	315.87
373.117	308.86
373.498	324.91
373.879	304.12
374.26	337.11
374.641	316.55
375.021	315.87
375.402	317.45
375.783	309.99
376.163	309.54
376.544	316.32
376.925	333.04
377.305	341.63
377.686	328.52
378.066	329.43
378.447	336.43
378.827	331.46
379.208	349.99
379.588	331.23
379.968	336.88
380.349	337.79
380.729	320.61
381.109	323.1
381.489	342.53
381.87	335.3
382.25	324.68
382.63	321.74
383.01	323.1
383.39	331.01
383.77	362.87
384.15	330.33
384.53	351.35
384.91	356.09
385.29	359.93
385.67	354.51
386.049	342.31
386.429	345.92
386.809	361.97
387.189	340.73
387.568	351.57
387.948	356.54
388.328	353.61
388.707	364.91
389.087	340.27
389.466	367.84
389.846	376.88
390.225	374.62
390.605	371.91
390.984	374.4
391.363	358.58
391.743	358.58
392.122	369.88
392.501	374.85
392.881	379.37
393.26	381.18
393.639	382.76
394.018	382.98
394.397	388.18
394.776	397.9
395.155	382.31
395.534	384.57
395.913	403.55
396.292	382.98
396.671	404.45
397.05	392.7
397.429	392.02
397.808	387.28
398.186	392.7
398.565	406.03
398.944	407.39
399.323	386.83
399.701	401.29
400.08	391.35
400.458	425.47
400.837	428.18
401.215	433.15
401.594	420.5
401.972	427.95
402.351	440.84
402.729	434.28
403.107	419.37
403.486	431.12
403.864	416.43
404.242	456.43
404.62	421.63
404.999	448.97
405.377	458.46
405.755	439.93
406.133	448.07
406.511	458.91
406.889	448.97
407.267	455.52
407.645	470.67
408.023	457.33
408.401	460.95
408.779	469.08
409.156	480.38
409.534	460.5
409.912	479.25
410.29	496.2
410.667	488.74
411.045	493.49
411.422	514.96
411.8	527.39
412.178	505.69
412.555	521.29
412.933	508.18
413.31	512.25
413.687	521.06
414.065	527.84
414.442	544.34
414.819	540.72
415.197	566.93
415.574	553.15
415.951	561.96
416.328	566.26
416.705	589.53
417.082	576.2
417.46	591.79
417.837	590.89
418.214	578.91
418.591	600.83
418.967	610.1
419.344	603.32
419.721	623.2
420.098	641.28
420.475	627.05
420.852	631.57
421.228	648.51
421.605	631.79
421.982	660.72
422.358	658.46
422.735	697.55
423.111	660.72
423.488	691.9
423.864	680.6
424.241	717.89
424.617	709.08
424.994	711.34
425.37	714.5
425.746	718.57
426.123	748.17
426.499	747.72
426.875	763.54
427.251	767.83
427.627	771.67
428.003	780.04
428.379	787.49
428.756	772.35
429.132	799.47
429.507	801.96
429.883	845.57
430.259	813.03
430.635	860.26
431.011	834.27
431.387	839.02
431.763	845.8
432.138	867.72
432.514	860.49
432.89	892.35
433.265	918.56
433.641	907.04
434.016	922.63
434.392	917.89
434.767	952.23
435.143	950.43
435.518	967.6
435.894	974.61
436.269	979.8
436.644	993.36
437.02	1007.83
437.395	1022.06
437.77	1038.33
438.145	1058.67
438.52	1072.68
438.895	1072.23
439.271	1070.88
439.646	1102.29
440.021	1105.68
440.395	1128.28
440.77	1093.25
441.145	1145
441.52	1168.73
441.895	1168.05
442.27	1144.55
442.645	1174.15
443.019	1179.8
443.394	1178.67
443.769	1224.09
444.143	1201.27
444.518	1234.49
444.892	1239.01
445.267	1241.49
445.641	1246.92
446.016	1273.13
446.39	1283.98
446.764	1313.13
447.139	1296.41
447.513	1288.72
447.887	1311.55
448.262	1294.6
448.636	1343.41
449.01	1327.14
449.384	1386.8
449.758	1374.37
450.132	1388.83
450.506	1395.39
450.88	1394.94
451.254	1393.58
451.628	1433.58
452.002	1453.01
452.376	1453.01
452.75	1472.9
453.123	1463.63
453.497	1497.08
453.871	1532.11
454.244	1545.21
454.618	1553.57
454.992	1566.46
455.365	1574.59
455.739	1616.17
456.112	1632.44
456.486	1642.61
456.859	1657.53
457.232	1697.07
457.606	1700.92
457.979	1741.82
458.352	1754.02
458.725	1738.43
459.099	1759.45
459.472	1831.76
459.845	1811.87
460.218	1861.59
460.591	1880.12
460.964	1887.58
461.337	1925.77
461.71	1969.16
462.083	2011.87
462.456	2035.14
462.829	1999.21
463.201	2058.87
463.574	2067.46
463.947	2119.21
464.32	2154.69
464.692	2181.58
465.065	2201.47
465.438	2235.59
465.81	2274.46
466.183	2290.96
466.555	2337.28
466.928	2333.22
467.3	2387.45
467.672	2414.12
468.045	2519.65
468.417	2533.89
468.789	2534.34
469.161	2568.46
469.534	2588.58
469.906	2668.57
470.278	2721.91
470.65	2758.06
471.022	2826.99
471.394	2866.99
471.766	2916.03
472.138	2910.6
472.51	3005.29
472.882	3085.96
473.253	3143.14
473.625	3215.9
473.997	3265.85
474.369	3287.31
474.74	3364.6
475.112	3443.24
475.484	3539.29
475.855	3616.35
476.227	3671.26
476.598	3784.02
476.97	3793.97
477.341	3915.55
477.713	3988.77
478.084	4030.8
478.455	4200.06
478.827	4203.9
479.198	4395.31
479.569	4423.1
479.94	4539.03
480.311	4632.82
480.682	4769.76
481.053	4898.12
481.424	5023.99
481.795	5082.97
482.166	5212.24
482.537	5294.49
482.908	5456.3
483.279	5587.14
483.65	5673.47
484.021	5804.31
484.391	5908.94
484.762	5990.75
485.133	6107.58
485.503	6237.07
485.874	6392.77
486.244	6459.66
486.615	6626.21
486.985	6777.84
487.356	6935.81
487.726	7005.41
488.097	7211.51
488.467	7250.83
488.837	7425.96
489.207	7616.92
489.578	7783.24
489.948	7817.37
490.318	8068.66
490.688	8057.58
491.058	8273.85
491.428	8386.62
491.798	8491.92
492.168	8745.7
492.538	8769.2
492.908	8832.93
493.278	9041.74
493.648	9126.26
494.017	9234.5
494.387	9350.88
494.757	9545.23
495.126	9580.93
495.496	9652.12
495.866	9811.89
496.235	9935.95
496.605	10061.83
496.974	10147.93
497.344	10209.17
497.713	10292.33
498.082	10365.09
498.452	10526.22
498.821	10563.51
499.19	10651.19
499.559	10785.2
499.928	10822.48
500.298	10949.94
500.667	11081.69
501.036	11042.37
501.405	11202.59
501.774	11272.19
502.143	11346.99
502.512	11390.15
502.88	11468.34
503.249	11516.93
503.618	11583.37
503.987	11649.58
504.356	11668.79
504.724	11758.73
505.093	11833.76
505.462	11825.62
505.83	11904.04
506.199	12061.1
506.567	12163.69
506.936	12172.05
507.304	12246.63
507.672	12329.34
508.041	12455.44
508.409	12454.08
508.777	12518.71
509.145	12581.31
509.514	12595.09
509.882	12617.46
510.25	12663.34
510.618	12714.86
510.986	12761.42
511.354	12897.46
511.722	12922.99
512.09	13022.2
512.458	12986.95
512.826	13082.76
513.193	13155.76
513.561	13133.38
513.929	13218.13
514.297	13311.91
514.664	13342.64
515.032	13400.95
515.4	13470.32
515.767	13472.58
516.135	13518.01
516.502	13389.2
516.869	13566.37
517.237	13482.07
517.604	13498.57
517.972	13550.77
518.339	13659.7
518.706	13643.65
519.073	13703.54
519.44	13757.1
519.808	13892.46
520.175	13743.54
520.542	13920.71
520.909	13981.04
521.276	13864.89
521.643	13963.19
522.009	14046.58
522.376	14006.35
522.743	14095.62
523.11	14164.99
523.477	14160.93
523.843	14213.81
524.21	14367.25
524.577	14371.09
524.943	14298.32
525.31	14351.2
525.676	14407.47
526.043	14393.69
526.409	14471.2
526.776	14530.41
527.142	14501.94
527.508	14568.15
527.874	14550.07
528.241	14572.22
528.607	14506.91
528.973	14631.65
529.339	14570.41
529.705	14660.12
530.071	14710.29
530.437	14728.37
530.803	14745.54
531.169	14647.02
531.535	14592.78
531.901	14659.45
532.267	14605.66
532.632	14694.92
532.998	14663.74
533.364	14635.94
533.73	14626
534.095	14641.14
534.461	14683.4
534.826	14663.74
535.192	14630.97
535.557	14644.98
535.923	14598.88
536.288	14418.55
536.653	14563.63
537.019	14459.68
537.384	14435.95
537.749	14443.18
538.114	14463.52
538.479	14387.81
538.845	14476.17
539.21	14281.38
539.575	14279.57
539.94	14316.86
540.305	14337.65
540.67	14198.21
541.034	14229.63
541.399	14189.63
541.764	14133.36
542.129	14189.17
542.494	14120.48
542.858	14031.66
543.223	13932.68
543.587	14050.42
543.952	13951.67
544.316	13886.36
544.681	13844.78
545.045	13842.52
545.41	13849.07
545.774	13869.86
546.138	13718.45
546.503	13728.85
546.867	13702.86
547.231	13738.11
547.595	13670.54
547.959	13660.15
548.324	13599.13
548.688	13471.91
549.052	13543.32
549.416	13520.04
549.779	13478.01
550.143	13445.92
550.507	13399.59
550.871	13361.17
551.235	13360.95
551.599	13357.11
551.962	13226.04
552.326	13244.79
552.689	13239.14
553.053	13135.87
553.417	13094.29
553.78	13161.63
554.143	13109.66
554.507	13094.06
554.87	13045.02
555.234	13116.43
555.597	13047.96
555.96	13109.66
556.323	13060.39
556.686	13023.33
557.05	13043.22
557.413	13060.62
557.776	12965.03
558.139	13061.29
558.502	13002.99
558.865	13006.16
559.228	13054.29
559.59	12981.52
559.953	12927.29
560.316	13022.65
560.679	12926.38
561.041	13012.48
561.404	13090.45
561.767	12929.32
562.129	12855.42
562.492	13020.62
562.854	12958.47
563.217	12949.43
563.579	13013.61
563.941	13046.15
564.304	13023.1
564.666	12980.85
565.028	13033.05
565.39	13052.71
565.753	13017.23
566.115	13024.46
566.477	13007.96
566.839	13028.08
567.201	13124.12
567.563	13057.68
567.925	13112.82
568.287	13164.57
568.648	13084.57
569.01	13181.52
569.372	13155.53
569.734	13126.38
570.095	13205.02
570.457	13228.97
570.819	13208.64
571.18	13261.29
571.542	13290.89
571.903	13217.9
572.265	13299.71
572.626	13221.74
572.987	13258.58
573.349	13209.54
573.71	13228.97
574.071	13233.72
574.432	13381.96
574.794	13328.18
575.155	13373.6
575.516	13242.76
575.877	13280.5
576.238	13286.83
576.599	13332.47
576.96	13263.55
577.32	13357.11
577.681	13318.01
578.042	13334.51
578.403	13288.63
578.763	13284.34
579.124	13350.55
579.485	13397.78
579.845	13441.4
580.206	13322.31
580.566	13445.69
580.927	13270.78
581.287	13407.5
581.648	13354.85
582.008	13413.15
582.368	13374.06
582.728	13354.62
583.089	13246.15
583.449	13245.02
583.809	13260.61
584.169	13339.48
584.529	13237.56
584.889	13300.84
585.249	13189.65
585.609	13293.38
585.969	13284.34
586.329	13176.55
586.688	13239.82
587.048	13229.43
587.408	13157.56
587.768	13238.92
588.127	13131.35
588.487	13145.59
588.846	13253.83
589.206	13091.12
589.565	13105.81
589.925	13042.99
590.284	13149.2
590.643	13145.36
591.003	13106.49
591.362	13135.87
591.721	13122.99
592.08	13172.93
592.44	13146.26
592.799	13103.1
593.158	13107.4
593.517	13066.27
593.876	13061.75
594.235	13006.83
594.593	13017
594.952	13057.23
595.311	12963.9
595.67	13025.36
596.029	13080.5
596.387	13104.68
596.746	13085.93
597.104	12954.86
597.463	12932.26
597.822	13119.15
598.18	12975.87
598.538	12949.21
598.897	12970
599.255	12860.62
599.613	13012.03
599.972	13028.98
600.33	12968.42
600.688	12907.4
601.046	12959.83
601.404	13044.8
601.762	12925.71
602.12	13029.21
602.478	12986.49
602.836	13015.87
603.194	12875.31
603.552	12988.98
603.91	12958.7
604.268	12954.63
604.625	12901.98
604.983	12988.75
605.341	12901.75
605.698	12975.87
606.056	13006.61
606.413	12966.83
606.771	12986.49
607.128	12945.82
607.485	12898.81
607.843	12865.14
608.2	12975.87
608.557	13077.57
608.914	12950.79
609.272	13047.06
609.629	13025.14
609.986	13069.43
610.343	13060.62
610.7	13162.99
611.057	13129.54
611.414	13033.73
611.771	13064.01
612.127	13156.66
612.484	13111.92
612.841	13180.16
613.198	13059.71
613.554	13044.57
613.911	13145.81
614.267	13187.62
614.624	13104.23
614.98	13153.95
615.337	13198.24
615.693	13241.18
616.05	13253.83
616.406	13263.78
616.762	13257
617.118	13227.17
617.475	13254.96
617.831	13219.03
618.187	13303.32
618.543	13297
618.899	13381.51
619.255	13362.3
619.611	13288.86
619.967	13308.75
620.323	13416.31
620.678	13343.55
621.034	13319.37
621.39	13353.94
621.746	13254.06
622.101	13368.86
622.457	13310.1
622.812	13315.53
623.168	13338.35
623.523	13295.64
623.879	13328.63
624.234	13291.12
624.589	13298.8
624.945	13325.92
625.3	13297.22
625.655	13291.12
626.01	13232.59
626.365	13314.17
626.72	13351.91
627.075	13306.26
627.43	13284.34
627.785	13252.7
628.14	13278.24
628.495	13260.84
628.85	13242.08
629.205	13238.24
629.559	13212.48
629.914	13171.12
630.269	13249.99
630.623	13169.09
630.978	13149.88
631.332	13227.39
631.687	13225.13
632.041	13114.63
632.396	13164.12
632.75	13093.16
633.104	13132.71
633.459	13066.94
633.813	13137.23
634.167	13082.09
634.521	13032.37
634.875	13119.82
635.229	13004.57
635.583	12972.71
635.937	12964.35
636.291	12953.05
636.645	12976.33
636.999	12968.64
637.352	12985.59
637.706	12891.13
638.06	12938.59
638.413	12964.35
638.767	12829.66
639.121	12812.94
639.474	12778.14
639.828	12756.44
640.181	12793.96
640.534	12824.24
640.888	12807.97
641.241	12674.19
641.594	12725.94
641.947	12762.77
642.301	12736.78
642.654	12777.91
643.007	12739.04
643.36	12747.4
643.713	12665.6
644.066	12737.01
644.419	12626.28
644.771	12644.13
645.124	12511.48
645.477	12431.26
645.83	12339.96
646.182	12268.32
646.535	12265.16
646.888	12238.49
647.24	12218.15
647.593	12265.61
647.945	12315.78
648.298	12271.03
648.65	12215.44
649.002	12144.48
649.355	12266.74
649.707	12325.72
650.059	12335.44
650.411	12536.79
650.763	12497.69
651.115	12590.35
651.467	12514.42
651.819	12520.29
652.171	12486.17
652.523	12455.66
652.875	12423.35
653.227	12443.46
653.578	12541.31
653.93	12529.56
654.282	12547.41
654.633	12377.92
654.985	12544.47
655.337	12513.29
655.688	12480.75
656.039	12567.07
656.391	12455.44
656.742	12477.13
657.094	12454.31
657.445	12464.02
657.796	12508.09
658.147	12495.89
658.498	12502.67
658.849	12493.85
659.2	12565.49
659.551	12518.26
659.902	12591.7
660.253	12505.6
660.604	12485.94
660.955	12440.75
661.306	12539.27
661.656	12493.4
662.007	12545.83
662.358	12500.41
662.708	12515.09
663.059	12585.83
663.409	12504.93
663.76	12552.61
664.11	12547.18
664.461	12630.8
664.811	12571.36
665.161	12546.73
665.511	12518.48
665.862	12630.35
666.212	12677.58
666.562	12653.17
666.912	12598.71
667.262	12564.58
667.612	12563.23
667.962	12693.4
668.312	12582.66
668.662	12561.65
669.011	12612.95
669.361	12513.06
669.711	12569.1
670.06	12543.12
670.41	12544.02
670.76	12513.06
671.109	12552.16
671.459	12528.65
671.808	12543.79
672.157	12506.73
672.507	12443.46
672.856	12467.64
673.205	12411.37
673.554	12518.94
673.904	12385.15
674.253	12538.6
674.602	12469.9
674.951	12232.62
675.3	12172.96
675.649	12437.13
675.998	12380.86
676.346	12389.67
676.695	12396.68
677.044	12294.54
677.393	12379.28
677.741	12410.01
678.09	12343.57
678.438	12403.46
678.787	12362.78
679.135	12308.55
679.484	12219.96
679.832	12281.2
680.181	12189.91
680.529	12242.33
680.877	12209.57
681.225	12144.03
681.573	12318.72
681.922	12097.7
682.27	12015.45
682.618	12116.69
682.966	12036.01
683.314	12089.12
683.661	11986.3
684.009	11946.75
684.357	11954.88
684.705	11974.09
685.053	11942
685.4	11932.74
685.748	11839.63
686.095	11780.42
686.443	11766.41
686.79	11784.49
687.138	11825.4
687.485	11740.2
687.832	11767.32
688.18	11740.2
688.527	11619.98
688.874	11589.7
689.221	11517.15
689.568	11568.9
689.915	11492.97
690.262	11495.46
690.609	11479.42
690.956	11369.81
691.303	11408.91
691.65	11337.5
691.997	11370.27
692.344	11252.3
692.69	11245.3
693.037	11163.27
693.383	11121.46
693.73	11108.8
694.077	11088.24
694.423	10987.9
694.769	11014.34
695.116	10911.97
695.462	10988.36
695.808	10897.28
696.155	10883.05
696.501	10789.94
696.847	10799.21
697.193	10728.47
697.539	10791.3
697.885	10663.39
698.231	10668.82
698.577	10657.29
698.923	10590.85
699.269	10506.56
699.614	10489.84
699.96	10439.44
700.306	10447.8
700.651	10352.44
700.997	10348.6
701.342	10356.06
701.688	10303.18
702.033	10198.09
702.379	10158.55
702.724	10204.19
703.069	10239.45
703.415	10100.24
703.76	10134.59
704.105	10143.63
704.45	10033.8
704.795	9965.56
705.14	9939.34
705.485	9959
705.83	9913.58
706.175	9880.36
706.52	9864.09
706.865	9822.74
707.209	9801.27
707.554	9657.77
707.899	9806.92
708.243	9699.8
708.588	9707.94
708.932	9522.18
709.277	9565.57
709.621	9589.52
709.966	9523.53
710.31	9535.74
710.654	9475.85
710.998	9483.76
711.342	9426.36
711.687	9420.03
712.031	9361.28
712.375	9324.22
712.719	9336.42
713.063	9346.59
713.407	9353.14
713.75	9311.34
714.094	9287.61
714.438	9204
714.782	9263.65
715.125	9230.89
715.469	9216.2
715.812	9202.41
716.156	9124.45
716.499	9137.56
716.843	9126.71
717.186	9070.67
717.53	9100.95
717.873	9100.95
718.216	9122.87
718.559	8995.19
718.902	9049.88
719.246	9008.52
719.589	9015.53
719.932	8946.37
720.275	8979.82
720.617	8883.78
720.96	8953.15
721.303	8957
721.646	8956.09
721.989	8921.52
722.331	8971.46
722.674	8928.07
723.016	8913.38
723.359	8938.01
723.701	8885.59
724.044	8787.28
724.386	8805.59
724.729	8904.79
725.071	8827.96
725.413	8801.75
725.755	8787.06
726.097	8808.53
726.439	8781.41
726.782	8732.14
727.124	8805.36
727.465	8734.86
727.807	8793.38
728.149	8726.49
728.491	8770.11
728.833	8732.82
729.175	8728.53
729.516	8742.54
729.858	8716.78
730.199	8752.48
730.541	8662.54
730.882	8714.06
731.224	8746.15
731.565	8667.96
731.906	8695.53
732.248	8755.87
732.589	8716.78
732.93	8686.72
733.271	8738.7
733.612	8690.11
733.953	8731.69
734.294	8732.37
734.635	8642.2
734.976	8705.48
735.317	8683.11
735.658	8719.71
735.999	8710.45
736.339	8646.27
736.68	8745.02
737.021	8758.81
737.361	8750
737.702	8742.09
738.042	8712.26
738.383	8749.32
738.723	8719.49
739.063	8742.54
739.404	8796.32
739.744	8792.03
740.084	8728.08
740.424	8787.06
740.764	8764.68
741.104	8767.4
741.444	8779.37
741.784	8829.32
742.124	8876.32
742.464	8879.48
742.804	8872.7
743.143	8863.44
743.483	8909.77
743.823	8885.13
744.162	8969.88
744.502	9064.79
744.841	8976.43
745.181	9145.92
745.52	9076.54
745.86	9160.38
746.199	9158.35
746.538	9206.26
746.877	9314.73
747.216	9287.38
747.556	9353.6
747.895	9346.14
748.234	9501.16
748.573	9426.36
748.911	9528.51
749.25	9573.7
749.589	9641.5
749.928	9700.03
750.267	9777.09
750.605	9822.96
750.944	9863.86
751.283	9921.49
751.621	10079.68
751.96	10106.12
752.298	10240.35
752.636	10282.61
752.975	10427.47
753.313	10513.79
753.651	10610.29
753.989	10733.9
754.327	10838.98
754.666	10916.72
755.004	11049.37
755.342	11201.46
755.679	11370.72
756.017	11360.32
756.355	11596.93
756.693	11713.53
757.031	11916.69
757.368	11991.04
757.706	12139.96
758.044	12292.05
