Data from hue_80_FLMS001491_25.txt Node
Date: Mon Feb 06 15:22:44 GMT 2017
User: dcchb
Spectrometer: FLMS00149
Trigger mode: 0
Integration Time (sec): 2.000000E-2
Scans to average: 10
Electric dark correction enabled: true
Nonlinearity correction enabled: false
Boxcar width: 0
XAxis mode: Wavelengths
Number of Pixels in Spectrum: 2048
>>>>>Begin Spectral Data<<<<<
341.393	-9.05
341.776	-9.05
342.16	-9.05
342.543	-48.83
342.927	-65.55
343.31	-82.5
343.693	-56.51
344.077	-49.73
344.46	-58.32
344.843	-63.29
345.226	-56.51
345.61	-25.55
345.993	-23.97
346.376	-2.27
346.759	27.33
347.142	9.93
347.525	57.39
347.908	50.61
348.291	82.47
348.674	85.18
349.057	105.75
349.44	128.57
349.823	147.33
350.206	157.95
350.588	181.9
350.971	222.35
351.354	216.93
351.737	243.6
352.119	248.57
352.502	256.7
352.884	268.23
353.267	284.72
353.65	276.59
354.032	302.12
354.414	317.72
354.797	310.94
355.179	324.05
355.562	328.11
355.944	346.19
356.326	342.35
356.709	355.46
357.091	355.91
357.473	333.54
357.855	351.62
358.238	334.21
358.62	319.75
359.002	361.56
359.384	335.8
359.766	346.42
360.148	343.71
360.53	336.7
360.912	337.6
361.294	318.85
361.676	330.82
362.057	332.18
362.439	324.05
362.821	317.27
363.203	331.28
363.584	312.07
363.966	325.4
364.348	340.32
364.729	328.79
365.111	308.45
365.493	316.59
365.874	322.46
366.256	304.84
366.637	300.54
367.019	296.7
367.4	337.6
367.781	310.71
368.163	310.94
368.544	319.75
368.925	317.27
369.306	314.78
369.688	323.59
370.069	305.97
370.45	319.07
370.831	308.9
371.212	305.51
371.593	330.82
371.974	307.55
372.355	320.43
372.736	307.32
373.117	314.1
373.498	326.53
373.879	329.69
374.26	308.23
374.641	327.21
375.021	307.55
375.402	315.46
375.783	334.67
376.163	325.18
376.544	326.08
376.925	305.74
377.305	319.75
377.686	308.9
378.066	319.75
378.447	336.7
378.827	326.53
379.208	336.02
379.588	331.73
379.968	320.43
380.349	333.08
380.729	333.54
381.109	302.8
381.489	323.37
381.87	356.36
382.25	315.23
382.63	351.62
383.01	333.76
383.39	330.37
383.77	337.6
384.15	347.77
384.53	339.41
384.91	342.35
385.29	342.12
385.67	340.77
386.049	342.58
386.429	366.08
386.809	353.65
387.189	352.07
387.568	329.47
387.948	345.29
388.328	334.21
388.707	350.49
389.087	338.51
389.466	345.74
389.846	357.26
390.225	367.21
390.605	345.06
390.984	368.56
391.363	347.55
391.743	357.26
392.122	359.75
392.501	354.78
392.881	368.34
393.26	369.02
393.639	349.58
394.018	368.34
394.397	381.67
394.776	338.96
395.155	382.57
395.534	356.59
395.913	375.57
396.292	378.06
396.671	364.04
397.05	357.72
397.429	364.27
397.808	392.07
398.186	369.69
398.565	351.39
398.944	380.31
399.323	394.55
399.701	393.87
400.08	355.68
400.458	383.48
400.837	380.99
401.215	386.19
401.594	381.67
401.972	401.56
402.351	409.92
402.729	399.07
403.107	397.49
403.486	377.6
403.864	407.43
404.242	389.13
404.62	399.98
404.999	405.17
405.377	410.14
405.755	429.13
406.133	408.56
406.511	394.78
406.889	405.17
407.267	397.72
407.645	414.89
408.023	418.96
408.401	431.39
408.779	439.07
409.156	449.92
409.534	435.45
409.912	451.5
410.29	431.84
410.667	431.84
411.045	443.59
411.422	447.43
411.8	451.27
412.178	447.21
412.555	446.3
412.933	460.31
413.31	451.05
413.687	456.25
414.065	459.86
414.442	455.34
414.819	452.86
415.197	458.28
415.574	470.93
415.951	462.12
416.328	475.68
416.705	460.31
417.082	480.65
417.46	488.33
417.837	458.73
418.214	491.05
418.591	496.7
418.967	507.54
419.344	478.84
419.721	516.36
420.098	496.24
420.475	500.31
420.852	510.93
421.228	501.67
421.605	525.85
421.982	501.22
422.358	497.6
422.735	506.41
423.111	524.49
423.488	512.29
423.864	529.92
424.241	534.44
424.617	530.82
424.994	552.51
425.37	532.4
425.746	539.63
426.123	536.24
426.499	532.4
426.875	549.35
427.251	549.58
427.627	539.63
428.003	563.81
428.379	538.28
428.756	600.87
429.132	597.48
429.507	565.85
429.883	583.7
430.259	578.73
430.635	583.47
431.011	590.25
431.387	612.17
431.763	607.65
432.138	619.63
432.514	612.4
432.89	623.25
433.265	615.11
433.641	633.87
434.016	631.16
434.392	659.4
434.767	644.94
435.143	622.57
435.518	642.91
435.894	646.75
436.269	675.22
436.644	668.44
437.02	651.95
437.395	665.51
437.77	667.09
438.145	668.89
438.52	672.28
438.895	689.23
439.271	703.02
439.646	696.01
440.021	721.55
440.395	726.75
440.77	683.13
441.145	713.87
441.52	711.83
441.895	702.57
442.27	745.5
442.645	743.92
443.019	727.42
443.394	769.23
443.769	734.2
444.143	712.28
444.518	750.47
444.892	746.41
445.267	765.39
445.641	796.12
446.016	773.3
446.39	767.2
446.764	791.38
447.139	772.39
447.513	784.37
447.887	775.33
448.262	793.41
448.636	809.68
449.01	819.63
449.384	812.17
449.758	838.38
450.132	803.58
450.506	805.84
450.88	851.49
451.254	803.58
451.628	825.5
452.002	838.61
452.376	864.37
452.75	872.96
453.123	861.88
453.497	890.58
453.871	887.19
454.244	901.88
454.618	897.14
454.992	939.4
455.365	926.06
455.739	928.32
456.112	924.93
456.486	956.57
456.859	960.86
457.232	967.19
457.606	965.61
457.979	983.69
458.352	998.15
458.725	1011.03
459.099	1013.74
459.472	1040.86
459.845	1053.74
460.218	1023.01
460.591	1046.06
460.964	1060.3
461.337	1081.77
461.71	1086.06
462.083	1120.18
462.456	1097.58
462.829	1120.63
463.201	1147.75
463.574	1147.75
463.947	1161.09
464.32	1170.58
464.692	1230.91
465.065	1224.36
465.438	1223.68
465.81	1253.29
466.183	1266.17
466.555	1295.09
466.928	1293.74
467.3	1298.71
467.672	1320.4
468.045	1369.22
468.417	1368.31
468.789	1387.75
469.161	1421.19
469.534	1423.68
469.906	1437.01
470.278	1467.74
470.65	1486.5
471.022	1541.87
471.394	1579.61
471.766	1604.01
472.138	1573.5
472.51	1641.75
472.882	1659.6
473.253	1664.57
473.625	1739.83
473.997	1794.97
474.369	1818.47
474.74	1830.45
475.112	1864.12
475.484	1932.59
475.855	1981.4
476.227	1974.17
476.598	2028.41
476.97	2096.65
477.341	2172.13
477.713	2226.14
478.084	2220.04
478.455	2348.4
478.827	2354.73
479.198	2456.87
479.569	2498.68
479.94	2602.86
480.311	2641.27
480.682	2734.15
481.053	2833.36
481.424	2906.35
481.795	2971.21
482.166	3033.35
482.537	3151.32
482.908	3205.55
483.279	3302.95
483.65	3364.64
484.021	3483.74
484.391	3569.84
484.762	3650.96
485.133	3737.29
485.503	3870.62
485.874	3932.31
486.244	4054.12
486.615	4208.69
486.985	4324.17
487.356	4414.33
487.726	4487.78
488.097	4657.94
488.467	4756.92
488.837	4883.93
489.207	5007.31
489.578	5169.34
489.948	5300.41
490.318	5415.66
490.688	5511.25
491.058	5606.84
491.428	5796.22
491.798	5876.89
492.168	6113.05
492.538	6146.49
492.908	6315.53
493.278	6465.8
493.648	6557.33
494.017	6706.93
494.387	6863.08
494.757	6930.43
495.126	7172.23
495.496	7237.76
495.866	7332.45
496.235	7436.4
496.605	7576.74
496.974	7734.25
497.344	7856.95
497.713	7972.88
498.082	8047.91
498.452	8257.62
498.821	8282.03
499.19	8440.44
499.559	8643.83
499.928	8756.37
500.298	8773.09
500.667	8900.99
501.036	9007.88
501.405	9076.13
501.774	9190.7
502.143	9368.33
502.512	9527.87
502.88	9616.68
503.249	9682.22
503.618	9808.99
503.987	9860.74
504.356	10041.53
504.724	10070.23
505.093	10152.04
505.462	10274.74
505.83	10338.47
506.199	10433.61
506.567	10632.25
506.936	10664.11
507.304	10771
507.672	10874.95
508.041	10963.09
508.409	11087.6
508.777	11111.11
509.145	11290.31
509.514	11236.53
509.882	11464.09
510.25	11439.01
510.618	11591.32
510.986	11558.33
511.354	11786.57
511.722	11888.49
512.09	11938.2
512.458	11927.81
512.826	12131.19
513.193	12135.03
513.561	12234.69
513.929	12223.17
514.297	12434.01
514.664	12506.78
515.032	12389.04
515.4	12617.73
515.767	12646.43
516.135	12783.15
516.502	12677.39
516.869	12921
517.237	12939.76
517.604	12911.51
517.972	13120.09
518.339	13113.31
518.706	13269.24
519.073	13268.11
519.44	13327.55
519.808	13366.19
520.175	13392.85
520.542	13466.98
520.909	13562.57
521.276	13666.29
521.643	13737.48
522.009	13788.78
522.376	13835.78
522.743	13851.37
523.11	14004.14
523.477	14148.54
523.843	14203
524.21	14294.3
524.577	14302.89
524.943	14369.55
525.31	14452.26
525.676	14555.54
526.043	14578.36
526.409	14651.8
526.776	14778.58
527.142	14766.83
527.508	14708.75
527.874	14891.57
528.241	14880.05
528.607	14906.03
528.973	15074.62
529.339	14933.83
529.705	15058.8
530.071	15116.2
530.437	15141.28
530.803	15198.68
531.169	15186.25
531.535	15306.7
531.901	15286.82
532.267	15270.09
532.632	15381.05
532.998	15343.99
533.364	15453.82
533.73	15431.44
534.095	15534.04
534.461	15434.38
534.826	15484.1
535.192	15596.86
535.557	15540.37
535.923	15489.3
536.288	15612.91
536.653	15677.09
537.019	15494.27
537.384	15616.3
537.749	15579.24
538.114	15593.7
538.479	15538.56
538.845	15674.83
539.21	15613.59
539.575	15627.6
539.94	15628.05
540.305	15610.2
540.67	15694.71
541.034	15698.78
541.399	15666.24
541.764	15657.65
542.129	15642.74
542.494	15697.2
542.858	15593.93
543.223	15652.91
543.587	15733.58
543.952	15615.17
544.316	15615.17
544.681	15588.05
545.045	15688.61
545.41	15677.99
545.774	15639.57
546.138	15646.13
546.503	15558.9
546.867	15536.07
547.231	15682.29
547.595	15678.67
547.959	15719.57
548.324	15652.68
548.688	15547.37
549.052	15630.54
549.416	15496.08
549.779	15561.16
550.143	15576.53
550.507	15623.76
550.871	15689.97
551.235	15620.59
551.599	15636.86
551.962	15639.8
552.326	15552.35
552.689	15551.22
553.053	15568.16
553.417	15579.69
553.78	15707.6
554.143	15695.39
554.507	15640.03
554.87	15646.13
555.234	15686.81
555.597	15702.62
555.96	15631.21
556.323	15662.17
556.686	15660.37
557.05	15691.32
557.413	15714.15
557.776	15736.75
558.139	15726.35
558.502	15695.17
558.865	15800.25
559.228	15837.08
559.59	15745.56
559.953	15839.12
560.316	15912.34
560.679	15941.94
561.041	16016.51
561.404	15990.3
561.767	16016.29
562.129	15915.73
562.492	16154.82
562.854	16029.85
563.217	15981.03
563.579	16058.09
563.941	16143.74
564.304	16213.12
564.666	16169.28
565.028	16277.52
565.39	16203.4
565.753	16393.23
566.115	16426.9
566.477	16371.08
566.839	16432.77
567.201	16448.37
567.563	16521.81
567.925	16575.82
568.287	16531.75
568.648	16466.67
569.01	16684.97
569.372	16637.51
569.734	16666.44
570.095	16689.26
570.457	16777.85
570.819	16692.43
571.18	16773.1
571.542	16771.52
571.903	16797.74
572.265	16873.89
572.626	16971.74
572.987	16828.02
573.349	16950.27
573.71	16962.48
574.071	16976.94
574.432	16965.42
574.794	17095.36
575.155	17195.24
575.516	16981.01
575.877	17183.94
576.238	17036.15
576.599	17183.26
576.96	17206.54
577.32	17165.18
577.681	17214.9
578.042	17293.77
578.403	17203.38
578.763	17211.96
579.124	17315.01
579.485	17325.63
579.845	17274.11
580.206	17263.26
580.566	17292.64
580.927	17190.95
581.287	17282.24
581.648	17304.16
582.008	17324.5
582.368	17304.62
582.728	17267.78
583.089	17204.96
583.449	17269.81
583.809	17272.75
584.169	17298.97
584.529	17254
584.889	17406.53
585.249	17296.48
585.609	17173.32
585.969	17232.08
586.329	17186.2
586.688	17259.87
587.048	17338.74
587.408	17221
587.768	17260.77
588.127	17270.72
588.487	17237.95
588.846	17289.93
589.206	17154.79
589.565	17250.38
589.925	17254.45
590.284	17157.73
590.643	17252.19
591.003	17229.14
591.362	17331.51
591.721	17241.57
592.08	17224.39
592.44	17244.73
592.799	17222.58
593.158	17153.66
593.517	17174.45
593.876	17181.91
594.235	17111.4
594.593	17140.55
594.952	17205.86
595.311	17129.03
595.67	17190.95
596.029	17238.18
596.387	17305.07
596.746	17210.15
597.104	17174
597.463	17085.41
597.822	17158.18
598.18	17160.44
598.538	17164.73
598.897	17250.61
599.255	17055.58
599.613	17357.04
599.972	17227.33
600.33	17277.27
600.688	17114.56
601.046	17238.18
601.404	17268.46
601.762	17209.02
602.12	17257.16
602.478	17247.44
602.836	17223.04
603.194	17168.35
603.552	17217.84
603.91	17243.6
604.268	17246.76
604.625	17239.98
604.983	17237.95
605.341	17162.92
605.698	17287.67
606.056	17382.58
606.413	17301
606.771	17351.62
607.128	17399.75
607.485	17277.95
607.843	17278.4
608.2	17479.98
608.557	17396.36
608.914	17432.75
609.272	17418.51
609.629	17323.82
609.986	17602.69
610.343	17339.87
610.7	17549.81
611.057	17575.34
611.414	17502.12
611.771	17563.59
612.127	17590.71
612.484	17574.21
612.841	17609.24
613.198	17571.28
613.554	17533.76
613.911	17706.64
614.267	17711.84
614.624	17566.76
614.98	17656.92
615.337	17747.32
615.693	17666.41
616.05	17698.73
616.406	17895.11
616.762	17816.24
617.118	17731.5
617.475	17751.16
617.831	17782.12
618.187	17913.64
618.543	17888.78
618.899	17902.57
619.255	17860.31
619.611	17955.9
619.967	17953.86
620.323	17979.85
620.678	17794.77
621.034	17914.09
621.39	17804.04
621.746	17872.74
622.101	18080.41
622.457	17816.92
622.812	17913.64
623.168	17967.65
623.523	17990.25
623.879	17952.73
624.234	17915.9
624.589	17932.4
624.945	17973.52
625.3	17960.87
625.655	17938.72
626.01	18070.47
626.365	17996.12
626.72	18030.92
627.075	17935.33
627.43	17924.71
627.785	17953.19
628.14	17978.95
628.495	17965.84
628.85	17961.55
629.205	17867.54
629.559	18022.34
629.914	17939.85
630.269	17942.79
630.623	17890.36
630.978	17770.14
631.332	18033.18
631.687	17981.66
632.041	17904.83
632.396	17870.25
632.75	17793.87
633.104	17832.51
633.459	17767.2
633.813	17806.3
634.167	17687.2
634.521	17723.81
634.875	17744.15
635.229	17651.5
635.583	17589.58
635.937	17655.79
636.291	17602.69
636.645	17588.45
636.999	17534.21
637.352	17660.09
637.706	17485.18
638.06	17564.04
638.413	17502.35
638.767	17399.53
639.121	17502.8
639.474	17423.71
639.828	17348.23
640.181	17366.53
640.534	17595.68
640.888	17378.96
641.241	17456.7
641.594	17425.29
641.947	17383.71
642.301	17345.52
642.654	17318.17
643.007	17410.6
643.36	17355.01
643.713	17250.83
644.066	17295.35
644.419	17282.02
644.771	17139.42
645.124	16963.16
645.477	16957.96
645.83	16884.51
646.182	16840.67
646.535	16720.68
646.888	16783.95
647.24	16690.17
647.593	16714.8
647.945	16752.77
648.298	16662.37
648.65	16627.8
649.002	16622.6
649.355	16672.54
649.707	16685.87
650.059	16693.78
650.411	16978.52
650.763	17038.41
651.115	17125.41
651.467	17109.59
651.819	17005.64
652.171	17061.01
652.523	17097.62
652.875	17045.87
653.227	16994.79
653.578	17103.72
653.93	17015.13
654.282	17076.15
654.633	16952.08
654.985	17094.68
655.337	17012.42
655.688	16995.25
656.039	17047
656.391	16976.04
656.742	17010.16
657.094	16977.84
657.445	17066.43
657.796	17009.48
658.147	17013.78
658.498	16937.85
658.849	16995.25
659.2	17009.26
659.551	17072.76
659.902	17153.21
660.253	17057.39
660.604	17044.06
660.955	17056.03
661.306	17134.22
661.656	17063.04
662.007	17131.74
662.358	16981.46
662.708	17051.29
663.059	17045.87
663.409	16897.85
663.76	17014.91
664.11	17023.49
664.461	17041.8
664.811	16992.99
665.161	17134.9
665.511	17055.58
665.862	17066.88
666.212	17151.4
666.562	17062.81
666.912	17093.32
667.262	17053.77
667.612	17022.14
667.962	17174
668.312	17140.1
668.662	17065.3
669.011	17095.58
669.361	17007.45
669.711	17077.73
670.06	16940.56
670.41	17019.2
670.76	16858.3
671.109	17024.17
671.459	16972.42
671.808	16919.54
672.157	17033.44
672.507	16889.26
672.856	16912.76
673.205	16896.49
673.554	16931.74
673.904	16891.97
674.253	17040.44
674.602	16923.16
674.951	16718.19
675.3	16641.36
675.649	16807.45
675.998	16815.81
676.346	16830.96
676.695	16826.89
677.044	16703.5
677.393	16803.84
677.741	16790.5
678.09	16681.58
678.438	16712.99
678.787	16849.71
679.135	16741.47
679.484	16625.76
679.832	16722.48
680.181	16614.69
680.529	16658.08
680.877	16582.15
681.225	16578.53
681.573	16600.68
681.922	16556.16
682.27	16477.74
682.618	16449.95
682.966	16426.22
683.314	16429.38
683.661	16353.91
684.009	16268.71
684.357	16298.77
684.705	16214.47
685.053	16316.39
685.4	16230.29
685.748	16150.75
686.095	16128.38
686.443	15979.68
686.79	16030.07
687.138	16099
687.485	16145.78
687.832	16025.55
688.18	16007.02
688.527	15844.77
688.874	15894.71
689.221	15889.74
689.568	15838.44
689.915	15715.28
690.262	15706.92
690.609	15664.43
690.956	15574.27
691.303	15608.84
691.65	15432.12
691.997	15533.59
692.344	15375.63
692.69	15334.95
693.037	15348.96
693.383	15190.55
693.73	15266.48
694.077	15188.51
694.423	15200.94
694.769	15120.94
695.116	15126.14
695.462	15047.27
695.808	14941.74
696.155	15083.88
696.501	14838.69
696.847	14932.7
697.193	14742.65
697.539	14784.68
697.885	14617.23
698.231	14697.45
698.577	14578.13
698.923	14540.62
699.269	14539.72
699.614	14406.84
699.96	14367.52
700.306	14393.28
700.651	14280.51
700.997	14216.79
701.342	14284.13
701.688	14127.07
702.033	14133.85
702.379	14050.24
702.724	14068.32
703.069	14021.31
703.415	13806.85
703.76	13926.63
704.105	14015.21
704.45	13847.76
704.795	13733.86
705.14	13724.14
705.485	13676.46
705.83	13577.93
706.175	13721.66
706.52	13580.87
706.865	13592.85
707.209	13530.48
707.554	13547.2
707.899	13424.72
708.243	13382.01
708.588	13349.92
708.932	13277.15
709.277	13264.04
709.621	13267.21
709.966	13142.47
710.31	13152.63
710.654	13118.29
710.998	13045.74
711.342	13035.8
711.687	13000.1
712.031	12920.1
712.375	12885.75
712.719	12999.42
713.063	12964.62
713.407	12969.59
713.75	12828.35
714.094	12832.87
714.438	12713.78
714.782	12756.26
715.125	12669.26
715.469	12724.17
715.812	12716.26
716.156	12658.41
716.499	12666.09
716.843	12652.76
717.186	12561.01
717.53	12639.65
717.873	12620.44
718.216	12624.06
718.559	12482.82
718.902	12472.2
719.246	12478.98
719.589	12462.48
719.932	12381.58
720.275	12451.41
720.617	12420.68
720.96	12393.56
721.303	12395.37
721.646	12428.36
721.989	12303.84
722.331	12424.74
722.674	12329.61
723.016	12286.67
723.359	12324.86
723.701	12302.49
724.044	12259.32
724.386	12136.39
724.729	12194.69
725.071	12229.95
725.413	12172.55
725.755	12102.04
726.097	12146.56
726.439	12067.47
726.782	12146.56
727.124	12168.25
727.465	12087.13
727.807	12065.66
728.149	12115.6
728.491	12057.3
728.833	12054.36
729.175	11932.78
729.516	12025.66
729.858	12003.29
730.199	12041.93
730.541	11965.77
730.882	12000.12
731.224	11987.02
731.565	11982.27
731.906	11995.6
732.248	11979.56
732.589	11916.96
732.93	11923.74
733.271	12014.13
733.612	11951.54
733.953	11966.9
734.294	11888.26
734.635	12010.07
734.976	11946.11
735.317	11945.89
735.658	11877.41
735.999	11925.1
736.339	11952.67
736.68	11955.15
737.021	11922.38
737.361	11904.31
737.702	11941.14
738.042	11913.57
738.383	11949.05
738.723	11989.5
739.063	11897.75
739.404	11977.98
739.744	11928.49
740.084	11891.88
740.424	12020.91
740.764	11930.75
741.104	11969.61
741.444	11878.77
741.784	11943.4
742.124	11981.37
742.464	12045.32
742.804	11946.11
743.143	12041.93
743.483	12022.49
743.823	12062.49
744.162	12069.27
744.502	12115.83
744.841	12064.3
745.181	12222.04
745.52	12134.13
745.86	12180.91
746.199	12205.77
746.538	12223.85
746.877	12325.09
747.216	12340.9
747.556	12339.1
747.895	12461.13
748.234	12495.02
748.573	12470.17
748.911	12497.51
749.25	12536.15
749.589	12636.49
749.928	12800.78
750.267	12729.59
750.605	12825.86
750.944	12882.13
751.283	12852.3
751.621	13035.35
751.96	13045.29
752.298	13238.96
752.636	13224.5
752.975	13266.76
753.313	13328.45
753.651	13425.62
753.989	13507.65
754.327	13501.1
754.666	13649.34
755.004	13762.79
755.342	13822.9
755.679	13933.18
756.017	13932.73
756.355	14193.28
756.693	14237.8
757.031	14352.15
