Data from hue_34_FLMS001491_00043.txt Node
Date: Tue Feb 07 17:25:40 GMT 2017
User: dcchb
Spectrometer: FLMS00149
Trigger mode: 0
Integration Time (sec): 2.000000E-2
Scans to average: 10
Electric dark correction enabled: true
Nonlinearity correction enabled: false
Boxcar width: 0
XAxis mode: Wavelengths
Number of Pixels in Spectrum: 2048
>>>>>Begin Spectral Data<<<<<
341.393	9.12
341.776	9.12
342.16	9.12
342.543	-48.95
342.927	-66.81
343.31	-53.47
343.693	-79.91
344.077	-52.57
344.46	-64.09
344.843	-66.35
345.226	-54.83
345.61	-43.76
345.993	-11.67
346.376	4.6
346.759	-2.85
347.142	33.76
347.525	48.9
347.908	64.72
348.291	78.95
348.674	91.83
349.057	106.75
349.44	122.57
349.823	151.04
350.206	167.09
350.588	210.93
350.971	221.77
351.354	238.27
351.737	234.88
352.119	224.94
352.502	235.78
352.884	279.17
353.267	281.66
353.65	287.53
354.032	286.18
354.414	304.26
354.797	313.52
355.179	356.91
355.562	316.69
355.944	334.99
356.326	342.9
356.709	336.35
357.091	353.97
357.473	356.69
357.855	342.9
358.238	353.52
358.62	349.68
359.002	350.58
359.384	337.93
359.766	338.83
360.148	339.51
360.53	345.84
360.912	316.69
361.294	329.12
361.676	330.7
362.057	340.64
362.439	317.14
362.821	309.23
363.203	324.37
363.584	329.34
363.966	332.51
364.348	339.74
364.729	329.57
365.111	319.85
365.493	316.91
365.874	329.34
366.256	307.65
366.637	321.88
367.019	320.3
367.4	308.78
367.781	327.99
368.163	310.59
368.544	327.53
368.925	318.49
369.306	319.17
369.688	299.74
370.069	323.01
370.45	323.24
370.831	338.38
371.212	294.09
371.593	330.02
371.974	311.04
372.355	318.49
372.736	342.67
373.117	322.56
373.498	321.43
373.879	306.74
374.26	314.43
374.641	319.17
375.021	307.87
375.402	314.2
375.783	331.15
376.163	332.96
376.544	325.73
376.925	343.8
377.305	320.98
377.686	324.6
378.066	334.77
378.447	331.83
378.827	335.44
379.208	341.54
379.588	347.19
379.968	316.91
380.349	351.04
380.729	337.25
381.109	368.89
381.489	352.84
381.87	354.2
382.25	346.52
382.63	327.76
383.01	359.4
383.39	325.73
383.77	335.22
384.15	348.78
384.53	351.49
384.91	356.01
385.29	357.59
385.67	347.87
386.049	372.73
386.429	353.07
386.809	361.66
387.189	371.15
387.568	363.47
387.948	368.89
388.328	372.5
388.707	344.03
389.087	370.24
389.466	387.87
389.846	343.58
390.225	368.21
390.605	366.85
390.984	349.23
391.363	356.46
391.743	369.34
392.122	377.25
392.501	371.37
392.881	373.86
393.26	370.7
393.639	382.22
394.018	361.21
394.397	377.48
394.776	387.87
395.155	389.45
395.534	381.77
395.913	380.19
396.292	383.8
396.671	384.71
397.05	408.21
397.429	390.58
397.808	388.78
398.186	385.16
398.565	391.26
398.944	400.3
399.323	390.81
399.701	406.85
400.08	393.97
400.458	400.07
400.837	424.03
401.215	433.07
401.594	418.38
401.972	420.86
402.351	413.18
402.729	419.06
403.107	424.71
403.486	427.87
403.864	424.25
404.242	407.76
404.62	432.84
404.999	429.23
405.377	435.78
405.755	431.26
406.133	427.64
406.511	441.2
406.889	429.23
407.267	426.51
407.645	439.17
408.023	473.07
408.401	429.45
408.779	441.43
409.156	464.71
409.534	452.73
409.912	461.32
410.29	452.95
410.667	485.5
411.045	455.89
411.422	446.4
411.8	469.45
412.178	482.11
412.555	475.33
412.933	483.24
413.31	490.47
413.687	509
414.065	491.15
414.442	465.84
414.819	502.67
415.197	508.77
415.574	500.18
415.951	514.2
416.328	504.93
416.705	482.56
417.082	516.23
417.46	521.88
417.837	535.44
418.214	522.56
418.591	544.7
418.967	512.84
419.344	533.86
419.721	524.59
420.098	531.82
420.475	545.61
420.852	532.5
421.228	547.19
421.605	534.99
421.982	544.03
422.358	561.65
422.735	546.74
423.111	568.21
423.488	574.98
423.864	549.22
424.241	569.79
424.617	567.08
424.994	594.87
425.37	576.11
425.746	583.8
426.123	577.7
426.499	586.28
426.875	593.74
427.251	594.42
427.627	604.36
428.003	594.65
428.379	633.29
428.756	612.05
429.132	594.19
429.507	630.58
429.883	652.5
430.259	620.41
430.635	641.88
431.011	649.11
431.387	657.02
431.763	676
432.138	664.7
432.514	654.76
432.89	673.74
433.265	675.77
433.641	700.63
434.016	686.17
434.392	673.97
434.767	701.31
435.143	701.08
435.518	699.73
435.894	724.13
436.269	728.2
436.644	712.38
437.02	725.49
437.395	731.36
437.77	737.24
438.145	753.29
438.52	748.54
438.895	759.84
439.271	768.2
439.646	795.09
440.021	790.35
440.395	784.92
440.77	774.3
441.145	786.5
441.52	796.67
441.895	782.21
442.27	800.74
442.645	777.92
443.019	810.68
443.394	814.07
443.769	805.49
444.143	809.78
444.518	862.43
444.892	868.76
445.267	816.79
445.641	835.32
446.016	828.09
446.39	859.05
446.764	839.38
447.139	838.48
447.513	873.28
447.887	878.25
448.262	864.92
448.636	881.87
449.01	884.13
449.384	878.93
449.758	885.03
450.132	895.65
450.506	917.35
450.88	920.96
451.254	927.07
451.628	935.43
452.002	931.59
452.376	952.38
452.75	941.08
453.123	968.65
453.497	968.42
453.871	977.23
454.244	977.23
454.618	1005.48
454.992	1011.13
455.365	1003
455.739	1013.62
456.112	1047.74
456.486	1046.61
456.859	1074.86
457.232	1076.21
457.606	1041.41
457.979	1071.69
458.352	1102.2
458.725	1097.01
459.099	1111.69
459.472	1147.85
459.845	1139.94
460.218	1147.4
460.591	1169.32
460.964	1180.84
461.337	1174.74
461.71	1180.84
462.083	1229.43
462.456	1232.59
462.829	1228.53
463.201	1247.06
463.574	1271.92
463.947	1269.66
464.32	1274.63
464.692	1301.52
465.065	1307.4
465.438	1349.2
465.81	1369.77
466.183	1377.68
466.555	1391.46
466.928	1401.18
467.3	1404.12
467.672	1429.2
468.045	1469.88
468.417	1493.83
468.789	1505.36
469.161	1495.41
469.534	1543.32
469.906	1560.04
470.278	1577.22
470.65	1623.09
471.022	1653.15
471.394	1688.63
471.766	1693.6
472.138	1704.45
472.51	1736.08
472.882	1750.77
473.253	1799.13
473.625	1825.12
473.997	1909.64
474.369	1888.62
474.74	1922.07
475.112	1944.21
475.484	2054.04
475.855	2069.41
476.227	2097.66
476.598	2137.2
476.97	2150.31
477.341	2216.75
477.713	2236.64
478.084	2307.82
478.455	2401.83
478.827	2396.63
479.198	2480.92
479.569	2506.91
479.94	2572.22
480.311	2643.41
480.682	2729.96
481.053	2809.73
481.424	2842.72
481.795	2883.17
482.166	2963.85
482.537	3006.11
482.908	3142.83
483.279	3186.67
483.65	3232.09
484.021	3345.53
484.391	3380.56
484.762	3452.2
485.133	3503.27
485.503	3619.65
485.874	3721.57
486.244	3749.82
486.615	3856.03
486.985	3976.93
487.356	4043.37
487.726	4064.84
488.097	4199.52
488.467	4225.74
488.837	4350.93
489.207	4486.52
489.578	4553.19
489.948	4689.23
490.318	4759.28
490.688	4832.27
491.058	4966.96
491.428	5027.75
491.798	5100.52
492.168	5201.08
492.538	5285.82
492.908	5392.94
493.278	5469.77
493.648	5555.19
494.017	5641.07
494.387	5690.56
494.757	5766.71
495.126	5939.82
495.496	5947.27
495.866	6089.87
496.235	6114.95
496.605	6215.29
496.974	6306.81
497.344	6424.77
497.713	6438.56
498.082	6538.44
498.452	6637.42
498.821	6671.32
499.19	6744.99
499.559	6793.13
499.928	6852.56
500.298	6930.52
500.667	7063.4
501.036	7073.8
501.405	7177.52
501.774	7185.43
502.143	7255.94
502.512	7351.53
502.88	7440.34
503.249	7466.1
503.618	7534.35
503.987	7571.86
504.356	7634.01
504.724	7702.48
505.093	7808.24
505.462	7852.76
505.83	7902.25
506.199	8032.64
506.567	8059.31
506.936	8089.82
507.304	8191.96
507.672	8170.04
508.041	8229.47
508.409	8401.45
508.777	8441.9
509.145	8465.62
509.514	8509.92
509.882	8527.32
510.25	8609.58
510.618	8731.15
510.986	8689.57
511.354	8831.94
511.722	8945.16
512.09	8883.47
512.458	8946.52
512.826	9066.96
513.193	9080.52
513.561	9148.32
513.929	9215.21
514.297	9290.46
514.664	9253.17
515.032	9367.52
515.4	9493.39
515.767	9507.63
516.135	9483.23
516.502	9467.18
516.869	9633.5
517.237	9677.34
517.604	9627.4
517.972	9764.35
518.339	9817.91
518.706	9832.37
519.073	9903.1
519.44	9931.12
519.808	10051.57
520.175	10002.99
520.542	10136.09
520.909	10249.98
521.276	10224.9
521.643	10310.1
522.009	10327.95
522.376	10398.68
522.743	10442.3
523.11	10594.16
523.477	10651.1
523.843	10775.39
524.21	10841.38
524.577	10861.72
524.943	10916.18
525.31	10954.6
525.676	11089.74
526.043	11067.59
526.409	11176.74
526.776	11242.5
527.142	11307.81
527.508	11322.95
527.874	11358.43
528.241	11489.5
528.607	11538.09
528.973	11747.12
529.339	11661.25
529.705	11726.33
530.071	11850.39
530.437	11878.87
530.803	11916.38
531.169	11985.76
531.535	11962.03
531.901	11960.45
532.267	12172.42
532.632	12179.2
532.998	12226.88
533.364	12353.88
533.73	12404.5
534.095	12495.58
534.461	12536.48
534.826	12547.55
535.192	12595.23
535.557	12728.11
535.923	12719.07
536.288	12774.44
536.653	12827.77
537.019	12819.18
537.384	12883.81
537.749	13020.53
538.114	12953.19
538.479	13007.88
538.845	13124.03
539.21	13057.14
539.575	13162.22
539.94	13107.31
540.305	13313.63
540.67	13354.54
541.034	13299.4
541.399	13375.33
541.764	13465.27
542.129	13518.15
542.494	13535.55
542.858	13604.02
543.223	13737.8
543.587	13715.43
543.952	13736.9
544.316	13758.59
544.681	13823.68
545.045	13974.18
545.41	13926.05
545.774	13965.59
546.138	14028.87
546.503	14088.53
546.867	14114.97
547.231	14233.38
547.595	14305.92
547.959	14350.44
548.324	14362.42
548.688	14428.86
549.052	14524
549.416	14499.36
549.779	14519.93
550.143	14565.13
550.507	14664.78
550.871	14665.01
551.235	14644.67
551.599	14726.93
551.962	14863.87
552.326	14908.62
552.689	14970.31
553.053	14937.09
553.417	14990.2
553.78	15068.16
554.143	15122.4
554.507	15166.01
554.87	15264.99
555.234	15406.01
555.597	15335.27
555.96	15354.26
556.323	15546.57
556.686	15427.48
557.05	15618.21
557.413	15577.98
557.776	15567.36
558.139	15755.6
558.502	15649.84
558.865	15739.78
559.228	15921.47
559.59	15880.12
559.953	15883.06
560.316	16171.86
560.679	16131.41
561.041	16278.98
561.404	16337.06
561.767	16318.53
562.129	16412.76
562.492	16520.33
562.854	16453.21
563.217	16498.86
563.579	16515.13
563.941	16708.57
564.304	16739.08
564.666	16808.23
565.028	16904.5
565.39	16841.9
565.753	16912.41
566.115	17001.67
566.477	17105.62
566.839	17070.14
567.201	17188.33
567.563	17264.94
567.925	17333.87
568.287	17412.96
568.648	17452.73
569.01	17538.61
569.372	17647.76
569.734	17615.44
570.095	17824.7
570.457	17808.2
570.819	17797.13
571.18	17859.28
571.542	17984.02
571.903	18086.39
572.265	18183.34
572.626	18210
572.987	18339.26
573.349	18339.26
573.71	18537.68
574.071	18537
574.432	18644.34
574.794	18826.26
575.155	18810.89
575.516	18792.58
575.877	18943.54
576.238	19051.79
576.599	19202.97
576.96	19386.24
577.32	19411.78
577.681	19573.81
578.042	19511.44
578.403	19802.95
578.763	19831.88
579.124	19969.05
579.485	20303.73
579.845	20393.67
580.206	20405.88
580.566	20595.7
580.927	20690.84
581.287	20981.68
581.648	21050.83
582.008	21181.67
582.368	21395.68
582.728	21647.65
583.089	21703.02
583.449	21818.27
583.809	22145.27
584.169	22320.85
584.529	22339.84
584.889	22804.23
585.249	22803.78
585.609	22938.46
585.969	23293.03
586.329	23499.81
586.688	23755.84
587.048	23943.64
587.408	24090.3
587.768	24347.92
588.127	24541.59
588.487	24635.82
588.846	25117.84
589.206	25181.34
589.565	25485.06
589.925	25796.92
590.284	26033.75
590.643	26287.08
591.003	26524.81
591.362	26770.91
591.721	27016.78
592.08	27172.25
592.44	27507.16
592.799	27644.56
593.158	27872.12
593.517	28237.31
593.876	28401.82
594.235	28602.27
594.593	28876.39
594.952	29137.62
595.311	29292.2
595.67	29613.77
596.029	30113.19
596.387	30264.15
596.746	30520.19
597.104	30654.87
597.463	30898.26
597.822	31163.79
598.18	31232.71
598.538	31356.77
598.897	31899.13
599.255	32017.32
599.613	32438.33
599.972	32442.85
600.33	32769.84
600.688	32853.91
601.046	33232.88
601.404	33535.7
601.762	33652.76
602.12	33936.14
602.478	33975.69
602.836	34258.62
603.194	34321.22
603.552	34587.42
603.91	34665.16
604.268	35026.28
604.625	35069.22
604.983	35363
605.341	35430.57
605.698	35671.01
606.056	36014.28
606.413	36052.7
606.771	36227.83
607.128	36550.99
607.485	36512.12
607.843	36642.29
608.2	36957.76
608.557	37219.22
608.914	37133.57
609.272	37501.25
609.629	37668.92
609.986	37915.47
610.343	37863.72
610.7	38382.58
611.057	38307.33
611.414	38434.1
611.771	38530.37
612.127	38932.85
612.484	38937.37
612.841	39094.2
613.198	39140.52
613.554	39198.83
613.911	39522.21
614.267	39603.34
614.624	39749.1
614.98	39919.26
615.337	40161.51
615.693	40023.44
616.05	40197.9
616.406	40513.14
616.762	40343.43
617.118	40566.93
617.475	40563.99
617.831	40861.84
618.187	40976.18
618.543	40912.91
618.899	41352.22
619.255	41246.46
619.611	41343.63
619.967	41482.84
620.323	41573.91
620.678	41566.68
621.034	41589.27
621.39	41666.56
621.746	41547.01
622.101	42051.41
622.457	41796.27
622.812	42102.25
623.168	42227.22
623.523	42074.01
623.879	42285.3
624.234	41961.92
624.589	42318.97
624.945	42420.89
625.3	42495.01
625.655	42480.78
626.01	42613.88
626.365	42575.24
626.72	42522.36
627.075	42563.49
627.43	42703.14
627.785	42492.07
628.14	42775.23
628.495	42801.45
628.85	42800.54
629.205	42584.73
629.559	42983.59
629.914	42813.65
630.269	42941.33
630.623	42809.58
630.978	42702.24
631.332	42816.36
631.687	43076.47
632.041	42780.43
632.396	43033.08
632.75	42880.77
633.104	42909.92
633.459	42867.21
633.813	42789.92
634.167	42862.46
634.521	42840.99
634.875	42940.2
635.229	42748.34
635.583	42777.72
635.937	42782.46
636.291	42749.02
636.645	42808.22
636.999	42589.02
637.352	42847.77
637.706	42669.25
638.06	42842.8
638.413	42729.81
638.767	42672.64
639.121	42762.12
639.474	42635.57
639.828	42712.63
640.181	42705.63
640.534	42683.26
640.888	42523.94
641.241	42337.5
641.594	42580.66
641.947	42559.42
642.301	42418.86
642.654	42515.8
643.007	42613.43
643.36	42478.97
643.713	42448.69
644.066	42455.24
644.419	42360.33
644.771	42067.68
645.124	41747.91
645.477	41631.76
645.83	41505.66
646.182	41268.15
646.535	41279.23
646.888	41398.54
647.24	41069.51
647.593	41398.54
647.945	41277.19
648.298	41067.25
648.65	40996.75
649.002	40936.64
649.355	41058.44
649.707	41117.87
650.059	41311.99
650.411	41812.09
650.763	41697.29
651.115	42205.98
651.467	42081.46
651.819	42007.12
652.171	41951.3
652.523	41905.88
652.875	41824.97
653.227	41806.9
653.578	41958.08
653.93	41910.62
654.282	41710.63
654.633	41556.51
654.985	41776.84
655.337	41735.03
655.688	41659.78
656.039	41811.41
656.391	41652.77
656.742	41464.98
657.094	41628.14
657.445	41734.58
657.796	41656.62
658.147	41632.21
658.498	41563.74
658.849	41682.6
659.2	41594.92
659.551	41537.75
659.902	41670.63
660.253	41540.46
660.604	41498.65
660.955	41436.06
661.306	41541.37
661.656	41474.47
662.007	41551.53
662.358	41377.3
662.708	41499.11
663.059	41423.63
663.409	41184.31
663.76	41415.27
664.11	41357.19
664.461	41477.86
664.811	41483.97
665.161	41329.17
665.511	41246.91
665.862	41347.25
666.212	41455.27
666.562	41276.51
666.912	41205.1
667.262	41183.86
667.612	41329.39
667.962	41311.77
668.312	41176.18
668.662	41411.88
669.011	41204.43
669.361	41269.73
669.711	41279.68
670.06	41214.82
670.41	41105.67
670.76	41064.32
671.109	41320.58
671.459	41329.39
671.808	41105.9
672.157	41283.29
672.507	41022.28
672.856	41048.95
673.205	41031.77
673.554	41242.62
673.904	40952.23
674.253	41310.41
674.602	41114.71
674.951	40585.46
675.3	40284.22
675.649	41010.53
675.998	40849.18
676.346	40907.26
676.695	41101.15
677.044	40729.86
677.393	40797.43
677.741	40844.66
678.09	40731.22
678.438	40722.86
678.787	40878.56
679.135	40767.83
679.484	40631.78
679.832	40644.67
680.181	40428.17
680.529	40679.24
680.877	40498.23
681.225	40333.71
681.573	40484.44
681.922	40327.39
682.27	40260.72
682.618	40140.27
682.966	40153.38
683.314	40173.72
683.661	40026.83
684.009	39930.11
684.357	39849.66
684.705	39674.97
685.053	39902.76
685.4	39780.06
685.748	39625.71
686.095	39586.39
686.443	39543.45
686.79	39446.28
687.138	39321.31
687.485	39456.9
687.832	39210.58
688.18	39298.03
688.527	39227.98
688.874	39134.87
689.221	38984.37
689.568	39008.32
689.915	38915.45
690.262	38900.53
690.609	38827.09
690.956	38525.85
691.303	38639.07
691.65	38541.9
691.997	38452.86
692.344	38321.11
692.69	38298.51
693.037	38194.33
693.383	37998.63
693.73	38150.95
694.077	37875.93
694.423	37934
694.769	37728.13
695.116	37781.01
695.462	37645.87
695.808	37491.3
696.155	37597.06
696.501	37247.69
696.847	37163.4
697.193	37002.5
697.539	37087.25
697.885	36911.88
698.231	36662.62
698.577	36727.71
698.923	36788.04
699.269	36479.13
699.614	36461.72
699.96	36315.74
700.306	36394.38
700.651	36143.77
700.997	36055.41
701.342	36002.08
701.688	35924.79
702.033	35819.71
702.379	35856.54
702.724	35727.05
703.069	35790.1
703.415	35450.45
703.76	35564.35
704.105	35436.44
704.45	35435.76
704.795	35150.57
705.14	35114.19
705.485	35045.26
705.83	34902.22
706.175	34951.26
706.52	34750.81
706.865	34679.85
707.209	34746.06
707.554	34555.11
707.899	34644.82
708.243	34384.49
708.588	34342.68
708.932	34140.66
709.277	34113.31
709.621	34169.81
709.966	33853.66
710.31	34108.79
710.654	33729.14
710.998	33756.26
711.342	33646.66
711.687	33651.4
712.031	33540.22
712.375	33379.77
712.719	33471.3
713.063	33471.75
713.407	33596.26
713.75	33236.95
714.094	33327.34
714.438	33081.25
714.782	33302.71
715.125	33045.09
715.469	33066.11
715.812	32961.03
716.156	32782.95
716.499	32777.75
716.843	32872.44
717.186	32549.06
717.53	32663.63
717.873	32699.34
718.216	32541.6
718.559	32413.02
718.902	32267.48
719.246	32358.56
719.589	32228.84
719.932	32061.84
720.275	32041.5
720.617	32121.05
720.96	32083.31
721.303	31997.21
721.646	31994.5
721.989	31756.76
722.331	31895.97
722.674	31914.05
723.016	31833.6
723.359	31745.69
723.701	31776.42
724.044	31489.88
724.386	31476.77
724.729	31512.7
725.071	31446.72
725.413	31554.51
725.755	31337.79
726.097	31316.55
726.439	31161.53
726.782	31102.09
727.124	31304.35
727.465	31121.07
727.807	30994.3
728.149	30998.82
728.491	30937.35
728.833	30893.74
729.175	30839.5
729.516	30762.44
729.858	30758.6
730.199	30761.31
730.541	30697.13
730.882	30699.16
731.224	30715.44
731.565	30386.4
731.906	30560.19
732.248	30510.69
732.589	30362
732.93	30299.4
733.271	30266.86
733.612	30391.6
733.953	30367.42
734.294	30249.91
734.635	30142.12
734.976	30290.14
735.317	30093.98
735.658	30023.25
735.999	30003.14
736.339	29902.8
736.68	30104.83
737.021	29905.29
737.361	29689.7
737.702	29911.16
738.042	29643.37
738.383	29825.06
738.723	29714.78
739.063	29656.48
739.404	29638.85
739.744	29611.06
740.084	29407.67
740.424	29512.08
740.764	29443.15
741.104	29608.12
741.444	29258.3
741.784	29292.2
742.124	29345.75
742.464	29175.81
742.804	29282.03
743.143	29163.61
743.483	29175.81
743.823	29001.36
744.162	29009.72
744.502	29185.53
744.841	28878.2
745.181	29094.24
745.52	28959.55
745.86	28901.25
746.199	28796.39
746.538	28814.24
746.877	28924.97
747.216	28770.18
747.556	28659.44
747.895	28775.6
748.234	28541.93
748.573	28490.41
748.911	28532.89
749.25	28426.91
749.589	28327.25
749.928	28425.78
750.267	28466.45
750.605	28262.39
750.944	28233.47
751.283	28195.95
751.621	28232.34
751.96	28063.3
752.298	27986.02
752.636	28030.08
752.975	27934.72
753.313	27834.83
753.651	27989.41
753.989	27702.63
754.327	27749.64
754.666	27558.23
755.004	27580.6
755.342	27727.49
755.679	27557.78
756.017	27408.18
756.355	27562.3
756.693	27365.92
757.031	27507.61
757.368	27294.73
