Data from hue_300_FLMS001491_00008.txt Node
Date: Tue Feb 07 15:49:39 GMT 2017
User: dcchb
Spectrometer: FLMS00149
Trigger mode: 0
Integration Time (sec): 2.000000E-2
Scans to average: 10
Electric dark correction enabled: true
Nonlinearity correction enabled: false
Boxcar width: 0
XAxis mode: Wavelengths
Number of Pixels in Spectrum: 2048
>>>>>Begin Spectral Data<<<<<
341.393	-19.65
341.776	-19.65
342.16	-19.65
342.543	-30.04
342.927	-63.26
343.31	-54.45
343.693	-59.19
344.077	-70.72
344.46	-55.13
344.843	-55.13
345.226	-41.57
345.61	-40.89
345.993	-31.85
346.376	1.6
346.759	4.76
347.142	33.91
347.525	54.25
347.908	54.02
348.291	73.91
348.674	95.15
349.057	91.31
349.44	106.9
349.823	118.88
350.206	164.76
350.588	205.88
350.971	210.4
351.354	212.44
351.737	222.16
352.119	217.86
352.502	266.22
352.884	258.54
353.267	268.26
353.65	279.78
354.032	291.08
354.414	298.31
354.797	283.85
355.179	327.92
355.562	302.83
355.944	320.91
356.326	326.11
356.709	304.19
357.091	319.1
357.473	325.88
357.855	331.53
358.238	357.07
358.62	340.34
359.002	344.64
359.384	336.28
359.766	325.88
360.148	350.97
360.53	329.95
360.912	332.43
361.294	352.55
361.676	336.73
362.057	315.71
362.439	305.32
362.821	326.79
363.203	339.67
363.584	341.7
363.966	311.64
364.348	347.35
364.729	340.12
365.111	323.4
365.493	297.18
365.874	307.35
366.256	324.53
366.637	302.15
367.019	323.4
367.4	314.36
367.781	307.12
368.163	293.57
368.544	312.1
368.925	302.15
369.306	295.6
369.688	316.84
370.069	298.99
370.45	290.4
370.831	301.93
371.212	320.68
371.593	325.66
371.974	280.68
372.355	301.02
372.736	308.93
373.117	322.72
373.498	297.18
373.879	304.41
374.26	324.53
374.641	299.67
375.021	309.38
375.402	304.19
375.783	317.75
376.163	336.5
376.544	329.72
376.925	325.2
377.305	321.14
377.686	324.07
378.066	327.69
378.447	319.33
378.827	313.23
379.208	321.59
379.588	316.62
379.968	331.98
380.349	309.84
380.729	327.24
381.109	335.6
381.489	315.26
381.87	327.24
382.25	328.37
382.63	330.63
383.01	357.52
383.39	339.21
383.77	335.6
384.15	341.02
384.53	346.45
384.91	344.86
385.29	337.18
385.67	326.56
386.049	340.34
386.429	355.71
386.809	355.03
387.189	340.57
387.568	324.53
387.948	361.36
388.328	365.65
388.707	356.39
389.087	341.25
389.466	350.51
389.846	364.98
390.225	363.17
390.605	341.02
390.984	358.2
391.363	365.43
391.743	359.55
392.122	371.3
392.501	367.46
392.881	366.78
393.26	377.86
393.639	393.68
394.018	385.31
394.397	374.47
394.776	372.21
395.155	390.29
395.534	395.48
395.913	378.08
396.292	378.08
396.671	404.98
397.05	381.92
397.429	385.54
397.808	385.99
398.186	396.16
398.565	395.48
398.944	387.12
399.323	396.61
399.701	402.04
400.08	405.2
400.458	407.91
400.837	390.51
401.215	407.91
401.594	393.22
401.972	419.66
402.351	408.82
402.729	424.86
403.107	413.56
403.486	424.18
403.864	434.8
404.242	444.97
404.62	450.4
404.999	449.49
405.377	437.06
405.755	435.26
406.133	444.97
406.511	466.44
406.889	455.82
407.267	463.28
407.645	477.97
408.023	474.13
408.401	455.82
408.779	487.46
409.156	499.89
409.534	483.84
409.912	485.88
410.29	498.08
410.667	500.57
411.045	510.96
411.422	544.18
411.8	530.4
412.178	540.79
412.555	563.16
412.933	544.41
413.31	575.37
413.687	589.38
414.065	562.71
414.442	599.09
414.819	575.14
415.197	593.9
415.574	600.68
415.951	610.62
416.328	597.96
416.705	630.96
417.082	637.06
417.46	637.96
417.837	674.57
418.214	657.17
418.591	675.93
418.967	664.63
419.344	676.61
419.721	671.41
420.098	710.28
420.475	711.18
420.852	727
421.228	720.22
421.605	740.33
421.982	741.01
422.358	764.74
422.735	754.8
423.111	763.84
423.488	791.18
423.864	777.39
424.241	800.45
424.617	805.19
424.994	794.8
425.37	827.11
425.746	825.76
426.123	825.76
426.499	833.89
426.875	817.85
427.251	866.66
427.627	865.75
428.003	887.45
428.379	912.31
428.756	888.13
429.132	914.57
429.507	940.33
429.883	927.45
430.259	938.97
430.635	964.06
431.011	962.47
431.387	974
431.763	988.46
432.138	995.47
432.514	1009.93
432.89	1011.29
433.265	1038.18
433.641	1050.61
434.016	1057.16
434.392	1098.74
434.767	1073.66
435.143	1088.8
435.518	1120.89
435.894	1111.4
436.269	1162.24
436.644	1161.34
437.02	1173.77
437.395	1124.73
437.77	1159.53
438.145	1216.93
438.52	1175.35
438.895	1190.94
439.271	1195.01
439.646	1252.86
440.021	1245.86
440.395	1256.25
440.77	1221.22
441.145	1248.34
441.52	1279.08
441.895	1279.75
442.27	1266.42
442.645	1267.1
443.019	1279.3
443.394	1279.75
443.769	1311.39
444.143	1322.01
444.518	1307.55
444.892	1310.71
445.267	1319.08
445.641	1331.28
446.016	1324.05
446.39	1330.15
446.764	1338.51
447.139	1322.47
447.513	1345.52
447.887	1352.75
448.262	1335.12
448.636	1351.84
449.01	1380.09
449.384	1390.26
449.758	1374.44
450.132	1371.73
450.506	1388.68
450.88	1397.49
451.254	1408.56
451.628	1414.21
452.002	1404.95
452.376	1433.2
452.75	1405.17
453.123	1427.77
453.497	1463.03
453.871	1432.29
454.244	1496.47
454.618	1504.16
454.992	1480.88
455.365	1471.16
455.739	1503.03
456.112	1505.06
456.486	1508.45
456.859	1540.54
457.232	1567.88
457.606	1558.17
457.979	1594.32
458.352	1601.33
458.725	1615.79
459.099	1585.74
459.472	1623.93
459.845	1637.03
460.218	1623.47
460.591	1677.26
460.964	1685.62
461.337	1674.55
461.71	1702.79
462.083	1734.43
462.456	1737.6
462.829	1699.63
463.201	1720.19
463.574	1738.95
463.947	1777.59
464.32	1786.18
464.692	1804.71
465.065	1753.41
465.438	1794.09
465.81	1839.74
466.183	1850.13
466.555	1887.2
466.928	1875.67
467.3	1877.7
467.672	1888.1
468.045	1952.73
468.417	1943.47
468.789	1958.61
469.161	1951.15
469.534	1986.18
469.906	2012.16
470.278	2002.45
470.65	2007.64
471.022	2031.83
471.394	2063.24
471.766	2082.9
472.138	2105.72
472.51	2108.21
472.882	2152.73
473.253	2179.39
473.625	2174.87
473.997	2211.48
474.369	2212.61
474.74	2245.6
475.112	2277.92
475.484	2298.03
475.855	2307.98
476.227	2325.38
476.598	2384.58
476.97	2390.69
477.341	2434.75
477.713	2410.35
478.084	2452.83
478.455	2520.17
478.827	2472.72
479.198	2533.73
479.569	2531.47
479.94	2576.22
480.311	2621.41
480.682	2622.77
481.053	2695.99
481.424	2723.33
481.795	2737.12
482.166	2755.87
482.537	2784.57
482.908	2841.52
483.279	2804.69
483.65	2870.67
484.021	2901.86
484.391	2887.85
484.762	2902.54
485.133	2937.56
485.503	2999.03
485.874	3027.05
486.244	3025.02
486.615	3067.28
486.985	3116.99
487.356	3135.98
487.726	3151.8
488.097	3211.46
488.467	3194.28
488.837	3196.99
489.207	3256.2
489.578	3299.81
489.948	3342.53
490.318	3370.32
490.688	3346.37
491.058	3390.89
491.428	3442.41
491.798	3443.09
492.168	3528.96
492.538	3489.41
492.908	3495.06
493.278	3578.9
493.648	3598.34
494.017	3562.86
494.387	3601.28
494.757	3639.92
495.126	3635.85
495.496	3695.28
495.866	3706.81
496.235	3765.11
496.605	3747.94
496.974	3739.35
497.344	3779.12
497.713	3774.83
498.082	3790.42
498.452	3825
498.821	3822.96
499.19	3877.65
499.559	3862.51
499.928	3879.01
500.298	3879.23
500.667	3923.75
501.036	3943.64
501.405	3956.52
501.774	3970.76
502.143	3939.12
502.512	3985.45
502.88	4035.39
503.249	4039.23
503.618	4001.04
503.987	4051.21
504.356	4023.64
504.724	4069.06
505.093	4053.47
505.462	4110.87
505.83	4115.16
506.199	4093.69
506.567	4179.79
506.936	4150.87
507.304	4171.88
507.672	4194.93
508.041	4194.93
508.409	4196.06
508.777	4209.62
509.145	4263.63
509.514	4280.35
509.882	4258.21
510.25	4242.84
510.618	4252.78
510.986	4289.39
511.354	4328.04
511.722	4371.42
512.09	4342.27
512.458	4333.01
512.826	4383.18
513.193	4407.81
513.561	4385.21
513.929	4371.65
514.297	4458.43
514.664	4427.92
515.032	4425.43
515.4	4490.07
515.767	4488.48
516.135	4489.84
516.502	4458.2
516.869	4531.42
517.237	4532.55
517.604	4531.87
517.972	4586.11
518.339	4551.08
518.706	4518.54
519.073	4573.68
519.44	4571.65
519.808	4635.82
520.175	4620.68
520.542	4670.4
520.909	4653.68
521.276	4648.25
521.643	4716.73
522.009	4721.7
522.376	4725.54
522.743	4722.6
523.11	4801.47
523.477	4811.87
523.843	4773.45
524.21	4857.74
524.577	4875.82
524.943	4867.91
525.31	4874.46
525.676	4916.72
526.043	4910.85
526.409	4958.75
526.776	5033.1
527.142	4999.2
527.508	5059.32
527.874	5086.89
528.241	5042.37
528.607	5109.94
528.973	5167.79
529.339	5110.61
529.705	5167.79
530.071	5249.59
530.437	5209.59
530.803	5228.13
531.169	5225.64
531.535	5253.44
531.901	5291.63
532.267	5251.4
532.632	5369.82
532.998	5328.01
533.364	5367.33
533.73	5435.35
534.095	5492.98
534.461	5435.35
534.826	5444.39
535.192	5474.22
535.557	5485.52
535.923	5541.79
536.288	5541.56
536.653	5619.98
537.019	5572.52
537.384	5579.3
537.749	5649.36
538.114	5651.62
538.479	5656.59
538.845	5675.35
539.21	5631.73
539.575	5641.67
539.94	5728.68
540.305	5700.88
540.67	5762.57
541.034	5820.43
541.399	5812.29
541.764	5825.62
542.129	5865.4
542.494	5873.31
542.858	5916.47
543.223	5940.2
543.587	5955.79
543.952	6003.02
544.316	5966.18
544.681	5991.72
545.045	6038.05
545.41	6092.51
545.774	6122.57
546.138	6072.85
546.503	6120.31
546.867	6154.88
547.231	6183.13
547.595	6190.81
547.959	6257.25
548.324	6192.62
548.688	6244.37
549.052	6268.55
549.416	6288.21
549.779	6275.1
550.143	6306.74
550.507	6441.2
550.871	6392.39
551.235	6397.59
551.599	6411.14
551.962	6358.72
552.326	6463.57
552.689	6507.87
553.053	6471.71
553.417	6502.44
553.78	6540.41
554.143	6565.04
554.507	6593.74
554.87	6561.2
555.234	6645.94
555.597	6611.14
555.96	6654.75
556.323	6617.92
556.686	6613.17
557.05	6664.92
557.413	6724.36
557.776	6677.58
558.139	6748.31
558.502	6688.65
558.865	6798.48
559.228	6801.87
559.59	6809.78
559.953	6812.49
560.316	6877.8
560.679	6840.74
561.041	6884.13
561.404	6896.33
561.767	6973.16
562.129	6912.83
562.492	7016.1
562.854	7068.08
563.217	7026.04
563.579	7080.05
563.941	7062.65
564.304	7106.95
564.666	7137.45
565.028	7142.43
565.39	7163.67
565.753	7227.39
566.115	7222.88
566.477	7256.09
566.839	7301.07
567.201	7339.03
567.563	7339.71
567.925	7373.15
568.287	7363.21
568.648	7390.55
569.01	7499.93
569.372	7458.12
569.734	7489.76
570.095	7521.62
570.457	7562.98
570.819	7616.76
571.18	7621.06
571.542	7708.29
571.903	7766.36
572.265	7806.14
572.626	7836.42
572.987	7833.03
573.349	7869.64
573.71	7902.41
574.071	7991.44
574.432	8050.42
574.794	8083.64
575.155	8076.86
575.516	8140.59
575.877	8190.99
576.238	8223.98
576.599	8344.2
576.96	8441.37
577.32	8473.69
577.681	8572.44
578.042	8728.15
578.403	8708.71
578.763	8830.74
579.124	8842.95
579.485	9035.26
579.845	9141.69
580.206	9272.99
580.566	9277.96
580.927	9414.46
581.287	9537.39
581.648	9661.91
582.008	9843.37
582.368	9933.99
582.728	10098.51
583.089	10226.86
583.449	10416.01
583.809	10575.1
584.169	10766.74
584.529	10934.87
584.889	11184.13
585.249	11285.59
585.609	11458.02
585.969	11716.32
586.329	11894.62
586.688	12142.07
587.048	12320.82
587.408	12560.59
587.768	12779.57
588.127	12957.87
588.487	13256.39
588.846	13562.6
589.206	13706.09
589.565	13986.09
589.925	14280.09
590.284	14543.36
590.643	14843.24
591.003	15076.23
591.362	15435.09
591.721	15625.82
592.08	15843.21
592.44	16278.23
592.799	16541.05
593.158	16823.75
593.517	17054.03
593.876	17398.88
594.235	17639.32
594.593	17871.18
594.952	18269.82
595.311	18490.83
595.67	18955
596.029	19273.63
596.387	19543
596.746	19864.8
597.104	20055.98
597.463	20338.46
597.822	20679.24
598.18	20993.36
598.538	21208.95
598.897	21655.04
599.255	21762.38
599.613	22346.55
599.972	22473.32
600.33	22771.84
600.688	23021.56
601.046	23404.6
601.404	23797.81
601.762	24092.71
602.12	24295.42
602.478	24619.25
602.836	24939.7
603.194	25122.29
603.552	25306.24
603.91	25499.68
604.268	26002.27
604.625	26122.94
604.983	26466.44
605.341	26584.85
605.698	26935.13
606.056	27200.43
606.413	27335.57
606.771	27679.06
607.128	27861.88
607.485	28030.24
607.843	28316.11
608.2	28749.99
608.557	28877.9
608.914	29020.72
609.272	29330.54
609.629	29622.06
609.986	29808.27
610.343	29981.15
610.7	30188.37
611.057	30478.76
611.414	30714.91
611.771	30829.26
612.127	31180.44
612.484	31345.4
612.841	31516.25
613.198	31603.93
613.554	31827.2
613.911	32049.11
614.267	32224.03
614.624	32432.83
614.98	32420.4
615.337	32911.47
615.693	32875.99
616.05	33096.77
616.406	33354.17
616.762	33247.28
617.118	33486.59
617.475	33603.2
617.831	33852.23
618.187	33930.87
618.543	34169.29
618.899	34395.49
619.255	34322.28
619.611	34492.89
619.967	34768.82
620.323	34860.34
620.678	34923.62
621.034	34922.71
621.39	35018.98
621.746	35095.36
622.101	35572.64
622.457	35476.37
622.812	35477.05
623.168	35787.32
623.523	35825.06
623.879	35938.96
624.234	35829.13
624.589	36081.33
624.945	36131.49
625.3	36307.53
625.655	36340.75
626.01	36471.15
626.365	36488.09
626.72	36521.77
627.075	36618.03
627.43	36573.74
627.785	36657.81
628.14	36833.85
628.495	36818.71
628.85	36787.75
629.205	36700.74
629.559	37035.65
629.914	36981.41
630.269	36919.5
630.623	36954.52
630.978	36960.17
631.332	37153.39
631.687	37191.13
632.041	37098.7
632.396	37201.52
632.75	37040.62
633.104	37175.08
633.459	37150
633.813	37193.16
634.167	37199.49
634.521	37302.08
634.875	37263.44
635.229	37257.34
635.583	37092.6
635.937	37219.83
636.291	37263.44
636.645	37342.76
636.999	37260.05
637.352	37372.36
637.706	37147.51
638.06	37386.83
638.413	37182.77
638.767	37117.46
639.121	37131.69
639.474	37092.37
639.828	37219.37
640.181	37255.08
640.534	37255.31
640.888	36987.29
641.241	37006.27
641.594	37160.17
641.947	37226.38
642.301	37157.91
642.654	37257.79
643.007	37330.78
643.36	37227.96
643.713	37237.91
644.066	37187.28
644.419	37118.59
644.771	36814.19
645.124	36630.24
645.477	36404.25
645.83	36220.53
646.182	36054.21
646.535	36069.12
646.888	36267.99
647.24	36028.67
647.593	36289.23
647.945	36137.14
648.298	35931.27
648.65	35964.27
649.002	35830.03
649.355	36013.98
649.707	35930.59
650.059	36203.36
650.411	36561.99
650.763	36563.8
651.115	36927.18
651.467	36813.28
651.819	36853.73
652.171	36835.88
652.523	36663.46
652.875	36889.89
653.227	36558.15
653.578	36807.18
653.93	36825.71
654.282	36652.61
654.633	36524.03
654.985	36592.05
655.337	36665.04
655.688	36680.63
656.039	36893.06
656.391	36563.8
656.742	36546.4
657.094	36553.4
657.445	36726.73
657.796	36663.68
658.147	36581.2
658.498	36547.98
658.849	36710.91
659.2	36499.62
659.551	36449.68
659.902	36758.6
660.253	36437.47
660.604	36641.99
660.955	36470.02
661.306	36591.37
661.656	36485.61
662.007	36606.28
662.358	36616.45
662.708	36511.82
663.059	36655.32
663.409	36392.73
663.76	36692.61
664.11	36631.59
664.461	36505.04
664.811	36548.21
665.161	36411.26
665.511	36333.52
665.862	36317.25
666.212	36552.73
666.562	36529.68
666.912	36437.93
667.262	36458.26
667.612	36442.45
667.962	36389.11
668.312	36416.68
668.662	36536.45
669.011	36447.42
669.361	36406.97
669.711	36387.76
670.06	36303.69
670.41	36425.95
670.76	36295.1
671.109	36365.39
671.459	36324.71
671.808	36329.91
672.157	36338.04
672.507	36253.52
672.856	36131.04
673.205	36252.17
673.554	36383.01
673.904	36200.87
674.253	36333.75
674.602	36242
674.951	35757.04
675.3	35723.14
675.649	36298.49
675.998	36186.41
676.346	36199.97
676.695	36268.21
677.044	35969.69
677.393	36058.95
677.741	36164.71
678.09	36000.65
678.438	35901.22
678.787	35990.48
679.135	35889.01
679.484	35752.97
679.832	35901.89
680.181	35584.62
680.529	35666.19
680.877	35591.17
681.225	35585.97
681.573	35815.12
681.922	35487.44
682.27	35447.44
682.618	35427.11
682.966	35463.71
683.314	35430.72
683.661	35357.95
684.009	35137.4
684.357	35209.26
684.705	34984.86
685.053	35166.32
685.4	35124.74
685.748	35069.37
686.095	35049.26
686.443	34820.34
686.79	34770.4
687.138	34842.26
687.485	34737.86
687.832	34704.19
688.18	34722.49
688.527	34532.44
688.874	34647.92
689.221	34400.92
689.568	34313.69
689.915	34351.65
690.262	34228.72
690.609	34161.83
690.956	34029.63
691.303	34030.08
691.65	33919.8
691.997	33845.68
692.344	33736.98
692.69	33678.45
693.037	33699.24
693.383	33394.16
693.73	33622.41
694.077	33390.77
694.423	33328.86
694.769	33168.63
695.116	33128.63
695.462	33191.91
695.808	33044.34
696.155	33025.13
696.501	32862.43
696.847	32827.63
697.193	32591.47
697.539	32652.26
697.885	32517.35
698.231	32433.29
698.577	32404.59
698.923	32294.31
699.269	32213.86
699.614	31940.64
699.96	32011.38
700.306	31968.21
700.651	31921.21
700.997	31878.95
701.342	31713.76
701.688	31746.98
702.033	31486.19
702.379	31566.87
702.724	31378.85
703.069	31569.13
703.415	31187.22
703.76	31161
704.105	31143.38
704.45	31067.67
704.795	30920.78
705.14	30880.33
705.485	30863.38
705.83	30807.11
706.175	30864.97
706.52	30573.67
706.865	30378.88
707.209	30367.13
707.554	30401.7
707.899	30495.03
708.243	30257.52
708.588	30214.59
708.932	30112.89
709.277	30118.54
709.621	30067.7
709.966	29845.78
710.31	29907.02
710.654	29675.62
710.998	29691.21
711.342	29739.12
711.687	29665.9
712.031	29530.09
712.375	29447.38
712.719	29447.6
713.063	29366.7
713.407	29476.3
713.75	29177.33
714.094	29200.83
714.438	29050.55
714.782	29066.82
715.125	29016.65
715.469	29139.36
715.812	28859.82
716.156	28733.04
716.499	28852.14
716.843	28799.71
717.186	28554.07
717.53	28673.84
717.873	28581.64
718.216	28606.72
718.559	28587.51
718.902	28403.34
719.246	28376.22
719.589	28368.53
719.932	28160.63
720.275	28329.89
720.617	28187.75
720.96	28135.55
721.303	28162.21
721.646	28079.05
721.989	27943.91
722.331	28034.08
722.674	27954.53
723.016	27951.82
723.359	27787.98
723.701	28006.51
724.044	27710.02
724.386	27602.68
724.729	27684.94
725.071	27544.15
725.413	27629.57
725.755	27447.43
726.097	27495.11
726.439	27356.13
726.782	27445.39
727.124	27531.95
727.465	27357.71
727.807	27313.65
728.149	27259.18
728.491	27255.34
728.833	27214.44
729.175	27039.3
729.516	27045.4
729.858	27050.15
730.199	27118.4
730.541	27066.42
730.882	26991.85
731.224	27138.96
731.565	26723.15
731.906	26886.76
732.248	26899.19
732.589	26649.03
732.93	26733.32
733.271	26704.4
733.612	26677.73
733.953	26726.77
734.294	26581.91
734.635	26524.97
734.976	26538.07
735.317	26380.79
735.658	26423.27
735.999	26543.5
736.339	26440.9
736.68	26460.79
737.021	26409.26
737.361	26225.77
737.702	26440.67
738.042	26234.8
738.383	26173.11
738.723	26250.17
739.063	26179.66
739.404	26217.63
739.744	26137.18
740.084	26127.46
740.424	26124.07
740.764	25919.56
741.104	26155.71
741.444	25872.78
741.784	25860.35
742.124	25882.95
742.464	25791.43
742.804	25670.53
743.143	25739.68
743.483	25798.88
743.823	25689.51
744.162	25561.15
744.502	25710.3
744.841	25595.5
745.181	25746.68
745.52	25514.15
745.86	25665.78
746.199	25550.08
746.538	25508.27
746.877	25539.23
747.216	25475.73
747.556	25372
747.895	25606.35
748.234	25379.69
748.573	25256.75
748.911	25328.84
749.25	25299.01
749.589	25189.41
749.928	25236.64
750.267	25400.25
750.605	25193.7
750.944	25340.82
751.283	25081.16
751.621	25049.07
751.96	25034.16
752.298	24959.58
752.636	24955.74
752.975	24827.16
753.313	24797.1
753.651	24823.54
753.989	24738.57
754.327	24807.27
754.666	24631.68
755.004	24827.84
755.342	24795.29
755.679	24779.93
756.017	24644.56
756.355	24647.28
756.693	24504.68
757.031	24691.12
757.368	24391.01
757.706	24428.52
758.044	24309.88
758.381	24412.93
758.719	24342.2
759.056	24255.87
759.394	24192.37
