Data from hue_190_FLMS001491_00020.txt Node
Date: Tue Feb 07 16:44:56 GMT 2017
User: dcchb
Spectrometer: FLMS00149
Trigger mode: 0
Integration Time (sec): 2.000000E-2
Scans to average: 10
Electric dark correction enabled: true
Nonlinearity correction enabled: false
Boxcar width: 0
XAxis mode: Wavelengths
Number of Pixels in Spectrum: 2048
>>>>>Begin Spectral Data<<<<<
341.393	-21.54
341.776	-21.54
342.16	-21.54
342.543	-42.56
342.927	-83.46
343.31	-78.71
343.693	-64.7
344.077	-78.26
344.46	-55.89
344.843	-48.43
345.226	-56.79
345.61	-31.93
345.993	-11.82
346.376	-13.4
346.759	8.74
347.142	37.67
347.525	33.15
347.908	45.58
348.291	90.32
348.674	91.68
349.057	132.81
349.44	133.71
349.823	115.63
350.206	173.03
350.588	172.58
350.971	204.9
351.354	239.7
351.737	236.53
352.119	263.43
352.502	275.4
352.884	280.83
353.267	271.11
353.65	286.25
354.032	305.46
354.414	311.79
354.797	303.65
355.179	325.8
355.562	329.19
355.944	305.01
356.326	316.08
356.709	321.95
357.091	322.41
357.473	339.36
357.855	322.63
358.238	339.36
358.62	349.3
359.002	328.96
359.384	338.23
359.766	332.35
360.148	343.65
360.53	306.59
360.912	342.07
361.294	352.01
361.676	321.73
362.057	326.25
362.439	303.42
362.821	302.75
363.203	325.12
363.584	325.8
363.966	325.57
364.348	322.18
364.729	322.41
365.111	321.28
365.493	321.5
365.874	331.45
366.256	320.6
366.637	302.97
367.019	307.72
367.4	308.62
367.781	340.03
368.163	303.42
368.544	308.4
368.925	303.2
369.306	309.75
369.688	313.37
370.069	326.47
370.45	292.35
370.831	317.89
371.212	304.55
371.593	321.5
371.974	304.33
372.355	298.45
372.736	302.52
373.117	309.3
373.498	311.56
373.879	298.9
374.26	300.03
374.641	305.23
375.021	310.43
375.402	304.33
375.783	317.89
376.163	304.55
376.544	310.2
376.925	324.21
377.305	309.75
377.686	313.14
378.066	329.41
378.447	319.69
378.827	331.45
379.208	319.47
379.588	326.47
379.968	336.87
380.349	315.85
380.729	322.86
381.109	348.85
381.489	328.96
381.87	314.95
382.25	352.91
382.63	319.69
383.01	341.62
383.39	332.35
383.77	368.06
384.15	342.07
384.53	341.16
384.91	346.13
385.29	350.65
385.67	329.64
386.049	349.52
386.429	343.2
386.809	376.42
387.189	367.15
387.568	369.19
387.948	345.23
388.328	350.65
388.707	348.85
389.087	342.07
389.466	345.46
389.846	364.21
390.225	355.85
390.605	363.31
390.984	361.28
391.363	350.65
391.743	370.77
392.122	370.99
392.501	378.68
392.881	368.96
393.26	359.92
393.639	370.09
394.018	358.11
394.397	391.56
394.776	393.37
395.155	397.43
395.534	370.09
395.913	387.49
396.292	377.77
396.671	398.79
397.05	385.91
397.429	394.04
397.808	379.81
398.186	377.32
398.565	396.98
398.944	397.43
399.323	401.95
399.701	396.08
400.08	406.92
400.458	415.51
400.837	403.08
401.215	424.78
401.594	409.18
401.972	427.04
402.351	426.58
402.729	421.61
403.107	436.75
403.486	422.52
403.864	442.63
404.242	426.13
404.62	445.34
404.999	449.86
405.377	451.22
405.755	449.64
406.133	446.92
406.511	472.23
406.889	453.02
407.267	453.25
407.645	467.49
408.023	484.89
408.401	483.08
408.779	511.55
409.156	480.59
409.534	499.58
409.912	499.35
410.29	528.28
410.667	531.89
411.045	530.76
411.422	539.8
411.8	543.64
412.178	542.97
412.555	557.43
412.933	564.66
413.31	567.6
413.687	589.52
414.065	587.26
414.442	595.85
414.819	600.82
415.197	613.92
415.574	629.97
415.951	622.96
416.328	635.17
416.705	644.88
417.082	648.27
417.46	656.41
417.837	677.2
418.214	671.55
418.591	683.53
418.967	693.92
419.344	702.96
419.721	725.56
420.098	714.03
420.475	739.8
420.852	742.06
421.228	740.47
421.605	753.13
421.982	761.49
422.358	766.91
422.735	812.34
423.111	813.02
423.488	839.23
423.864	830.42
424.241	846.91
424.617	860.47
424.994	878.55
425.37	908.38
425.746	892.11
426.123	900.92
426.499	933.46
426.875	960.81
427.251	963.52
427.627	982.73
428.003	960.36
428.379	999.9
428.756	1003.07
429.132	1038.77
429.507	1043.74
429.883	1041.94
430.259	1052.11
430.635	1085.32
431.011	1078.32
431.387	1102.73
431.763	1136.62
432.138	1123.97
432.514	1157.41
432.89	1161.93
433.265	1166.23
433.641	1210.75
434.016	1197.64
434.392	1232.67
434.767	1274.7
435.143	1293.45
435.518	1314.02
435.894	1330.06
436.269	1352.21
436.644	1391.76
437.02	1402.38
437.395	1403.06
437.77	1440.8
438.145	1462.04
438.52	1477.63
438.895	1491.42
439.271	1507.91
439.646	1552.43
440.021	1550.85
440.395	1576.39
440.77	1607.12
441.145	1598.98
441.52	1636.27
441.895	1677.63
442.27	1675.37
442.645	1709.71
443.019	1705.42
443.394	1723.27
443.769	1745.87
444.143	1771.41
444.518	1797.85
444.892	1787.45
445.267	1810.96
445.641	1822.48
446.016	1843.72
446.39	1885.98
446.764	1868.81
447.139	1858.86
447.513	1922.82
447.887	1907.45
448.262	1929.6
448.636	1938.18
449.01	1975.92
449.384	2008.24
449.758	2004.62
450.132	2036.49
450.506	2059.54
450.88	2078.29
451.254	2038.97
451.628	2082.59
452.002	2132.3
452.376	2164.39
452.75	2184.73
453.123	2178.86
453.497	2214.33
453.871	2224.73
454.244	2245.97
454.618	2305.86
454.992	2308.34
455.365	2314.67
455.739	2392.86
456.112	2406.87
456.486	2429.02
456.859	2450.49
457.232	2521.22
457.606	2506.08
457.979	2529.13
458.352	2592.4
458.725	2602.12
459.099	2652.52
459.472	2669.92
459.845	2692.74
460.218	2726.41
460.591	2800.53
460.964	2772.74
461.337	2812.96
461.71	2881.89
462.083	2929.34
462.456	2944.26
462.829	2951.94
463.201	2971.6
463.574	3031.71
463.947	3064.03
464.32	3151.94
464.692	3171.82
465.065	3205.49
465.438	3217.02
465.81	3265.15
466.183	3293.85
466.555	3393.06
466.928	3395.77
467.3	3424.92
467.672	3495.2
468.045	3543.57
468.417	3553.06
468.789	3595.77
469.161	3677.57
469.534	3717.57
469.906	3780.62
470.278	3792.6
470.65	3856.33
471.022	3991.24
471.394	4008.64
471.766	4092.7
472.138	4112.36
472.51	4253.38
472.882	4257.9
473.253	4301.74
473.625	4399.81
473.997	4454.73
474.369	4465.12
474.74	4587.15
475.112	4592.35
475.484	4710.31
475.855	4779.01
476.227	4856.75
476.598	4975.39
476.97	5007.48
477.341	5131.32
477.713	5221.04
478.084	5244.09
478.455	5401.14
478.827	5435.27
479.198	5603.4
479.569	5601.14
479.94	5788.7
480.311	5810.4
480.682	5935.37
481.053	6098.07
481.424	6168.81
481.795	6282.7
482.166	6302.36
482.537	6352.98
482.908	6601.56
483.279	6621.45
483.65	6777.38
484.021	6875
484.391	6951.16
484.762	6994.77
485.133	7091.49
485.503	7169.68
485.874	7318.83
486.244	7406.51
486.615	7537.81
486.985	7718.6
487.356	7792.72
487.726	7821.87
488.097	7986.16
488.467	8030
488.837	8179.38
489.207	8272.03
489.578	8366.72
489.948	8492.14
490.318	8597.67
490.688	8583.43
491.058	8720.38
491.428	8828.17
491.798	8967.83
492.168	9096.64
492.538	9138.45
492.908	9220.48
493.278	9348.38
493.648	9383.41
494.017	9505.22
494.387	9568.04
494.757	9589.06
495.126	9665.44
495.496	9723.74
495.866	9791.54
496.235	9813.91
496.605	9926.45
496.974	9966.22
497.344	10022.94
497.713	10131.19
498.082	10155.59
498.452	10291.86
498.821	10272.88
499.19	10246.89
499.559	10382.03
499.928	10429.71
500.298	10459.54
500.667	10536.83
501.036	10569.14
501.405	10633.32
501.774	10603.04
502.143	10670.38
502.512	10667.22
502.88	10814.56
503.249	10778.18
503.618	10871.73
503.987	10871.51
504.356	10977.95
504.724	10960.77
505.093	10936.36
505.462	10947.66
505.83	11006.65
506.199	11072.63
506.567	11176.58
506.936	11135.23
507.304	11316.24
507.672	11366.18
508.041	11321.21
508.409	11372.96
508.777	11328.67
509.145	11367.54
509.514	11368.44
509.882	11509.46
510.25	11431.95
510.618	11493.86
510.986	11489.34
511.354	11520.3
511.722	11587.65
512.09	11657.48
512.458	11572.05
512.826	11671.03
513.193	11636.46
513.561	11730.24
513.929	11724.59
514.297	11756.23
514.664	11814.99
515.032	11726.4
515.4	11868.54
515.767	11926.17
516.135	11890.01
516.502	11708.32
516.869	11912.38
517.237	11915.77
517.604	11796.68
517.972	11956.68
518.339	11930.69
518.706	11838.94
519.073	11878.71
519.44	11919.39
519.808	11932.95
520.175	11987.41
520.542	12026.96
520.909	12057.24
521.276	11913.06
521.643	12069.22
522.009	12026.51
522.376	12076.45
522.743	12045.49
523.11	12090.01
523.477	12222.66
523.843	12203.45
524.21	12215.2
524.577	12143.56
524.943	12187.41
525.31	12187.18
525.676	12163.9
526.043	12303.79
526.409	12231.92
526.776	12316.67
527.142	12266.05
527.508	12178.14
527.874	12283
528.241	12304.01
528.607	12188.54
528.973	12275.31
529.339	12173.39
529.705	12268.76
530.071	12229.21
530.437	12165.26
530.803	12159.38
531.169	12170.23
531.535	12053.17
531.901	12093.85
532.267	12080.06
532.632	12030.8
532.998	11961.42
533.364	12069.22
533.73	11972.04
534.095	11952.38
534.461	11956.23
534.826	11865.38
535.192	11885.49
535.557	11974.3
535.923	11750.81
536.288	11788.55
536.653	11768.21
537.019	11715.78
537.384	11671.49
537.749	11632.39
538.114	11598.27
538.479	11517.82
538.845	11484.37
539.21	11440.31
539.575	11379.97
539.94	11360.08
540.305	11350.37
540.67	11256.81
541.034	11332.06
541.399	11175.23
541.764	11206.87
542.129	11120.09
542.494	11073.08
542.858	11061.79
543.223	11017.49
543.587	10970.94
543.952	10910.15
544.316	10837.38
544.681	10714.68
545.045	10805.29
545.41	10714.22
545.774	10700.89
546.138	10654.56
546.503	10594.45
546.867	10509.71
547.231	10537.73
547.595	10500.44
547.959	10413.21
548.324	10295.25
548.688	10382.26
549.052	10211.64
549.416	10238.53
549.779	10169.83
550.143	10170.06
550.507	10163.73
550.871	10010.51
551.235	10015.49
551.599	9996.95
551.962	9922.15
552.326	9926.67
552.689	9963.51
553.053	9798.09
553.417	9815.04
553.78	9880.12
554.143	9683.52
554.507	9739.33
554.87	9737.98
555.234	9674.48
555.597	9569.85
555.96	9502.28
556.323	9547.93
556.686	9486.01
557.05	9577.08
557.413	9474.71
557.776	9466.35
558.139	9417.99
558.502	9371.21
558.865	9391.55
559.228	9408.95
559.59	9398.1
559.953	9411.89
560.316	9330.98
560.679	9284.21
561.041	9329.63
561.404	9309.06
561.767	9304.77
562.129	9276.3
562.492	9276.3
562.854	9270.87
563.217	9237.2
563.579	9237.2
563.941	9234.71
564.304	9262.06
564.666	9297.09
565.028	9172.8
565.39	9242.62
565.753	9250.53
566.115	9213.25
566.477	9240.82
566.839	9144.32
567.201	9247.6
567.563	9275.84
567.925	9266.13
568.287	9253.25
568.648	9221.83
569.01	9219.12
569.372	9261.38
569.734	9225.22
570.095	9190.2
570.457	9286.24
570.819	9281.95
571.18	9241.49
571.542	9216.18
571.903	9253.02
572.265	9177.99
572.626	9306.13
572.987	9215.05
573.349	9211.89
573.71	9166.24
574.071	9216.64
574.432	9262.06
574.794	9287.37
575.155	9235.84
575.516	9185.45
575.877	9232.45
576.238	9247.37
576.599	9203.53
576.96	9230.42
577.32	9180.7
577.681	9213.92
578.042	9232.23
578.403	9173.47
578.763	9137.54
579.124	9175.96
579.485	9243.53
579.845	9264.32
580.206	9212.12
580.566	9167.6
580.927	9141.84
581.287	9175.28
581.648	9181.38
582.008	9255.96
582.368	9135.96
582.728	9212.79
583.089	9181.83
583.449	9198.56
583.809	9189.97
584.169	9146.13
584.529	9148.16
584.889	9140.71
585.249	9103.64
585.609	9078.56
585.969	9094.38
586.329	9068.62
586.688	9126.47
587.048	9116.75
587.408	9031.56
587.768	9001.05
588.127	9062.74
588.487	9018
588.846	9015.29
589.206	8999.69
589.565	9057.54
589.925	9020.48
590.284	8953.82
590.643	9007.83
591.003	8966.02
591.362	8997.88
591.721	8943.65
592.08	8925.34
592.44	8907.04
592.799	8963.76
593.158	8983.65
593.517	8950.2
593.876	8911.56
594.235	8943.65
594.593	8920.37
594.952	8925.57
595.311	8870.2
595.67	8876.76
596.029	8922.86
596.387	8908.17
596.746	8851
597.104	8865.46
597.463	8847.83
597.822	8855.06
598.18	8919.69
598.538	8876.53
598.897	8862.75
599.255	8770.55
599.613	8926.7
599.972	8924.89
600.33	8885.57
600.688	8794.95
601.046	8840.37
601.404	8842.86
601.762	8844.67
602.12	8916.08
602.478	8900.49
602.836	8872.46
603.194	8770.55
603.552	8785.46
603.91	8782.52
604.268	8926.7
604.625	8758.57
604.983	8852.58
605.341	8789.53
605.698	8768.51
606.056	8862.07
606.413	8814.84
606.771	8781.62
607.128	8825.91
607.485	8799.25
607.843	8848.28
608.2	8825.69
608.557	8902.97
608.914	8816.87
609.272	8888.96
609.629	8834.5
609.986	8866.81
610.343	8829.75
610.7	8872.69
611.057	8880.6
611.414	8848.28
611.771	8885.57
612.127	8934.61
612.484	8917.89
612.841	8907.27
613.198	8853.26
613.554	8860.71
613.911	8910.88
614.267	8957.89
614.624	8863.43
614.98	8921.28
615.337	8977.09
615.693	8944.55
616.05	8923.31
616.406	8992.46
616.762	8954.95
617.118	8913.59
617.475	8919.69
617.831	8949.52
618.187	8972.8
618.543	8941.39
618.899	8982.52
619.255	8963.31
619.611	9017.32
619.967	9046.7
620.323	8979.13
620.678	8937.55
621.034	8956.98
621.39	8907.04
621.746	8975.51
622.101	9068.39
622.457	9047.38
622.812	8964.67
623.168	9076.07
623.523	9008.28
623.879	9000.14
624.234	8956.53
624.589	9013.93
624.945	8969.86
625.3	9014.83
625.655	8972.35
626.01	9052.8
626.365	9095.28
626.72	9073.59
627.075	8985.91
627.43	8970.99
627.785	8958.79
628.14	9042.86
628.495	8973.03
628.85	8954.5
629.205	8942.29
629.559	8952.91
629.914	8954.95
630.269	8992.91
630.623	8887.83
630.978	8894.16
631.332	8916.08
631.687	8910.66
632.041	8897.1
632.396	8901.62
632.75	8861.62
633.104	8926.25
633.459	8808.74
633.813	8872.24
634.167	8787.49
634.521	8862.97
634.875	8849.87
635.229	8871.56
635.583	8780.26
635.937	8778.91
636.291	8793.6
636.645	8729.42
636.999	8683.77
637.352	8763.31
637.706	8750.43
638.06	8720.6
638.413	8673.15
638.767	8691.9
639.121	8674.5
639.474	8639.48
639.828	8657.1
640.181	8646.93
640.534	8700.94
640.888	8600.16
641.241	8635.86
641.594	8661.62
641.947	8633.83
642.301	8635.18
642.654	8642.64
643.007	8584.11
643.36	8665.46
643.713	8613.04
644.066	8645.8
644.419	8608.74
644.771	8543.21
645.124	8437.22
645.477	8372.36
645.83	8364.23
646.182	8359.71
646.535	8340.73
646.888	8340.95
647.24	8271.58
647.593	8371.23
647.945	8335.08
648.298	8274.51
648.65	8279.94
649.002	8276.1
649.355	8300.28
649.707	8268.41
650.059	8313.61
650.411	8370.78
650.763	8449.88
651.115	8522.19
651.467	8475.86
651.819	8507.05
652.171	8488.97
652.523	8465.92
652.875	8446.49
653.227	8449.88
653.578	8481.97
653.93	8535.52
654.282	8420.5
654.633	8443.32
654.985	8481.06
655.337	8478.12
655.688	8404.68
656.039	8510.67
656.391	8459.37
656.742	8496.2
657.094	8457.56
657.445	8467.73
657.796	8513.6
658.147	8509.08
658.498	8472.7
658.849	8484.45
659.2	8449.2
659.551	8472.25
659.902	8512.93
660.253	8537.11
660.604	8522.19
660.955	8478.58
661.306	8501.17
661.656	8481.06
662.007	8510.89
662.358	8421.63
662.708	8521.97
663.059	8532.81
663.409	8469.99
663.76	8569.42
664.11	8579.82
664.461	8506.6
664.811	8522.42
665.161	8515.19
665.511	8559.93
665.862	8515.86
666.212	8540.72
666.562	8503.89
666.912	8529.2
667.262	8529.87
667.612	8565.58
667.962	8516.09
668.312	8520.61
668.662	8521.74
669.011	8466.37
669.361	8478.8
669.711	8548.18
670.06	8486.94
670.41	8539.59
670.76	8449.65
671.109	8510.44
671.459	8508.63
671.808	8442.19
672.157	8462.98
672.507	8494.17
672.856	8369.43
673.205	8444.91
673.554	8444.68
673.904	8427.5
674.253	8459.37
674.602	8469.09
674.951	8326.49
675.3	8328.52
675.649	8410.1
675.998	8415.75
676.346	8405.13
676.695	8430.89
677.044	8351.57
677.393	8389.99
677.741	8434.28
678.09	8308.19
678.438	8393.38
678.787	8347.28
679.135	8296.89
679.484	8291.01
679.832	8267.28
680.181	8257.79
680.529	8304.8
680.877	8313.84
681.225	8218.24
681.573	8316.77
681.922	8278.58
682.27	8204.01
682.618	8232.71
682.966	8218.24
683.314	8212.37
683.661	8176.66
684.009	8062.32
684.357	8129.89
684.705	8077.46
685.053	8091.69
685.4	8112.03
685.748	7973.05
686.095	8025.71
686.443	7952.94
686.79	7992.04
687.138	8007.18
687.485	7991.58
687.832	7904.58
688.18	7975.09
688.527	7926.05
688.874	7834.07
689.221	7805.6
689.568	7800.4
689.915	7843.56
690.262	7800.85
690.609	7740.97
690.956	7757.24
691.303	7732.16
691.65	7717.24
691.997	7697.58
692.344	7570.58
692.69	7564.48
693.037	7607.64
693.383	7508.88
693.73	7519.73
694.077	7446.51
694.423	7498.04
694.769	7474.54
695.116	7392.96
695.462	7376.68
695.808	7394.99
696.155	7403.12
696.501	7376.46
696.847	7294.2
697.193	7286.97
697.539	7324.93
697.885	7226.63
698.231	7219.85
698.577	7240.42
698.923	7114.77
699.269	7111.38
699.614	7034.32
699.96	7011.95
700.306	7063.25
700.651	7025.28
700.997	6944.15
701.342	6996.36
701.688	6983.47
702.033	6913.65
702.379	6921.33
702.724	6865.06
703.069	6873.19
703.415	6791.16
703.76	6824.38
704.105	6804.04
704.45	6801.56
704.795	6725.63
705.14	6672.75
705.485	6701
705.83	6697.83
706.175	6666.42
706.52	6656.25
706.865	6611.73
707.209	6593.2
707.554	6550.04
707.899	6630.94
708.243	6535.8
708.588	6580.1
708.932	6452.64
709.277	6486.76
709.621	6491.28
709.966	6432.75
710.31	6442.25
710.654	6415.81
710.998	6390.72
711.342	6405.64
711.687	6380.78
712.031	6364.06
712.375	6301.01
712.719	6361.57
713.063	6296.94
713.407	6378.74
713.75	6348.24
714.094	6328.8
714.438	6299.2
714.782	6327.45
715.125	6230.27
715.469	6203.83
715.812	6226.66
716.156	6191.18
716.499	6193.44
716.843	6202.48
717.186	6197.05
717.53	6205.87
717.873	6165.42
718.216	6246.54
718.559	6115.93
718.902	6138.07
719.246	6119.32
719.589	6102.37
719.932	6089.03
720.275	6099.88
720.617	6080.45
720.96	6081.13
721.303	6070.96
721.646	6069.6
721.989	6069.37
722.331	6052.2
722.674	6075.7
723.016	6038.19
723.359	6065.76
723.701	6041.13
724.044	6013.33
724.386	5947.12
724.729	6028.25
725.071	6059.21
725.413	5945.99
725.755	6068.24
726.097	6017.85
726.439	5965.65
726.782	6006.78
727.124	5974.01
727.465	5976.5
727.807	6002.48
728.149	6023.95
728.491	5994.57
728.833	5993.9
729.175	5956.83
729.516	5988.92
729.858	5965.65
730.199	5938.98
730.541	5959.55
730.882	5983.95
731.224	5987.34
731.565	5959.55
731.906	5980.11
732.248	5956.16
732.589	5908.25
732.93	5964.74
733.271	5967
733.612	5932.65
733.953	5993.22
734.294	5960
734.635	5969.49
734.976	5915.71
735.317	5967
735.658	5983.27
735.999	5959.55
736.339	6025.08
736.68	6006.33
737.021	5976.95
737.361	6005.42
737.702	5986.89
738.042	6001.13
738.383	5955.7
738.723	6000.22
739.063	5970.85
739.404	6045.65
739.744	6030.96
740.084	6048.36
740.424	6085.65
740.764	6013.33
741.104	6121.35
741.444	6087.9
741.784	6098.53
742.124	6104.4
742.464	6091.75
742.804	6147.34
743.143	6153.21
743.483	6202.25
743.823	6158.64
744.162	6190.95
744.502	6250.84
744.841	6249.93
745.181	6314.79
745.52	6337.62
745.86	6337.84
746.199	6421.68
746.538	6448.57
746.877	6530.83
747.216	6547.1
747.556	6495.35
747.895	6598.4
748.234	6676.36
748.573	6682.01
748.911	6735.57
749.25	6752.97
749.589	6860.09
749.928	6852.86
750.267	6988.22
750.605	7042
750.944	7176.46
751.283	7166.29
751.621	7273.64
751.96	7270.47
752.298	7402.67
752.636	7538.26
752.975	7659.84
753.313	7641.08
753.651	7792.94
753.989	7896.44
754.327	7976.22
754.666	8090.34
755.004	8222.76
755.342	8339.37
755.679	8470.22
756.017	8615.3
756.355	8801.73
756.693	8858.23
757.031	9082.18
757.368	9161.95
757.706	9257.31
758.044	9423.64
758.381	9578.89
758.719	9716.28
759.056	9897.3
759.394	10011.42
759.731	10135.71
760.068	10370.05
760.405	10478.52
760.743	10654.79
761.08	10918.29
761.417	11026.76
761.754	11231.95
762.091	11408.44
762.428	11516.01
762.765	11642.79
763.102	11892.72
763.438	12046.84
763.775	12159.61
764.112	12447.29
764.449	12627.85
764.785	12767.96
765.122	12865.13
765.458	13009.53
765.795	13216.08
