Data from hue_290_FLMS001491_00042.txt Node
Date: Tue Feb 07 15:52:47 GMT 2017
User: dcchb
Spectrometer: FLMS00149
Trigger mode: 0
Integration Time (sec): 2.000000E-2
Scans to average: 10
Electric dark correction enabled: true
Nonlinearity correction enabled: false
Boxcar width: 0
XAxis mode: Wavelengths
Number of Pixels in Spectrum: 2048
>>>>>Begin Spectral Data<<<<<
341.393	-30.45
341.776	-30.45
342.16	-30.45
342.543	-55.54
342.927	-75.65
343.31	-54.41
343.693	-65.25
344.077	-46.27
344.46	-78.13
344.843	-39.49
345.226	-48.53
345.61	-34.97
345.993	-27.51
346.376	2.77
346.759	10
347.142	36.67
347.525	40.73
347.908	56.55
348.291	41.19
348.674	92.03
349.057	114.63
349.44	108.08
349.823	141.07
350.206	159.15
350.588	207.28
350.971	199.83
351.354	206.38
351.737	204.8
352.119	233.72
352.502	248.86
352.884	264.91
353.267	260.16
353.65	280.05
354.032	283.44
354.414	306.94
354.797	303.33
355.179	298.81
355.562	297.22
355.944	293.61
356.326	310.78
356.709	318.47
357.091	314.17
357.473	326.38
357.855	322.99
358.238	334.06
358.62	328.18
359.002	330.9
359.384	334.28
359.766	331.35
360.148	335.41
360.53	312.14
360.912	327.05
361.294	322.08
361.676	334.06
362.057	313.04
362.439	315.75
362.821	300.16
363.203	308.3
363.584	312.14
363.966	314.62
364.348	319.14
364.729	328.64
365.111	322.08
365.493	305.59
365.874	314.17
366.256	292.25
366.637	306.26
367.019	307.17
367.4	307.39
367.781	299.71
368.163	309.43
368.544	292.25
368.925	305.36
369.306	325.47
369.688	281.63
370.069	306.49
370.45	283.66
370.831	288.18
371.212	293.61
371.593	300.16
371.974	320.73
372.355	308.07
372.736	314.85
373.117	313.27
373.498	314.17
373.879	310.33
374.26	310.78
374.641	298.13
375.021	328.64
375.402	334.51
375.783	297.45
376.163	316.88
376.544	322.08
376.925	295.64
377.305	309.2
377.686	316.88
378.066	330.44
378.447	321.86
378.827	323.21
379.208	319.6
379.588	313.72
379.968	331.8
380.349	299.94
380.729	329.77
381.109	323.21
381.489	349.43
381.87	320.5
382.25	340.61
382.63	325.02
383.01	325.47
383.39	339.48
383.77	330.9
384.15	343.1
384.53	341.97
384.91	343.1
385.29	348.3
385.67	326.6
386.049	348.07
386.429	348.3
386.809	333.38
387.189	331.57
387.568	360.05
387.948	351.46
388.328	348.3
388.707	347.17
389.087	362.98
389.466	359.14
389.846	363.89
390.225	354.85
390.605	355.3
390.984	353.72
391.363	350.1
391.743	388.29
392.122	380.84
392.501	362.31
392.881	391.91
393.26	363.21
393.639	382.87
394.018	378.13
394.397	382.65
394.776	381.29
395.155	366.37
395.534	389.2
395.913	392.14
396.292	398.46
396.671	396.66
397.05	396.88
397.429	403.66
397.808	395.3
398.186	405.24
398.565	400.72
398.944	398.24
399.323	402.31
399.701	401.85
400.08	414.73
400.458	420.16
400.837	425.58
401.215	420.16
401.594	418.35
401.972	407.73
402.351	415.86
402.729	411.57
403.107	418.12
403.486	437.79
403.864	449.31
404.242	457.22
404.62	410.67
404.999	442.98
405.377	430.33
405.755	450.21
406.133	479.37
406.511	452.02
406.889	473.72
407.267	498.57
407.645	481.4
408.023	468.74
408.401	497.22
408.779	498.57
409.156	510.78
409.534	517.78
409.912	523.21
410.29	530.66
410.667	518.91
411.045	532.7
411.422	542.64
411.8	559.14
412.178	560.04
412.555	557.33
412.933	580.61
413.31	584.67
413.687	596.2
414.065	593.94
414.442	585.8
414.819	574.28
415.197	607.27
415.574	614.28
415.951	628.51
416.328	644.33
416.705	628.51
417.082	663.77
417.46	655.63
417.837	654.95
418.214	668.97
418.591	676.42
418.967	714.61
419.344	683.2
419.721	721.39
420.098	715.29
420.475	729.08
420.852	729.08
421.228	730.43
421.605	753.93
421.982	766.82
422.358	745.35
422.735	755.29
423.111	769.3
423.488	785.12
423.864	814.27
424.241	798
424.617	819.24
424.994	828.51
425.37	831.9
425.746	852.24
426.123	872.35
426.499	888.17
426.875	880.26
427.251	896.53
427.627	921.16
428.003	916.19
428.379	922.52
428.756	947.83
429.132	951.22
429.507	957.77
429.883	948.05
430.259	992.57
430.635	985.57
431.011	994.61
431.387	1013.36
431.763	1027.15
432.138	1041.84
432.514	1040.93
432.89	1065.79
433.265	1078.9
433.641	1076.41
434.016	1088.62
434.392	1139.24
434.767	1156.18
435.143	1156.86
435.518	1161.16
435.894	1188.95
436.269	1225.79
436.644	1236.63
437.02	1218.33
437.395	1224.88
437.77	1271.21
438.145	1272.79
438.52	1283.64
438.895	1292.23
439.271	1278.44
439.646	1304.2
440.021	1345.33
440.395	1316.63
440.77	1316.41
441.145	1329.29
441.52	1384.2
441.895	1355.95
442.27	1366.8
442.645	1364.54
443.019	1388.95
443.394	1399.57
443.769	1377.65
444.143	1414.71
444.518	1412.9
444.892	1418.55
445.267	1433.92
445.641	1462.39
446.016	1450.87
446.39	1483.41
446.764	1477.76
447.139	1459.91
447.513	1504.2
447.887	1503.29
448.262	1490.64
448.636	1492.45
449.01	1520.24
449.384	1540.81
449.758	1518.21
450.132	1520.47
450.506	1569.05
450.88	1545.33
451.254	1577.64
451.628	1573.35
452.002	1564.08
452.376	1619.67
452.75	1599.56
453.123	1608.15
453.497	1631.65
453.871	1645.66
454.244	1676.85
454.618	1667.81
454.992	1711.42
455.365	1713.23
455.739	1743.06
456.112	1758.65
456.486	1720.46
456.859	1765.21
457.232	1768.6
457.606	1790.97
457.979	1809.5
458.352	1838.2
458.725	1848.14
459.099	1867.35
459.472	1891.08
459.845	1905.09
460.218	1927.69
460.591	1909.38
460.964	1927.46
461.337	1965.2
461.71	1982.38
462.083	2002.49
462.456	2040.91
462.829	1988.48
463.201	2046.1
463.574	2036.16
463.947	2074.13
464.32	2096.27
464.692	2104.18
465.065	2153.9
465.438	2173.78
465.81	2170.17
466.183	2176.95
466.555	2208.13
466.928	2243.16
467.3	2241.58
467.672	2228.47
468.045	2289.49
468.417	2302.82
468.789	2289.71
469.161	2334.46
469.534	2360.9
469.906	2388.69
470.278	2379.88
470.65	2433.44
471.022	2489.03
471.394	2496.26
471.766	2522.48
472.138	2508.47
472.51	2593.21
472.882	2616.03
473.253	2635.47
473.625	2654.45
473.997	2701.23
474.369	2718.4
474.74	2740.1
475.112	2757.05
475.484	2821.9
475.855	2822.36
476.227	2844.73
476.598	2903.48
476.97	2963.14
477.341	2974.44
477.713	3005.63
478.084	2964.72
478.455	3061.22
478.827	3094.21
479.198	3175.34
479.569	3190.48
479.94	3248.11
480.311	3268.9
480.682	3312.51
481.053	3385.05
481.424	3427.99
481.795	3413.3
482.166	3491.04
482.537	3500.98
482.908	3528.55
483.279	3553.41
483.65	3629.11
484.021	3693.74
484.391	3745.72
484.762	3721.54
485.133	3759.51
485.503	3797.24
485.874	3892.61
486.244	3888.77
486.615	3954.08
486.985	3965.83
487.356	4055.32
487.726	4063.9
488.097	4113.39
488.467	4112.26
488.837	4208.08
489.207	4252.37
489.578	4265.93
489.948	4337.8
490.318	4381.41
490.688	4350.68
491.058	4430
491.428	4481.52
491.798	4509.32
492.168	4552.25
492.538	4600.61
492.908	4621.4
493.278	4691.91
493.648	4637.45
494.017	4727.62
494.387	4712.47
494.757	4800.61
495.126	4770.78
495.496	4852.36
495.866	4789.76
496.235	4851.91
496.605	4952.92
496.974	4949.76
497.344	5008.74
497.713	4966.48
498.082	5062.75
498.452	5095.06
498.821	5042.18
499.19	5064.56
499.559	5157.44
499.928	5210.54
500.298	5186.81
500.667	5194.04
501.036	5196.98
501.405	5271.56
501.774	5218.45
502.143	5301.39
502.512	5279.01
502.88	5326.24
503.249	5368.05
503.618	5386.13
503.987	5386.36
504.356	5423.64
504.724	5423.64
505.093	5441.04
505.462	5415.28
505.83	5517.43
506.199	5494.38
506.567	5571.66
506.936	5580.93
507.304	5606.01
507.672	5631.77
508.041	5614.37
508.409	5652.34
508.777	5699.12
509.145	5709.96
509.514	5719.23
509.882	5772.79
510.25	5779.11
510.618	5795.61
510.986	5815.95
511.354	5848.49
511.722	5878.55
512.09	5869.96
512.458	5902.05
512.826	5953.12
513.193	5953.12
513.561	6017.53
513.929	6038.77
514.297	6043.06
514.664	6073.34
515.032	6076.73
515.4	6083.29
515.767	6163.74
516.135	6136.17
516.502	6161.7
516.869	6147.92
517.237	6212.77
517.604	6176.39
517.972	6200.35
518.339	6271.3
518.706	6262.72
519.073	6267.46
519.44	6272.43
519.808	6333.9
520.175	6351.98
520.542	6380.45
520.909	6441.24
521.276	6446.21
521.643	6467.68
522.009	6482.6
522.376	6452.99
522.743	6512.43
523.11	6583.61
523.477	6670.84
523.843	6646.89
524.21	6671.07
524.577	6685.53
524.943	6744.06
525.31	6766.43
525.676	6791.74
526.043	6814.11
526.409	6883.04
526.776	6918.52
527.142	6871.29
527.508	6930.5
527.874	6985.18
528.241	7017.95
528.607	7017.5
528.973	7042.13
529.339	7078.29
529.705	7146.31
530.071	7152.41
530.437	7203.71
530.803	7225.86
531.169	7258.62
531.535	7252.07
531.901	7302.01
532.267	7282.58
532.632	7339.98
532.998	7350.6
533.364	7413.87
533.73	7377.26
534.095	7472.18
534.461	7497.03
534.826	7542.46
535.192	7521.21
535.557	7644.83
535.923	7620.65
536.288	7629.23
536.653	7667.2
537.019	7555.79
537.384	7701.55
537.749	7690.93
538.114	7692.74
538.479	7735.9
538.845	7804.82
539.21	7713.53
539.575	7733.86
539.94	7843.01
540.305	7844.6
540.67	7879.62
541.034	7874.2
541.399	7940.64
541.764	7908.55
542.129	7972.95
542.494	7976.12
542.858	7999.85
543.223	8003.46
543.587	8019.96
543.952	7994.65
544.316	8134.76
544.681	8125.94
545.045	8207.3
545.41	8223.34
545.774	8195.1
546.138	8158.71
546.503	8185.38
546.867	8226.05
547.231	8269.9
547.595	8287.3
547.959	8298.6
548.324	8238.71
548.688	8287.3
549.052	8376.56
549.416	8358.71
549.779	8389.21
550.143	8378.14
550.507	8472.6
550.871	8475.09
551.235	8454.07
551.599	8541.53
551.962	8524.58
552.326	8573.84
552.689	8576.55
553.053	8567.97
553.417	8564.13
553.78	8687.06
554.143	8612.26
554.507	8592.6
554.87	8720.28
555.234	8793.27
555.597	8730.67
555.96	8729.77
556.323	8752.59
556.686	8738.58
557.05	8846.83
557.413	8751.01
557.776	8784.01
558.139	8854.96
558.502	8860.16
558.865	8877.79
559.228	8904.91
559.59	8871.24
559.953	8946.71
560.316	9038.24
560.679	9063.32
561.041	9067.61
561.404	9104.9
561.767	9194.39
562.129	9102.87
562.492	9220.83
562.854	9227.38
563.217	9215.63
563.579	9245.01
563.941	9285.46
564.304	9330.21
564.666	9437.1
565.028	9411.56
565.39	9480.03
565.753	9432.58
566.115	9441.39
566.477	9522.97
566.839	9546.47
567.201	9623.76
567.563	9594.38
567.925	9673.93
568.287	9648.84
568.648	9663.31
569.01	9669.86
569.372	9819.91
569.734	9796.64
570.095	9855.84
570.457	9919.8
570.819	9939.46
571.18	9858.78
571.542	9971.77
571.903	9950.98
572.265	10049.06
572.626	10040.7
572.987	10126.12
573.349	10171.09
573.71	10209.73
574.071	10235.95
574.432	10240.01
574.794	10359.33
575.155	10430.52
575.516	10359.78
575.877	10500.8
576.238	10516.39
576.599	10579.67
576.96	10660.79
577.32	10619.44
577.681	10734.92
578.042	10806.1
578.403	10836.61
578.763	10937.4
579.124	10882.48
579.485	10988.47
579.845	11202.47
580.206	11186.43
580.566	11195.24
580.927	11197.95
581.287	11367.22
581.648	11507.32
582.008	11527.21
582.368	11620.09
582.728	11675
583.089	11784.15
583.449	11887.88
583.809	11961.1
584.169	12045.62
584.529	12163.8
584.889	12309.56
585.249	12333.07
585.609	12436.79
585.969	12656.9
586.329	12695.77
586.688	12868.64
587.048	12879.49
587.408	13069.32
587.768	13229.99
588.127	13309.54
588.487	13399.93
588.846	13609.87
589.206	13629.75
589.565	13861.39
589.925	13977.54
590.284	14039.01
590.643	14215.5
591.003	14391.09
591.362	14494.59
591.721	14591.99
592.08	14666.79
592.44	14928.48
592.799	15095.93
593.158	15173.22
593.517	15288.92
593.876	15471.29
594.235	15442.36
594.593	15702.69
594.952	15891.16
595.311	15962.12
595.67	16125.73
596.029	16344.03
596.387	16462
596.746	16584.03
597.104	16744.47
597.463	16773.17
597.822	16998.93
598.18	17138.59
598.538	17110.57
598.897	17272.14
599.255	17289.77
599.613	17710.55
599.972	17689.76
600.33	17778.35
600.688	17837.1
601.046	18119.35
601.404	18271.67
601.762	18251.33
602.12	18462.4
602.478	18515.73
602.836	18591.88
603.194	18550.76
603.552	18820.58
603.91	18731.09
604.268	18914.59
604.625	19092.66
604.983	19175.37
605.341	19250.62
605.698	19303.28
606.056	19434.35
606.413	19538.98
606.771	19697.17
607.128	19751.85
607.485	19676.83
607.843	19726.32
608.2	20012.86
608.557	20072.07
608.914	20098.06
609.272	20222.8
609.629	20349.35
609.986	20490.59
610.343	20502.79
610.7	20663.92
611.057	20716.35
611.414	20632.28
611.771	20817.81
612.127	20959.73
612.484	20944.36
612.841	21041.09
613.198	20987.98
613.554	21070.46
613.911	21242.21
614.267	21368.31
614.624	21345.03
614.98	21456.22
615.337	21550.9
615.693	21611.24
616.05	21561.07
616.406	21842.19
616.762	21736.43
617.118	21737.79
617.475	21878.8
617.831	21924.9
618.187	22010.78
618.543	21996.99
618.899	22144.56
619.255	22143.66
619.611	22041.51
619.967	22334.84
620.323	22334.38
620.678	22251
621.034	22202.41
621.39	22251.45
621.746	22194.5
622.101	22497.54
622.457	22413.93
622.812	22422.52
623.168	22541.61
623.523	22525.34
623.879	22550.2
624.234	22561.72
624.589	22613.93
624.945	22620.7
625.3	22655.05
625.655	22693.47
626.01	22690.76
626.365	22741.15
626.72	22622.96
627.075	22796.07
627.43	22762.85
627.785	22751.32
628.14	22721.49
628.495	22732.57
628.85	22681.72
629.205	22732.57
629.559	22834.94
629.914	22773.02
630.269	22805.33
630.623	22755.16
630.978	22672
631.332	22781.83
631.687	22860.02
632.041	22784.54
632.396	22836.74
632.75	22684.88
633.104	22721.27
633.459	22661.83
633.813	22704.32
634.167	22676.52
634.521	22687.6
634.875	22765.33
635.229	22702.06
635.583	22612.57
635.937	22672.23
636.291	22633.81
636.645	22682.62
636.999	22521.5
637.352	22667.48
637.706	22595.85
638.06	22621.61
638.413	22488.5
638.767	22524.66
639.121	22551.55
639.474	22397.89
639.828	22406.47
640.181	22427.04
640.534	22560.82
640.888	22396.98
641.241	22376.19
641.594	22421.39
641.947	22492.8
642.301	22386.13
642.654	22440.82
643.007	22467.26
643.36	22414.61
643.713	22353.59
644.066	22536.19
644.419	22361.28
644.771	22228.62
645.124	21956.09
645.477	21991.12
645.83	21897.33
646.182	21681.52
646.535	21682.65
646.888	21714.06
647.24	21523.56
647.593	21794.29
647.945	21758.13
648.298	21625.25
648.65	21577.12
649.002	21588.19
649.355	21609.88
649.707	21598.81
650.059	21852.36
650.411	21938.24
650.763	21986.82
651.115	22280.83
651.467	22252.8
651.819	22161.28
652.171	22076.99
652.523	22119.7
652.875	22061.85
653.227	22075.18
653.578	22183.2
653.93	22200.15
654.282	22086.26
654.633	22028.4
654.985	22117.44
655.337	22076.09
655.688	22205.57
656.039	22319.24
656.391	22160.83
656.742	22034.51
657.094	22138.01
657.445	22204.44
657.796	22168.06
658.147	22236.31
658.498	22101.17
658.849	22182.75
659.2	22289.41
659.551	22108.18
659.902	22152.92
660.253	22134.62
660.604	22287.61
660.955	22064.79
661.306	22151.34
661.656	22197.21
662.007	22155.41
662.358	22194.28
662.708	22109.08
663.059	22105.69
663.409	22059.82
663.76	22315.4
664.11	22317.21
664.461	22192.47
664.811	22261.39
665.161	22230.88
665.511	22167.16
665.862	22177.55
666.212	22221.85
666.562	22220.94
666.912	22213.26
667.262	22238.12
667.612	22208.51
667.962	22120.15
668.312	22146.14
668.662	22305.23
669.011	22153.82
669.361	22222.07
669.711	22074.05
670.06	22144.33
670.41	22104.11
670.76	22034.05
671.109	22176.2
671.459	22154.05
671.808	22076.99
672.157	22194.28
672.507	21968.74
672.856	21953.15
673.205	22044.9
673.554	22088.52
673.904	22070.66
674.253	22174.16
674.602	22146.14
674.951	21684.68
675.3	21550.22
675.649	21993.38
675.998	22020.72
676.346	21915.19
676.695	21906.37
677.044	21777.34
677.393	21852.14
677.741	21849.65
678.09	21840.16
678.438	21715.19
678.787	21801.52
679.135	21805.58
679.484	21758.35
679.832	21700.5
680.181	21673.84
680.529	21597.91
680.877	21586.83
681.225	21578.47
681.573	21682.42
681.922	21511.58
682.27	21385.71
682.618	21506.61
682.966	21322.43
683.314	21497.12
683.661	21229.33
684.009	21325.15
684.357	21230.23
684.705	21247.86
685.053	21190.91
685.4	21298.48
685.748	21185.71
686.095	21053.29
686.443	21002.44
686.79	21033.18
687.138	20976.23
687.485	20873.63
687.832	20842.9
688.18	20896.46
688.527	20729.91
688.874	20699.4
689.221	20751.38
689.568	20595.67
689.915	20608.78
690.262	20518.16
690.609	20456.47
690.956	20282.46
691.303	20391.84
691.65	20298.96
691.997	20237.72
692.344	20067.1
692.69	20086.08
693.037	20075.69
693.383	19977.38
693.73	20045.63
694.077	19860.1
694.423	19802.93
694.769	19764.51
695.116	19733.1
695.462	19656.71
695.808	19640.22
696.155	19695.58
696.501	19394.35
696.847	19474.57
697.193	19342.15
697.539	19483.39
697.885	19293.33
698.231	19095.83
698.577	19221.47
698.923	19035.49
699.269	18915.72
699.614	18868.03
699.96	18801.82
700.306	18782.61
700.651	18756.17
700.997	18658.1
701.342	18686.12
701.688	18688.6
702.033	18494.26
702.379	18527.7
702.724	18396.18
703.069	18455.62
703.415	18291.78
703.76	18320.7
704.105	18280.71
704.45	18225.11
704.795	18009.3
705.14	18026.48
705.485	17937.89
705.83	17905.35
706.175	17913.71
706.52	17819.25
706.865	17718.91
707.209	17695.18
707.554	17690.21
707.899	17678.69
708.243	17575.64
708.588	17522.53
708.932	17461.74
709.277	17367.74
709.621	17465.36
709.966	17297.23
710.31	17373.84
710.654	17168.87
710.998	17105.37
711.342	17164.12
711.687	17174.97
712.031	17013.85
712.375	16963.45
712.719	16991.25
713.063	16945.6
713.407	17051.59
713.75	16870.57
714.094	16876
714.438	16786.96
714.782	16982.66
715.125	16731.37
715.469	16726.62
715.812	16786.96
716.156	16579.73
716.499	16611.37
716.843	16631.71
717.186	16546.06
717.53	16597.36
717.873	16602.56
718.216	16550.36
718.559	16470.13
718.902	16360.98
719.246	16426.74
719.589	16484.14
719.932	16361.89
720.275	16337.25
720.617	16305.39
720.96	16322.57
721.303	16274.66
721.646	16262.45
721.989	16108.11
722.331	16284.6
722.674	16189.69
723.016	16194.88
723.359	16068.56
723.701	16073.76
724.044	16036.47
724.386	15976.59
724.729	16109.46
725.071	16041.89
725.413	16010.93
725.755	16008.22
726.097	15957.6
726.439	15814.33
726.782	15912.41
727.124	15923.93
727.465	15834.44
727.807	15854.78
728.149	15784.5
728.491	15789.7
728.833	15894.33
729.175	15748.12
729.516	15820.21
729.858	15747.21
730.199	15745.86
730.541	15767.1
730.882	15776.14
731.224	15700.89
731.565	15731.62
731.906	15662.47
732.248	15744.95
732.589	15685.29
732.93	15658.18
733.271	15641
733.612	15668.35
733.953	15704.28
734.294	15565.07
734.635	15595.58
734.976	15611.85
735.317	15560.33
735.658	15604.62
735.999	15595.8
736.339	15669.25
736.68	15664.28
737.021	15610.95
737.361	15569.82
737.702	15668.57
738.042	15547.67
738.383	15584.51
738.723	15544.96
739.063	15637.16
739.404	15665.18
739.744	15679.19
740.084	15647.1
740.424	15656.59
740.764	15683.94
741.104	15583.83
741.444	15641.91
741.784	15685.29
742.124	15651.4
742.464	15699.98
742.804	15672.41
743.143	15689.36
743.483	15794.9
743.823	15706.54
744.162	15735.46
744.502	15784.95
744.841	15735.01
745.181	15870.83
745.52	15790.6
745.86	15893.42
746.199	15914.21
746.538	15923.48
746.877	16015
747.216	16057.71
747.556	16035.57
747.895	16066.75
748.234	16104.94
748.573	16233.98
748.911	16248.22
749.25	16312.17
749.589	16352.17
749.928	16383.81
750.267	16575.89
750.605	16545.84
750.944	16723.91
751.283	16615.21
751.621	16760.97
751.96	16836.9
752.298	16939.95
752.636	17054.98
752.975	17097.01
753.313	17091.13
753.651	17391.46
753.989	17249.09
754.327	17406.83
754.666	17367.74
755.004	17612.93
755.342	17778.12
755.679	17759.59
756.017	17907.16
756.355	17978.34
756.693	18124.78
757.031	18203.87
757.368	18191.89
757.706	18452.45
758.044	18437.09
758.381	18651.77
758.719	18586.46
759.056	18868.94
