Data from hue_28_FLMS001491_00087.txt Node
Date: Tue Feb 07 17:17:56 GMT 2017
User: dcchb
Spectrometer: FLMS00149
Trigger mode: 0
Integration Time (sec): 2.000000E-2
Scans to average: 10
Electric dark correction enabled: true
Nonlinearity correction enabled: false
Boxcar width: 0
XAxis mode: Wavelengths
Number of Pixels in Spectrum: 2048
>>>>>Begin Spectral Data<<<<<
341.393	-21.21
341.776	-21.21
342.16	-21.21
342.543	-66.41
342.927	-76.81
343.31	-51.27
343.693	-79.29
344.077	-63.92
344.46	-50.59
344.843	-64.38
345.226	-56.24
345.61	-26.19
345.993	-26.19
346.376	1.84
346.759	-4.04
347.142	15.4
347.525	59.01
347.908	61.5
348.291	74.15
348.674	88.84
349.057	121.38
349.44	126.35
349.823	164.77
350.206	159.35
350.588	185.33
350.971	229.4
351.354	231.89
351.737	237.76
352.119	254.94
352.502	279.34
352.884	265.33
353.267	287.7
353.65	289.06
354.032	289.96
354.414	313.69
354.797	318.66
355.179	349.62
355.562	327.93
355.944	324.99
356.326	355.05
356.709	336.97
357.091	341.04
357.473	356.18
357.855	343.97
358.238	334.71
358.62	344.65
359.002	339.91
359.384	363.63
359.766	348.04
360.148	348.27
360.53	339.45
360.912	323.41
361.294	332.45
361.676	340.36
362.057	337.19
362.439	342.62
362.821	335.39
363.203	337.19
363.584	350.98
363.966	332.22
364.348	338.32
364.729	326.12
365.111	303.52
365.493	320.02
365.874	323.64
366.256	329.06
366.637	313.01
367.019	305.1
367.4	312.11
367.781	328.83
368.163	311.88
368.544	335.84
368.925	302.39
369.306	330.42
369.688	314.37
370.069	325.67
370.45	303.75
370.831	300.59
371.212	332.45
371.593	336.97
371.974	327.25
372.355	316.63
372.736	321.83
373.117	323.86
373.498	320.47
373.879	328.61
374.26	303.3
374.641	320.47
375.021	347.59
375.402	312.56
375.783	340.36
376.163	333.35
376.544	313.92
376.925	339.45
377.305	315.95
377.686	350.53
378.066	323.64
378.447	340.36
378.827	329.29
379.208	335.84
379.588	338.78
379.968	327.25
380.349	341.49
380.729	331.09
381.109	340.36
381.489	344.43
381.87	358.44
382.25	329.74
382.63	352.56
383.01	359.57
383.39	356.4
383.77	357.53
384.15	359.11
384.53	357.08
384.91	358.21
385.29	345.1
385.67	361.15
386.049	350.08
386.429	362.28
386.809	347.82
387.189	363.63
387.568	374.03
387.948	335.39
388.328	368.38
388.707	354.82
389.087	385.78
389.466	379.45
389.846	367.93
390.225	335.39
390.605	373.8
390.984	362.73
391.363	352.11
391.743	388.49
392.122	361.83
392.501	381.71
392.881	381.94
393.26	381.94
393.639	388.04
394.018	394.37
394.397	383.97
394.776	388.49
395.155	367.93
395.534	384.42
395.913	387.59
396.292	395.5
396.671	399.11
397.05	374.71
397.429	394.14
397.808	394.59
398.186	409.28
398.565	403.18
398.944	388.27
399.323	367.48
399.701	397.08
400.08	393.24
400.458	393.46
400.837	409.06
401.215	428.04
401.594	407.7
401.972	389.85
402.351	418.1
402.729	406.35
403.107	426.46
403.486	419
403.864	414.25
404.242	429.17
404.62	414.71
404.999	417.64
405.377	417.19
405.755	417.42
406.133	424.2
406.511	431.2
406.889	419.23
407.267	414.25
407.645	431.2
408.023	431.66
408.401	428.72
408.779	423.07
409.156	442.5
409.534	458.1
409.912	452.45
410.29	436.63
410.667	458.55
411.045	475.27
411.422	449.96
411.8	466.23
412.178	475.95
412.555	477.98
412.933	453.35
413.31	467.36
413.687	484.08
414.065	491.54
414.442	478.21
414.819	491.09
415.197	481.6
415.574	487.02
415.951	484.76
416.328	502.16
416.705	496.06
417.082	491.09
417.46	500.58
417.837	508.72
418.214	501.03
418.591	497.87
418.967	510.07
419.344	538.77
419.721	534.25
420.098	529.51
420.475	522.5
420.852	526.34
421.228	525.21
421.605	535.83
421.982	541.93
422.358	528.38
422.735	540.8
423.111	553.69
423.488	544.42
423.864	556.85
424.241	553.91
424.617	563.18
424.994	574.25
425.37	543.06
425.746	565.89
426.123	585.55
426.499	582.39
426.875	559.34
427.251	598.2
427.627	595.72
428.003	579
428.379	601.82
428.756	581.48
429.132	611.99
429.507	598.88
429.883	612.89
430.259	627.36
430.635	627.13
431.011	638.88
431.387	640.69
431.763	651.76
432.138	651.76
432.514	665.32
432.89	627.36
433.265	662.16
433.641	688.15
434.016	672.78
434.392	678.2
434.767	673.23
435.143	687.92
435.518	698.09
435.894	693.8
436.269	692.89
436.644	733.34
437.02	711.87
437.395	707.13
437.77	756.62
438.145	721.82
438.52	740.12
438.895	731.76
439.271	756.62
439.646	756.62
440.021	771.08
440.395	742.16
440.77	747.13
441.145	769.95
441.52	764.08
441.895	777.41
442.27	775.6
442.645	777.41
443.019	802.94
443.394	770.18
443.769	808.37
444.143	787.8
444.518	808.37
444.892	786.22
445.267	801.14
445.641	803.62
446.016	810.4
446.39	817.86
446.764	835.94
447.139	836.39
447.513	846.79
447.887	837.52
448.262	822.83
448.636	832.77
449.01	850.4
449.384	864.19
449.758	846.56
450.132	855.37
450.506	884.07
450.88	892.66
451.254	894.92
451.628	888.37
452.002	915.26
452.376	909.38
452.75	917.97
453.123	901.47
453.497	931.98
453.871	945.09
454.244	943.28
454.618	938.53
454.992	952.77
455.365	945.99
455.739	971.08
456.112	985.31
456.486	1013.11
456.859	988.7
457.232	1002.49
457.606	1014.24
457.979	1024.18
458.352	1032.54
458.725	1047.46
459.099	1086.78
459.472	1097.4
459.845	1095.59
460.218	1104.86
460.591	1121.13
460.964	1103.73
461.337	1113.22
461.71	1117.51
462.083	1146.89
462.456	1150.28
462.829	1168.36
463.201	1183.5
463.574	1170.84
463.947	1192.54
464.32	1217.85
464.692	1241.58
465.065	1220.56
465.438	1258.98
465.81	1259.2
466.183	1283.16
466.555	1302.14
466.928	1327.45
467.3	1347.34
467.672	1349.6
468.045	1370.39
468.417	1351.18
468.789	1369.48
469.161	1394.57
469.534	1427.34
469.906	1417.17
470.278	1462.14
470.65	1451.97
471.022	1488.35
471.394	1545.07
471.766	1554.34
472.138	1572.42
472.51	1598.86
472.882	1623.49
473.253	1641.79
473.625	1638.18
473.997	1669.81
474.369	1676.37
474.74	1713.88
475.112	1763.82
475.484	1803.6
475.855	1819.42
476.227	1854.22
476.598	1905.51
476.97	1923.37
477.341	1942.12
477.713	2010.82
478.084	2008.11
478.455	2059.64
478.827	2108.45
479.198	2137.83
479.569	2140.08
479.94	2216.02
480.311	2251.04
480.682	2306.63
481.053	2320.19
481.424	2358.38
481.795	2435.9
482.166	2490.81
482.537	2545.95
482.908	2574.42
483.279	2627.53
483.65	2635.89
484.021	2707.3
484.391	2736.45
484.762	2763.8
485.133	2865.26
485.503	2868.65
485.874	2964.7
486.244	3018.25
486.615	3098.48
486.985	3109.78
487.356	3189.32
487.726	3218.7
488.097	3265.25
488.467	3276.78
488.837	3366.27
489.207	3459.37
489.578	3477
489.948	3531.91
490.318	3571.46
490.688	3606.94
491.058	3679.03
491.428	3726.03
491.798	3794.5
492.168	3845.12
492.538	3895.75
492.908	3954.05
493.278	4004.89
493.648	4019.36
494.017	4059.58
494.387	4135.51
494.757	4184.33
495.126	4302.06
495.496	4248.5
495.866	4285.79
496.235	4418.67
496.605	4387.26
496.974	4446.47
497.344	4494.83
497.713	4557.87
498.082	4561.26
498.452	4691.2
498.821	4653.01
499.19	4689.17
499.559	4731.88
499.928	4770.75
500.298	4762.39
500.667	4853.69
501.036	4806.46
501.405	4925.55
501.774	4915.15
502.143	4987.47
502.512	5031.99
502.88	5056.39
503.249	5033.57
503.618	5084.87
503.987	5144.75
504.356	5152.66
504.724	5184.3
505.093	5206.67
505.462	5217.52
505.83	5253.68
506.199	5309.04
506.567	5378.42
506.936	5355.37
507.304	5404.41
507.672	5440.11
508.041	5508.58
508.409	5526.89
508.777	5551.97
509.145	5601.91
509.514	5598.75
509.882	5572.99
510.25	5591.75
510.618	5709.26
510.986	5708.8
511.354	5725.3
511.722	5786.77
512.09	5834.45
512.458	5822.7
512.826	5808.92
513.193	5907.9
513.561	5867.44
513.929	5962.81
514.297	5960.55
514.664	6032.64
515.032	6038.51
515.4	6063.37
515.767	6118.29
516.135	6139.75
516.502	6074.22
516.869	6166.65
517.237	6211.84
517.604	6180.43
517.972	6274.21
518.339	6249.81
518.706	6264.27
519.073	6313.99
519.44	6310.82
519.808	6354.21
520.175	6376.58
520.542	6505.62
520.909	6502.23
521.276	6501.55
521.643	6539.74
522.009	6572.51
522.376	6627.2
522.743	6626.75
523.11	6707.2
523.477	6703.58
523.843	6726.63
524.21	6794.2
524.577	6851.6
524.943	6891.82
525.31	6878.49
525.676	6927.08
526.043	6907.64
526.409	7029.67
526.776	7051.14
527.142	7139.5
527.508	7110.12
527.874	7181.99
528.241	7179.95
528.607	7268.31
528.973	7333.62
529.339	7328.2
529.705	7396.9
530.071	7379.72
530.437	7479.38
530.803	7473.28
531.169	7572.48
531.535	7540.85
531.901	7575.65
532.267	7571.81
532.632	7675.76
532.998	7657.68
533.364	7716.89
533.73	7724.8
534.095	7760.95
534.461	7861.97
534.826	7904
535.192	7916.88
535.557	7957.56
535.923	7934.28
536.288	7989.87
536.653	8073.71
537.019	7968.18
537.384	8069.65
537.749	8113.71
538.114	8094.5
538.479	8193.71
538.845	8248.17
539.21	8137.22
539.575	8245.46
539.94	8322.52
540.305	8278.68
540.67	8313.48
541.034	8403.42
541.399	8472.8
541.764	8399.81
542.129	8486.58
542.494	8507.6
542.858	8528.17
543.223	8577.66
543.587	8609.52
543.952	8618.33
544.316	8636.19
544.681	8569.52
545.045	8758.44
545.41	8744.66
545.774	8811.55
546.138	8880.7
546.503	8835.5
546.867	8870.76
547.231	8936.29
547.595	8916.4
547.959	8993.24
548.324	8977.19
548.688	9034.82
549.052	9077.98
549.416	9135.16
549.779	9074.37
550.143	9145.32
550.507	9210.86
550.871	9213.12
551.235	9239.11
551.599	9304.64
551.962	9303.29
552.326	9388.26
552.689	9377.41
553.053	9432.77
553.417	9407.01
553.78	9540.57
554.143	9526.56
554.507	9537.63
554.87	9573.34
555.234	9631.64
555.597	9568.82
555.96	9654.69
556.323	9698.76
556.686	9683.62
557.05	9731.3
557.413	9795.48
557.776	9763.39
558.139	9789.83
558.502	9942.37
558.865	9881.12
559.228	9930.61
559.59	9982.14
559.953	10011.52
560.316	10152.3
560.679	10054.68
561.041	10134.45
561.404	10194.11
561.767	10218.29
562.129	10219.87
562.492	10344.84
562.854	10323.82
563.217	10289.48
563.579	10362.02
563.941	10478.17
564.304	10459.41
564.666	10467.78
565.028	10459.41
565.39	10534.21
565.753	10583.25
566.115	10651.95
566.477	10598.39
566.839	10673.65
567.201	10801.1
567.563	10751.61
567.925	10844.94
568.287	10862.57
568.648	10891.49
569.01	10973.07
569.372	11024.37
569.734	11002.45
570.095	11140.3
570.457	11089
570.819	11194.31
571.18	11229.34
571.542	11209.9
571.903	11353.85
572.265	11418.71
572.626	11460.29
572.987	11437.02
573.349	11422.55
573.71	11572.61
574.071	11644.24
574.432	11674.07
574.794	11842.2
575.155	11761.75
575.516	11886.04
575.877	11944.35
576.238	11933.5
576.599	12131.69
576.96	12122.2
577.32	12236.77
577.681	12297.56
578.042	12460.04
578.403	12486.25
578.763	12583.65
579.124	12718.56
579.485	12775.29
579.845	12919.24
580.206	12982.51
580.566	13114.49
580.927	13232.9
581.287	13397.64
581.648	13517.86
582.008	13686.45
582.368	13800.34
582.728	14000.11
583.089	14150.39
583.449	14339.31
583.809	14540.89
584.169	14709.47
584.529	14739.98
584.889	15022.46
585.249	15117.6
585.609	15320.53
585.969	15641.2
586.329	15701.54
586.688	15979.5
587.048	16315.76
587.408	16404.57
587.768	16732.24
588.127	16931.79
588.487	17063.99
588.846	17568.15
589.206	17692.22
589.565	17982.83
589.925	18216.05
590.284	18444.06
590.643	18638.86
591.003	19061.67
591.362	19350.03
591.721	19568.78
592.08	19738.94
592.44	20245.82
592.799	20363.33
593.158	20713.83
593.517	20909.76
593.876	21384.1
594.235	21528.28
594.593	21874.48
594.952	22234.92
595.311	22420.68
595.67	22741.13
596.029	23098.86
596.387	23499.3
596.746	23721.44
597.104	23912.62
597.463	24281.2
597.822	24602.32
598.18	24741.07
598.538	25064.68
598.897	25537.66
599.255	25650.43
599.613	26222.16
599.972	26311.2
600.33	26733.11
600.688	26884.97
601.046	27286.32
601.404	27508.68
601.762	27799.98
602.12	28228.66
602.478	28366.29
602.836	28694.42
603.194	28862.09
603.552	29182.09
603.91	29370.1
604.268	29730.77
604.625	29909.52
604.983	30384.31
605.341	30446.46
605.698	30851.42
606.056	31126.22
606.413	31308.58
606.771	31544.06
607.128	31869.25
607.485	31859.3
607.843	32214.32
608.2	32517.59
608.557	32821.76
608.914	32831.71
609.272	33301.53
609.629	33436.89
609.986	33861.06
610.343	33844.11
610.7	34325.68
611.057	34210.2
611.414	34571.55
611.771	34717.08
612.127	35130.63
612.484	35068.48
612.841	35578.98
613.198	35581.92
613.554	35708.69
613.911	36048.35
614.267	36177.16
614.624	36369.24
614.98	36579.18
615.337	36879.06
615.693	36890.58
616.05	36941.88
616.406	37346.84
616.762	37435.2
617.118	37548.42
617.475	37724.01
617.831	37882.42
618.187	38159.02
618.543	38190.66
618.899	38465.91
619.255	38340.26
619.611	38537.55
619.967	38780.03
620.323	39022.28
620.678	38834.04
621.034	38984.31
621.39	39119.45
621.746	39060.24
622.101	39634.01
622.457	39420.91
622.812	39583.17
623.168	39730.73
623.523	39852.09
623.879	40059.54
624.234	39890.28
624.589	40036.72
624.945	40289.82
625.3	40290.95
625.655	40301.79
626.01	40292.08
626.365	40506.99
626.72	40561.45
627.075	40567.78
627.43	40537.27
627.785	40575.46
628.14	40828.11
628.495	40771.16
628.85	40765.28
629.205	40757.6
629.559	41091.83
629.914	40883.02
630.269	41058.61
630.623	40955.11
630.978	40921.66
631.332	41189.68
631.687	41262.45
632.041	41096.12
632.396	41242.79
632.75	41246.4
633.104	41266.29
633.459	41156.91
633.813	41191.04
634.167	41100.64
634.521	41206.63
634.875	41255.21
635.229	41239.85
635.583	41008.44
635.937	41108.78
636.291	41216.12
636.645	41305.83
636.999	41354.65
637.352	41317.36
637.706	41019.06
638.06	41299.06
638.413	41163.24
638.767	41122.56
639.121	41230.36
639.474	41165.27
639.828	41203.24
640.181	41053.86
640.534	41105.84
640.888	41032.17
641.241	40998.5
641.594	41051.6
641.947	41137.48
642.301	41036.46
642.654	40975.45
643.007	41118.72
643.36	40956.69
643.713	41095.22
644.066	41108.1
644.419	40866.07
644.771	40621.56
645.124	40207.11
645.477	40180.67
645.83	40026.32
646.182	39994.68
646.535	39762.82
646.888	39843.73
647.24	39701.58
647.593	39943.38
647.945	39895.93
648.298	39824.52
648.65	39699.32
649.002	39645.09
649.355	39878.08
649.707	39724.86
650.059	39986.55
650.411	40423.37
650.763	40388.57
651.115	40877.15
651.467	40743.59
651.819	40602.8
652.171	40569.36
652.523	40507.21
652.875	40540.43
653.227	40307.67
653.578	40685.74
653.93	40544.72
654.282	40374.11
654.633	40393.77
654.985	40424.73
655.337	40487.1
655.688	40487.55
656.039	40643.25
656.391	40193.1
656.742	40345.41
657.094	40346.99
657.445	40562.13
657.796	40371.4
658.147	40404.84
658.498	40293.21
658.849	40362.81
659.2	40363.71
659.551	40294.79
659.902	40464.73
660.253	40361.23
660.604	40398.74
660.955	40109.48
661.306	40339.98
661.656	40232.64
662.007	40374.79
662.358	40279.42
662.708	40280.55
663.059	40228.8
663.409	40071.74
663.76	40342.02
664.11	40410.72
664.461	40373.66
664.811	40516.93
665.161	40279.2
665.511	40174.34
665.862	40364.39
666.212	40391.51
666.562	40452.07
666.912	40197.62
667.262	40202.81
667.612	40154.9
667.962	40291.4
668.312	40165.53
668.662	40184.06
669.011	40156.03
669.361	40025.64
669.711	40122.59
670.06	40172.76
670.41	40081.01
670.76	39950.39
671.109	40216.37
671.459	40019.54
671.808	39935.25
672.157	40094.12
672.507	39930.05
672.856	39966.66
673.205	39982.03
673.554	39997.62
673.904	39953.33
674.253	40022.48
674.602	39855.93
674.951	39548.82
675.3	39278.09
675.649	39906.78
675.998	39926.21
676.346	39888.7
676.695	40065.87
677.044	39737.74
677.393	39876.72
677.741	40022.7
678.09	39762.15
678.438	39616.39
678.787	39752.2
679.135	39737.51
679.484	39555.15
679.832	39554.24
680.181	39348.37
680.529	39608.93
680.877	39364.64
681.225	39373
681.573	39627.46
681.922	39207.58
682.27	39174.14
682.618	39236.74
682.966	39245.32
683.314	39056.63
683.661	39065.89
684.009	38986.35
684.357	38819.12
684.705	38715.17
685.053	38843.3
685.4	38692.8
685.748	38615.74
686.095	38573.25
686.443	38477.66
686.79	38400.37
687.138	38394.05
687.485	38382.52
687.832	38263.2
688.18	38393.82
688.527	38006.71
688.874	38121.06
689.221	37982.53
689.568	37975.53
689.915	37906.15
690.262	37822.31
690.609	37680.39
690.956	37544.58
691.303	37610.56
691.65	37407.63
691.997	37445.37
692.344	37319.05
692.69	37256.9
693.037	37198.15
693.383	37047.42
693.73	37133.06
694.077	36876.57
694.423	36845.61
694.769	36725.39
695.116	36694.2
695.462	36640.87
695.808	36614.21
696.155	36572.17
696.501	36389.58
696.847	36259.19
697.193	36035.46
697.539	36268.91
697.885	35846.32
698.231	35879.54
698.577	35828.46
698.923	35806.09
699.269	35602.71
699.614	35411.07
699.96	35392.32
700.306	35341.47
700.651	35119.33
700.997	35147.8
701.342	35123.4
701.688	35094.7
702.033	34918.88
702.379	34945.78
702.724	34739.91
703.069	34831.43
703.415	34501.04
703.76	34535.39
704.105	34620.36
704.45	34416.75
704.795	34179.47
705.14	34093.37
705.485	33942.19
705.83	34039.59
706.175	33885.24
706.52	33806.82
706.865	33781.29
707.209	33728.41
707.554	33644.34
707.899	33909.87
708.243	33481.18
708.588	33500.39
708.932	33314.86
709.277	33315.31
709.621	33347.4
709.966	33043.45
710.31	33083.68
710.654	32903.12
710.998	32941.76
711.342	32946.05
711.687	32878.94
712.031	32697.47
712.375	32675.33
712.719	32613.63
713.063	32610.47
713.407	32639.62
713.75	32446.18
714.094	32231.95
714.438	32222.46
714.782	32321.21
715.125	32056.13
715.469	32201.67
715.812	31968.23
716.156	31849.13
716.499	31835.12
716.843	31980.43
717.186	31715.8
717.53	31956.7
717.873	31824.73
718.216	31761.23
718.559	31523.04
718.902	31419.32
719.246	31583.83
719.589	31386.77
719.932	31335.93
720.275	31224.29
720.617	31297.28
720.96	31220.22
721.303	31132.77
721.646	31124.18
721.989	30970.74
722.331	30984.52
722.674	30912.89
723.016	30919.67
723.359	30918.76
723.701	30915.15
724.044	30766
724.386	30701.37
724.729	30733.46
725.071	30627.7
725.413	30642.84
725.755	30657.3
726.097	30544.31
726.439	30211.89
726.782	30427.25
727.124	30421.38
727.465	30301.15
727.807	30219.8
728.149	30200.59
728.491	30151.33
728.833	30250.98
729.175	30158.11
729.516	30105.68
729.858	30025.68
730.199	30097.32
730.541	29890.54
730.882	29758.34
731.224	29956.53
731.565	29750.43
731.906	29820.04
732.248	29858
732.589	29661.85
732.93	29519.25
733.271	29623.66
733.612	29677.89
733.953	29551.79
734.294	29492.81
734.635	29404.23
734.976	29469.54
735.317	29310.22
735.658	29336.66
735.999	29291.46
736.339	29293.95
736.68	29359.48
737.021	29164.23
737.361	28969.21
737.702	29210.11
738.042	29029.1
738.383	29017.57
738.723	29179.83
739.063	28990.68
739.404	29060.06
739.744	28864.58
740.084	28767.86
740.424	28820.97
740.764	28768.54
741.104	28977.35
741.444	28623.23
741.784	28510.01
742.124	28680.4
742.464	28549.11
742.804	28557.24
743.143	28315.22
743.483	28493.97
743.823	28390.02
744.162	28250.13
744.502	28345.05
744.841	28283.13
745.181	28396.57
745.52	28185.28
745.86	28218.27
746.199	28175.33
746.538	28183.02
746.877	28160.42
747.216	28112.74
747.556	28051.04
747.895	28159.06
748.234	27999.74
748.573	27994.32
748.911	27891.72
749.25	27923.14
749.589	27773.54
749.928	27809.24
750.267	27851.05
750.605	27768.56
750.944	27731.05
751.283	27601.79
751.621	27727.89
751.96	27637.27
752.298	27641.79
752.636	27612.18
752.975	27440.21
753.313	27375.13
753.651	27480.89
753.989	27270.05
754.327	27284.96
754.666	27122.48
755.004	27232.08
755.342	27249.71
755.679	27154.34
756.017	26973.78
756.355	27183.49
756.693	26999.09
757.031	27073.21
757.368	26807.91
757.706	26691.76
758.044	26720.91
758.381	26714.13
758.719	26647.46
759.056	26648.59
759.394	26671.42
