Data from hue_130_FLMS001491_00036.txt Node
Date: Tue Feb 07 16:57:31 GMT 2017
User: dcchb
Spectrometer: FLMS00149
Trigger mode: 0
Integration Time (sec): 2.000000E-2
Scans to average: 10
Electric dark correction enabled: true
Nonlinearity correction enabled: false
Boxcar width: 0
XAxis mode: Wavelengths
Number of Pixels in Spectrum: 2048
>>>>>Begin Spectral Data<<<<<
341.393	-13.62
341.776	-13.62
342.16	-13.62
342.543	-58.36
342.927	-50.45
343.31	-87.51
343.693	-53.84
344.077	-54.07
344.46	-64.69
344.843	-51.58
345.226	-36.89
345.61	-26.04
345.993	-38.02
346.376	-19.94
346.759	20.96
347.142	17.57
347.525	44.46
347.908	60.28
348.291	65.7
348.674	100.51
349.057	123.1
349.44	133.73
349.823	130.11
350.206	152.03
350.588	198.36
350.971	197.9
351.354	226.83
351.737	220.95
352.119	241.75
352.502	251.69
352.884	274.51
353.267	274.74
353.65	292.82
354.032	284.91
354.414	316.77
354.797	297.56
355.179	326.26
355.562	342.53
355.944	327.39
356.326	335.75
356.709	314.29
357.091	322.19
357.473	342.53
357.855	319.71
358.238	353.15
358.62	338.92
359.002	362.87
359.384	332.14
359.766	333.27
360.148	353.83
360.53	312.25
360.912	339.37
361.294	348.63
361.676	346.15
362.057	324
362.439	346.15
362.821	330.33
363.203	329.2
363.584	305.7
363.966	328.07
364.348	326.26
364.729	321.74
365.111	319.71
365.493	305.25
365.874	319.03
366.256	324.45
366.637	299.37
367.019	301.4
367.4	294.85
367.781	286.26
368.163	294.85
368.544	315.87
368.925	305.47
369.306	315.19
369.688	317
370.069	318.13
370.45	302.31
370.831	293.5
371.212	312.7
371.593	312.48
371.974	294.4
372.355	316.32
372.736	323.78
373.117	318.81
373.498	333.72
373.879	320.16
374.26	300.95
374.641	323.32
375.021	316.77
375.402	323.55
375.783	331.01
376.163	316.32
376.544	320.16
376.925	315.19
377.305	345.92
377.686	320.84
378.066	332.82
378.447	322.65
378.827	324.23
379.208	322.19
379.588	332.59
379.968	317.9
380.349	340.27
380.729	324.45
381.109	354.74
381.489	339.82
381.87	332.36
382.25	338.92
382.63	337.79
383.01	334.85
383.39	339.6
383.77	342.53
384.15	338.47
384.53	338.47
384.91	359.93
385.29	358.35
385.67	351.35
386.049	349.99
386.429	346.6
386.809	346.83
387.189	340.05
387.568	354.51
387.948	361.06
388.328	369.65
388.707	350.67
389.087	346.15
389.466	354.96
389.846	355.64
390.225	364.91
390.605	364.68
390.984	370.78
391.363	386.15
391.743	372.59
392.122	375.75
392.501	373.72
392.881	378.01
393.26	368.07
393.639	373.27
394.018	381.63
394.397	399.48
394.776	380.05
395.155	384.57
395.534	381.85
395.913	377.11
396.292	375.75
396.671	402.42
397.05	402.42
397.429	394.51
397.808	408.29
398.186	395.41
398.565	399.26
398.944	358.13
399.323	393.83
399.701	404
400.08	388.41
400.458	401.29
400.837	395.19
401.215	413.49
401.594	391.8
401.972	412.59
402.351	390.44
402.729	420.95
403.107	409.88
403.486	392.02
403.864	412.14
404.242	416.88
404.62	416.43
404.999	421.85
405.377	409.88
405.755	423.21
406.133	415.75
406.511	425.02
406.889	434.96
407.267	439.25
407.645	425.92
408.023	429.08
408.401	462.3
408.779	438.58
409.156	445.36
409.534	446.71
409.912	463.66
410.29	454.85
410.667	458.69
411.045	448.52
411.422	472.7
411.8	478.8
412.178	446.71
412.555	492.36
412.933	484.9
413.31	462.08
413.687	477.9
414.065	488.52
414.442	503.21
414.819	486.48
415.197	476.77
415.574	521.06
415.951	494.39
416.328	507.95
416.705	492.59
417.082	502.08
417.46	526.48
417.837	514.05
418.214	509.99
418.591	500.72
418.967	530.78
419.344	539.82
419.721	546.6
420.098	547.05
420.475	526.03
420.852	508.63
421.228	534.84
421.605	549.99
421.982	554.05
422.358	545.01
422.735	549.08
423.111	559.93
423.488	553.15
423.864	559.7
424.241	558.8
424.617	565.35
424.994	577.1
425.37	576.2
425.746	575.75
426.123	599.02
426.499	576.43
426.875	582.98
427.251	600.61
427.627	631.34
428.003	590.89
428.379	621.4
428.756	618.01
429.132	601.96
429.507	634.05
429.883	646.71
430.259	631.11
430.635	630.66
431.011	653.03
431.387	649.42
431.763	671.56
432.138	675.41
432.514	675.86
432.89	665.69
433.265	696.2
433.641	683.09
434.016	708.17
434.392	709.3
434.767	697.1
435.143	718.12
435.518	734.61
435.894	749.53
436.269	720.15
436.644	757.89
437.02	754.95
437.395	750.43
437.77	776.42
438.145	767.61
438.52	769.87
438.895	765.35
439.271	781.84
439.646	812.35
440.021	802.41
440.395	777.1
440.77	785.23
441.145	801.28
441.52	812.13
441.895	818
442.27	823.88
442.645	821.16
443.019	828.4
443.394	832.46
443.769	863.65
444.143	850.54
444.518	867.04
444.892	898.22
445.267	855.06
445.641	865.01
446.016	881.28
446.39	895.29
446.764	874.95
447.139	873.82
447.513	886.47
447.887	887.6
448.262	905.23
448.636	893.25
449.01	917.89
449.384	916.3
449.758	940.26
450.132	947.49
450.506	941.39
450.88	973.93
451.254	938.22
451.628	956.75
452.002	976.19
452.376	971.22
452.75	1018.45
453.123	1031.1
453.497	1031.33
453.871	1025.23
454.244	1028.39
454.618	1054.83
454.992	1069.29
455.365	1051.89
455.739	1084.43
456.112	1101.84
456.486	1116.98
456.859	1102.74
457.232	1141.61
457.606	1129.18
457.979	1131.21
458.352	1141.83
458.725	1182.51
459.099	1194.26
459.472	1198.33
459.845	1209.86
460.218	1251.44
460.591	1257.31
460.964	1262.96
461.337	1272.45
461.71	1297.54
462.083	1298.44
462.456	1331.89
462.829	1344.09
463.201	1343.86
463.574	1338.21
463.947	1387.7
464.32	1409.62
464.692	1437.65
465.065	1427.48
465.438	1474.26
465.81	1462.96
466.183	1509.06
466.555	1543.63
466.928	1532.11
467.3	1573.46
467.672	1591.31
468.045	1610.97
468.417	1630.41
468.789	1685.55
469.161	1680.13
469.534	1716.73
469.906	1755.38
470.278	1773.68
470.65	1812.55
471.022	1853.45
471.394	1893.91
471.766	1917.18
472.138	1957.63
472.51	1983.85
472.882	2091.19
473.253	2057.74
473.625	2120.57
473.997	2158.53
474.369	2204.41
474.74	2222.94
475.112	2300.9
475.484	2330.5
475.855	2410.5
476.227	2401.46
476.598	2523.27
476.97	2559.2
477.341	2653.43
477.713	2682.36
478.084	2718.29
478.455	2850.94
478.827	2915.12
479.198	2977.04
479.569	3059.75
479.94	3142.23
480.311	3201.89
480.682	3290.25
481.053	3413.19
481.424	3519.62
481.795	3595.56
482.166	3659.51
482.537	3773.63
482.908	3880.29
483.279	3992.15
483.65	4103.34
484.021	4210.91
484.391	4292.49
484.762	4357.12
485.133	4511.46
485.503	4591.24
485.874	4711.23
486.244	4840.04
486.615	4966.14
486.985	5076.87
487.356	5236.64
487.726	5292.91
488.097	5493.36
488.467	5626.69
488.837	5703.75
489.207	5836.4
489.578	6039.11
489.948	6168.59
490.318	6322.49
490.688	6386.22
491.058	6511.41
491.428	6697.17
491.798	6860.55
492.168	7029.14
492.538	7120.89
492.908	7238.4
493.278	7371.05
493.648	7551.84
494.017	7613.98
494.387	7747.99
494.757	7943.01
495.126	8070.69
495.496	8166.28
495.866	8240.63
496.235	8446.95
496.605	8500.51
496.974	8668.19
497.344	8792.48
497.713	8800.39
498.082	9049.88
498.452	9179.59
498.821	9201.96
499.19	9320.15
499.559	9450.54
499.928	9553.82
500.298	9633.36
500.667	9773.02
501.036	9766.92
501.405	9976.86
501.774	10016.18
502.143	10142.05
502.512	10185.44
502.88	10346.11
503.249	10335.26
503.618	10535.49
503.987	10597.4
504.356	10723.5
504.724	10760.11
505.093	10797.4
505.462	10889.37
505.83	10960.79
506.199	11066.55
506.567	11177.28
506.936	11289.36
507.304	11401.23
507.672	11361.68
508.041	11480.09
508.409	11551.73
508.777	11730.03
509.145	11810.03
509.514	11769.13
509.882	11883.92
510.25	11850.48
510.618	11982.23
510.986	11941.32
511.354	12072.17
511.722	12174.31
512.09	12290.69
512.458	12262.67
512.826	12312.39
513.193	12342.9
513.561	12399.62
513.929	12478.26
514.297	12595.09
514.664	12706.05
515.032	12672.6
515.4	12770
515.767	12814.52
516.135	12880.96
516.502	12787.86
516.869	13000.73
517.237	12969.09
517.604	12925.71
517.972	12992.37
518.339	13089.99
518.706	13047.06
519.073	13162.54
519.44	13238.24
519.808	13314.4
520.175	13185.59
520.542	13381.06
520.909	13424
521.276	13319.14
521.643	13545.8
522.009	13447.27
522.376	13469.87
522.743	13593.71
523.11	13660.6
523.477	13758.68
523.843	13708.51
524.21	13888.84
524.577	13897.21
524.943	13919.58
525.31	13921.84
525.676	13969.75
526.043	13997.99
526.409	14078.44
526.776	14090.65
527.142	14063.98
527.508	14159.57
527.874	14162.96
528.241	14168.16
528.607	14155.5
528.973	14213.58
529.339	14176.52
529.705	14259.23
530.071	14350.53
530.437	14374.03
530.803	14409.96
531.169	14301.94
531.535	14306.91
531.901	14301.49
532.267	14381.94
532.632	14346.91
532.998	14306.01
533.364	14292
533.73	14304.43
534.095	14277.31
534.461	14387.59
534.826	14399.79
535.192	14345.33
535.557	14371.32
535.923	14270.75
536.288	14308.95
536.653	14255.84
537.019	14243.18
537.384	14240.7
537.749	14272.79
538.114	14165.45
538.479	14127.03
538.845	14130.87
539.21	14108.73
539.575	14186.46
539.94	14092.23
540.305	14042.06
540.67	14037.77
541.034	14023.53
541.399	14075.96
541.764	13964.77
542.129	13970.88
542.494	13898.56
542.858	13959.35
543.223	13891.78
543.587	13814.72
543.952	13835.29
544.316	13827.15
544.681	13697.44
545.045	13771.33
545.41	13746.47
545.774	13734.95
546.138	13668.28
546.503	13612.01
546.867	13589.64
547.231	13593.94
547.595	13645.46
547.959	13551.45
548.324	13511.68
548.688	13507.84
549.052	13471.68
549.416	13447.27
549.779	13391.91
550.143	13436.2
550.507	13410.44
550.871	13383.55
551.235	13305.36
551.599	13315.53
551.962	13266.71
552.326	13274.62
552.689	13214.29
553.053	13097.23
553.417	13187.17
553.78	13288.18
554.143	13131.8
554.507	13184.91
554.87	13176.32
555.234	13227.84
555.597	13096.1
555.96	13123.89
556.323	13085.25
556.686	13149.65
557.05	13075.98
557.413	13143.33
557.776	13026.72
558.139	13075.98
558.502	13105.36
558.865	13004.57
559.228	13116.66
559.59	13092.48
559.953	13097.68
560.316	13154.85
560.679	13152.59
561.041	13105.14
561.404	13065.14
561.767	13180.39
562.129	13135.64
562.492	13177
562.854	13196.66
563.217	13066.04
563.579	13085.48
563.941	13167.05
564.304	13159.6
564.666	13193.49
565.028	13230.78
565.39	13242.31
565.753	13339.25
566.115	13277.79
566.477	13195.53
566.839	13299.03
567.201	13310.33
567.563	13288.86
567.925	13342.42
568.287	13406.82
568.648	13310.78
569.01	13326.82
569.372	13461.51
569.734	13358.46
570.095	13392.81
570.457	13466.03
570.819	13444.56
571.18	13426.03
571.542	13516.65
571.903	13480.49
572.265	13486.59
572.626	13525.46
572.987	13496.99
573.349	13487.5
573.71	13446.6
574.071	13546.25
574.432	13555.07
574.794	13678.23
575.155	13575.18
575.516	13544.67
575.877	13603.2
576.238	13612.01
576.599	13632.81
576.96	13551.9
577.32	13643.43
577.681	13599.36
578.042	13686.82
578.403	13680.94
578.763	13634.16
579.124	13569.53
579.485	13626.7
579.845	13689.75
580.206	13627.16
580.566	13601.17
580.927	13616.08
581.287	13647.95
581.648	13551.9
582.008	13641.17
582.368	13631
582.728	13670.77
583.089	13635.74
583.449	13596.42
583.809	13671.45
584.169	13682.52
584.529	13660.6
584.889	13685.69
585.249	13640.94
585.609	13553.49
585.969	13617.89
586.329	13539.47
586.688	13537.67
587.048	13574.5
587.408	13537.67
587.768	13474.39
588.127	13381.51
588.487	13465.13
588.846	13582.86
589.206	13409.76
589.565	13473.04
589.925	13518.91
590.284	13478.69
590.643	13453.15
591.003	13549.42
591.362	13504
591.721	13453.38
592.08	13498.12
592.44	13463.09
592.799	13473.71
593.158	13468.97
593.517	13505.13
593.876	13397.11
594.235	13459.25
594.593	13423.32
594.952	13416.99
595.311	13360.5
595.67	13450.89
596.029	13430.1
596.387	13471.91
596.746	13498.35
597.104	13341.74
597.463	13390.1
597.822	13399.59
598.18	13318.69
598.538	13334.73
598.897	13387.84
599.255	13220.84
599.613	13416.77
599.972	13381.51
600.33	13321.85
600.688	13333.38
601.046	13382.42
601.404	13400.72
601.762	13353.49
602.12	13396.88
602.478	13296.32
602.836	13352.81
603.194	13328.63
603.552	13347.84
603.91	13283.66
604.268	13372.47
604.625	13229.43
604.983	13370.67
605.341	13343.32
605.698	13417.22
606.056	13433.71
606.413	13426.26
606.771	13426.94
607.128	13422.19
607.485	13338.58
607.843	13372.7
608.2	13464.67
608.557	13379.25
608.914	13425.13
609.272	13470.1
609.629	13532.02
609.986	13502.41
610.343	13432.81
610.7	13485.01
611.057	13503.77
611.414	13472.13
611.771	13560.26
612.127	13552.58
612.484	13601.85
612.841	13621.51
613.198	13541.96
613.554	13550.1
613.911	13628.29
614.267	13609.3
614.624	13581.28
614.98	13622.86
615.337	13701.28
615.693	13656.99
616.05	13713.03
616.406	13699.47
616.762	13702.18
617.118	13678.23
617.475	13592.81
617.831	13733.37
618.187	13725.46
618.543	13687.72
618.899	13832.35
619.255	13793.48
619.611	13779.69
619.967	13766.36
620.323	13842.29
620.678	13772.46
621.034	13758
621.39	13689.3
621.746	13806.59
622.101	13927.71
622.457	13782.63
622.812	13746.47
623.168	13781.5
623.523	13798.22
623.879	13764.33
624.234	13800.71
624.589	13764.55
624.945	13813.37
625.3	13845
625.655	13785.34
626.01	13700.15
626.365	13759.13
626.72	13760.49
627.075	13763.42
627.43	13687.95
627.785	13737.89
628.14	13779.92
628.495	13755.51
628.85	13746.25
629.205	13616.99
629.559	13772.01
629.914	13692.46
630.269	13672.58
630.623	13669.64
630.978	13679.36
631.332	13678.45
631.687	13696.98
632.041	13629.19
632.396	13602.07
632.75	13617.89
633.104	13595.52
633.459	13581.96
633.813	13588.96
634.167	13547.61
634.521	13618.12
634.875	13545.8
635.229	13536.54
635.583	13501.06
635.937	13508.51
636.291	13533.82
636.645	13504
636.999	13378.35
637.352	13382.42
637.706	13400.27
638.06	13467.16
638.413	13306.49
638.767	13373.6
639.121	13324.34
639.474	13298.8
639.828	13274.62
640.181	13228.52
640.534	13280.95
640.888	13280.72
641.241	13144.23
641.594	13274.62
641.947	13316.66
642.301	13237.11
642.654	13139.71
643.007	13200.73
643.36	13180.16
643.713	13181.29
644.066	13236.21
644.419	13165.02
644.771	13125.93
645.124	13010.67
645.477	13016.78
645.83	12900.17
646.182	12874.63
646.535	12825.82
646.888	12880.51
647.24	12668.99
647.593	12792.83
647.945	12792.83
648.298	12756.44
648.65	12640.74
649.002	12671.93
649.355	12832.15
649.707	12714.41
650.059	12837.8
650.411	12986.04
650.763	12878.02
651.115	13040.5
651.467	13039.6
651.819	12987.85
652.171	12982.43
652.523	13031.69
652.875	12981.3
653.227	12922.54
653.578	13013.61
653.93	12966.83
654.282	12937.23
654.633	12910.56
654.985	13035.98
655.337	12885.93
655.688	12947.4
656.039	12924.58
656.391	12930.45
656.742	12988.75
657.094	12933.16
657.445	13021.52
657.796	13011.13
658.147	13038.47
658.498	12991.24
658.849	12988.3
659.2	12973.39
659.551	12996.21
659.902	13071.92
660.253	13037.57
660.604	13029.88
660.955	12977
661.306	13037.34
661.656	13053.61
662.007	13019.04
662.358	13012.48
662.708	12970.45
663.059	13077.34
663.409	12936.78
663.76	13008.64
664.11	13027.62
664.461	13144.68
664.811	12977.68
665.161	13010.45
665.511	13050.67
665.862	13041.86
666.212	13072.59
666.562	12996.89
666.912	13016.55
667.262	13056.78
667.612	12955.54
667.962	13081.18
668.312	13075.08
668.662	13162.08
669.011	13045.7
669.361	13039.37
669.711	13011.58
670.06	13031.47
670.41	13010.67
670.76	12938.81
671.109	13083.22
671.459	13002.31
671.808	13062.2
672.157	13007.96
672.507	12883.9
672.856	12988.53
673.205	12958.25
673.554	12990.34
673.904	13025.82
674.253	13003.44
674.602	12939.26
674.951	12763.9
675.3	12668.76
675.649	12899.49
675.998	12897.01
676.346	12886.84
676.695	12921.86
677.044	12838.48
677.393	12784.24
677.741	12875.31
678.09	12768.65
678.438	12713.73
678.787	12840.96
679.135	12784.01
679.484	12701.08
679.832	12722.55
680.181	12694.75
680.529	12755.31
680.877	12680.29
681.225	12569.78
681.573	12759.61
681.922	12565.94
682.27	12568.65
682.618	12634.41
682.966	12502.44
683.314	12492.72
683.661	12566.62
684.009	12463.12
684.357	12422.89
684.705	12434.19
685.053	12377.02
685.4	12338.15
685.748	12343.8
686.095	12390.58
686.443	12244.14
686.79	12254.54
687.138	12295.67
687.485	12264.48
687.832	12156.23
688.18	12140.64
688.527	12173.86
688.874	12144.93
689.221	11995.33
689.568	12013.64
689.915	11971.83
690.262	11975.22
690.609	11925.73
690.956	11870.37
691.303	11928.67
691.65	11863.59
691.997	11823.59
692.344	11727.54
692.69	11736.81
693.037	11751.27
693.383	11589.24
693.73	11581.56
694.077	11531.84
694.423	11565.06
694.769	11504.73
695.116	11397.16
695.462	11434.45
695.808	11368.23
696.155	11460.21
696.501	11286.43
696.847	11334.56
697.193	11190.38
697.539	11316.26
697.885	11148.35
698.231	11059.77
698.577	11101.8
698.923	11025.64
699.269	11016.38
699.614	10908.81
699.96	10918.98
700.306	10936.83
700.651	10854.8
700.997	10830.85
701.342	10821.13
701.688	10744.75
702.033	10693.22
702.379	10630.17
702.724	10607.12
703.069	10636.05
703.415	10478.76
703.76	10563.96
704.105	10487.58
704.45	10479.89
704.795	10389.73
705.14	10412.78
705.485	10422.27
705.83	10400.12
706.175	10263.4
706.52	10326.23
706.865	10240.58
707.209	10226.12
707.554	10206.68
707.899	10220.24
708.243	10086.68
708.588	10082.84
708.932	10031.77
709.277	10074.48
709.621	10051.43
709.966	10026.12
710.31	10007.59
710.654	9907.71
710.998	9933.69
711.342	9886.01
711.687	9835.39
712.031	9814.6
712.375	9796.97
712.719	9788.39
713.063	9748.61
713.407	9810.76
713.75	9767.14
714.094	9759.46
714.438	9706.35
714.782	9735.96
715.125	9664.1
715.469	9707.26
715.812	9625.23
716.156	9512.91
716.499	9588.84
716.843	9577.54
717.186	9527.15
717.53	9556.08
717.873	9568.51
718.216	9496.64
718.559	9526.7
718.902	9453.71
719.246	9493.48
719.589	9422.29
719.932	9333.94
720.275	9394.5
720.617	9474.04
720.96	9352.24
721.303	9376.42
721.646	9391.33
721.989	9291.45
722.331	9300.94
722.674	9350.21
723.016	9334.39
723.359	9377.32
723.701	9328.74
724.044	9302.75
724.386	9283.09
724.729	9234.28
725.071	9228.4
725.413	9219.14
725.755	9244.22
726.097	9187.5
726.439	9130.1
726.782	9196.99
727.124	9178.91
727.465	9163.54
727.807	9215.52
728.149	9184.56
728.491	9160.15
728.833	9157.22
729.175	9110.21
729.516	9148.4
729.858	9175.3
730.199	9073.6
730.541	9145.01
730.882	9110.66
731.224	9102.3
731.565	9114.28
731.906	9086.48
732.248	9156.76
732.589	9095.07
732.93	9099.59
733.271	9153.15
733.612	9096.88
733.953	9154.05
734.294	9056.2
734.635	9037.45
734.976	9030.21
735.317	9101.63
735.658	9059.37
735.999	9060.72
736.339	9052.81
736.68	9091.46
737.021	9137.78
737.361	9087.16
737.702	9085.81
738.042	9086.94
738.383	9090.78
738.723	9131.68
739.063	9010.78
739.404	9161.51
739.744	9138.01
740.084	9081.51
740.424	9126.94
740.764	9081.74
741.104	9188.85
741.444	9115.41
741.784	9149.76
742.124	9138.01
742.464	9178.91
742.804	9217.55
743.143	9227.05
743.483	9227.5
743.823	9173.94
744.162	9267.5
744.502	9351.34
744.841	9335.74
745.181	9419.13
745.52	9388.4
745.86	9477.66
746.199	9472.01
746.538	9543.42
746.877	9606.24
747.216	9607.83
747.556	9630.2
747.895	9707.03
748.234	9709.74
748.573	9815.5
748.911	9786.13
749.25	9938.89
749.589	9982.28
749.928	9966.01
750.267	10014.6
750.605	10136.63
750.944	10231.76
751.283	10194.7
751.621	10311.76
751.96	10331.42
752.298	10493.23
752.636	10619.1
752.975	10596.28
753.313	10738.19
753.651	10878.75
753.989	10978.19
754.327	10996.94
754.666	11127.56
755.004	11194.23
755.342	11416.59
755.679	11554.67
756.017	11651.61
756.355	11697.26
756.693	11845.51
757.031	12028.55
757.368	12090.02
757.706	12200.07
758.044	12379.96
758.381	12571.36
758.719	12766.84
