Data from hue_26_FLMS001491_00030.txt Node
Date: Tue Feb 07 17:13:47 GMT 2017
User: dcchb
Spectrometer: FLMS00149
Trigger mode: 0
Integration Time (sec): 2.000000E-2
Scans to average: 10
Electric dark correction enabled: true
Nonlinearity correction enabled: false
Boxcar width: 0
XAxis mode: Wavelengths
Number of Pixels in Spectrum: 2048
>>>>>Begin Spectral Data<<<<<
341.393	-11.02
341.776	-11.02
342.16	-11.02
342.543	-56.44
342.927	-78.59
343.31	-91.24
343.693	-65.93
344.077	-28.64
344.46	-64.57
344.843	-63.22
345.226	-54.63
345.61	-34.29
345.993	-19.83
346.376	0.28
346.759	4.8
347.142	13.39
347.525	62.43
347.908	60.17
348.291	64.46
348.674	100.17
349.057	116.66
349.44	135.87
349.823	134.06
350.206	160.5
350.588	205.7
350.971	228.07
351.354	219.49
351.737	239.37
352.119	230.11
352.502	261.07
352.884	261.29
353.267	268.98
353.65	298.13
354.032	309.65
354.414	325.02
354.797	314.4
355.179	306.72
355.562	326.15
355.944	336.09
356.326	322.08
356.709	311.91
357.091	353.27
357.473	340.39
357.855	357.11
358.238	343.1
358.62	343.55
359.002	353.27
359.384	334.51
359.766	358.24
360.148	328.86
360.53	340.16
360.912	330.44
361.294	344.23
361.676	343.1
362.057	359.82
362.439	320.95
362.821	323.21
363.203	343.55
363.584	338.35
363.966	330.22
364.348	311.46
364.729	320.95
365.111	331.12
365.493	340.39
365.874	318.92
366.256	326.38
366.637	315.3
367.019	311.01
367.4	317.11
367.781	334.06
368.163	316.21
368.544	301.97
368.925	316.66
369.306	295.87
369.688	320.95
370.069	323.89
370.45	307.39
370.831	305.36
371.212	292.93
371.593	315.53
371.974	325.25
372.355	310.78
372.736	309.65
373.117	318.92
373.498	298.35
373.879	322.76
374.26	315.3
374.641	313.04
375.021	317.56
375.402	309.43
375.783	313.04
376.163	330.67
376.544	334.28
376.925	340.16
377.305	322.08
377.686	334.51
378.066	320.5
378.447	337.67
378.827	328.86
379.208	341.52
379.588	343.32
379.968	322.31
380.349	347.17
380.729	346.04
381.109	324.57
381.489	362.08
381.87	366.37
382.25	345.36
382.63	331.35
383.01	356.88
383.39	352.36
383.77	350.78
384.15	333.61
384.53	353.49
384.91	332.25
385.29	354.85
385.67	344.91
386.049	345.58
386.429	354.17
386.809	356.43
387.189	337.45
387.568	355.53
387.948	345.58
388.328	352.36
388.707	345.58
389.087	358.47
389.466	354.85
389.846	346.26
390.225	366.6
390.605	377.45
390.984	366.15
391.363	373.38
391.743	375.41
392.122	358.01
392.501	358.24
392.881	381.29
393.26	366.15
393.639	381.52
394.018	373.38
394.397	374.06
394.776	391.68
395.155	369.09
395.534	378.35
395.913	399.14
396.292	357.56
396.671	376.54
397.05	372.93
397.429	401.63
397.808	386.71
398.186	387.16
398.565	419.48
398.944	380.16
399.323	391.01
399.701	365.24
400.08	382.65
400.458	381.06
400.837	398.46
401.215	397.33
401.594	391.46
401.972	407.5
402.351	421.97
402.729	407.05
403.107	422.87
403.486	421.97
403.864	399.82
404.242	413.38
404.62	427.39
404.999	400.05
405.377	434.4
405.755	398.92
406.133	415.64
406.511	416.09
406.889	430.1
407.267	431.91
407.645	415.64
408.023	434.85
408.401	438.24
408.779	444.34
409.156	456.77
409.534	428.29
409.912	445.69
410.29	460.61
410.667	442.3
411.045	437.33
411.422	451.12
411.8	452.47
412.178	460.61
412.555	483.66
412.933	459.71
413.31	461.29
413.687	464.45
414.065	483.66
414.442	477.56
414.819	475.3
415.197	481.85
415.574	488.18
415.951	478.69
416.328	489.31
416.705	513.94
417.082	482.98
417.46	491.57
417.837	487.73
418.214	495.41
418.591	506.94
418.967	527.5
419.344	517.78
419.721	526.6
420.098	514.17
420.475	496.09
420.852	526.14
421.228	514.85
421.605	516.43
421.982	532.7
422.358	518.01
422.735	538.35
423.111	553.26
423.488	537.9
423.864	534.51
424.241	543.55
424.617	542.64
424.994	536.09
425.37	558.46
425.746	560.95
426.123	544.67
426.499	560.72
426.875	580.38
427.251	555.07
427.627	589.65
428.003	591.45
428.379	581.51
428.756	589.87
429.132	601.62
429.507	606.82
429.883	627.38
430.259	601.4
430.635	600.72
431.011	586.48
431.387	610.44
431.763	640.04
432.138	604.11
432.514	607.27
432.89	630.32
433.265	641.62
433.641	649.08
434.016	646.14
434.392	670.32
434.767	676.65
435.143	658.12
435.518	673.49
435.894	682.07
436.269	684.56
436.644	680.49
437.02	698.12
437.395	696.76
437.77	705.12
438.145	696.08
438.52	711.22
438.895	714.39
439.271	712.13
439.646	753.48
440.021	727.27
440.395	712.35
440.77	722.75
441.145	767.27
441.52	770.66
441.895	736.08
442.27	777.44
442.645	765.46
443.019	762.97
443.394	747.83
443.769	753.93
444.143	782.41
444.518	772.69
444.892	774.95
445.267	789.41
445.641	774.27
446.016	775.86
446.39	791.67
446.764	805.01
447.139	799.36
447.513	808.4
447.887	780.83
448.262	793.93
448.636	804.78
449.01	836.19
449.384	820.15
449.758	829.87
450.132	807.04
450.506	851.79
450.88	821.5
451.254	846.36
451.628	866.25
452.002	884.78
452.376	874.16
452.75	902.18
453.123	873.93
453.497	867.6
453.871	884.78
454.244	893.14
454.618	907.15
454.992	941.95
455.365	938.79
455.739	933.82
456.112	938.56
456.486	953.7
456.859	937.88
457.232	977.43
457.606	950.99
457.979	968.39
458.352	991.89
458.725	993.02
459.099	1031.67
459.472	1030.09
459.845	1030.99
460.218	1034.15
460.591	1057.43
460.964	1061.95
461.337	1069.41
461.71	1105.34
462.083	1130.65
462.456	1099.46
462.829	1117.99
463.201	1113.47
463.574	1131.78
463.947	1145.34
464.32	1177.2
464.692	1188.73
465.065	1187.82
465.438	1220.82
465.81	1227.59
466.183	1229.18
466.555	1261.49
466.928	1256.97
467.3	1263.3
467.672	1285.22
468.045	1321.6
468.417	1309.63
468.789	1326.8
469.161	1328.61
469.534	1319.8
469.906	1445.44
470.278	1397.53
470.65	1390.53
471.022	1393.01
471.394	1470.75
471.766	1488.6
472.138	1482.73
472.51	1500.58
472.882	1528.6
473.253	1575.16
473.625	1596.17
473.997	1640.24
474.369	1635.95
474.74	1678.66
475.112	1679.56
475.484	1719.11
475.855	1724.08
476.227	1742.38
476.598	1809.5
476.97	1839.56
477.341	1874.13
477.713	1882.72
478.084	1912.55
478.455	1974.92
478.827	1979.44
479.198	2039.78
479.569	2062.83
479.94	2097.63
480.311	2174.24
480.682	2193.45
481.053	2234.8
481.424	2275.02
481.795	2323.84
482.166	2335.36
482.537	2393.89
482.908	2458.97
483.279	2479.99
483.65	2518.86
484.021	2591.4
484.391	2639.99
484.762	2635.92
485.133	2690.38
485.503	2776.25
485.874	2808.12
486.244	2815.58
486.615	2885.4
486.985	2942.35
487.356	2988.68
487.726	3033.42
488.097	3093.53
488.467	3121.56
488.837	3210.37
489.207	3240.42
489.578	3294.89
489.948	3338.5
490.318	3388.67
490.688	3369.01
491.058	3482
491.428	3526.29
491.798	3598.38
492.168	3631.15
492.538	3664.14
492.908	3714.31
493.278	3816.91
493.648	3756.12
494.017	3853.97
494.387	3886.51
494.757	3902.55
495.126	3946.17
495.496	3999.05
495.866	4061.19
496.235	4116.33
496.605	4116.11
496.974	4123.56
497.344	4191.58
497.713	4237.91
498.082	4256.89
498.452	4325.82
498.821	4319.94
499.19	4345.93
499.559	4403.33
499.928	4431.35
500.298	4413.95
500.667	4520.62
501.036	4511.8
501.405	4535.08
501.774	4564.23
502.143	4584.34
502.512	4698.69
502.88	4678.35
503.249	4724.45
503.618	4721.74
503.987	4747.5
504.356	4782.08
504.724	4824.34
505.093	4892.13
505.462	4851.23
505.83	4882.41
506.199	4933.26
506.567	4977.55
506.936	4963.32
507.304	5016.42
507.672	5056.87
508.041	5081.28
508.409	5116.53
508.777	5113.37
509.145	5180.94
509.514	5209.86
509.882	5211.44
510.25	5181.16
510.618	5234.27
510.986	5241.27
511.354	5326.47
511.722	5302.97
512.09	5386.58
512.458	5342.51
512.826	5438.11
513.193	5407.82
513.561	5426.35
513.929	5467.26
514.297	5481.95
514.664	5563.07
515.032	5540.25
515.4	5641.04
515.767	5616.41
516.135	5590.42
516.502	5650.3
516.869	5661.83
517.237	5695.95
517.604	5702.28
517.972	5768.94
518.339	5767.36
518.706	5775.72
519.073	5794.71
519.44	5819.34
519.808	5864.31
520.175	5843.74
520.542	5903.4
520.909	5931.65
521.276	5969.62
521.643	5986.11
522.009	6010.97
522.376	6052.33
522.743	6119.44
523.11	6115.38
523.477	6170.74
523.843	6210.06
524.21	6218.2
524.577	6308.37
524.943	6293.9
525.31	6296.16
525.676	6402.15
526.043	6394.92
526.409	6448.25
526.776	6467.46
527.142	6511.98
527.508	6550.84
527.874	6578.41
528.241	6641.46
528.607	6610.96
528.973	6706.77
529.339	6607.11
529.705	6746.55
530.071	6752.65
530.437	6764.17
530.803	6798.07
531.169	6803.95
531.535	6874.9
531.901	6901.8
532.267	6915.81
532.632	7038.29
532.998	7030.15
533.364	7060.44
533.73	7058.18
534.095	7125.07
534.461	7118.29
534.826	7150.83
535.192	7242.8
535.557	7292.07
535.923	7283.71
536.288	7252.97
536.653	7304.72
537.019	7324.16
537.384	7388.34
537.749	7327.77
538.114	7399.86
538.479	7415.23
538.845	7466.98
539.21	7439.18
539.575	7467.43
539.94	7520.54
540.305	7525.96
540.67	7538.16
541.034	7645.51
541.399	7659.06
541.764	7675.33
542.129	7701.55
542.494	7702
542.858	7797.82
543.223	7778.16
543.587	7896.12
543.952	7889.11
544.316	7884.82
544.681	7872.39
545.045	7960.3
545.41	8000.98
545.774	7960.07
546.138	8023.57
546.503	8032.61
546.867	8092.95
547.231	8165.72
547.595	8221.54
547.959	8168.66
548.324	8219.05
548.688	8267.18
549.052	8275.77
549.416	8277.58
549.779	8299.73
550.143	8355.09
550.507	8427.86
550.871	8439.16
551.235	8428.08
551.599	8555.09
551.962	8480.29
552.326	8456.33
552.689	8534.3
553.053	8500.4
553.417	8671.01
553.78	8704.01
554.143	8638.02
554.507	8744.23
554.87	8735.65
555.234	8795.98
555.597	8776.77
555.96	8735.87
556.323	8804.8
556.686	8864.46
557.05	8946.71
557.413	8935.64
557.776	8892.03
558.139	8930.22
558.502	9017.9
558.865	9026.49
559.228	9060.38
559.59	9088.41
559.953	9165.01
560.316	9225.35
560.679	9123.43
561.041	9294.5
561.404	9249.08
561.767	9339.25
562.129	9265.58
562.492	9405.01
562.854	9362.52
563.217	9382.63
563.579	9359.81
563.941	9452.69
564.304	9550.31
564.666	9614.27
565.028	9558.45
565.39	9616.3
565.753	9688.84
566.115	9668.73
566.477	9773.81
566.839	9699.46
567.201	9842.51
567.563	9816.75
567.925	9905.56
568.287	9903.98
568.648	9942.62
569.01	9952.11
569.372	10040.7
569.734	9966.57
570.095	10082.5
570.457	10164.76
570.819	10219.67
571.18	10176.06
571.542	10247.92
571.903	10296.06
572.265	10320.24
572.626	10376.73
572.987	10475.71
573.349	10463.96
573.71	10585.54
574.071	10592.77
574.432	10596.61
574.794	10714.58
575.155	10812.65
575.516	10823.27
575.877	10877.51
576.238	10931.75
576.599	11001.58
576.96	11086.32
577.32	11141.23
577.681	11314.56
578.042	11329.25
578.403	11435.01
578.763	11602.92
579.124	11607.43
579.485	11806.3
579.845	11826.64
580.206	11956.35
580.566	11934.21
580.927	12251.26
581.287	12345.04
581.648	12382.56
582.008	12643.79
582.368	12669.33
582.728	12873.16
583.089	12970.34
583.449	13171.01
583.809	13373.04
584.169	13587.27
584.529	13645.12
584.889	13972.12
585.249	14036.52
585.609	14233.58
585.969	14428.83
586.329	14634.7
586.688	14827.69
587.048	15055.25
587.408	15240.56
587.768	15449.59
588.127	15788.57
588.487	15892.97
588.846	16288.22
589.206	16384.26
589.565	16662.22
589.925	17015.88
590.284	17238.7
590.643	17471.46
591.003	17794.62
591.362	18141.05
591.721	18293.81
592.08	18549.17
592.44	18968.15
592.799	19224.64
593.158	19392.99
593.517	19786.2
593.876	20062.13
594.235	20306.19
594.593	20509.12
594.952	20994.76
595.311	21197.47
595.67	21466.61
596.029	21922.42
596.387	22263.65
596.746	22533.02
597.104	22690.08
597.463	23023.18
597.822	23362.15
598.18	23603.73
598.538	23931.4
598.897	24359.64
599.255	24400.09
599.613	25022
599.972	25183.8
600.33	25377.92
600.688	25594.19
601.046	26020.16
601.404	26321.62
601.762	26660.15
602.12	27014.71
602.478	27190.53
602.836	27568.37
603.194	27721.36
603.552	27902.83
603.91	28145.98
604.268	28545.75
604.625	28725.4
604.983	29144.83
605.341	29270.93
605.698	29557.47
606.056	29901.87
606.413	30087.17
606.771	30527.16
607.128	30704.33
607.485	30719.25
607.843	30947.27
608.2	31395.62
608.557	31693.69
608.914	31763.97
609.272	32264.07
609.629	32318.98
609.986	32576.6
610.343	32795.35
610.7	33179.07
611.057	33262.23
611.414	33455
611.771	33726.18
612.127	34053.85
612.484	34057.47
612.841	34376.1
613.198	34504.69
613.554	34675.3
613.911	34912.58
614.267	35039.14
614.624	35244.1
614.98	35378.79
615.337	35737.65
615.693	35845.67
616.05	35839.79
616.406	36276.16
616.762	36299.22
617.118	36464.86
617.475	36515.93
617.831	36799.54
618.187	36989.14
618.543	37095.13
618.899	37484.27
619.255	37481.78
619.611	37547.32
619.967	37766.07
620.323	37955.67
620.678	37853.07
621.034	38082.9
621.39	38107.98
621.746	38177.13
622.101	38578.7
622.457	38381.19
622.812	38588.65
623.168	38656.44
623.523	38732.15
623.879	39018.24
624.234	38735.54
624.589	38910.45
624.945	39096.43
625.3	39254.84
625.655	39267.72
626.01	39393.82
626.365	39525.57
626.72	39610.31
627.075	39677.21
627.43	39680.14
627.785	39506.14
628.14	39809.86
628.495	39879.91
628.85	39796.98
629.205	39758.56
629.559	40133.24
629.914	40006.69
630.269	39990.64
630.623	39959.46
630.978	40023.86
631.332	40240.13
631.687	40256.85
632.041	40265.21
632.396	40222.95
632.75	40121.49
633.104	40305.89
633.459	40209.85
633.813	40120.58
634.167	40244.87
634.521	40218.21
634.875	40330.3
635.229	40360.13
635.583	40236.96
635.937	40216.17
636.291	40254.82
636.645	40330.97
636.999	40284.42
637.352	40313.35
637.706	40100.7
638.06	40317.41
638.413	40292.56
638.767	40091.21
639.121	40217.3
639.474	40141.83
639.828	40135.95
640.181	40300.47
640.534	40182.28
640.888	40153.13
641.241	40002.17
641.594	40131.88
641.947	40248.94
642.301	40167.36
642.654	40297.3
643.007	40243.07
643.36	40200.81
643.713	40143.86
644.066	40080.81
644.419	40066.8
644.771	39810.99
645.124	39369.64
645.477	39453.71
645.83	39204.45
646.182	39007.84
646.535	38945.47
646.888	39246.26
647.24	38820.96
647.593	39073.83
647.945	39173.26
648.298	38906.38
648.65	38907.96
649.002	38727.63
649.355	39007.17
649.707	38923.33
650.059	39077.67
650.411	39536.64
650.763	39588.62
651.115	40027.93
651.467	39930.53
651.819	39723.76
652.171	39727.15
652.523	39728.05
652.875	39676.53
653.227	39403.09
653.578	39871.55
653.93	39643.53
654.282	39579.81
654.633	39443.77
654.985	39706.81
655.337	39596.3
655.688	39577.09
656.039	39684.89
656.391	39318.8
656.742	39420.49
657.094	39477.44
657.445	39529.41
657.796	39595.63
658.147	39512.92
658.498	39481.05
658.849	39509.3
659.2	39376.87
659.551	39361.73
659.902	39525.12
660.253	39547.94
660.604	39545.46
660.955	39360.38
661.306	39509.75
661.656	39317.44
662.007	39342.3
662.358	39426.14
662.708	39301.17
663.059	39365.12
663.409	39246.93
663.76	39360.6
664.11	39387.04
664.461	39457.78
664.811	39322.41
665.161	39386.59
665.511	39386.82
665.862	39343.43
666.212	39459.81
666.562	39394.27
666.912	39364.45
667.262	39316.99
667.612	39295.75
667.962	39325.35
668.312	39255.3
668.662	39431.11
669.011	39353.82
669.361	39209.65
669.711	39180.5
670.06	39348.63
670.41	39201.29
670.76	39059.14
671.109	39248.52
671.459	39205.13
671.808	39113.83
672.157	39312.7
672.507	39022.99
672.856	38879.03
673.205	38993.83
673.554	39156.77
673.904	38932.82
674.253	39308.63
674.602	39093.94
674.951	38502.09
675.3	38367.86
675.649	38963.33
675.998	38923.55
676.346	38929.88
676.695	39088.29
677.044	38844.23
677.393	38920.84
677.741	38875.19
678.09	38806.95
678.438	38575.09
678.787	38840.39
679.135	38752.26
679.484	38444.24
679.832	38771.47
680.181	38421.19
680.529	38596.78
680.877	38347.75
681.225	38454.19
681.573	38651.7
681.922	38425.94
682.27	38287.86
682.618	38440.63
682.966	38265.04
683.314	38199.73
683.661	38093.29
684.009	38077.02
684.357	37975.33
684.705	38001.09
685.053	37984.14
685.4	37970.36
685.748	37774.66
686.095	37737.37
686.443	37576.92
686.79	37542.57
687.138	37671.61
687.485	37620.54
687.832	37464.16
688.18	37578.5
688.527	37325.85
688.874	37311.17
689.221	37164.95
689.568	37159.31
689.915	36991.17
690.262	37035.47
690.609	36962.7
690.956	36700.11
691.303	36704.4
691.65	36616.49
691.997	36537.63
692.344	36411.3
692.69	36365.43
693.037	36348.93
693.383	36127.02
693.73	36136.06
694.077	36017.41
694.423	35986.23
694.769	35936.06
695.116	35716.86
695.462	35778.32
695.808	35654.26
696.155	35761.83
696.501	35507.6
696.847	35482.51
697.193	35204.78
697.539	35289.98
697.885	35017.21
698.231	34895.41
698.577	34976.76
698.923	34981.06
699.269	34797.79
699.614	34673.27
699.96	34479.83
700.306	34605.02
700.651	34394.41
700.997	34306.95
701.342	34274.18
701.688	34351.92
702.033	34182.89
702.379	34142.21
702.724	33999.61
703.069	34085.04
703.415	33741.32
703.76	33792.84
704.105	33941.31
704.45	33617.25
704.795	33407.77
705.14	33261.78
705.485	33465.62
705.83	33373.42
706.175	33222.69
706.52	33377.26
706.865	33127.77
707.209	33033.09
707.554	32978.62
707.899	32854.56
708.243	32746.77
708.588	32742.47
708.932	32476.49
709.277	32541.57
709.621	32539.99
709.966	32363.95
710.31	32300.45
710.654	31909.05
710.998	32161.92
711.342	32015.71
711.687	32152.43
712.031	31923.96
712.375	31869.05
712.719	31968.26
713.063	31895.49
713.407	31963.96
713.75	31680.81
714.094	31759.45
714.438	31535.72
714.782	31602.16
715.125	31391.77
715.469	31580.47
715.812	31391.1
716.156	31223.87
716.499	31251.44
716.843	31295.96
717.186	31171.67
717.53	31095.74
717.873	31116.75
718.216	31072.69
718.559	30967.83
718.902	30774.84
719.246	30772.35
719.589	30693.71
719.932	30675.63
720.275	30615.52
720.617	30666.37
720.96	30435.41
721.303	30569.65
721.646	30445.36
721.989	30234.06
722.331	30451.69
722.674	30378.69
723.016	30250.11
723.359	30207.62
723.701	30378.24
724.044	30046.72
724.386	29933.05
724.729	30040.62
725.071	30046.5
725.413	29932.6
725.755	29837.01
726.097	29785.49
726.439	29688.54
726.782	29678.15
727.124	29780.74
727.465	29607.64
727.807	29584.82
728.149	29575.55
728.491	29327.42
728.833	29549.34
729.175	29492.61
729.516	29263.69
729.858	29392.28
730.199	29298.04
730.541	29213.07
730.882	29192.06
731.224	29272.06
731.565	29029.8
731.906	29123.13
732.248	29019.86
732.589	28837.04
732.93	28791.16
733.271	28877.72
733.612	28901.67
733.953	28797.49
734.294	28677.49
734.635	28665.29
734.976	28675.01
735.317	28507.56
735.658	28469.36
735.999	28584.62
736.339	28435.24
736.68	28551.4
737.021	28468.91
737.361	28389.14
737.702	28498.97
738.042	28365.41
738.383	28270.05
738.723	28433.89
739.063	28116.61
739.404	28343.49
739.744	28247
740.084	28128.36
740.424	28242.25
740.764	28047
741.104	28170.16
741.444	27946.44
741.784	27984.86
742.124	28024.18
742.464	27971.3
742.804	27819.44
743.143	27800.68
743.483	27835.26
743.823	27645.43
744.162	27628.93
744.502	27729.04
744.841	27670.74
745.181	27702.83
745.52	27501.25
745.86	27603.17
746.199	27513.91
746.538	27457.64
746.877	27564.76
747.216	27436.85
747.556	27495.83
747.895	27312.78
748.234	27244.31
748.573	27219.91
748.911	27214.03
749.25	27159.79
749.589	26990.99
749.928	27069.18
750.267	27178.55
750.605	27030.98
750.944	27065.11
751.283	26857.2
751.621	26892.91
751.96	26860.82
752.298	26692.24
752.636	26698.79
752.975	26718.45
753.313	26567.72
753.651	26683.2
753.989	26533.37
754.327	26529.98
754.666	26411.79
755.004	26416.31
755.342	26520.26
755.679	26422.41
756.017	26182.19
756.355	26238.24
756.693	26146.71
757.031	26232.36
757.368	26070.56
757.706	25990.56
758.044	25945.81
758.381	26017.45
758.719	25705.6
759.056	25843.22
759.394	25772.94
759.731	25568.65
