Data from hue_160_FLMS001491_00054.txt Node
Date: Tue Feb 07 16:51:22 GMT 2017
User: dcchb
Spectrometer: FLMS00149
Trigger mode: 0
Integration Time (sec): 2.000000E-2
Scans to average: 10
Electric dark correction enabled: true
Nonlinearity correction enabled: false
Boxcar width: 0
XAxis mode: Wavelengths
Number of Pixels in Spectrum: 2048
>>>>>Begin Spectral Data<<<<<
341.393	24.26
341.776	24.26
342.16	24.26
342.543	-53.02
342.927	-82.4
343.31	-83.53
343.693	-55.73
344.077	-66.13
344.46	-67.03
344.843	-50.54
345.226	-55.28
345.61	-33.81
345.993	-25.23
346.376	-11.21
346.759	10.71
347.142	15.45
347.525	48.22
347.908	66.98
348.291	90.25
348.674	100.65
349.057	116.24
349.44	112.4
349.823	154.2
350.206	170.93
350.588	181.55
350.971	212.51
351.354	235.33
351.737	241.89
352.119	256.35
352.502	256.8
352.884	277.82
353.267	273.3
353.65	297.48
354.032	289.57
354.414	292.05
354.797	301.77
355.179	335.22
355.562	321.43
355.944	320.75
356.326	320.75
356.709	327.08
357.091	308.33
357.473	329.57
357.855	337.7
358.238	329.34
358.62	358.95
359.002	336.8
359.384	358.95
359.766	337.93
360.148	352.84
360.53	346.29
360.912	319.85
361.294	334.77
361.676	341.54
362.057	325.95
362.439	307.87
362.821	319.85
363.203	342
363.584	328.21
363.966	325.5
364.348	318.27
364.729	334.54
365.111	327.08
365.493	320.75
365.874	299.51
366.256	315.33
366.637	314.43
367.019	306.52
367.4	310.59
367.781	308.55
368.163	280.98
368.544	312.17
368.925	294.31
369.306	291.6
369.688	307.42
370.069	311.26
370.45	302.68
370.831	307.65
371.212	302.9
371.593	310.36
371.974	316.01
372.355	327.53
372.736	326.18
373.117	290.25
373.498	309
373.879	314.88
374.26	294.54
374.641	311.94
375.021	299.74
375.402	320.3
375.783	322.11
376.163	302.9
376.544	320.75
376.925	344.26
377.305	328.44
377.686	318.95
378.066	353.3
378.447	323.92
378.827	332.51
379.208	309.91
379.588	327.08
379.968	339.51
380.349	344.26
380.729	330.25
381.109	338.15
381.489	357.14
381.87	330.47
382.25	356.23
382.63	341.54
383.01	351.04
383.39	331.6
383.77	343.58
384.15	344.71
384.53	332.28
384.91	331.38
385.29	342.67
385.67	336.57
386.049	357.14
386.429	349.45
386.809	347.65
387.189	363.47
387.568	355.78
387.948	336.35
388.328	349.68
388.707	359.4
389.087	356.69
389.466	372.05
389.846	374.09
390.225	370.92
390.605	361.66
390.984	342.45
391.363	354.2
391.743	357.82
392.122	353.3
392.501	362.56
392.881	356.46
393.26	358.95
393.639	372.73
394.018	374.99
394.397	386.52
394.776	380.64
395.155	372.28
395.534	391.03
395.913	368.44
396.292	369.34
396.671	392.16
397.05	387.87
397.429	361.66
397.808	356.91
398.186	373.63
398.565	394.42
398.944	393.29
399.323	376.57
399.701	398.72
400.08	386.29
400.458	400.98
400.837	388.1
401.215	399.17
401.594	379.96
401.972	407.08
402.351	391.49
402.729	402.33
403.107	418.83
403.486	402.79
403.864	418.15
404.242	407.76
404.62	422.45
404.999	414.31
405.377	418.15
405.755	419.51
406.133	416.8
406.511	425.61
406.889	422.9
407.267	427.87
407.645	425.16
408.023	439.62
408.401	439.62
408.779	419.96
409.156	459.06
409.534	452.73
409.912	445.95
410.29	434.42
410.667	455.21
411.045	457.7
411.422	469.68
411.8	459.28
412.178	468.32
412.555	478.49
412.933	467.64
413.31	506.96
413.687	480.52
414.065	476.68
414.442	489.79
414.819	478.04
415.197	497.02
415.574	478.04
415.951	501.31
416.328	493.63
416.705	500.86
417.082	499.28
417.46	510.81
417.837	493.63
418.214	516
418.591	520.07
418.967	511.94
419.344	533.4
419.721	527.53
420.098	524.82
420.475	532.27
420.852	549.45
421.228	527.3
421.605	539.96
421.982	534.53
422.358	533.86
422.735	549.22
423.111	554.87
423.488	571.82
423.864	563.23
424.241	567.98
424.617	568.43
424.994	581.09
425.37	595.55
425.746	583.57
426.123	606.17
426.499	605.27
426.875	583.35
427.251	592.84
427.627	604.59
428.003	613.63
428.379	601.42
428.756	628.54
429.132	611.37
429.507	627.19
429.883	619.28
430.259	629.22
430.635	662.89
431.011	650.69
431.387	637.81
431.763	683.91
432.138	666.28
432.514	677.58
432.89	687.3
433.265	692.72
433.641	677.13
434.016	695.43
434.392	714.87
434.767	739.73
435.143	718.94
435.518	702.21
435.894	751.93
436.269	712.83
436.644	741.76
437.02	738.14
437.395	761.19
437.77	771.14
438.145	755.55
438.52	779.05
438.895	778.82
439.271	786.28
439.646	819.5
440.021	805.26
440.395	809.33
440.77	809.55
441.145	805.26
441.52	834.19
441.895	807.75
442.27	854.75
442.645	832.61
443.019	852.27
443.394	842.1
443.769	845.26
444.143	850.68
444.518	870.34
444.892	856.79
445.267	878.03
445.641	873.28
446.016	881.42
446.39	865.82
446.764	884.81
447.139	895.88
447.513	927.97
447.887	922.32
448.262	901.53
448.636	913.96
449.01	948.31
449.384	939.27
449.758	954.18
450.132	930.68
450.506	952.15
450.88	987.86
451.254	965.71
451.628	999.38
452.002	1000.28
452.376	985.6
452.75	1017.69
453.123	1009.55
453.497	1044.35
453.871	1052.03
454.244	1048.42
454.618	1073.95
454.992	1090.45
455.365	1075.76
455.739	1095.42
456.112	1109.21
456.486	1127.96
456.859	1106.04
457.232	1172.71
457.606	1149.21
457.979	1164.8
458.352	1163.44
458.725	1193.05
459.099	1227.4
459.472	1236.89
459.845	1221.97
460.218	1267.17
460.591	1230.79
460.964	1272.59
461.337	1279.83
461.71	1319.37
462.083	1318.47
462.456	1331.12
462.829	1356.21
463.201	1386.71
463.574	1381.52
463.947	1400.5
464.32	1445.24
464.692	1435.75
465.065	1434.4
465.438	1519.82
465.81	1503.77
466.183	1537.22
466.555	1558.69
466.928	1599.14
467.3	1600.27
467.672	1593.49
468.045	1674.62
468.417	1706.25
468.789	1696.09
469.161	1735.63
469.534	1741.51
469.906	1774.05
470.278	1816.76
470.65	1835.74
471.022	1876.42
471.394	1916.42
471.766	1959.58
472.138	1977.89
472.51	2008.85
472.882	2071.89
473.253	2138.33
473.625	2158.22
473.997	2214.49
474.369	2215.85
474.74	2245
475.112	2325.45
475.484	2370.87
475.855	2448.83
476.227	2492.22
476.598	2551.66
476.97	2602.5
477.341	2670.3
477.713	2766.57
478.084	2747.36
478.455	2874.81
478.827	2997.29
479.198	3074.13
479.569	3097.18
479.94	3174.24
480.311	3284.74
480.682	3350.28
481.053	3471.41
481.424	3569.26
481.795	3608.8
482.166	3762.47
482.537	3816.26
482.908	3895.58
483.279	4051.73
483.65	4098.51
484.021	4187.55
484.391	4296.47
484.762	4434.77
485.133	4484.49
485.503	4596.12
485.874	4755.44
486.244	4882.44
486.615	4982.78
486.985	5123.34
487.356	5212.15
487.726	5359.94
488.097	5465.48
488.467	5546.15
488.837	5713.83
489.207	5873.6
489.578	5966.26
489.948	6060.94
490.318	6238.11
490.688	6324.66
491.058	6467.94
491.428	6557.2
491.798	6723.3
492.168	6938.21
492.538	6974.14
492.908	7100.01
493.278	7291.64
493.648	7357.63
494.017	7549.94
494.387	7637.17
494.757	7798.98
495.126	7857.05
495.496	7946.32
495.866	8087.33
496.235	8207.78
496.605	8322.13
496.974	8472.18
497.344	8583.36
497.713	8666.75
498.082	8713.98
498.452	8884.14
498.821	8953.52
499.19	8965.05
499.559	9173.18
499.928	9248.66
500.298	9324.36
500.667	9377.69
501.036	9501.53
501.405	9625.14
501.774	9661.07
502.143	9729.32
502.512	9799.38
502.88	9946.72
503.249	9911.01
503.618	10069.42
503.987	10077.11
504.356	10197.78
504.724	10243.21
505.093	10351.23
505.462	10423.77
505.83	10475.06
506.199	10522.29
506.567	10694.27
506.936	10666.24
507.304	10795.96
507.672	10872.79
508.041	10885.22
508.409	10973.36
508.777	11098.78
509.145	11082.05
509.514	11134.48
509.882	11213.35
510.25	11210.64
510.618	11326.57
510.986	11329.05
511.354	11372.89
511.722	11471.65
512.09	11535.83
512.458	11524.08
512.826	11626.22
513.193	11669.16
513.561	11720.45
513.929	11759.78
514.297	11776.27
514.664	11819.21
515.032	11887.68
515.4	11952.99
515.767	11935.59
516.135	12096.26
516.502	11886.55
516.869	12130.84
517.237	12106.66
517.604	12013.1
517.972	12097.62
518.339	12162.7
518.706	12101.91
519.073	12176.94
519.44	12231.18
519.808	12317.95
520.175	12276.6
520.542	12463.71
520.909	12435.46
521.276	12407.44
521.643	12434.33
522.009	12517.04
522.376	12507.78
522.743	12611.5
523.11	12652.86
523.477	12708.45
523.843	12665.29
524.21	12785.06
524.577	12844.94
524.943	12946.64
525.31	12797.94
525.676	12897.82
526.043	12824.83
526.409	12872.06
526.776	12952.29
527.142	12981.66
527.508	13021.89
527.874	12979.63
528.241	13020.53
528.607	12945.96
528.973	13058.72
529.339	12994.77
529.705	13084.03
530.071	13143.47
530.437	13176.69
530.803	13071.38
531.169	13105.05
531.535	13089.46
531.901	13051.94
532.267	13094.66
532.632	13034.77
532.998	12939.18
533.364	13060.76
533.73	13047.43
534.095	13022.34
534.461	13049.69
534.826	12992.06
535.192	12997.26
535.557	12980.76
535.923	12973.08
536.288	12957.94
536.653	12938.95
537.019	12856.7
537.384	12874.77
537.749	12814.44
538.114	12897.6
538.479	12804.95
538.845	12856.7
539.21	12676.36
539.575	12710.26
539.94	12624.84
540.305	12739.64
540.67	12662.35
541.034	12569.47
541.399	12589.13
541.764	12518.17
542.129	12558.4
542.494	12437.5
542.858	12542.81
543.223	12497.16
543.587	12432.98
543.952	12292.19
544.316	12406.09
544.681	12345.3
545.045	12349.82
545.41	12286.32
545.774	12223.27
546.138	12203.83
546.503	12188.46
546.867	12141.91
547.231	12153.21
547.595	12147.79
547.959	12082.93
548.324	12004.74
548.688	12026.44
549.052	11961.58
549.416	12019.66
549.779	11960.9
550.143	11892.43
550.507	11948.47
550.871	11879.32
551.235	11800.68
551.599	11861.02
551.962	11830.51
552.326	11774.92
552.689	11782.37
553.053	11713
553.417	11666.22
553.78	11767.91
554.143	11660.8
554.507	11568.82
554.87	11578.99
555.234	11638.65
555.597	11536.5
555.96	11553.91
556.323	11502.38
556.686	11492.89
557.05	11517.75
557.413	11493.12
557.776	11489.5
558.139	11566.33
558.502	11507.35
558.865	11478.88
559.228	11484.53
559.59	11499.67
559.953	11515.26
560.316	11581.7
560.679	11555.49
561.041	11578.54
561.404	11486.56
561.767	11562.72
562.129	11458.99
562.492	11548.48
562.854	11520.23
563.217	11578.09
563.579	11557.97
563.941	11626.67
564.304	11551.19
564.666	11665.99
565.028	11534.24
565.39	11543.51
565.753	11572.44
566.115	11571.53
566.477	11655.6
566.839	11633.9
567.201	11587.12
567.563	11649.95
567.925	11640.68
568.287	11623.28
568.648	11586.9
569.01	11661.25
569.372	11708.93
569.734	11643.62
570.095	11764.52
570.457	11680.68
570.819	11701.47
571.18	11745.54
571.542	11765.2
571.903	11717.52
572.265	11747.35
572.626	11760.23
572.987	11803.84
573.349	11854.24
573.71	11803.62
574.071	11813.79
574.432	11845.2
574.794	11997.51
575.155	11933.1
575.516	11780.34
575.877	11787.8
576.238	11811.3
576.599	11899.21
576.96	11896.95
577.32	11830.51
577.681	11897.4
578.042	11920.9
578.403	11843.62
578.763	11938.3
579.124	11818.98
579.485	11885.42
579.845	11884.29
580.206	11927.91
580.566	11858.76
580.927	11926.55
581.287	11955.7
581.648	11871.41
582.008	11876.83
582.368	11843.84
582.728	11851.07
583.089	11777.85
583.449	11862.6
583.809	11804.07
584.169	11856.72
584.529	11832.54
584.889	11888.81
585.249	11771.3
585.609	11733.11
585.969	11791.41
586.329	11721.81
586.688	11710.74
587.048	11808.81
587.408	11735.14
587.768	11774.01
588.127	11716.39
588.487	11699.66
588.846	11841.36
589.206	11726.56
589.565	11701.92
589.925	11657.63
590.284	11693.11
590.643	11670.74
591.003	11681.13
591.362	11783.05
591.721	11703.28
592.08	11618.08
592.44	11697.18
592.799	11684.07
593.158	11639.55
593.517	11699.21
593.876	11630.29
594.235	11645.2
594.593	11632.1
594.952	11649.27
595.311	11595.49
595.67	11600.68
596.029	11615.82
596.387	11652.43
596.746	11693.34
597.104	11560.23
597.463	11611.08
597.822	11668.7
598.18	11550.97
598.538	11515.26
598.897	11631.42
599.255	11519.33
599.613	11744.86
599.972	11580.57
600.33	11580.35
600.688	11615.37
601.046	11595.03
601.404	11647.46
601.762	11639.1
602.12	11684.07
602.478	11634.36
602.836	11557.29
603.194	11593.9
603.552	11592.32
603.91	11497.18
604.268	11594.81
604.625	11559.1
604.983	11611.98
605.341	11551.65
605.698	11669.16
606.056	11579.67
606.413	11573.11
606.771	11533.11
607.128	11627.35
607.485	11604.75
607.843	11596.84
608.2	11616.95
608.557	11619.89
608.914	11689.27
609.272	11699.44
609.629	11725.2
609.986	11705.54
610.343	11678.42
610.7	11790.51
611.057	11706.67
611.414	11665.31
611.771	11713.22
612.127	11678.87
612.484	11721.58
612.841	11751.64
613.198	11745.54
613.554	11772.2
613.911	11767.68
614.267	11729.72
614.624	11707.8
614.98	11703.51
615.337	11832.54
615.693	11797.74
616.05	11809.94
616.406	11846.33
616.762	11776.27
617.118	11817.4
617.475	11829.83
617.831	11872.77
618.187	11896.95
618.543	11884.74
618.899	11872.54
619.255	11894.91
619.611	11849.72
619.967	11921.81
620.323	11919.55
620.678	11988.02
621.034	11887.46
621.39	11900.34
621.746	11905.08
622.101	12055.36
622.457	11970.62
622.812	11923.84
623.168	11988.24
623.523	11932.88
623.879	12004.97
624.234	11867.12
624.589	12047.9
624.945	11994.57
625.3	11978.3
625.655	11905.99
626.01	11992.54
626.365	11947.57
626.72	11928.58
627.075	11914.57
627.43	11913.67
627.785	11914.35
628.14	11897.85
628.495	11951.41
628.85	11868.7
629.205	11862.6
629.559	11941.24
629.914	11804.75
630.269	11872.99
630.623	11754.13
630.978	11840.45
631.332	11909.15
631.687	11853.11
632.041	11795.48
632.396	11854.01
632.75	11758.87
633.104	11787.8
633.459	11795.03
633.813	11748.25
634.167	11793.67
634.521	11896.72
634.875	11785.31
635.229	11757.06
635.583	11690.85
635.937	11678.87
636.291	11633
636.645	11667.57
636.999	11561.81
637.352	11639.78
637.706	11582.83
638.06	11565.88
638.413	11593.45
638.767	11488.6
639.121	11565.43
639.474	11527.92
639.828	11468.94
640.181	11521.59
640.534	11504.19
640.888	11456.05
641.241	11419.22
641.594	11407.02
641.947	11517.07
642.301	11419.45
642.654	11367.47
643.007	11513
643.36	11385.77
643.713	11387.13
644.066	11501.48
644.419	11411.54
644.771	11281.6
645.124	11262.16
645.477	11149.4
645.83	11129.74
646.182	11107.36
646.535	11052.22
646.888	11042.96
647.24	11058.78
647.593	11128.61
647.945	11022.62
648.298	11016.07
648.65	10997.08
649.002	10932
649.355	11014.03
649.707	11077.31
650.059	11059.91
650.411	11181.94
650.763	11214.71
651.115	11411.54
651.467	11333.35
651.819	11285.44
652.171	11274.36
652.523	11226.23
652.875	11274.14
653.227	11244.08
653.578	11320.01
653.93	11260.13
654.282	11174.93
654.633	11222.84
654.985	11250.18
655.337	11296.96
655.688	11254.03
656.039	11336.96
656.391	11218.32
656.742	11265.1
657.094	11231.2
657.445	11312.56
657.796	11217.42
658.147	11255.16
658.498	11253.12
658.849	11270.3
659.2	11265.33
659.551	11257.87
659.902	11280.01
660.253	11293.8
660.604	11313.69
660.955	11277.53
661.306	11350.07
661.656	11334.93
662.007	11354.81
662.358	11347.58
662.708	11281.6
663.059	11357.98
663.409	11253.57
663.76	11282.05
664.11	11349.84
664.461	11392.1
664.811	11212.45
665.161	11330.63
665.511	11369.96
665.862	11228.72
666.212	11304.87
666.562	11318.21
666.912	11277.75
667.262	11317.08
667.612	11294.03
667.962	11306.45
668.312	11328.37
668.662	11309.84
669.011	11358.66
669.361	11291.54
669.711	11301.48
670.06	11311.65
670.41	11305.55
670.76	11247.25
671.109	11336.74
671.459	11290.64
671.808	11221.48
672.157	11266
672.507	11261.71
672.856	11252.9
673.205	11309.17
673.554	11270.75
673.904	11187.14
674.253	11256.06
674.602	11240.24
674.951	11083.18
675.3	11023.75
675.649	11214.48
675.998	11165.89
676.346	11170.41
676.695	11203.18
677.044	11081.15
677.393	11130.41
677.741	11152.79
678.09	11058.78
678.438	11063.75
678.787	11111.43
679.135	11060.58
679.484	11004.09
679.832	11040.92
680.181	10976.97
680.529	11028.72
680.877	11023.75
681.225	10930.42
681.573	10974.94
681.922	10856.52
682.27	10865.11
682.618	10915.5
682.966	10872.12
683.314	10964.32
683.661	10808.84
684.009	10767.94
684.357	10758.67
684.705	10701.5
685.053	10797.31
685.4	10695.17
685.748	10638.68
686.095	10687.04
686.443	10576.76
686.79	10601.84
687.138	10634.38
687.485	10630.31
687.832	10581.5
688.18	10536.98
688.527	10534.95
688.874	10500.6
689.221	10489.3
689.568	10400.26
689.915	10440.26
690.262	10420.38
690.609	10426.25
690.956	10315.52
691.303	10271
691.65	10226.03
691.997	10259.7
692.344	10125.24
692.69	10105.13
693.037	10224.67
693.383	10068.07
693.73	10038.69
694.077	10078.01
694.423	9995.08
694.769	10069.65
695.116	9976.55
695.462	9930.22
695.808	9882.99
696.155	9826.72
696.501	9907.62
696.847	9796.66
697.193	9747.63
697.539	9795.76
697.885	9638.48
698.231	9674.63
698.577	9610.68
698.923	9566.61
699.269	9570.45
699.614	9464.47
699.96	9484.36
700.306	9435.99
700.651	9380.86
700.997	9381.31
701.342	9358.93
701.688	9342.44
702.033	9252.5
702.379	9249.33
702.724	9226.73
703.069	9229.45
703.415	9169.56
703.76	9149.45
704.105	9195.78
704.45	9149.22
704.795	9011.37
705.14	8996.68
705.485	8987.42
705.83	8968.21
706.175	8989.45
706.52	8916.91
706.865	8925.73
707.209	8834.43
707.554	8784.03
707.899	8877.37
708.243	8798.05
708.588	8796.69
708.932	8680.76
709.277	8641.67
709.621	8662.46
709.966	8622.46
710.31	8652.51
710.654	8608.67
710.998	8565.51
711.342	8567.54
711.687	8590.37
712.031	8458.17
712.375	8462.91
712.719	8452.07
713.063	8482.12
713.407	8454.78
713.75	8476.25
714.094	8464.49
714.438	8481.67
714.782	8384.05
715.125	8349.24
715.469	8373.2
715.812	8299.75
716.156	8323.48
716.499	8286.42
716.843	8258.85
717.186	8229.02
717.53	8305.4
717.873	8335.68
718.216	8252.52
718.559	8202.35
718.902	8204.61
719.246	8182.24
719.589	8222.47
719.932	8138.85
720.275	8135.46
720.617	8192.41
720.96	8137.72
721.303	8165.97
721.646	8165.75
721.989	8139.31
722.331	8141.34
722.674	8074
723.016	8100.66
723.359	8071.51
723.701	8131.4
724.044	8061.79
724.386	8051.17
724.729	8059.99
725.071	8006.65
725.413	8019.76
725.755	8115.13
726.097	8035.58
726.439	7965.07
726.782	7973.89
727.124	8025.41
727.465	8005.07
727.807	7992.87
728.149	7973.43
728.491	7954.9
728.833	8010.04
729.175	7931.18
729.516	7937.28
729.858	7931.85
730.199	7976.82
730.541	7935.92
730.882	7970.72
731.224	7970.04
731.565	7890.05
731.906	7904.51
732.248	7905.41
732.589	7901.8
732.93	7875.81
733.271	7885.53
733.612	7942.47
733.953	7940.21
734.294	7944.96
734.635	7944.51
734.976	7982.93
735.317	7943.83
735.658	7923.04
735.999	7907.22
736.339	7928.92
736.68	7935.47
737.021	7905.87
737.361	7919.88
737.702	7981.8
738.042	7956.03
738.383	7959.65
738.723	7963.72
739.063	7925.98
739.404	7976.15
739.744	7956.03
740.084	7933.44
740.424	8017.28
740.764	7990.38
741.104	8051.4
741.444	7988.35
741.784	8037.16
742.124	8053.88
742.464	8041.23
742.804	8048.46
743.143	8099.98
743.483	8147.44
743.823	8058.18
744.162	8165.97
744.502	8197.84
744.841	8153.54
745.181	8284.39
745.52	8227.21
745.86	8253.88
746.199	8281.45
746.538	8355.35
746.877	8391.5
747.216	8445.96
747.556	8442.12
747.895	8486.64
748.234	8512.4
748.573	8664.26
748.911	8667.43
749.25	8679.4
749.589	8747.65
749.928	8764.6
750.267	8863.13
750.605	8965.72
750.944	9058.38
751.283	9072.16
751.621	9198.94
751.96	9223.57
752.298	9395.54
752.636	9447.52
752.975	9460.63
753.313	9617.91
753.651	9704.91
753.989	9813.84
754.327	9881.18
754.666	9993.04
755.004	10052.25
755.342	10254.05
755.679	10383.09
756.017	10423.54
756.355	10548.96
756.693	10668.96
757.031	10859.23
757.368	10924.09
757.706	11113.69
758.044	11213.12
758.381	11423.06
758.719	11511.42
759.056	11647.24
759.394	11867.57
759.731	11887
