Data from hue_30_FLMS001491_81.txt Node
Date: Mon Feb 06 15:06:11 GMT 2017
User: dcchb
Spectrometer: FLMS00149
Trigger mode: 0
Integration Time (sec): 2.000000E-2
Scans to average: 10
Electric dark correction enabled: true
Nonlinearity correction enabled: false
Boxcar width: 0
XAxis mode: Wavelengths
Number of Pixels in Spectrum: 2048
>>>>>Begin Spectral Data<<<<<
341.393	-29.18
341.776	-29.18
342.16	-29.18
342.543	-72.12
342.927	-63.76
343.31	-55.85
343.693	-86.13
344.077	-63.08
344.46	-51.1
344.843	-58.78
345.226	-41.38
345.61	-34.38
345.993	-18.33
346.376	9.91
346.759	13.3
347.142	26.19
347.525	21.89
347.908	60.08
348.291	75.68
348.674	93.08
349.057	108.9
349.44	124.26
349.823	144.37
350.206	155.67
350.588	199.29
350.971	227.08
351.354	217.82
351.737	218.27
352.119	268.21
352.502	266.63
352.884	275.67
353.267	299.62
353.65	313.86
354.032	307.53
354.414	328.1
354.797	329.45
355.179	340.3
355.562	344.37
355.944	352.5
356.326	318.61
356.709	352.5
357.091	347.08
357.473	335.56
357.855	342.11
358.238	354.76
358.62	343.01
359.002	343.69
359.384	352.73
359.766	351.15
360.148	356.35
360.53	347.31
360.912	327.87
361.294	332.39
361.676	357.93
362.057	342.11
362.439	324.48
362.821	342.79
363.203	335.33
363.584	342.11
363.966	341.88
364.348	320.64
364.729	324.26
365.111	338.72
365.493	350.02
365.874	343.01
366.256	313.86
366.637	309.34
367.019	300.08
367.4	316.8
367.781	319.06
368.163	321.55
368.544	315.67
368.925	320.19
369.306	325.84
369.688	332.39
370.069	318.16
370.45	344.82
370.831	329.45
371.212	329.91
371.593	343.69
371.974	321.55
372.355	333.3
372.736	318.61
373.117	332.62
373.498	328.78
373.879	322
374.26	335.33
374.641	332.84
375.021	338.27
375.402	324.26
375.783	319.51
376.163	343.47
376.544	363.35
376.925	330.81
377.305	328.1
377.686	347.08
378.066	359.06
378.447	344.37
378.827	341.43
379.208	340.3
379.588	354.54
379.968	354.31
380.349	336.23
380.729	334.43
381.109	347.99
381.489	360.19
381.87	359.51
382.25	326.74
382.63	354.54
383.01	360.41
383.39	361.32
383.77	350.25
384.15	343.01
384.53	337.14
384.91	370.58
385.29	367.65
385.67	378.94
386.049	360.87
386.429	357.48
386.809	354.54
387.189	371.94
387.568	369.23
387.948	383.24
388.328	392.73
388.707	368.1
389.087	374.2
389.466	370.36
389.846	380.3
390.225	385.5
390.605	377.14
390.984	375.56
391.363	388.44
391.743	398.15
392.122	390.92
392.501	388.66
392.881	387.76
393.26	395.67
393.639	386.4
394.018	388.66
394.397	388.21
394.776	390.92
395.155	410.58
395.534	407.19
395.913	397.93
396.292	425.27
396.671	420.98
397.05	409.45
397.429	406.06
397.808	408.55
398.186	400.64
398.565	394.31
398.944	409.68
399.323	421.2
399.701	426.63
400.08	416.23
400.458	399.28
400.837	416.68
401.215	424.59
401.594	419.85
401.972	427.76
402.351	419.62
402.729	434.31
403.107	446.74
403.486	443.8
403.864	458.04
404.242	402.22
404.62	449.68
404.999	438.38
405.377	435.67
405.755	459.17
406.133	471.37
406.511	479.51
406.889	470.69
407.267	468.21
407.645	476.8
408.023	468.21
408.401	470.47
408.779	463.24
409.156	469.79
409.534	488.55
409.912	492.16
410.29	474.99
410.667	482.9
411.045	485.61
411.422	482.44
411.8	486.74
412.178	493.52
412.555	487.64
412.933	505.95
413.31	512.95
413.687	506.4
414.065	505.95
414.442	529
414.819	519.51
415.197	517.02
415.574	541.65
415.951	519.51
416.328	529.68
416.705	556.57
417.082	529.9
417.46	572.16
417.837	545.72
418.214	549.79
418.591	574.87
418.967	547.75
419.344	576.23
419.721	578.49
420.098	584.36
420.475	599.28
420.852	582.56
421.228	608.32
421.605	598.15
421.982	622.78
422.358	585.04
422.735	620.52
423.111	574.65
423.488	605.61
423.864	618.49
424.241	593.18
424.617	595.44
424.994	604.93
425.37	622.1
425.746	630.24
426.123	648.32
426.499	624.81
426.875	627.07
427.251	649.9
427.627	657.13
428.003	639.28
428.379	670.91
428.756	674.98
429.132	688.99
429.507	679.5
429.883	667.52
430.259	681.31
430.635	701.87
431.011	670.69
431.387	711.82
431.763	718.6
432.138	716.79
432.514	716.11
432.89	714.08
433.265	722.89
433.641	713.4
434.016	722.89
434.392	756.79
434.767	775.77
435.143	765.83
435.518	767.41
435.894	799.95
436.269	772.15
436.644	805.37
437.02	779.16
437.395	801.98
437.77	837.24
438.145	808.99
438.52	850.8
438.895	841.08
439.271	822.32
439.646	872.72
440.021	867.52
440.395	863.45
440.77	844.7
441.145	868.88
441.52	869.1
441.895	913.62
442.27	853.73
442.645	854.41
443.019	899.16
443.394	900.97
443.769	906.61
444.143	897.12
444.518	907.74
444.892	923.56
445.267	937.12
445.641	935.77
446.016	949.55
446.39	922.66
446.764	941.64
447.139	951.36
447.513	931.92
447.887	967.63
448.262	956.33
448.636	961.08
449.01	957.46
449.384	987.29
449.758	979.38
450.132	1002.43
450.506	1004.24
450.88	1005.14
451.254	1006.27
451.628	1016.44
452.002	1025.93
452.376	1023.22
452.75	1059.6
453.123	1059.38
453.497	1074.29
453.871	1069.55
454.244	1098.7
454.618	1136.44
454.992	1098.47
455.365	1091.69
455.739	1126.72
456.112	1135.31
456.486	1148.64
456.859	1170.56
457.232	1180.05
457.606	1180.05
457.979	1198.13
458.352	1213.95
458.725	1232.48
459.099	1241.75
459.472	1256.89
459.845	1248.53
460.218	1252.14
460.591	1269.54
460.964	1324.68
461.337	1309.99
461.71	1332.59
462.083	1346.6
462.456	1357.45
462.829	1389.77
463.201	1371.01
463.574	1394.74
463.947	1393.83
464.32	1455.3
464.692	1425.25
465.065	1475.41
465.438	1468.63
465.81	1515.86
466.183	1518.8
466.555	1536.43
466.928	1531.46
467.3	1580.04
467.672	1568.52
468.045	1598.12
468.417	1632.7
468.789	1632.7
469.161	1646.48
469.534	1673.37
469.906	1728.29
470.278	1741.39
470.65	1761.96
471.022	1787.95
471.394	1806.7
471.766	1830.43
472.138	1865.01
472.51	1900.03
472.882	1950.2
473.253	1970.99
473.625	2022.97
473.997	2026.59
474.369	2040.37
474.74	2088.28
475.112	2106.13
475.484	2167.6
475.855	2194.49
476.227	2243.98
476.598	2272
476.97	2312.91
477.341	2340.02
477.713	2384.77
478.084	2470.42
478.455	2511.32
478.827	2567.81
479.198	2640.58
479.569	2616.85
479.94	2696.4
480.311	2767.36
480.682	2855.04
481.053	2908.6
481.424	2935.49
481.795	2975.49
482.166	3070.4
482.537	3048.03
482.908	3157.4
483.279	3271.07
483.65	3257.29
484.021	3380.45
484.391	3412.54
484.762	3456.83
485.133	3512.87
485.503	3561.01
485.874	3688.91
486.244	3716.94
486.615	3772.75
486.985	3897.04
487.356	3941.56
487.726	3980.43
488.097	4077.15
488.467	4112.86
488.837	4240.09
489.207	4300.88
489.578	4370.25
489.948	4450.93
490.318	4553.75
490.688	4504.49
491.058	4656.12
491.428	4751.26
491.798	4796
492.168	4906.06
492.538	4941.54
492.908	5015.43
493.278	5125.03
493.648	5072.38
494.017	5192.15
494.387	5284.35
494.757	5308.76
495.126	5402.32
495.496	5428.3
495.866	5481.86
496.235	5578.58
496.605	5610.9
496.974	5684.34
497.344	5727.96
497.713	5804.56
498.082	5832.13
498.452	5959.14
498.821	5986.03
499.19	6035.29
499.559	6108.06
499.928	6174.05
500.298	6146.02
500.667	6255.85
501.036	6299.92
501.405	6296.3
501.774	6370.88
502.143	6442.51
502.512	6482.97
502.88	6570.42
503.249	6567.26
503.618	6626.69
503.987	6649.97
504.356	6748.04
504.724	6758.44
505.093	6755.73
505.462	6822.39
505.83	6924.99
506.199	6967.25
506.567	6993.69
506.936	7064.19
507.304	7095.38
507.672	7151.42
508.041	7160.69
508.409	7219.89
508.777	7296.73
509.145	7319.1
509.514	7337.18
509.882	7343.51
510.25	7447.01
510.618	7527.23
510.986	7516.16
511.354	7574.69
511.722	7645.65
512.09	7736.49
512.458	7632.09
512.826	7796.83
513.193	7758.64
513.561	7824.85
513.929	7903.94
514.297	7917.73
514.664	7986.43
515.032	7955.24
515.4	8144.39
515.767	8070.49
516.135	8130.38
516.502	8092.87
516.869	8205.86
517.237	8324.72
517.604	8284.5
517.972	8329.24
518.339	8414.44
518.706	8396.14
519.073	8434.78
519.44	8509.58
519.808	8586.19
520.175	8577.83
520.542	8658.95
520.909	8726.97
521.276	8716.35
521.643	8812.85
522.009	8808.1
522.376	8801.32
522.743	8850.36
523.11	9008.1
523.477	9068.21
523.843	9096
524.21	9166.28
524.577	9194.53
524.943	9239.05
525.31	9315.21
525.676	9384.81
526.043	9455.32
526.409	9456.45
526.776	9580.06
527.142	9609.21
527.508	9633.62
527.874	9637.68
528.241	9819.37
528.607	9738.47
528.973	9815.31
529.339	9804.46
529.705	9922.87
530.071	10042.19
530.437	10062.31
530.803	10135.98
531.169	10142.08
531.535	10211.68
531.901	10185.47
532.267	10320.83
532.632	10311.11
532.998	10349.08
533.364	10433.14
533.73	10454.61
534.095	10584.1
534.461	10606.7
534.826	10567.6
535.192	10674.95
535.557	10784.55
535.923	10757.65
536.288	10793.59
536.653	10879.46
537.019	10820.25
537.384	10891.66
537.749	11049.4
538.114	11018.21
538.479	11066.35
538.845	11113.35
539.21	11110.41
539.575	11172.56
539.94	11226.34
540.305	11284.19
540.67	11313.8
541.034	11256.85
541.399	11406.68
541.764	11396.28
542.129	11513.12
542.494	11536.17
542.858	11604.86
543.223	11577.29
543.587	11779.55
543.952	11658.42
544.316	11660.23
544.681	11758.08
545.045	11794.46
545.41	11890.96
545.774	11908.13
546.138	11972.76
546.503	11941.35
546.867	12001.92
547.231	12136.83
547.595	12182.02
547.959	12204.62
548.324	12217.05
548.688	12361.23
549.052	12255.47
549.416	12316.71
549.779	12340.44
550.143	12377.27
550.507	12511.73
550.871	12570.04
551.235	12589.25
551.599	12632.41
551.962	12678.51
552.326	12674.89
552.689	12824.04
553.053	12778.62
553.417	12843.02
553.78	12963.47
554.143	12945.62
554.507	13012.06
554.87	12981.78
555.234	13101.32
555.597	12995.79
555.96	13102
556.323	13130.93
556.686	13163.02
557.05	13303.12
557.413	13308.55
557.776	13356.23
558.139	13471.71
558.502	13477.13
558.865	13570.01
559.228	13571.82
559.59	13628.31
559.953	13608.88
560.316	13692.27
560.679	13780.17
561.041	13822.89
561.404	13888.65
561.767	13949.44
562.129	13976.1
562.492	14033.28
562.854	14078.7
563.217	14020.39
563.579	14107.85
563.941	14104.69
564.304	14230.11
564.666	14353.72
565.028	14286.38
565.39	14378.58
565.753	14433.94
566.115	14469.87
566.477	14551.68
566.839	14580.15
567.201	14716.87
567.563	14714.16
567.925	14843.65
568.287	14757.55
568.648	14860.37
569.01	14934.27
569.372	15030.54
569.734	15021.95
570.095	15080.03
570.457	15144.21
570.819	15201.15
571.18	15267.59
571.542	15409.96
571.903	15319.79
572.265	15520.24
572.626	15620.58
572.987	15557.3
573.349	15644.31
573.71	15756.39
574.071	15811.76
574.432	15891.76
574.794	16049.72
575.155	16048.36
575.516	16126.55
575.877	16217.17
576.238	16272.31
576.599	16391.41
576.96	16564.51
577.32	16599.54
577.681	16762.02
578.042	16760.21
578.403	16964.5
578.763	17003.82
579.124	17140.54
579.485	17312.28
579.845	17522.22
580.206	17580.75
580.566	17684.25
580.927	17856.23
581.287	18126.95
581.648	18074.98
582.008	18389.32
582.368	18420.73
582.728	18668.63
583.089	18772.81
583.449	18967.16
583.809	19173.25
584.169	19460.7
584.529	19530.53
584.889	19937.07
585.249	20047.13
585.609	20114.02
585.969	20520.34
586.329	20673.78
586.688	20981.79
587.048	21146.53
587.408	21323.7
587.768	21692.73
588.127	21901.09
588.487	22006.85
588.846	22560.96
589.206	22508.31
589.565	22821.07
589.925	23164.56
590.284	23380.37
590.643	23603.87
591.003	23983.97
591.362	24348.94
591.721	24535.82
592.08	24683.84
592.44	25188.46
592.799	25455.35
593.158	25765.17
593.517	25929.46
593.876	26207.19
594.235	26491.03
594.593	26823.45
594.952	27187.96
595.311	27446.71
595.67	27767.15
596.029	28033.13
596.387	28390.19
596.746	28665.21
597.104	28887.35
597.463	29008.93
597.822	29696.82
598.18	29781.79
598.538	30056.81
598.897	30475.78
599.255	30514.65
599.613	31167.29
599.972	31244.35
600.33	31565.24
600.688	31696.77
601.046	32105.79
601.404	32433.47
601.762	32578.1
602.12	32964.75
602.478	33297.85
602.836	33446.55
603.194	33578.75
603.552	33945.07
603.91	33941.45
604.268	34499.4
604.625	34540.76
604.983	34948.88
605.341	34970.58
605.698	35435.88
606.056	35582.99
606.413	35670.9
606.771	36048.74
607.128	36240.37
607.485	36384.33
607.843	36538.22
608.2	37048.49
608.557	37353.57
608.914	37300.91
609.272	37704.97
609.629	37993.32
609.986	38222.24
610.343	38281
610.7	38617.26
611.057	38736.58
611.414	38928.44
611.771	38993.52
612.127	39306.28
612.484	39527.75
612.841	39756.89
613.198	39789.66
613.554	39902.65
613.911	40215.64
614.267	40235.3
614.624	40376.99
614.98	40685.46
615.337	40880.7
615.693	40991.66
616.05	41090.19
616.406	41513.91
616.762	41466.45
617.118	41480.01
617.475	41568.14
617.831	41855.59
618.187	41872.77
618.543	42099.66
618.899	42405.41
619.255	42442.7
619.611	42516.82
619.967	42809.69
620.323	42876.81
620.678	42950.93
621.034	42801.56
621.39	42984.6
621.746	42899.41
622.101	43399.73
622.457	43239.96
622.812	43357.48
623.168	43491.48
623.523	43505.04
623.879	43673.85
624.234	43618.49
624.589	43743.45
624.945	43910.68
625.3	44006.27
625.655	43917.24
626.01	44021.64
626.365	44102.99
626.72	44095.54
627.075	44154.07
627.43	44331.69
627.785	44331.91
628.14	44536.65
628.495	44517.22
628.85	44537.33
629.205	44374.4
629.559	44725.35
629.914	44463.44
630.269	44573.49
630.623	44462.53
630.978	44540.5
631.332	44652.81
631.687	44809.42
632.041	44652.13
632.396	44708.85
632.75	44611.91
633.104	44723.99
633.459	44562.87
633.813	44635.63
634.167	44497.11
634.521	44555.18
634.875	44643.54
635.229	44696.88
635.583	44507.05
635.937	44592.7
636.291	44693.49
636.645	44640.61
636.999	44537.78
637.352	44630.21
637.706	44453.04
638.06	44726.03
638.413	44491.01
638.767	44495.52
639.121	44500.5
639.474	44323.33
639.828	44416.21
640.181	44438.35
640.534	44443.32
640.888	44490.33
641.241	44347.96
641.594	44412.82
641.947	44288.75
642.301	44334.4
642.654	44425.92
643.007	44426.6
643.36	44148.87
643.713	44206.27
644.066	44426.37
644.419	44272.71
644.771	43924.24
645.124	43598.6
645.477	43491.94
645.83	43294.2
646.182	43090.59
646.535	43006.52
646.888	43023.7
647.24	42950.48
647.593	43123.36
647.945	42993.64
648.298	42896.47
648.65	42755.68
649.002	42796.36
649.355	42978.73
649.707	42696.48
650.059	42958.16
650.411	43436.34
650.763	43478.83
651.115	43942.32
651.467	43840.85
651.819	43855.09
652.171	43727.41
652.523	43707.07
652.875	43661.65
653.227	43564.02
653.578	43868.87
653.93	43661.42
654.282	43533.97
654.633	43339.4
654.985	43457.13
655.337	43518.83
655.688	43402.22
656.039	43643.12
656.391	43283.81
656.742	43361.09
657.094	43458.94
657.445	43541.2
657.796	43320.19
658.147	43360.64
658.498	43241.55
658.849	43355.67
659.2	43340.08
659.551	43300.98
659.902	43297.82
660.253	43291.71
660.604	43384.82
660.955	43130.14
661.306	43262.79
661.656	43339.4
662.007	43241.32
662.358	43283.81
662.708	43072.06
663.059	43246.74
663.409	43033.19
663.76	43174.88
664.11	43204.49
664.461	43231.15
664.811	43272.05
665.161	43162.68
665.511	43106.63
665.862	43225.5
666.212	43305.27
666.562	43393.18
666.912	43182.11
667.262	43104.38
667.612	43059.4
667.962	43168.78
668.312	43034.32
668.662	43217.59
669.011	43171.49
669.361	43140.08
669.711	43077.94
670.06	42925.85
670.41	43034.32
670.76	42842.01
671.109	43015.79
671.459	42945.28
671.808	42850.82
672.157	42973.98
672.507	42592.07
672.856	42762.69
673.205	42832.29
673.554	42856.47
673.904	42823.25
674.253	42857.38
674.602	42920.65
674.951	42370.38
675.3	42103.27
675.649	42849.01
675.998	42744.38
676.346	42752.97
676.695	42891.27
677.044	42512.07
677.393	42629.13
677.741	42746.42
678.09	42617.83
678.438	42388.69
678.787	42660.32
679.135	42612.86
679.484	42345.98
679.832	42483.37
680.181	42168.35
680.529	42353.89
680.877	42119.99
681.225	42182.59
681.573	42408.12
681.922	41993.9
682.27	42007.23
682.618	41905.54
682.966	41952.77
683.314	41984.86
683.661	41826.67
684.009	41713.23
684.357	41673.45
684.705	41417.41
685.053	41614.92
685.4	41466.9
685.748	41285.89
686.095	41348.26
686.443	41194.37
686.79	41082.06
687.138	41192.56
687.485	41207.02
687.832	41142.39
688.18	41077.76
688.527	40728.17
688.874	40806.13
689.221	40778.33
689.568	40743.53
689.915	40632.8
690.262	40573.59
690.609	40422.19
690.956	40367.27
691.303	40359.14
691.65	40290.66
691.997	40101.29
692.344	40004.8
692.69	39912.59
693.037	39847.29
693.383	39643
693.73	39667.4
694.077	39648.87
694.423	39591.02
694.769	39413.62
695.116	39371.82
695.462	39272.16
695.808	39116.91
696.155	39172.28
696.501	38899.51
696.847	39015.44
697.193	38654.1
697.539	38734.32
697.885	38517.15
698.231	38430.83
698.577	38328.91
698.923	38359.19
699.269	38123.49
699.614	38016.15
699.96	38051.63
700.306	37850.73
700.651	37790.84
700.997	37669.04
701.342	37671.3
701.688	37571.19
702.033	37425.65
702.379	37342.72
702.724	37299.56
703.069	37415.94
703.415	36904.76
703.76	36931.88
704.105	37019.56
704.45	36891.21
704.795	36564.43
705.14	36657.09
705.485	36540.03
705.83	36523.08
706.175	36436.75
706.52	36391.33
706.865	36260.94
707.209	36177.78
707.554	36106.14
707.899	36193.37
708.243	35991.79
708.588	35815.98
708.932	35642.65
709.277	35766.94
709.621	35681.29
709.966	35470
710.31	35654.85
710.654	35201.76
710.998	35286.95
711.342	35211.7
711.687	35190.68
712.031	35031.59
712.375	34897.81
712.719	35008.99
713.063	34951.6
713.407	35114.98
713.75	34780.98
714.094	34697.14
714.438	34580.08
714.782	34698.95
715.125	34489.23
715.469	34607.42
715.812	34209.24
716.156	34119.98
716.499	34154.1
716.843	34253.99
717.186	34020.09
717.53	34154.33
717.873	34109.13
718.216	34179.19
718.559	33913.88
718.902	33673.66
719.246	33788.01
719.589	33733.55
719.932	33547.56
720.275	33538.3
720.617	33559.09
720.96	33440.9
721.303	33456.72
721.646	33476.83
721.989	33180.57
722.331	33256.5
722.674	33211.08
723.016	33239.78
723.359	33177.86
723.701	33200.23
724.044	32959.33
724.386	32901.48
724.729	32976.96
725.071	32848.83
725.413	32743.97
725.755	32829.62
726.097	32600.02
726.439	32434.37
726.782	32336.3
727.124	32623.97
727.465	32502.39
727.807	32424.43
728.149	32258.33
728.491	32304.89
728.833	32395.05
729.175	32174.27
729.516	32168.39
729.858	32108.73
730.199	32271.44
730.541	32143.53
730.882	31988.51
731.224	32020.15
731.565	31746.03
731.906	31889.75
732.248	31851.11
732.589	31706.71
732.93	31586.49
733.271	31733.15
733.612	31631.23
733.953	31667.16
734.294	31556.2
734.635	31435.76
734.976	31426.49
735.317	31342.2
735.658	31347.62
735.999	31314.63
736.339	31282.99
736.68	31269.43
737.021	31227.85
737.361	31071.25
737.702	31322.31
738.042	31069.66
738.383	30967.97
738.723	31204.35
739.063	30851.14
739.404	30913.51
739.744	30937.69
740.084	30689.11
740.424	30917.35
740.764	30726.62
741.104	30850.01
741.444	30616.57
741.784	30472.84
742.124	30607.98
742.464	30516.68
742.804	30431.71
743.143	30428.78
743.483	30305.62
743.823	30271.94
744.162	30220.42
744.502	30285.05
744.841	30114.89
745.181	30297.25
745.52	30069.46
745.86	30086.86
746.199	30102.01
746.538	29979.3
746.877	30025.85
747.216	29886.42
747.556	29864.05
747.895	29924.61
748.234	29775.23
748.573	29641
748.911	29655.69
749.25	29661.11
749.589	29497.95
749.928	29583.6
750.267	29634.22
750.605	29477.16
750.944	29403.27
751.283	29305.87
751.621	29415.02
751.96	29163.05
752.298	29210.96
752.636	29166.44
752.975	29074.69
753.313	28977.06
753.651	29209.83
753.989	28927.57
754.327	28836.05
754.666	28617.3
755.004	28746.11
755.342	28799.44
755.679	28785.43
756.017	28607.58
756.355	28635.83
756.693	28509.5
757.031	28514.02
757.368	28413.24
757.706	28301.15
