Data from hue_36_FLMS001491_00097.txt Node
Date: Tue Feb 07 17:30:33 GMT 2017
User: dcchb
Spectrometer: FLMS00149
Trigger mode: 0
Integration Time (sec): 2.000000E-2
Scans to average: 10
Electric dark correction enabled: true
Nonlinearity correction enabled: false
Boxcar width: 0
XAxis mode: Wavelengths
Number of Pixels in Spectrum: 2048
>>>>>Begin Spectral Data<<<<<
341.393	-11.02
341.776	-11.02
342.16	-11.02
342.543	-77.91
342.927	-53.73
343.31	-74.52
343.693	-72.26
344.077	-84.91
344.46	-63.67
344.843	-46.95
345.226	-39.26
345.61	-35.65
345.993	-11.69
346.376	-15.31
346.759	9.55
347.142	33.05
347.525	32.37
347.908	64.91
348.291	99.49
348.674	92.03
349.057	112.82
349.44	115.53
349.823	152.82
350.206	159.15
350.588	186.72
350.971	213.61
351.354	198.24
351.737	243.44
352.119	250.45
352.502	263.33
352.884	278.24
353.267	282.76
353.65	279.15
354.032	300.39
354.414	310.78
354.797	324.34
355.179	322.53
355.562	341.97
355.944	329.54
356.326	324.12
356.709	348.3
357.091	339.71
357.473	352.82
357.855	362.08
358.238	337.22
358.62	349.43
359.002	327.28
359.384	342.65
359.766	331.35
360.148	325.92
360.53	345.36
360.912	336.09
361.294	345.13
361.676	323.66
362.057	347.84
362.439	319.82
362.821	346.94
363.203	342.42
363.584	333.38
363.966	315.3
364.348	317.34
364.729	326.38
365.111	333.38
365.493	321.86
365.874	304.68
366.256	306.04
366.637	311.46
367.019	313.27
367.4	314.85
367.781	332.03
368.163	310.33
368.544	313.04
368.925	318.92
369.306	323.21
369.688	322.31
370.069	324.79
370.45	339.71
370.831	328.41
371.212	305.59
371.593	310.78
371.974	318.92
372.355	334.28
372.736	336.32
373.117	319.14
373.498	312.14
373.879	311.69
374.26	313.95
374.641	316.88
375.021	332.03
375.402	315.3
375.783	340.84
376.163	310.1
376.544	320.95
376.925	345.13
377.305	316.21
377.686	319.14
378.066	331.8
378.447	320.27
378.827	320.5
379.208	335.41
379.588	319.6
379.968	335.19
380.349	343.78
380.729	356.66
381.109	337.22
381.489	342.19
381.87	332.48
382.25	335.41
382.63	318.69
383.01	340.39
383.39	358.24
383.77	346.94
384.15	332.48
384.53	338.58
384.91	346.71
385.29	353.95
385.67	360.27
386.049	374.96
386.429	353.95
386.809	352.82
387.189	378.13
387.568	360.95
387.948	355.75
388.328	326.83
388.707	359.82
389.087	361.4
389.466	358.92
389.846	358.01
390.225	366.6
390.605	351.46
390.984	347.39
391.363	358.47
391.743	349.43
392.122	363.44
392.501	366.6
392.881	356.21
393.26	357.11
393.639	377
394.018	370.89
394.397	382.87
394.776	376.77
395.155	377
395.534	386.26
395.913	375.64
396.292	379.71
396.671	384.68
397.05	380.16
397.429	375.64
397.808	398.92
398.186	373.61
398.565	386.04
398.944	393.72
399.323	383.32
399.701	388.07
400.08	380.16
400.458	411.8
400.837	408.41
401.215	425.13
401.594	413.38
401.972	386.71
402.351	387.84
402.729	398.01
403.107	409.99
403.486	404.57
403.864	390.55
404.242	413.15
404.62	403.44
404.999	411.8
405.377	399.82
405.755	399.37
406.133	408.63
406.511	437.11
406.889	420.16
407.267	428.52
407.645	452.02
408.023	406.37
408.401	429.2
408.779	435.98
409.156	453.15
409.534	447.95
409.912	432.14
410.29	444.56
410.667	454.28
411.045	469.87
411.422	444.79
411.8	459.93
412.178	466.94
412.555	461.29
412.933	491.79
413.31	471.68
413.687	479.59
414.065	460.38
414.442	469.42
414.819	487.73
415.197	467.16
415.574	492.47
415.951	469.87
416.328	478.69
416.705	482.76
417.082	478.69
417.46	496.31
417.837	472.36
418.214	494.05
418.591	525.47
418.967	511.91
419.344	504
419.721	501.29
420.098	516.65
420.475	531.57
420.852	511.68
421.228	534.28
421.605	538.35
421.982	527.95
422.358	521.17
422.735	529.53
423.111	534.96
423.488	526.82
423.864	541.29
424.241	552.81
424.617	533.83
424.994	540.16
425.37	559.59
425.746	555.75
426.123	558.46
426.499	562.08
426.875	560.49
427.251	556.88
427.627	595.07
428.003	585.8
428.379	591.23
428.756	583.32
429.132	580.15
429.507	584.22
429.883	604.56
430.259	590.1
430.635	617.67
431.011	613.37
431.387	612.02
431.763	622.86
432.138	622.64
432.514	641.4
432.89	635.52
433.265	643.2
433.641	615.41
434.016	661.28
434.392	651.34
434.767	657.21
435.143	654.05
435.518	710.09
435.894	681.85
436.269	684.56
436.644	677.33
437.02	685.46
437.395	696.99
437.77	706.03
438.145	712.58
438.52	711.22
438.895	699.02
439.271	712.35
439.646	731.79
440.021	743.09
440.395	719.59
440.77	750.09
441.145	717.1
441.52	726.82
441.895	748.51
442.27	749.19
442.645	764.56
443.019	772.47
443.394	771.34
443.769	796.65
444.143	740.83
444.518	788.28
444.892	768.4
445.267	783.99
445.641	785.12
446.016	793.26
446.39	779.02
446.764	773.37
447.139	795.52
447.513	819.92
447.887	785.12
448.262	828.96
448.636	815.63
449.01	803.2
449.384	812.69
449.758	826.48
450.132	855.18
450.506	837.77
450.88	834.38
451.254	845.46
451.628	861.28
452.002	877.55
452.376	866.7
452.75	863.31
453.123	866.47
453.497	908.96
453.871	873.03
454.244	913.7
454.618	929.98
454.992	938.56
455.365	939.47
455.739	941.95
456.112	966.13
456.486	976.08
456.859	951.44
457.232	988.28
457.606	966.13
457.979	1020.37
458.352	1056.07
458.725	1006.13
459.099	1015.62
459.472	1060.37
459.845	1035.74
460.218	1096.52
460.591	1077.32
460.964	1092.91
461.337	1088.39
461.71	1105.11
462.083	1087.94
462.456	1129.97
462.829	1123.19
463.201	1157.77
463.574	1141.95
463.947	1172
464.32	1192.57
464.692	1214.71
465.065	1215.62
465.438	1229.18
465.81	1264.43
466.183	1273.7
466.555	1284.77
466.928	1303.07
467.3	1302.62
467.672	1325.22
468.045	1343.3
468.417	1354.82
468.789	1336.97
469.161	1387.59
469.534	1424.88
469.906	1447.7
470.278	1471.88
470.65	1499
471.022	1522.95
471.394	1560.69
471.766	1566.12
472.138	1592.56
472.51	1604.76
472.882	1649.5
473.253	1661.48
473.625	1728.6
473.997	1722.72
474.369	1773.57
474.74	1795.94
475.112	1832.78
475.484	1882.72
475.855	1929.5
476.227	1957.75
476.598	2013.56
476.97	2044.97
477.341	2075.26
477.713	2164.75
478.084	2179.21
478.455	2212.43
478.827	2249.26
479.198	2354.34
479.569	2366.1
479.94	2469.6
480.311	2448.58
480.682	2565.41
481.053	2635.92
481.424	2713.21
481.795	2787.1
482.166	2824.61
482.537	2881.56
482.908	2966.98
483.279	3035.91
483.65	3097.83
484.021	3201.33
484.391	3298.5
484.762	3330.59
485.133	3395.67
485.503	3494.43
485.874	3520.87
486.244	3667.08
486.615	3780.3
486.985	3823.01
487.356	3972.83
487.726	4010.57
488.097	4116.56
488.467	4204.69
488.837	4294.86
489.207	4426.38
489.578	4479.94
489.948	4603.78
490.318	4680.61
490.688	4733.49
491.058	4846.26
491.428	4981.62
491.798	5068.4
492.168	5180.03
492.538	5242.18
492.908	5328.96
493.278	5419.35
493.648	5492.79
494.017	5597.42
494.387	5678.55
494.757	5765.78
495.126	5895.49
495.496	5910.86
495.866	6050.97
496.235	6110.63
496.605	6274.92
496.974	6255.49
497.344	6397.63
497.713	6510.85
498.082	6580.22
498.452	6656.6
498.821	6677.17
499.19	6823.38
499.559	6929.82
499.928	6979.99
500.298	6997.84
500.667	7165.07
501.036	7146.08
501.405	7246.42
501.774	7320.54
502.143	7451.39
502.512	7474.66
502.88	7584.72
503.249	7619.29
503.618	7732.96
503.987	7733.41
504.356	7862.22
504.724	7900.87
505.093	7946.51
505.462	8053.4
505.83	8124.36
506.199	8182.44
506.567	8310.12
506.936	8270.8
507.304	8401.42
507.672	8505.6
508.041	8468.31
508.409	8652.26
508.777	8644.35
509.145	8742.88
509.514	8707.4
509.882	8890.44
510.25	8870.33
510.618	8926.15
510.986	8993.72
511.354	9136.54
511.722	9147.39
512.09	9224.9
512.458	9238.68
512.826	9355.74
513.193	9412.69
513.561	9456.31
513.929	9520.71
514.297	9614.94
514.664	9745.56
515.032	9760.48
515.4	9766.13
515.767	9875.96
516.135	9887.48
516.502	9861.27
516.869	10023.07
517.237	10101.94
517.604	10050.19
517.972	10167.92
518.339	10227.81
518.706	10202.5
519.073	10299.9
519.44	10330.41
519.808	10397.52
520.175	10448.6
520.542	10602.04
520.909	10610.17
521.276	10558.87
521.643	10751.41
522.009	10810.39
522.376	10890.17
522.743	10988.02
523.11	11060.1
523.477	11091.29
523.843	11185.75
524.21	11246.54
524.577	11256.26
524.943	11402.69
525.31	11440.21
525.676	11579.19
526.043	11628.68
526.409	11663.48
526.776	11758.17
527.142	11838.62
527.508	11883.81
527.874	11952.28
528.241	12030.25
528.607	12002.23
528.973	12149.34
529.339	12167.19
529.705	12309.79
530.071	12431.14
530.437	12491.71
530.803	12555.66
531.169	12605.37
531.535	12566.28
531.901	12620.29
532.267	12730.57
532.632	12802.21
532.998	12820.74
533.364	12864.35
533.73	12957.46
534.095	13069.77
534.461	13156.55
534.826	13091.46
535.192	13205.58
535.557	13315.86
535.923	13303.21
536.288	13335.53
536.653	13438.57
537.019	13474.28
537.384	13483.77
537.749	13657.55
538.114	13599.25
538.479	13570.1
538.845	13754.05
539.21	13666.14
539.575	13756.3
539.94	13786.59
540.305	13922.63
540.67	13831.33
541.034	13939.58
541.399	14004.89
541.764	14007.82
542.129	14130.53
542.494	14190.42
542.858	14293.92
543.223	14311.09
543.587	14424.99
543.952	14392.9
544.316	14426.8
544.681	14426.8
545.045	14577.75
545.41	14669.73
545.774	14648.71
546.138	14689.39
546.503	14748.37
546.867	14761.25
547.231	14902.04
547.595	14873.11
547.959	14896.16
548.324	14994.92
548.688	14986.56
549.052	15124.18
549.416	15161.92
549.779	15238.07
550.143	15198.75
550.507	15346.09
550.871	15417.28
551.235	15361.46
551.599	15555.58
551.962	15485.98
552.326	15627.44
552.689	15768
553.053	15603.94
553.417	15634.45
553.78	15898.62
554.143	15845.74
554.507	15983.59
554.87	15981.78
555.234	16071.05
555.597	16029.69
555.96	16179.07
556.323	16228.78
556.686	16194.66
557.05	16279.85
557.413	16309.23
557.776	16325.5
558.139	16509.68
558.502	16560.53
558.865	16507.19
559.228	16621.77
559.59	16725.94
559.953	16750.12
560.316	16892.27
560.679	16879.84
561.041	16958.93
561.404	17075.31
561.767	17163.67
562.129	17152.37
562.492	17281.86
562.854	17324.12
563.217	17290.45
563.579	17321.41
563.941	17506.49
564.304	17522.08
564.666	17673.04
565.028	17598.01
565.39	17674.39
565.753	17711.68
566.115	17758.23
566.477	17922.07
566.839	17934.27
567.201	18178.79
567.563	18068.06
567.925	18257.2
568.287	18115.29
568.648	18235.51
569.01	18356.86
569.372	18401.61
569.734	18471.66
570.095	18624.88
570.457	18667.36
570.819	18761.37
571.18	18756.63
571.542	18955.49
571.903	18923.4
572.265	19097.41
572.626	19064.19
572.987	19148.48
573.349	19324.97
573.71	19283.17
574.071	19488.36
574.432	19602.03
574.794	19702.59
575.155	19707.56
575.516	19730.84
575.877	19913.21
576.238	19959.31
576.599	20090.38
576.96	20164.5
577.32	20296.47
577.681	20428.9
578.042	20626.63
578.403	20565.62
578.763	20843.58
579.124	20932.39
579.485	21159.73
579.845	21226.17
580.206	21417.57
580.566	21574.18
580.927	21673.38
581.287	21801.52
581.648	21855.3
582.008	22113.6
582.368	22408.73
582.728	22452.12
583.089	22674.94
583.449	22795.62
583.809	22923.52
584.169	23110.18
584.529	23356.28
584.889	23609.15
585.249	23652.54
585.609	23841.01
585.969	24234.9
586.329	24306.76
586.688	24526.42
587.048	24751.5
587.408	24826.97
587.768	25083.24
588.127	25242.78
588.487	25487.52
588.846	25926.15
589.206	25913.5
589.565	26123.89
589.925	26514.84
590.284	26640.71
590.643	26845.9
591.003	27197.76
591.362	27610.4
591.721	27536.28
592.08	27832.77
592.44	28261.01
592.799	28273.89
593.158	28525.63
593.517	28744.61
593.876	29014.89
594.235	29188.44
594.593	29411.71
594.952	29644.25
595.311	29755.88
595.67	30007.63
596.029	30275.19
596.387	30617.56
596.746	30869.53
597.104	30880.83
597.463	31261.83
597.822	31438.33
598.18	31584.54
598.538	31867.24
598.897	32157.63
599.255	32080.57
599.613	32640.55
599.972	32667.9
600.33	32900.89
600.688	32967.55
601.046	33323.25
601.404	33548.78
601.762	33733.86
602.12	33906.06
602.478	34143.57
602.836	34304.69
603.194	34444.35
603.552	34598.92
603.91	34642.08
604.268	34972.7
604.625	34964.79
604.983	35314.16
605.341	35234.38
605.698	35494.72
606.056	35801.83
606.413	35744.2
606.771	36073.23
607.128	36178.99
607.485	36309.84
607.843	36475.71
608.2	36621.24
608.557	36972.64
608.914	36964.28
609.272	37191.39
609.629	37430.03
609.986	37724.26
610.343	37608.33
610.7	38001.54
611.057	37920.64
611.414	38226.4
611.771	38194.76
612.127	38425.94
612.484	38617.8
612.841	38646.95
613.198	38694.41
613.554	38868.64
613.911	39160.38
614.267	39313.15
614.624	39206.94
614.98	39515.85
615.337	39712.91
615.693	39606.7
616.05	39663.65
616.406	40046.01
616.762	40015.05
617.118	39957.88
617.475	40022.28
617.831	40238.55
618.187	40183.41
618.543	40436.96
618.899	40630.4
619.255	40549.5
619.611	40666.56
619.967	40913.11
620.323	40890.96
620.678	40915.59
621.034	40881.47
621.39	40953.33
621.746	41009.37
622.101	41515.58
622.457	41196.26
622.812	41386.09
623.168	41477.84
623.523	41529.81
623.879	41715.8
624.234	41530.04
624.589	41736.36
624.945	41678.73
625.3	41810.48
625.655	41821.78
626.01	41851.84
626.365	42056.35
626.72	42023.58
627.075	41986.52
627.43	41977.48
627.785	42000.76
628.14	42233.52
628.495	42181.77
628.85	42026.75
629.205	41973.42
629.559	42385.38
629.914	42161.43
630.269	42205.5
630.623	42275.56
630.978	42180.64
631.332	42416.34
631.687	42365.5
632.041	42210.47
632.396	42437.13
632.75	42206.63
633.104	42342.9
633.459	42281.66
633.813	42237.82
634.167	42178.16
634.521	42209.12
634.875	42290.7
635.229	42249.79
635.583	42146.29
635.937	42052.74
636.291	42089.57
636.645	42288.66
636.999	42179.74
637.352	42389.45
637.706	41977.48
638.06	42308.55
638.413	42138.84
638.767	41993.53
639.121	42232.62
639.474	41882.12
639.828	42064.71
640.181	42033.53
640.534	41999.86
640.888	41958.95
641.241	41863.14
641.594	42043.02
641.947	41891.38
642.301	41852.97
642.654	41902.91
643.007	41985.39
643.36	41704.04
643.713	41875.57
644.066	41913.53
644.419	41726.19
644.771	41538.17
645.124	41179.54
645.477	41073.78
645.83	40887.79
646.182	40697.29
646.535	40640.34
646.888	40842.15
647.24	40490.52
647.593	40782.71
647.945	40839.21
648.298	40437.86
648.65	40353.57
649.002	40327.81
649.355	40510.63
649.707	40397.64
650.059	40732.09
650.411	41128.24
650.763	41088.02
651.115	41539.76
651.467	41357.61
651.819	41378.18
652.171	41265.64
652.523	41266.77
652.875	41338.86
653.227	40991.52
653.578	41423.83
653.93	41331.17
654.282	41219.99
654.633	41052.76
654.985	41079.65
655.337	41022.03
655.688	41005.08
656.039	41155.58
656.391	40919.66
656.742	41033.55
657.094	40968.24
657.445	41090.5
657.796	41151.97
658.147	41082.82
658.498	41005.53
658.849	40965.98
659.2	41075.13
659.551	40946.55
659.902	41197.17
660.253	41028.36
660.604	41026.55
660.955	40861.35
661.306	40999.66
661.656	40904.07
662.007	41074.23
662.358	40981.8
662.708	40837.4
663.059	40887.79
663.409	40682.38
663.76	40943.39
664.11	40950.84
664.461	40938.42
664.811	40927.34
665.161	40916.27
665.511	40778.87
665.862	40877.63
666.212	40943.84
666.562	41029.49
666.912	40822.26
667.262	40800.79
667.612	40716.73
667.962	40833.33
668.312	40739.55
668.662	40967.79
669.011	40700.46
669.361	40637.41
669.711	40688.93
670.06	40677.86
670.41	40643.96
670.76	40700
671.109	40698.65
671.459	40597.86
671.808	40521.93
672.157	40748.36
672.507	40412.55
672.856	40571.19
673.205	40598.09
673.554	40606.22
673.904	40451.65
674.253	40765.54
674.602	40593.79
674.951	39979.12
675.3	39840.14
675.649	40456.85
675.998	40301.82
676.346	40387.7
676.695	40497.3
677.044	40244.65
677.393	40334.14
677.741	40291.2
678.09	40131.43
678.438	40170.3
678.787	40216.63
679.135	40213.01
679.484	40034.94
679.832	40233.35
680.181	39978.89
680.529	40104.09
680.877	39959.23
681.225	39890.08
681.573	40264.76
681.922	39870.19
682.27	39720.59
682.618	39739.12
682.966	39740.48
683.314	39738.9
683.661	39676.98
684.009	39510.88
684.357	39406.03
684.705	39342.3
685.053	39505.91
685.4	39203.77
685.748	39077
686.095	39219.36
686.443	39126.49
686.79	39064.79
687.138	39103.21
687.485	39103.89
687.832	38973.27
688.18	38949.77
688.527	38774.63
688.874	38729.43
689.221	38744.8
689.568	38592.26
689.915	38416.9
690.262	38463.9
690.609	38391.59
690.956	38320.4
691.303	38296.9
691.65	38151.14
691.997	38004.93
692.344	37946.18
692.69	37819.4
693.037	37774.43
693.383	37540.99
693.73	37650.82
694.077	37308.68
694.423	37463.7
694.769	37256.25
695.116	37236.82
695.462	37232.52
695.808	37216.25
696.155	37116.37
696.501	36775.13
696.847	36955.02
697.193	36606.1
697.539	36810.84
697.885	36443.84
698.231	36351.42
698.577	36455.6
698.923	36437.97
699.269	36237.07
699.614	35988.94
699.96	36021.03
700.306	36059.9
700.651	35812.22
700.997	35815.61
701.342	35649.51
701.688	35624.88
702.033	35582.17
702.379	35453.81
702.724	35503.08
703.069	35477.09
703.415	35013.37
703.76	35157.55
704.105	35096.76
704.45	35036.65
704.795	34871.68
705.14	34807.05
705.485	34710.78
705.83	34551.92
706.175	34399.83
706.52	34458.59
706.865	34275.99
707.209	34463.33
707.554	34279.83
707.899	34306.73
708.243	34116
708.588	34139.27
708.932	33914.87
709.277	33852.73
709.621	33932.72
709.966	33582.68
710.31	33657.48
710.654	33505.16
710.998	33621.32
711.342	33486.18
711.687	33316.69
712.031	33353.76
712.375	33201.44
712.719	33324.15
713.063	33102.24
713.407	33286.41
713.75	32888.91
714.094	32946.31
714.438	32909.93
714.782	32949.7
715.125	32616.15
715.469	32738.4
715.812	32631.06
716.156	32552.19
716.499	32498.86
716.843	32598.07
717.186	32289.6
717.53	32449.15
717.873	32355.14
718.216	32347.91
718.559	32196.27
718.902	31941.59
719.246	32105.65
719.589	31976.84
719.932	31950.63
720.275	31899.33
720.617	31824.3
720.96	31880.57
721.303	31847.13
721.646	31730.52
721.989	31532.56
722.331	31585.21
722.674	31549.51
723.016	31605.55
723.359	31505.89
723.701	31464.99
724.044	31266.8
724.386	31273.58
724.729	31274.94
725.071	31062.06
725.413	31272.91
725.755	31177.32
726.097	31052.8
726.439	30770.09
726.782	30841.05
727.124	30964.67
727.465	30802.64
727.807	30868.4
728.149	30687.16
728.491	30738.46
728.833	30747.72
729.175	30585.02
729.516	30532.36
729.858	30439.03
730.199	30519.48
730.541	30391.12
730.882	30392.03
731.224	30494.85
731.565	30266.83
731.906	30333.95
732.248	30306.6
732.589	30110.68
732.93	29993.84
733.271	30180.73
733.612	30188.19
733.953	30092.37
734.294	29887.86
734.635	29891.02
734.976	29918.59
735.317	29693.74
735.658	29788.43
735.999	29891.93
736.339	29690.35
736.68	29884.24
737.021	29712.5
737.361	29512.73
737.702	29768.09
738.042	29559.96
738.383	29438.6
738.723	29507.08
739.063	29335.1
739.404	29537.81
739.744	29338.49
740.084	29310.02
740.424	29229.12
740.764	29174.88
741.104	29394.54
741.444	29047.2
741.784	29034.55
742.124	29097.14
742.464	29055.11
742.804	28952.97
743.143	28873.65
743.483	28906.64
743.823	28645.63
744.162	28811.73
744.502	28737.61
744.841	28667.1
745.181	28728.57
745.52	28606.31
745.86	28708.68
746.199	28486.99
746.538	28565.18
746.877	28547.1
747.216	28545.97
747.556	28315.7
747.895	28453.77
748.234	28312.31
748.573	28289.26
748.911	28206.32
749.25	28238.41
749.589	28167.23
749.928	28150.73
750.267	28120.45
750.605	28012.88
750.944	28011.52
751.283	27829.16
751.621	27935.82
751.96	27781.25
752.298	27729.04
752.636	27700.8
752.975	27669.84
753.313	27496.96
753.651	27520.24
753.989	27496.96
754.327	27523.4
754.666	27322.28
755.004	27379.45
755.342	27296.97
755.679	27235.27
756.017	27198.89
756.355	27308.72
756.693	27028.5
757.031	27142.62
757.368	26890.87
