Data from hue_310_FLMS001491_11.txt Node
Date: Mon Feb 06 15:48:53 GMT 2017
User: dcchb
Spectrometer: FLMS00149
Trigger mode: 0
Integration Time (sec): 2.000000E-2
Scans to average: 10
Electric dark correction enabled: true
Nonlinearity correction enabled: false
Boxcar width: 0
XAxis mode: Wavelengths
Number of Pixels in Spectrum: 2048
>>>>>Begin Spectral Data<<<<<
341.393	-7.87
341.776	-7.87
342.16	-7.87
342.543	-79.5
342.927	-59.84
343.31	-95.1
343.693	-85.38
344.077	-59.39
344.46	-53.97
344.843	-57.58
345.226	-44.93
345.61	-25.95
345.993	-18.71
346.376	-20.75
346.759	10.21
347.142	44.56
347.525	49.53
347.908	78.23
348.291	57.67
348.674	99.25
349.057	122.3
349.44	120.72
349.823	145.12
350.206	170.21
350.588	190.09
350.971	187.61
351.354	210.21
351.737	232.58
352.119	240.26
352.502	271.45
352.884	280.49
353.267	286.14
353.65	288.62
354.032	292.69
354.414	292.69
354.797	305.57
355.179	318
355.562	280.04
355.944	334.5
356.326	317.32
356.709	334.72
357.091	325.23
357.473	356.19
357.855	332.69
358.238	344.89
358.62	337.43
359.002	322.29
359.384	322.07
359.766	332.69
360.148	312.12
360.53	344.44
360.912	323.2
361.294	324.78
361.676	316.42
362.057	320.26
362.439	340.6
362.821	329.07
363.203	324.55
363.584	328.85
363.966	326.59
364.348	317.55
364.729	325.01
365.111	305.8
365.493	329.53
365.874	316.64
366.256	306.93
366.637	308.73
367.019	336.76
367.4	300.83
367.781	309.64
368.163	295.63
368.544	297.44
368.925	319.58
369.306	323.42
369.688	309.41
370.069	314.84
370.45	302.86
370.831	293.14
371.212	301.73
371.593	324.55
371.974	319.36
372.355	319.58
372.736	308.28
373.117	292.92
373.498	310.32
373.879	324.1
374.26	301.96
374.641	307.38
375.021	303.09
375.402	318.23
375.783	331.79
376.163	321.16
376.544	325.68
376.925	326.36
377.305	328.85
377.686	307.83
378.066	301.96
378.447	333.14
378.827	318.23
379.208	313.03
379.588	328.4
379.968	334.27
380.349	347.38
380.729	308.73
381.109	327.04
381.489	327.72
381.87	320.94
382.25	317.55
382.63	335.17
383.01	325.01
383.39	324.55
383.77	336.53
384.15	353.71
384.53	320.26
384.91	333.59
385.29	332.91
385.67	324.33
386.049	376.53
386.429	340.6
386.809	336.3
387.189	344.21
387.568	321.39
387.948	339.47
388.328	348.51
388.707	342.41
389.087	329.07
389.466	338.34
389.846	373.37
390.225	378.11
390.605	360.03
390.984	353.03
391.363	365.91
391.743	364.33
392.122	372.69
392.501	364.78
392.881	374.72
393.26	347.15
393.639	350.54
394.018	361.84
394.397	376.76
394.776	365.46
395.155	376.08
395.534	373.82
395.913	391.44
396.292	367.26
396.671	369.75
397.05	382.41
397.429	376.3
397.808	374.27
398.186	388.28
398.565	376.98
398.944	386.7
399.323	382.18
399.701	392.57
400.08	393.25
400.458	403.65
400.837	406.36
401.215	404.78
401.594	423.53
401.972	410.43
402.351	419.47
402.729	397.32
403.107	393.93
403.486	412.69
403.864	393.25
404.242	405
404.62	418.11
404.999	433.7
405.377	424.21
405.755	432.8
406.133	437.77
406.511	432.8
406.889	428.51
407.267	438
407.645	439.8
408.023	468.28
408.401	452.91
408.779	454.72
409.156	463.31
409.534	448.39
409.912	459.47
410.29	476.64
410.667	487.26
411.045	509.18
411.422	488.62
411.8	490.65
412.178	518.67
412.555	522.06
412.933	531.33
413.31	532.01
413.687	524.77
414.065	531.1
414.442	549.86
414.819	545.34
415.197	551.89
415.574	563.64
415.951	564.1
416.328	572.46
416.705	590.54
417.082	604.09
417.46	603.64
417.837	606.81
418.214	644.55
418.591	635.96
418.967	641.16
419.344	626.69
419.721	668.5
420.098	635.51
420.475	663.3
420.852	658.33
421.228	688.61
421.605	671.66
421.982	694.94
422.358	711.44
422.735	698.78
423.111	699.23
423.488	727.48
423.864	733.58
424.241	723.19
424.617	747.59
424.994	756.18
425.37	771.55
425.746	741.04
426.123	755.05
426.499	786.46
426.875	795.95
427.251	788.95
427.627	778.78
428.003	809.29
428.379	812.68
428.756	815.16
429.132	844.77
429.507	862.84
429.883	880.02
430.259	863.07
430.635	853.81
431.011	892
431.387	922.96
431.763	917.08
432.138	906.01
432.514	940.36
432.89	950.53
433.265	960.7
433.641	973.35
434.016	963.63
434.392	983.97
434.767	995.04
435.143	981.26
435.518	1009.51
435.894	1022.61
436.269	1014.7
436.644	1041.82
437.02	1042.27
437.395	1069.39
437.77	1075.04
438.145	1089.73
438.52	1088.38
438.895	1110.3
439.271	1095.15
439.646	1130.41
440.021	1141.03
440.395	1146
440.77	1113.23
441.145	1131.09
441.52	1151.88
441.895	1151.42
442.27	1173.57
442.645	1159.33
443.019	1171.31
443.394	1177.64
443.769	1199.11
444.143	1186.68
444.518	1193.01
444.892	1171.99
445.267	1193.23
445.641	1235.94
446.016	1189.62
446.39	1227.81
446.764	1233.23
447.139	1221.93
447.513	1258.09
447.887	1235.04
448.262	1250.4
448.636	1238.88
449.01	1242.72
449.384	1267.58
449.758	1270.29
450.132	1253.79
450.506	1287.92
450.88	1266
451.254	1271.2
451.628	1297.41
452.002	1310.06
452.376	1306.45
452.75	1312.32
453.123	1318.2
453.497	1331.53
453.871	1341.25
454.244	1353.91
454.618	1346
454.992	1379.67
455.365	1388.03
455.739	1381.93
456.112	1386.45
456.486	1412.66
456.859	1419.67
457.232	1408.59
457.606	1420.8
457.979	1430.97
458.352	1464.41
458.725	1481.36
459.099	1447.24
459.472	1495.14
459.845	1501.7
460.218	1509.16
460.591	1532.88
460.964	1498.53
461.337	1548.25
461.71	1541.24
462.083	1565.42
462.456	1561.81
462.829	1571.75
463.201	1605.65
463.574	1590.06
463.947	1615.82
464.32	1646.33
464.692	1632.54
465.065	1641.58
465.438	1660.79
465.81	1686.1
466.183	1695.14
466.555	1709.83
466.928	1696.04
467.3	1750.28
467.672	1721.81
468.045	1758.87
468.417	1749.37
468.789	1772.65
469.161	1799.54
469.534	1798.87
469.906	1840.45
470.278	1842.93
470.65	1853.78
471.022	1894.23
471.394	1890.39
471.766	1888.35
472.138	1948.47
472.51	1985.3
472.882	2001.57
473.253	1987.56
473.625	2018.29
473.997	2056.49
474.369	2045.64
474.74	2041.12
475.112	2088.8
475.484	2086.99
475.855	2136.03
476.227	2138.07
476.598	2186.88
476.97	2179.42
477.341	2254.22
477.713	2241.79
478.084	2285.41
478.455	2278.63
478.827	2277.95
479.198	2345.52
479.569	2387.55
479.94	2383.26
480.311	2365.86
480.682	2435.01
481.053	2479.98
481.424	2516.59
481.795	2540.77
482.166	2555
482.537	2573.53
482.908	2599.3
483.279	2625.96
483.65	2659.86
484.021	2698.5
484.391	2722
484.762	2730.14
485.133	2737.82
485.503	2776.69
485.874	2790.03
486.244	2839.74
486.615	2864.37
486.985	2891.04
487.356	2918.61
487.726	2898.27
488.097	2970.59
488.467	2954.31
488.837	3042.45
489.207	3056.91
489.578	3082.9
489.948	3103.46
490.318	3127.87
490.688	3155.44
491.058	3152.95
491.428	3200.18
491.798	3256.68
492.168	3285.83
492.538	3262.33
492.908	3278.6
493.278	3358.82
493.648	3363.8
494.017	3336
494.387	3457.13
494.757	3395.43
495.126	3465.71
495.496	3467.07
495.866	3471.36
496.235	3486.28
496.605	3516.11
496.974	3526.05
497.344	3568.54
497.713	3577.35
498.082	3573.96
498.452	3609.66
498.821	3643.79
499.19	3637.01
499.559	3681.98
499.928	3675.65
500.298	3686.05
500.667	3731.02
501.036	3697.57
501.405	3709.78
501.774	3745.48
502.143	3763.79
502.512	3787.06
502.88	3821.64
503.249	3774.18
503.618	3802.2
503.987	3823.9
504.356	3883.33
504.724	3853.05
505.093	3861.86
505.462	3884.91
505.83	3884.69
506.199	3912.48
506.567	3954.51
506.936	3955.42
507.304	3998.13
507.672	3962.2
508.041	3993.16
508.409	4010.33
508.777	4021.63
509.145	4061.4
509.514	4076.32
509.882	4071.12
510.25	4083.1
510.618	4048.07
510.986	4080.84
511.354	4046.26
511.722	4127.84
512.09	4161.97
512.458	4118.8
512.826	4157.22
513.193	4194.06
513.561	4206.94
513.929	4203.55
514.297	4199.03
514.664	4184.11
515.032	4224.11
515.4	4262.53
515.767	4290.33
516.135	4318.57
516.502	4258.24
516.869	4288.74
517.237	4289.87
517.604	4299.82
517.972	4362.41
518.339	4349.53
518.706	4299.14
519.073	4377.78
519.44	4383.66
519.808	4394.96
520.175	4400.83
520.542	4440.15
520.909	4442.19
521.276	4430.43
521.643	4452.13
522.009	4491.68
522.376	4531.22
522.743	4498
523.11	4536.87
523.477	4531.9
523.843	4579.58
524.21	4598.11
524.577	4604.67
524.943	4663.87
525.31	4668.39
525.676	4665.46
526.043	4722.4
526.409	4708.85
526.776	4732.57
527.142	4748.17
527.508	4765.57
527.874	4827.26
528.241	4831.33
528.607	4821.84
528.973	4894.38
529.339	4898.44
529.705	4954.94
530.071	4969.4
530.437	4944.32
530.803	5007.37
531.169	5036.52
531.535	5028.16
531.901	5029.51
532.267	5112.68
532.632	5085.33
532.998	5117.65
533.364	5126.69
533.73	5151.09
534.095	5202.62
534.461	5197.19
534.826	5210.75
535.192	5219.57
535.557	5283.07
535.923	5278.55
536.288	5276.51
536.653	5330.07
537.019	5306.57
537.384	5301.6
537.749	5349.51
538.114	5409.84
538.479	5438.54
538.845	5399
539.21	5432.67
539.575	5473.8
539.94	5480.35
540.305	5530.29
540.67	5549.73
541.034	5558.54
541.399	5596.05
541.764	5616.17
542.129	5600.12
542.494	5635.37
542.858	5669.27
543.223	5675.37
543.587	5708.14
543.952	5732.55
544.316	5764.18
544.681	5742.49
545.045	5825.65
545.41	5844.86
545.774	5822.94
546.138	5889.15
546.503	5889.38
546.867	5901.36
547.231	5947.46
547.595	5935.03
547.959	5975.7
548.324	5959.43
548.688	6042.14
549.052	6025.42
549.416	6084.4
549.779	6071.97
550.143	6036.27
550.507	6144.74
550.871	6110.16
551.235	6176.6
551.599	6188.13
551.962	6177.73
552.326	6217.73
552.689	6250.95
553.053	6225.64
553.417	6230.39
553.78	6315.58
554.143	6274.68
554.507	6323.49
554.87	6351.97
555.234	6384.28
555.597	6387.45
555.96	6423.83
556.323	6389.48
556.686	6447.56
557.05	6433.55
557.413	6472.64
557.776	6544.73
558.139	6505.41
558.502	6575.24
558.865	6508.35
559.228	6599.19
559.59	6659.08
559.953	6622.69
560.316	6641.9
560.679	6656.82
561.041	6715.12
561.404	6751.73
561.767	6787.89
562.129	6766.42
562.492	6724.16
562.854	6784.5
563.217	6841.44
563.579	6838.73
563.941	6819.52
564.304	6842.8
564.666	6855.23
565.028	6938.62
565.39	6921.67
565.753	6964.61
566.115	6999.41
566.477	6948.79
566.839	7024.94
567.201	7105.39
567.563	7087.77
567.925	7112.85
568.287	7168.67
568.648	7172.06
569.01	7174.09
569.372	7244.82
569.734	7210.47
570.095	7287.08
570.457	7304.48
570.819	7363.01
571.18	7393.07
571.542	7372.5
571.903	7439.85
572.265	7454.08
572.626	7561.88
572.987	7567.3
573.349	7599.39
573.71	7693.17
574.071	7675.32
574.432	7771.36
574.794	7817.24
575.155	7870.12
575.516	7810.46
575.877	7946.95
576.238	8003.67
576.599	8071.69
576.96	8106.95
577.32	8163.44
577.681	8274.4
578.042	8313.27
578.403	8450.67
578.763	8505.58
579.124	8613.15
579.485	8734.73
579.845	8807.72
580.206	8890.88
580.566	8985.79
580.927	9092.46
581.287	9278.89
581.648	9320.02
582.008	9548.94
582.368	9637.76
582.728	9747.13
583.089	9932.21
583.449	10013.34
583.809	10209.72
584.169	10456.72
584.529	10539.2
584.889	10790.95
585.249	10955.23
585.609	11137.38
585.969	11399.97
586.329	11531.49
586.688	11732.62
587.048	11977.13
587.408	12203.56
587.768	12375.31
588.127	12618.92
588.487	12835.41
588.846	13163.31
589.206	13267.49
589.565	13523.75
589.925	13844.42
590.284	14120.58
590.643	14361.02
591.003	14671.07
591.362	14988.8
591.721	15105.18
592.08	15468.11
592.44	15824.26
592.799	16079.85
593.158	16259.28
593.517	16697.46
593.876	16951.91
594.235	17146.94
594.593	17462.86
594.952	17786.02
595.311	18006.12
595.67	18395.72
596.029	18846.78
596.387	19143.27
596.746	19335.58
597.104	19602.01
597.463	19851.5
597.822	20274.09
598.18	20442.44
598.538	20759.27
598.897	21098.47
599.255	21237.68
599.613	21848.96
599.972	21975.96
600.33	22393.58
600.688	22527.36
601.046	22928.71
601.404	23252.54
601.762	23465.64
602.12	23720.77
602.478	24050.94
602.836	24343.36
603.194	24513.07
603.552	24882.78
603.91	24965.94
604.268	25435.98
604.625	25605.7
604.983	25889.76
605.341	25997.78
605.698	26337.88
606.056	26810.18
606.413	26987.81
606.771	27297.18
607.128	27531.07
607.485	27504.18
607.843	27892.64
608.2	28218.51
608.557	28439.29
608.914	28537.37
609.272	28953.41
609.629	29255.54
609.986	29532.37
610.343	29532.37
610.7	30009.42
611.057	30023.89
611.414	30198.12
611.771	30302.07
612.127	30601.95
612.484	30787.48
612.841	31067.02
613.198	31160.13
613.554	31283.97
613.911	31566.67
614.267	31741.13
614.624	31899.77
614.98	32169.82
615.337	32399.64
615.693	32510.83
616.05	32408.91
616.406	32985.62
616.762	32937.93
617.118	33125.27
617.475	33285.72
617.831	33497.47
618.187	33607.07
618.543	33741.3
618.899	33989.66
619.255	34048.64
619.611	34099.94
619.967	34313.49
620.323	34508.74
620.678	34489.98
621.034	34538.12
621.39	34724.55
621.746	34759.35
622.101	35223.97
622.457	35041.38
622.812	35261.49
623.168	35384.2
623.523	35409.96
623.879	35505.78
624.234	35581.48
624.589	35657.18
624.945	35735.83
625.3	35797.75
625.655	35912.09
626.01	36096.04
626.365	36177.4
626.72	36162.48
627.075	36222.14
627.43	36202.93
627.785	36230.95
628.14	36464.85
628.495	36448.12
628.85	36448.58
629.205	36474.56
629.559	36685.41
629.914	36559.08
630.269	36708
630.623	36667.78
630.978	36541.45
631.332	36718.17
631.687	37029.13
632.041	36765.18
632.396	37002.23
632.75	36684.95
633.104	36941.9
633.459	36790.26
633.813	36852.18
634.167	36910.03
634.521	36961.1
634.875	37005.85
635.229	36963.14
635.583	36770.15
635.937	36945.29
636.291	36788.23
636.645	36874.1
636.999	36857.83
637.352	36989.13
637.706	36851.05
638.06	37048.11
638.413	36982.35
638.767	36935.34
639.121	36997.04
639.474	36875
639.828	36815.57
640.181	36849.69
640.534	36886.76
640.888	36948
641.241	36736.93
641.594	36918.17
641.947	36946.42
642.301	36844.95
642.654	36740.55
643.007	36944.61
643.36	36888.11
643.713	36782.58
644.066	37015.34
644.419	36759.08
644.771	36386.88
645.124	36125.19
645.477	36096.95
645.83	35951.41
646.182	35934.69
646.535	35875.26
646.888	35806.33
647.24	35664.19
647.593	35823.51
647.945	35684.3
648.298	35612.44
648.65	35586.23
649.002	35498.32
649.355	35642.95
649.707	35698.09
650.059	35648.14
650.411	36117.74
650.763	36209.94
651.115	36491.29
651.467	36431.85
651.819	36545.07
652.171	36360.22
652.523	36346.66
652.875	36392.31
653.227	36293.55
653.578	36483.6
653.93	36389.59
654.282	36223.27
654.633	36133.56
654.985	36361.12
655.337	36231.86
655.688	36196.38
656.039	36277.05
656.391	36095.14
656.742	36187.57
657.094	36207
657.445	36229.6
657.796	36146.89
658.147	36249.48
658.498	36132.43
658.849	36224.17
659.2	36143.5
659.551	36013.11
659.902	36120.9
660.253	36144.63
660.604	36256.04
660.955	35990.06
661.306	36049.04
661.656	35951.87
662.007	36028.93
662.358	35990.51
662.708	36085.2
663.059	36040.9
663.409	35751.19
663.76	36027.34
664.11	36039.77
664.461	36140.11
664.811	36025.99
665.161	35948.93
665.511	35944.18
665.862	35997.51
666.212	36152.99
666.562	36033.22
666.912	35945.76
667.262	35812.66
667.612	35931.75
667.962	35970.62
668.312	35868.03
668.662	35973.33
669.011	35966.55
669.361	35932.43
669.711	35961.81
670.06	35767.24
670.41	35878.65
670.76	35901.47
671.109	35906.89
671.459	35932.88
671.808	35791.64
672.157	35839.1
672.507	35572.21
672.856	35633.68
673.205	35774.47
673.554	35778.76
673.904	35684.98
674.253	35814.92
674.602	35681.36
674.951	35155.05
675.3	34984.43
675.649	35646.34
675.998	35543.06
676.346	35522.05
676.695	35663.51
677.044	35364.54
677.393	35496.06
677.741	35609.73
678.09	35404.08
678.438	35379
678.787	35489.05
679.135	35530.18
679.484	35365.67
679.832	35396.85
680.181	35100.81
680.529	35328.83
680.877	35204.31
681.225	35334.93
681.573	35330.19
681.922	35141.27
682.27	35101.94
682.618	35025.56
682.966	34896.3
683.314	34917.54
683.661	34852.46
684.009	34760.26
684.357	34684.1
684.705	34629.87
685.053	34780.6
685.4	34624.44
685.748	34386.93
686.095	34492.02
686.443	34336.09
686.79	34240.72
687.138	34355.3
687.485	34524.56
687.832	34083.44
688.18	34113.95
688.527	34082.54
688.874	33982.2
689.221	33977.68
689.568	33749.66
689.915	33864.46
690.262	33783.33
690.609	33797.8
690.956	33434.87
691.303	33506.73
691.65	33424.02
691.997	33335.66
692.344	33258.83
692.69	33180.86
693.037	33253.63
693.383	32972.73
693.73	33094.31
694.077	32914.21
694.423	32986.29
694.769	32725.51
695.116	32723.93
695.462	32774.1
695.808	32643.03
696.155	32509.24
696.501	32423.82
696.847	32450.71
697.193	32116.26
697.539	32276.26
697.885	31971.86
698.231	31905.64
698.577	32041.69
698.923	31909.03
699.269	31691.64
699.614	31555.37
699.96	31636.72
700.306	31580.91
700.651	31380.91
700.997	31457.52
701.342	31292.78
701.688	31222.5
702.033	31114.48
702.379	31089.62
702.724	31154.7
703.069	31128.72
703.415	30759.91
703.76	30831.1
704.105	30754.26
704.45	30690.76
704.795	30608.96
705.14	30527.6
705.485	30451.67
705.83	30318.57
706.175	30326.25
706.52	30277.44
706.865	30074.28
707.209	30090.78
707.554	29996.09
707.899	30109.76
708.243	29884.68
708.588	29986.6
708.932	29773.72
709.277	29696.44
709.621	29673.16
709.966	29540.96
710.31	29708.41
710.654	29296.9
710.998	29438.36
711.342	29338.71
711.687	29237.69
712.031	29117.24
712.375	29009
712.719	29079.05
713.063	29021.88
713.407	29082.67
713.75	28903.69
714.094	28896.46
714.438	28766.29
714.782	28941.43
715.125	28686.75
715.469	28675.9
715.812	28646.29
716.156	28354.78
716.499	28402.01
716.843	28455.79
717.186	28327.89
717.53	28378.73
717.873	28482.01
718.216	28291.28
718.559	28182.13
718.902	27992.75
719.246	28088.12
719.589	27941.91
719.932	27890.83
720.275	27892.87
720.617	27839.99
720.96	27806.99
721.303	27776.71
721.646	27792.31
721.989	27679.54
722.331	27622.37
722.674	27580.11
723.016	27659.65
723.359	27538.08
723.701	27612.88
724.044	27388.02
724.386	27300.12
724.729	27475.93
725.071	27235.94
725.413	27305.31
725.755	27364.97
726.097	27203.62
726.439	27122.49
726.782	27049.73
727.124	27230.06
727.465	26990.97
727.807	26934.25
728.149	26948.94
728.491	26883.86
728.833	26894.48
729.175	26754.14
729.516	26670.3
729.858	26788.94
730.199	26657.87
730.541	26565.9
730.882	26575.16
731.224	26618.1
731.565	26335.4
731.906	26414.26
732.248	26426.24
732.589	26261.05
732.93	26320.25
733.271	26302.63
733.612	26281.84
733.953	26428.27
734.294	26153.93
734.635	26016.53
734.976	26133.82
735.317	26028.74
735.658	26021.28
735.999	26033.48
736.339	25994.16
736.68	25971.11
737.021	25874.16
737.361	25797.33
737.702	25949.42
738.042	25865.8
738.383	25752.81
738.723	25753.72
739.063	25712.59
739.404	25705.36
739.744	25629.2
740.084	25478.69
740.424	25573.38
740.764	25500.84
741.104	25636.66
741.444	25513.72
741.784	25380.39
742.124	25440.05
742.464	25407.28
742.804	25364.57
743.143	25276.67
743.483	25319.38
743.823	25049.78
744.162	25009.78
744.502	25133.39
744.841	25048.88
745.181	25089.78
745.52	24981.98
745.86	25139.72
746.199	24971.36
746.538	25045.94
746.877	25040.06
747.216	24884.81
747.556	24820.63
747.895	24855.66
748.234	24756.23
748.573	24708.55
748.911	24653.63
749.25	24609.11
749.589	24620.64
749.928	24602.33
750.267	24577.7
750.605	24438.72
750.944	24403.92
751.283	24425.61
751.621	24507.87
751.96	24317.6
752.298	24240.08
752.636	24222.91
752.975	24140.65
753.313	24003.25
753.651	24152.85
753.989	24008.45
754.327	23899.53
754.666	23890.94
755.004	23867.44
755.342	23931.84
755.679	23804.61
756.017	23673.77
756.355	23704.05
756.693	23654.56
757.031	23608.91
757.368	23542.47
757.706	23385.19
758.044	23453.44
758.381	23429.71
758.719	23349.48
759.056	23382.7
759.394	23301.35
759.731	23076.5
760.068	23014.58
