Data from hue_36_FLMS001491_00053.txt Node
Date: Tue Feb 07 17:29:59 GMT 2017
User: dcchb
Spectrometer: FLMS00149
Trigger mode: 0
Integration Time (sec): 2.000000E-2
Scans to average: 10
Electric dark correction enabled: true
Nonlinearity correction enabled: false
Boxcar width: 0
XAxis mode: Wavelengths
Number of Pixels in Spectrum: 2048
>>>>>Begin Spectral Data<<<<<
341.393	-25
341.776	-25
342.16	-25
342.543	-59.57
342.927	-79.69
343.31	-91.21
343.693	-73.59
344.077	-75.39
344.46	-75.85
344.843	-60.25
345.226	-43.08
345.61	-30.65
345.993	-19.35
346.376	14.55
346.759	4.83
347.142	37.82
347.525	39.63
347.908	94.09
348.291	57.48
348.674	105.39
349.057	115.56
349.44	152.62
349.823	141.1
350.206	161.89
350.588	193.75
350.971	219.97
351.354	217.03
351.737	240.08
352.119	271.72
352.502	266.07
352.884	264.94
353.267	285.05
353.65	288.66
354.032	304.71
354.414	319.85
354.797	327.08
355.179	320.3
355.562	328.89
355.944	322.56
356.326	336.57
356.709	336.12
357.091	323.01
357.473	351.94
357.855	336.57
358.238	364.37
358.62	346.06
359.002	351.71
359.384	346.97
359.766	330.92
360.148	339.28
360.53	331.6
360.912	341.54
361.294	344.48
361.676	329.79
362.057	349.91
362.439	329.57
362.821	349.45
363.203	358.95
363.584	333.86
363.966	338.61
364.348	339.96
364.729	323.69
365.111	325.95
365.493	321.43
365.874	316.46
366.256	317.82
366.637	334.31
367.019	325.5
367.4	309
367.781	328.44
368.163	328.44
368.544	323.92
368.925	320.53
369.306	303.13
369.688	303.58
370.069	311.49
370.45	345.16
370.831	308.78
371.212	307.65
371.593	325.05
371.974	318.49
372.355	308.33
372.736	312.84
373.117	321.21
373.498	299.74
373.879	314.65
374.26	316.01
374.641	309.23
375.021	290.47
375.402	326.4
375.783	326.18
376.163	333.64
376.544	349.23
376.925	332.28
377.305	336.57
377.686	330.92
378.066	315.56
378.447	317.82
378.827	334.99
379.208	340.19
379.588	337.48
379.968	324.82
380.349	334.77
380.729	346.06
381.109	340.87
381.489	330.92
381.87	325.95
382.25	335.9
382.63	341.09
383.01	321.88
383.39	346.06
383.77	353.52
384.15	340.19
384.53	348.78
384.91	350.58
385.29	336.57
385.67	356.91
386.049	330.7
386.429	341.77
386.809	352.84
387.189	359.85
387.568	342.45
387.948	359.17
388.328	347.87
388.707	345.84
389.087	348.55
389.466	349.23
389.846	340.19
390.225	384.93
390.605	387.87
390.984	378.15
391.363	366.18
391.743	346.97
392.122	371.37
392.501	384.03
392.881	372.96
393.26	381.77
393.639	364.82
394.018	363.47
394.397	379.28
394.776	374.54
395.155	362.11
395.534	370.92
395.913	374.54
396.292	370.7
396.671	366.4
397.05	372.28
397.429	369.11
397.808	390.13
398.186	386.74
398.565	378.15
398.944	363.69
399.323	377.02
399.701	382.67
400.08	387.65
400.458	378.38
400.837	386.74
401.215	386.29
401.594	384.26
401.972	396.23
402.351	396.91
402.729	387.19
403.107	381.32
403.486	392.39
403.864	402.56
404.242	413.18
404.62	423.12
404.999	386.97
405.377	395.1
405.755	386.74
406.133	385.84
406.511	410.47
406.889	416.8
407.267	423.8
407.645	405.72
408.023	425.38
408.401	432.16
408.779	429.45
409.156	419.96
409.534	407.31
409.912	415.89
410.29	434.42
410.667	432.84
411.045	436.91
411.422	437.14
411.8	425.84
412.178	429
412.555	456.8
412.933	449.79
413.31	457.7
413.687	448.43
414.065	455.44
414.442	459.06
414.819	439.85
415.197	451.37
415.574	490.47
415.951	455.44
416.328	465.61
416.705	445.95
417.082	475.78
417.46	491.37
417.837	491.82
418.214	460.19
418.591	485.5
418.967	488.43
419.344	495.66
419.721	493.63
420.098	475.33
420.475	513.74
420.852	494.76
421.228	497.25
421.605	517.81
421.982	497.02
422.358	496.12
422.735	530.24
423.111	518.04
423.488	525.27
423.864	516
424.241	516.46
424.617	521.43
424.994	530.01
425.37	534.31
425.746	537.47
426.123	555.32
426.499	535.89
426.875	554.19
427.251	530.01
427.627	552.16
428.003	565.49
428.379	582.67
428.756	579.05
429.132	575.66
429.507	574.76
429.883	588.54
430.259	589
430.635	595.1
431.011	587.87
431.387	602.33
431.763	593.74
432.138	591.03
432.514	610.46
432.89	622.67
433.265	595.78
433.641	626.73
434.016	628.54
434.392	613.85
434.767	634.87
435.143	648.2
435.518	656.79
435.894	642.33
436.269	655.89
436.644	648.88
437.02	655.21
437.395	661.08
437.77	664.25
438.145	678.48
438.52	678.26
438.895	683.91
439.271	661.08
439.646	692.72
440.021	697.92
440.395	693.85
440.77	709.22
441.145	711.48
441.52	702.67
441.895	707.86
442.27	721.87
442.645	711.48
443.019	725.04
443.394	710.8
443.769	706.05
444.143	748.31
444.518	735.88
444.892	729.78
445.267	737.01
445.641	762.32
446.016	740.86
446.39	775.88
446.764	753.96
447.139	752.83
447.513	766.84
447.887	755.32
448.262	765.26
448.636	793.96
449.01	783.12
449.384	791.48
449.758	776.34
450.132	781.53
450.506	788.76
450.88	803.45
451.254	812.72
451.628	821.53
452.002	835.77
452.376	837.8
452.75	829.22
453.123	807.52
453.497	842.55
453.871	856.33
454.244	852.27
454.618	851.14
454.992	884.36
455.365	884.36
455.739	890.91
456.112	885.03
456.486	901.53
456.859	900.85
457.232	918.7
457.606	918.93
457.979	929.78
458.352	925.48
458.725	970.45
459.099	961.87
459.472	952.83
459.845	944.47
460.218	993.28
460.591	1015.43
460.964	1001.64
461.337	1017.69
461.71	1047.06
462.083	1070.34
462.456	1039.61
462.829	1060.4
463.201	1073.05
463.574	1091.58
463.947	1088.87
464.32	1130.68
464.692	1129.55
465.065	1123.22
465.438	1143.78
465.81	1165.48
466.183	1170.22
466.555	1186.49
466.928	1217.23
467.3	1200.51
467.672	1259.94
468.045	1237.34
468.417	1271.24
468.789	1287.06
469.161	1297.9
469.534	1308.98
469.906	1331.58
470.278	1377.68
470.65	1377.45
471.022	1433.95
471.394	1422.42
471.766	1449.09
472.138	1460.39
472.51	1518.01
472.882	1539.03
473.253	1552.13
473.625	1609.08
473.997	1636.43
474.369	1642.98
474.74	1679.81
475.112	1719.59
475.484	1750.55
475.855	1795.97
476.227	1829.42
476.598	1886.36
476.97	1898.79
477.341	1964.78
477.713	2001.16
478.084	2034.16
478.455	2092.91
478.827	2139.92
479.198	2205.9
479.569	2251.78
479.94	2316.18
480.311	2358.21
480.682	2436.86
481.053	2466.01
481.424	2571.32
481.795	2617.19
482.166	2728.83
482.537	2705.1
482.908	2843.63
483.279	2899.9
483.65	2954.13
484.021	3081.13
484.391	3133.56
484.762	3162.26
485.133	3257.17
485.503	3327.68
485.874	3436.38
486.244	3525.19
486.615	3597.96
486.985	3710.72
487.356	3804.28
487.726	3856.03
488.097	3952.52
488.467	4010.83
488.837	4153.42
489.207	4231.61
489.578	4335.56
489.948	4484.03
490.318	4528.1
490.688	4605.61
491.058	4709.11
491.428	4881.99
491.798	4921.99
492.168	5034.75
492.538	5092.38
492.908	5221.87
493.278	5328.53
493.648	5351.58
494.017	5437.46
494.387	5622.99
494.757	5657.34
495.126	5788.86
495.496	5876.77
495.866	5926.71
496.235	6007.16
496.605	6125.12
496.974	6201.5
497.344	6293.48
497.713	6370.76
498.082	6422.29
498.452	6573.02
498.821	6654.6
499.19	6706.35
499.559	6825.67
499.928	6860.47
500.298	6962.39
500.667	7046.91
501.036	7104.76
501.405	7233.34
501.774	7281.93
502.143	7357.63
502.512	7354.69
502.88	7512.43
503.249	7514.69
503.618	7653.44
503.987	7716.94
504.356	7862.48
504.724	7892.98
505.093	7934.34
505.462	7999.2
505.83	8051.62
506.199	8169.59
506.567	8259.08
506.936	8324.39
507.304	8464.27
507.672	8458.17
508.041	8499.52
508.409	8564.61
508.777	8704.71
509.145	8797.82
509.514	8812.28
509.882	8826.52
510.25	8866.52
510.618	8944.71
510.986	8995.55
511.354	9148.54
511.722	9175.44
512.09	9257.02
512.458	9268.77
512.826	9404.13
513.193	9370.23
513.561	9454.07
513.929	9570.91
514.297	9643.9
514.664	9721.86
515.032	9690.9
515.4	9823.56
515.767	9839.6
516.135	9935.42
516.502	9868.3
516.869	10095.41
517.237	10090.21
517.604	10049.09
517.972	10222.87
518.339	10266.93
518.706	10295.41
519.073	10396.2
519.44	10461.28
519.808	10533.37
520.175	10525.68
520.542	10591.44
520.909	10740.14
521.276	10734.49
521.643	10854.49
522.009	10887.93
522.376	10951.44
522.743	11044.99
523.11	11094.71
523.477	11194.59
523.843	11165.21
524.21	11447.47
524.577	11434.36
524.943	11436.62
525.31	11515.49
525.676	11716.39
526.043	11739.44
526.409	11766.1
526.776	11939.66
527.142	11975.59
527.508	12038.64
527.874	12095.36
528.241	12162.7
528.607	12224.85
528.973	12293.32
529.339	12322.02
529.705	12411.51
530.071	12514.11
530.437	12562.92
530.803	12633.65
531.169	12762.91
531.535	12733.76
531.901	12791.16
532.267	12840.65
532.632	12895.79
532.998	12945.51
533.364	13045.39
533.73	13098.5
534.095	13230.47
534.461	13205.84
534.826	13290.13
535.192	13392.05
535.557	13442.44
535.923	13480.63
536.288	13445.15
536.653	13525.6
537.019	13502.55
537.384	13580.52
537.749	13681.53
538.114	13722.44
538.479	13792.72
538.845	13778.48
539.21	13812.38
539.575	13950
539.94	13964.69
540.305	14026.38
540.67	14013.95
541.034	14103.89
541.399	14196.77
541.764	14330.78
542.129	14287.84
542.494	14367.62
542.858	14424.11
543.223	14462.76
543.587	14532.81
543.952	14581.17
544.316	14667.95
544.681	14695.74
545.045	14693.71
545.41	14714.95
545.774	14850.77
546.138	14885.8
546.503	14894.83
546.867	14952.69
547.231	15056.41
547.595	15022.06
547.959	15155.84
548.324	15155.62
548.688	15219.8
549.052	15231.77
549.416	15273.36
549.779	15338.44
550.143	15386.35
550.507	15448.27
550.871	15476.97
551.235	15614.59
551.599	15672.22
551.962	15640.13
552.326	15801.25
552.689	15849.84
553.053	15736.17
553.417	15766.45
553.78	16136.16
554.143	16003.73
554.507	16033.11
554.87	16125.54
555.234	16223.16
555.597	16177.51
555.96	16278.75
556.323	16359.65
556.686	16317.17
557.05	16511.29
557.413	16474.45
557.776	16510.16
558.139	16558.75
558.502	16671.28
558.865	16728.01
559.228	16801.45
559.59	16979.75
559.953	16955.12
560.316	17062.69
560.679	17114.21
561.041	17144.72
561.404	17165.28
561.767	17363.02
562.129	17340.19
562.492	17445.5
562.854	17453.86
563.217	17297.94
563.579	17578.61
563.941	17672.39
564.304	17759.62
564.666	17812.05
565.028	17762.1
565.39	17864.02
565.753	17976.56
566.115	18026.73
566.477	18100.17
566.839	18266.27
567.201	18362.99
567.563	18267.4
567.925	18436.89
568.287	18420.39
568.648	18494.29
569.01	18620.84
569.372	18776.54
569.734	18665.58
570.095	18818.8
570.457	18795.97
570.819	18951.9
571.18	18943.54
571.542	19094.05
571.903	19110.32
572.265	19221.5
572.626	19334.04
572.987	19322.74
573.349	19453.13
573.71	19478.89
574.071	19631.88
574.432	19738.55
574.794	19965.21
575.155	19964.31
575.516	19916.4
575.877	20054.47
576.238	20138.76
576.599	20401.81
576.96	20412.2
577.32	20476.83
577.681	20668.92
578.042	20804.06
578.403	20914.79
578.763	21036.14
579.124	21099.19
579.485	21264.38
579.845	21355.68
580.206	21516.81
580.566	21667.31
580.927	21766.29
581.287	21939.62
581.648	22011.48
582.008	22244.47
582.368	22424.58
582.728	22623.22
583.089	22714.29
583.449	22856.21
583.809	23108.86
584.169	23279.92
584.529	23327.83
584.889	23631.78
585.249	23724.21
585.609	23988.15
585.969	24206
586.329	24263.4
586.688	24579.55
587.048	24790.39
587.408	24755.37
587.768	25073.78
588.127	25275.8
588.487	25468.12
588.846	25824.26
589.206	25913.3
589.565	26085.5
589.925	26403.46
590.284	26515.09
590.643	26793.28
591.003	27005.7
591.362	27313.26
591.721	27423.77
592.08	27678.23
592.44	27810.2
592.799	28223.98
593.158	28288.15
593.517	28490.64
593.876	28682.95
594.235	28833.22
594.593	29117.74
594.952	29370.16
595.311	29581
595.67	29851.28
596.029	30177.82
596.387	30372.62
596.746	30620.52
597.104	30685.15
597.463	30842.21
597.822	31147.97
598.18	31237
598.538	31439.71
598.897	31718.8
599.255	31727.61
599.613	32414.6
599.972	32289.86
600.33	32478.55
600.688	32430.19
601.046	32874.93
601.404	33053.9
601.762	33088.71
602.12	33452.31
602.478	33720.1
602.836	33927.1
603.194	33814.56
603.552	34125.74
603.91	34151.5
604.268	34459.52
604.625	34406.86
604.983	34697.25
605.341	34743.13
605.698	35004.36
606.056	35201.42
606.413	35160.74
606.771	35501.07
607.128	35640.05
607.485	35603.22
607.843	35822.65
608.2	36086.59
608.557	36340.6
608.914	36381.73
609.272	36580.82
609.629	36754.82
609.986	36915.05
610.343	36958.66
610.7	37260.12
611.057	37159.11
611.414	37456.05
611.771	37423.96
612.127	37722.03
612.484	37771.75
612.841	38074.34
613.198	37918.41
613.554	38029.37
613.911	38354.1
614.267	38366.99
614.624	38479.52
614.98	38587.32
615.337	38799.52
615.693	38818.27
616.05	38873.19
616.406	39314.08
616.762	39322.89
617.118	39261.2
617.475	39460.52
617.831	39481.53
618.187	39477.01
618.543	39673.62
618.899	39915.87
619.255	39902.09
619.611	39776.89
619.967	40006.49
620.323	40122.65
620.678	40153.61
621.034	40065.7
621.39	40250.33
621.746	40105.7
622.101	40589.98
622.457	40401.73
622.812	40479.02
623.168	40580.26
623.523	40652.8
623.879	40871.55
624.234	40593.59
624.589	40872.91
624.945	41011.66
625.3	41011.44
625.655	40989.74
626.01	41073.58
626.365	41092.11
626.72	41115.39
627.075	41148.16
627.43	41215.95
627.785	41099.34
628.14	41179.11
628.495	41355.16
628.85	41345.44
629.205	41200.13
629.559	41465.66
629.914	41304.31
630.269	41381.14
630.623	41148.38
630.978	41131.88
631.332	41484.42
631.687	41557.18
632.041	41356.06
632.396	41462.95
632.75	41236.51
633.104	41290.98
633.459	41314.03
633.813	41349.96
634.167	41248.94
634.521	41349.96
634.875	41404.19
635.229	41415.04
635.583	41284.2
635.937	41341.14
636.291	41366.68
636.645	41264.76
636.999	41196.52
637.352	41369.17
637.706	41148.38
638.06	41329.39
638.413	41218.89
638.767	41147.7
639.121	41211.88
639.474	41025.67
639.828	41117.2
640.181	41099.34
640.534	41140.02
640.888	40930.99
641.241	40880.14
641.594	41018.22
641.947	41157.42
642.301	40876.07
642.654	41013.24
643.007	40997.65
643.36	40947.93
643.713	40969.18
644.066	41165.1
644.419	40823.42
644.771	40634.5
645.124	40278.57
645.477	40214.39
645.83	39898.7
646.182	39787.74
646.535	39872.71
646.888	39845.82
647.24	39782.32
647.593	39772.82
647.945	39697.57
648.298	39538.48
648.65	39450.35
649.002	39428.2
649.355	39618.7
649.707	39677.23
650.059	39785.71
650.411	40138.69
650.763	40241.96
651.115	40522.41
651.467	40436.76
651.819	40417.33
652.171	40417.33
652.523	40310.66
652.875	40315.18
653.227	40083.32
653.578	40346.59
653.93	40352.92
654.282	40078.13
654.633	40193.38
654.985	40131.01
655.337	40157.22
655.688	40319.93
656.039	40319.25
656.391	39956.32
656.742	40122.87
657.094	40095.08
657.445	40427.04
657.796	40184.34
658.147	40096.43
658.498	40180.05
658.849	40211.91
659.2	40142.08
659.551	40008.07
659.902	40079.26
660.253	40136.88
660.604	40194.73
660.955	39973.72
661.306	40087.39
661.656	40113.61
662.007	40047.17
662.358	39929.43
662.708	40055.98
663.059	39982.76
663.409	39782.54
663.76	40145.7
664.11	40032.25
664.461	40013.95
664.811	40046.04
665.161	40042.65
665.511	39851.69
665.862	39945.25
666.212	40114.06
666.562	40063.21
666.912	39893.27
667.262	39968.07
667.612	40015.53
667.962	39864.57
668.312	39875.19
668.662	40167.84
669.011	40011.91
669.361	39917.91
669.711	39868.64
670.06	39783.67
670.41	39734.86
670.76	39781.41
671.109	39867.06
671.459	39751.58
671.808	39734.41
672.157	39921.29
672.507	39578.03
672.856	39573.28
673.205	39735.54
673.554	39776.21
673.904	39675.88
674.253	39841.3
674.602	39815.08
674.951	39138.04
675.3	38962
675.649	39669.78
675.998	39688.31
676.346	39665.03
676.695	39768.08
677.044	39460.97
677.393	39535.32
677.741	39676.33
678.09	39476.11
678.438	39438.6
678.787	39521.53
679.135	39494.19
679.484	39236.57
679.832	39498.71
680.181	39166.06
680.529	39283.8
680.877	39180.07
681.225	39084.03
681.573	39292.16
681.922	39080.64
682.27	38804.94
682.618	38986.63
682.966	38834.09
683.314	38719.74
683.661	38813.75
684.009	38604.95
684.357	38383.03
684.705	38481.33
685.053	38500.77
685.4	38467.32
685.748	38232.98
686.095	38407.66
686.443	38226.2
686.79	38202.02
687.138	38230.49
687.485	38279.08
687.832	38035.69
688.18	38139.87
688.527	37930.39
688.874	38006.54
689.221	37843.84
689.568	37882.48
689.915	37771.52
690.262	37704.86
690.609	37532.43
690.956	37351.19
691.303	37409.5
691.65	37323.85
691.997	37244.3
692.344	37017.64
692.69	37100.8
693.037	37160.92
693.383	36692.68
693.73	36873.24
694.077	36659.69
694.423	36682.74
694.769	36591.21
695.116	36505.79
695.462	36504.44
695.808	36378.56
696.155	36387.6
696.501	36129.98
696.847	36053.83
697.193	35788.52
697.539	36212.92
697.885	35816.77
698.231	35730.44
698.577	35646.15
698.923	35701.07
699.269	35515.76
699.614	35238.25
699.96	35224.02
700.306	35207.07
700.651	35149.22
700.997	34990.35
701.342	34998.71
701.688	34873.74
702.033	34837.13
702.379	34839.85
702.724	34789
703.069	34771.37
703.415	34460.87
703.76	34280.54
704.105	34483.92
704.45	34364.15
704.795	34065.86
705.14	34098.4
705.485	34069.02
705.83	33825.86
706.175	33898.4
706.52	33723.49
706.865	33754.68
707.209	33556.49
707.554	33500.9
707.899	33682.36
708.243	33384.97
708.588	33422.93
708.932	33131.87
709.277	33132.55
709.621	33100.23
709.966	33020.46
710.31	33013.23
710.654	32700.02
710.998	32905.21
711.342	32787.02
711.687	32727.81
712.031	32601.26
712.375	32456.18
712.719	32413.24
713.063	32354.49
713.407	32533.47
713.75	32318.56
714.094	32315.39
714.438	32086.25
714.782	32204.66
715.125	32156.3
715.469	32130.31
715.812	31929.87
716.156	31848.51
716.499	31841.06
716.843	31912.69
717.186	31657.11
717.53	31773.03
717.873	31716.76
718.216	31699.36
718.559	31559.03
718.902	31315.19
719.246	31382.08
719.589	31369.88
719.932	31228.19
720.275	31155.88
720.617	31153.16
720.96	31115.2
721.303	31005.6
721.646	31023.22
721.989	30814.87
722.331	31020.74
722.674	30861.65
723.016	30865.49
723.359	30876.11
723.701	30756.79
724.044	30629.79
724.386	30510.02
724.729	30724.02
725.071	30625.04
725.413	30549.11
725.755	30383.69
726.097	30271.61
726.439	30183.47
726.782	30352.73
727.124	30419.4
727.465	30188.44
727.807	30186.18
728.149	30046.07
728.491	30057.15
728.833	30044.72
729.175	30052.85
729.516	29929.92
729.858	29856.7
730.199	29858.96
730.541	29769.7
730.882	29704.61
731.224	29832.52
731.565	29674.56
731.906	29711.85
732.248	29621.68
732.589	29493.77
732.93	29367.22
733.271	29471.85
733.612	29460.1
733.953	29457.39
734.294	29339.2
734.635	29281.12
734.976	29365.19
735.317	29017.85
735.658	29158.64
735.999	29090.17
736.339	29066.89
736.68	29315.92
737.021	29003.84
737.361	28909.61
737.702	28985.09
738.042	28852.89
738.383	28891.75
738.723	28934.24
739.063	28807.24
739.404	28866.67
739.744	28743.06
740.084	28653.34
740.424	28651.31
740.764	28663.51
741.104	28632.78
741.444	28671.2
741.784	28404.99
742.124	28482.5
742.464	28386.68
742.804	28489.28
743.143	28227.59
743.483	28354.37
743.823	28301.49
744.162	28130.42
744.502	28184.65
744.841	28027.37
745.181	28163.41
745.52	27977.65
745.86	28110.76
746.199	28026.24
746.538	27890.88
746.877	28009.52
747.216	28061.72
747.556	27858.11
747.895	27902.4
748.234	27865.11
748.573	27744.67
748.911	27677.55
749.25	27798.68
749.589	27481.62
749.928	27542.19
750.267	27532.69
750.605	27456.99
750.944	27479.36
751.283	27366.37
751.621	27308.29
751.96	27127.73
752.298	27253.83
752.636	27222.87
752.975	27076.43
753.313	26933.84
753.651	27152.14
753.989	26893.39
754.327	27038.92
754.666	26833.05
755.004	26951.47
755.342	26878.93
755.679	26828.31
756.017	26669.67
756.355	26759.38
756.693	26507.86
757.031	26567.07
757.368	26457.02
