Data from hue_10_FLMS001491_32.txt Node
Date: Mon Feb 06 15:31:48 GMT 2017
User: dcchb
Spectrometer: FLMS00149
Trigger mode: 0
Integration Time (sec): 2.000000E-2
Scans to average: 10
Electric dark correction enabled: true
Nonlinearity correction enabled: false
Boxcar width: 0
XAxis mode: Wavelengths
Number of Pixels in Spectrum: 2048
>>>>>Begin Spectral Data<<<<<
341.393	-36.44
341.776	-36.44
342.16	-36.44
342.543	-80.96
342.927	-73.27
343.31	-81.18
343.693	-68.3
344.077	-63.56
344.46	-71.47
344.843	-71.92
345.226	-38.02
345.61	-17.01
345.993	-15.88
346.376	1.07
346.759	0.4
347.142	35.65
347.525	53.05
347.908	47.85
348.291	80.39
348.674	98.02
349.057	110.9
349.44	108.87
349.823	132.37
350.206	157.23
350.588	185.25
350.971	187.74
351.354	223.89
351.737	231.12
352.119	228.64
352.502	254.63
352.884	252.82
353.267	275.19
353.65	280.39
354.032	286.72
354.414	299.14
354.797	301.18
355.179	298.01
355.562	313.16
355.944	310.44
356.326	306.38
356.709	338.01
357.091	340.05
357.473	321.07
357.855	309.99
358.238	340.73
358.62	343.66
359.002	333.95
359.384	341.4
359.766	336.43
360.148	330.56
360.53	329.65
360.912	340.73
361.294	325.81
361.676	346.6
362.057	328.07
362.439	317.22
362.821	308.18
363.203	318.13
363.584	295.08
363.966	308.64
364.348	319.71
364.729	309.31
365.111	307.73
365.493	313.38
365.874	331.91
366.256	305.92
366.637	305.25
367.019	312.25
367.4	297.79
367.781	318.81
368.163	328.52
368.544	323.32
368.925	309.09
369.306	305.25
369.688	305.7
370.069	301.18
370.45	304.12
370.831	294.63
371.212	321.29
371.593	297.79
371.974	300.05
372.355	290.56
372.736	309.77
373.117	309.77
373.498	306.38
373.879	310.9
374.26	301.4
374.641	314.06
375.021	309.54
375.402	316.55
375.783	301.4
376.163	325.81
376.544	305.92
376.925	312.03
377.305	321.97
377.686	303.44
378.066	314.96
378.447	320.61
378.827	324.23
379.208	307.05
379.588	324.68
379.968	334.85
380.349	320.39
380.729	306.83
381.109	329.65
381.489	334.62
381.87	317.22
382.25	321.52
382.63	318.81
383.01	326.71
383.39	337.56
383.77	348.18
384.15	343.44
384.53	339.82
384.91	347.73
385.29	336.88
385.67	331.46
386.049	324.23
386.429	326.04
386.809	337.56
387.189	321.74
387.568	333.27
387.948	328.97
388.328	347.73
388.707	340.05
389.087	334.62
389.466	347.28
389.846	359.48
390.225	357.9
390.605	360.16
390.984	331.69
391.363	345.7
391.743	356.32
392.122	365.58
392.501	357.9
392.881	356.54
393.26	341.63
393.639	379.37
394.018	365.36
394.397	366.94
394.776	366.04
395.155	381.63
395.534	348.18
395.913	362.87
396.292	372.82
396.671	373.94
397.05	336.21
397.429	371.23
397.808	363.78
398.186	363.78
398.565	358.58
398.944	358.58
399.323	387.5
399.701	377.79
400.08	357.67
400.458	366.94
400.837	369.2
401.215	381.18
401.594	368.3
401.972	378.92
402.351	365.36
402.729	401.74
403.107	385.7
403.486	390.44
403.864	372.14
404.242	384.11
404.62	381.63
404.999	386.37
405.377	387.28
405.755	404.68
406.133	391.12
406.511	384.57
406.889	377.33
407.267	387.96
407.645	389.76
408.023	393.38
408.401	403.1
408.779	413.72
409.156	413.94
409.534	409.42
409.912	404
410.29	430.44
410.667	415.3
411.045	426.6
411.422	405.36
411.8	429.99
412.178	428.18
412.555	415.98
412.933	438.58
413.31	404.23
413.687	434.73
414.065	441.06
414.442	458.46
414.819	441.51
415.197	442.19
415.574	430.67
415.951	433.6
416.328	459.82
416.705	453.04
417.082	458.24
417.46	465.24
417.837	470.89
418.214	462.53
418.591	472.47
418.967	469.99
419.344	477.67
419.721	486.48
420.098	495.52
420.475	497.33
420.852	486.48
421.228	491.68
421.605	466.37
421.982	483.32
422.358	491
422.735	501.17
423.111	502.53
423.488	494.17
423.864	512.25
424.241	520.38
424.617	506.14
424.994	523.55
425.37	516.31
425.746	514.28
426.123	508.63
426.499	516.77
426.875	531.91
427.251	525.58
427.627	536.2
428.003	546.82
428.379	532.58
428.756	557.89
429.132	545.47
429.507	552.02
429.883	558.8
430.259	562.19
430.635	575.97
431.011	568.06
431.387	586.37
431.763	586.59
432.138	592.7
432.514	563.77
432.89	585.46
433.265	580.27
433.641	601.06
434.016	596.09
434.392	596.99
434.767	613.26
435.143	602.41
435.518	624.33
435.894	605.13
436.269	638.12
436.644	662.75
437.02	639.93
437.395	655.75
437.77	648.06
438.145	648.06
438.52	639.93
438.895	644.45
439.271	676.31
439.646	660.04
440.021	681.73
440.395	680.83
440.77	675.18
441.145	689.42
441.52	663.65
441.895	670.43
442.27	702.98
442.645	672.92
443.019	674.73
443.394	700.04
443.769	685.35
444.143	701.85
444.518	708.63
444.892	695.07
445.267	687.38
445.641	710.89
446.016	719.25
446.39	721.28
446.764	740.26
447.139	740.26
447.513	716.08
447.887	724.22
448.262	725.57
448.636	743.88
449.01	753.6
449.384	748.4
449.758	738.46
450.132	740.04
450.506	765.12
450.88	764.9
451.254	782.97
451.628	782.07
452.002	794.72
452.376	769.19
452.75	799.92
453.123	792.92
453.497	802.63
453.871	801.28
454.244	818.23
454.618	783.2
454.992	827.49
455.365	818.68
455.739	852.58
456.112	855.74
456.486	863.88
456.859	860.71
457.232	880.82
457.606	860.26
457.979	886.7
458.352	879.92
458.725	891.67
459.099	899.58
459.472	919.69
459.845	909.52
460.218	929.18
460.591	931.22
460.964	936.19
461.337	941.39
461.71	952.69
462.083	972.57
462.456	973.48
462.829	950.43
463.201	999.69
463.574	1005.57
463.947	1004.89
464.32	1035.17
464.692	1054.38
465.065	1058.9
465.438	1076.3
465.81	1074.27
466.183	1065
466.555	1076.98
466.928	1116.98
467.3	1096.19
467.672	1100.48
468.045	1148.16
468.417	1166.69
468.789	1156.3
469.161	1154.26
469.534	1177.77
469.906	1185.22
470.278	1195.17
470.65	1213.02
471.022	1216.63
471.394	1289.4
471.766	1264.54
472.138	1317.2
472.51	1283.75
472.882	1343.64
473.253	1339.34
473.625	1353.13
473.997	1376.18
474.369	1381.38
474.74	1416.18
475.112	1411.66
475.484	1456.18
475.855	1501.37
476.227	1506.8
476.598	1549.28
476.97	1554.03
477.341	1593.35
477.713	1600.58
478.084	1591.77
478.455	1676.51
478.827	1701.14
479.198	1743.4
479.569	1756.96
479.94	1799.67
480.311	1813.46
480.682	1861.36
481.053	1891.87
481.424	1905.43
481.795	1950.85
482.166	1989.95
482.537	2001.7
482.908	2026.78
483.279	2058.87
483.65	2126.67
484.021	2122.15
484.391	2165.54
484.762	2230.39
485.133	2246.89
485.503	2305.65
485.874	2291.18
486.244	2339.09
486.615	2374.12
486.985	2422.25
487.356	2426.77
487.726	2487.11
488.097	2583.38
488.467	2557.16
488.837	2602.36
489.207	2652.98
489.578	2704.73
489.948	2746.54
490.318	2728.91
490.688	2746.54
491.058	2841.9
491.428	2887.33
491.798	2937.95
492.168	2919.64
492.538	2977.04
492.908	3032.41
493.278	3065.17
493.648	3071.5
494.017	3132.29
494.387	3160.99
494.757	3157.6
495.126	3208.45
495.496	3243.25
495.866	3286.18
496.235	3303.13
496.605	3340.65
496.974	3336.8
497.344	3380.19
497.713	3404.83
498.082	3428.1
498.452	3506.74
498.821	3498.38
499.19	3475.11
499.559	3504.71
499.928	3563.01
500.298	3572.28
500.667	3605.5
501.036	3626.06
501.405	3676.23
501.774	3650.47
502.143	3721.43
502.512	3721.88
502.88	3708.55
503.249	3738.83
503.618	3795.1
503.987	3843.23
504.356	3836
504.724	3878.03
505.093	3857.02
505.462	3851.82
505.83	3905.83
506.199	3920.74
506.567	3955.55
506.936	3921.2
507.304	4026.5
507.672	4004.58
508.041	4022.89
508.409	4085.71
508.777	4115.09
509.145	4107.18
509.514	4106.05
509.882	4178.14
510.25	4162.09
510.618	4175.2
510.986	4194.41
511.354	4207.52
511.722	4224.01
512.09	4284.12
512.458	4309.43
512.826	4324.12
513.193	4333.61
513.561	4360.96
513.929	4346.72
514.297	4356.44
514.664	4362.99
515.032	4428.3
515.4	4420.17
515.767	4468.75
516.135	4449.54
516.502	4423.33
516.869	4504.91
517.237	4547.39
517.604	4474.4
517.972	4573.61
518.339	4545.59
518.706	4519.6
519.073	4574.29
519.44	4649.54
519.808	4694.96
520.175	4671.23
520.542	4646.83
520.909	4673.49
521.276	4704.68
521.643	4773.6
522.009	4766.37
522.376	4769.76
522.743	4824.9
523.11	4833.49
523.477	4836.88
523.843	4839.59
524.21	4909.64
524.577	4941.28
524.943	4953.94
525.31	5000.72
525.676	5038.46
526.043	5070.54
526.409	5090.88
526.776	5085.91
527.142	5082.52
527.508	5179.92
527.874	5194.38
528.241	5228.96
528.607	5156.42
528.973	5264.21
529.339	5300.14
529.705	5276.41
530.071	5282.74
530.437	5330.42
530.803	5382.17
531.169	5417.88
531.535	5409.74
531.901	5424.21
532.267	5444.55
532.632	5519.35
532.998	5492.23
533.364	5487.93
533.73	5539.68
534.095	5612
534.461	5586.01
534.826	5614.71
535.192	5625.33
535.557	5673.92
535.923	5694.26
536.288	5723.18
536.653	5754.82
537.019	5751.43
537.384	5825.1
537.749	5765.44
538.114	5809.51
538.479	5865.55
538.845	5827.59
539.21	5806.34
539.575	5896.96
539.94	5909.84
540.305	5999.33
540.67	5953.01
541.034	5970.18
541.399	6068.03
541.764	6016.96
542.129	6122.72
542.494	6031.88
542.858	6105.55
543.223	6146.9
543.587	6227.35
543.952	6231.64
544.316	6220.12
544.681	6225.77
545.045	6272.09
545.41	6312.77
545.774	6328.59
546.138	6339.44
546.503	6388.7
546.867	6396.39
547.231	6488.36
547.595	6455.14
547.959	6441.36
548.324	6482.94
548.688	6493.33
549.052	6558.19
549.416	6508.7
549.779	6501.69
550.143	6530.62
550.507	6569.71
550.871	6639.32
551.235	6635.93
551.599	6697.85
551.962	6712.99
552.326	6681.8
552.689	6774.23
553.053	6733.1
553.417	6790.27
553.78	6869.59
554.143	6756.83
554.507	6827.33
554.87	6868.92
555.234	6973.55
555.597	6881.57
555.96	6920.67
556.323	6972.87
556.686	6908.46
557.05	7007.89
557.413	7042.92
557.776	7052.19
558.139	7031.17
558.502	7068.68
558.865	7100.55
559.228	7150.94
559.59	7166.53
559.953	7176.7
560.316	7301.67
560.679	7205.18
561.041	7284.95
561.404	7292.86
561.767	7330.37
562.129	7338.73
562.492	7434.32
562.854	7423.25
563.217	7403.82
563.579	7405.4
563.941	7484.27
564.304	7490.14
564.666	7577.82
565.028	7600.65
565.39	7621.44
565.753	7587.99
566.115	7582.34
566.477	7699.18
566.839	7690.59
567.201	7761.55
567.563	7748.67
567.925	7770.81
568.287	7817.82
568.648	7829.12
569.01	7820.08
569.372	7893.3
569.734	7896.69
570.095	7984.82
570.457	7998.38
570.819	7972.39
571.18	8086.96
571.542	8096.91
571.903	8066.17
572.265	8180.07
572.626	8233.17
572.987	8272.04
573.349	8305.49
573.71	8369.21
574.071	8397.69
574.432	8460.29
574.794	8566.95
575.155	8530.57
575.516	8588.87
575.877	8702.31
576.238	8673.39
576.599	8795.19
576.96	8841.29
577.32	8856.66
577.681	8956.32
578.042	8993.83
578.403	9087.84
578.763	9099.59
579.124	9248.06
579.485	9319.02
579.845	9499.13
580.206	9512.91
580.566	9624.32
580.927	9645.57
581.287	9775.73
581.648	9922.39
582.008	10064.31
582.368	10220.01
582.728	10308.15
583.089	10363.51
583.449	10533.23
583.809	10672.43
584.169	10870.62
584.529	10996.49
584.889	11242.36
585.249	11383.82
585.609	11453.88
585.969	11631.5
586.329	11909.91
586.688	12006.41
587.048	12252.5
587.408	12392.16
587.768	12629.67
588.127	12848.87
588.487	12924.12
588.846	13277.33
589.206	13464.22
589.565	13693.37
589.925	14047.71
590.284	14248.61
590.643	14436.85
591.003	14673.46
591.362	14987.12
591.721	15206.78
592.08	15432.31
592.44	15748.68
592.799	16007.66
593.158	16232.51
593.517	16524.25
593.876	16859.16
594.235	17114.52
594.593	17338.47
594.952	17643.77
595.311	17770.32
595.67	18113.37
596.029	18516.29
596.387	18795.83
596.746	19195.82
597.104	19322.15
597.463	19545.64
597.822	20044.84
598.18	20105.86
598.538	20410.25
598.897	20865.61
599.255	20932.73
599.613	21503.33
599.972	21635.08
600.33	21900.84
600.688	22228.96
601.046	22608.84
601.404	22872.56
601.762	22971.99
602.12	23443.62
602.478	23699.89
602.836	24044.96
603.194	24127.67
603.552	24518.39
603.91	24740.76
604.268	24895.56
604.625	25236.79
604.983	25449.67
605.341	25729.89
605.698	26122.42
606.056	26244.68
606.413	26481.51
606.771	26844.89
607.128	26960.82
607.485	27128.95
607.843	27414.59
608.2	27795.82
608.557	28057.28
608.914	28156.27
609.272	28498.18
609.629	28772.07
609.986	28985.4
610.343	29021.33
610.7	29472.16
611.057	29690.24
611.414	29717.13
611.771	29912.15
612.127	30177.68
612.484	30444.57
612.841	30688.63
613.198	30800.94
613.554	30962.52
613.911	31371.32
614.267	31419.23
614.624	31611.99
614.98	31692.9
615.337	31975.37
615.693	32066.22
616.05	32153.9
616.406	32565.87
616.762	32569.03
617.118	32719.54
617.475	32838.18
617.831	33145.06
618.187	33218.73
618.543	33265.96
618.899	33656.69
619.255	33767.42
619.611	33674.31
619.967	34025.04
620.323	34203.56
620.678	34045.15
621.034	34154.07
621.39	34352.49
621.746	34365.37
622.101	34787.28
622.457	34684.68
622.812	34893.72
623.168	35086.25
623.523	35009.19
623.879	35297.55
624.234	35018.91
624.589	35194.27
624.945	35476.75
625.3	35631.77
625.655	35521.04
626.01	35695.5
626.365	35747.48
626.72	35696.63
627.075	35817.76
627.43	35770.08
627.785	35801.49
628.14	36065.89
628.495	36119.45
628.85	36257.3
629.205	36067.02
629.559	36387.91
629.914	36341.59
630.269	36325.32
630.623	36352.43
630.978	36142.95
631.332	36448.7
631.687	36575.48
632.041	36368.25
632.396	36609.38
632.75	36422.26
633.104	36453.22
633.459	36491.19
633.813	36526.89
634.167	36455.03
634.521	36578.19
634.875	36593.56
635.229	36443.73
635.583	36430.17
635.937	36599.66
636.291	36541.81
636.645	36514.92
636.999	36442.15
637.352	36553.56
637.706	36528.47
638.06	36741.35
638.413	36561.47
638.767	36496.39
639.121	36571.64
639.474	36492.32
639.828	36449.83
640.181	36578.64
640.534	36591.07
640.888	36489.83
641.241	36340.46
641.594	36420.91
641.947	36675.59
642.301	36572.32
642.654	36478.31
643.007	36470.4
643.36	36509.94
643.713	36339.55
644.066	36460.45
644.419	36174.13
644.771	36176.39
645.124	35858.89
645.477	35776.63
645.83	35569.63
646.182	35481.72
646.535	35429.07
646.888	35462.74
647.24	35309.3
647.593	35393.82
647.945	35455.06
648.298	35225.91
648.65	35168.06
649.002	35068.4
649.355	35301.39
649.707	35186.81
650.059	35297.55
650.411	35773.47
650.763	35817.31
651.115	36306.79
651.467	36064.53
651.819	36116.51
652.171	35923.07
652.523	35908.6
652.875	36027.47
653.227	35759.23
653.578	36120.35
653.93	35983.86
654.282	35863.86
654.633	35775.5
654.985	35888.94
655.337	35910.86
655.688	35810.98
656.039	35940.47
656.391	35643.53
656.742	35675.62
657.094	35776.63
657.445	35972.56
657.796	35846.68
658.147	35785.9
658.498	35647.37
658.849	35750.42
659.2	35819.11
659.551	35740.92
659.902	35752.22
660.253	35726.46
660.604	35849.85
660.955	35586.58
661.306	35808.95
661.656	35665.67
662.007	35669.29
662.358	35670.87
662.708	35712
663.059	35670.42
663.409	35526.47
663.76	35693.47
664.11	35666.12
664.461	35629.06
664.811	35678.78
665.161	35640.14
665.511	35559.01
665.862	35606.92
666.212	35564.43
666.562	35673.13
666.912	35600.59
667.262	35639.23
667.612	35584.54
667.962	35584.54
668.312	35566.01
668.662	35676.97
669.011	35544.09
669.361	35614.6
669.711	35492.34
670.06	35472.23
670.41	35408.5
670.76	35387.71
671.109	35399.01
671.459	35545.22
671.808	35354.72
672.157	35446.24
672.507	35304.1
672.856	35285.12
673.205	35378.9
673.554	35427.26
673.904	35346.58
674.253	35485.34
674.602	35306.13
674.951	34887.84
675.3	34695.98
675.649	35225.46
675.998	35159.7
676.346	35226.81
676.695	35208.74
677.044	35006.25
677.393	35044.67
677.741	35171
678.09	35137.55
678.438	34910.89
678.787	35060.72
679.135	35049.64
679.484	34832.02
679.832	35059.13
680.181	34834.51
680.529	34866.82
680.877	34754.74
681.225	34752.7
681.573	34849.2
681.922	34812.36
682.27	34515.65
682.618	34546.83
682.966	34450.79
683.314	34501.41
683.661	34641.97
684.009	34271.36
684.357	34283.34
684.705	34264.13
685.053	34316.33
685.4	34086.96
685.748	34193.62
686.095	33979.62
686.443	33946.17
686.79	33884.48
687.138	33996.11
687.485	33844.7
687.832	33745.95
688.18	33843.12
688.527	33606.52
688.874	33590.47
689.221	33609.46
689.568	33565.39
689.915	33536.01
690.262	33296.24
690.609	33231.16
690.956	33205.62
691.303	33100.32
691.65	32988.91
691.997	33126.53
692.344	32937.83
692.69	32877.05
693.037	32850.38
693.383	32525.19
693.73	32820.78
694.077	32375.82
694.423	32568.13
694.769	32340.11
695.116	32265.54
695.462	32241.58
695.808	32094.69
696.155	32287
696.501	31872.1
696.847	31997.75
697.193	31703.52
697.539	31834.36
697.885	31578.77
698.231	31465.56
698.577	31607.7
698.923	31465.56
699.269	31372.23
699.614	31225.34
699.96	31032.12
700.306	31189.41
700.651	31167.03
700.997	31031.9
701.342	30894.27
701.688	30669.42
702.033	30864.67
702.379	30647.5
702.724	30574.96
703.069	30757.33
703.415	30425.81
703.76	30423.32
704.105	30386.72
704.45	30404.79
704.795	30139.26
705.14	30036.44
705.485	30110.79
705.83	29828.99
706.175	29925.26
706.52	29778.37
706.865	29698.37
707.209	29620.41
707.554	29580.63
707.899	29603.46
708.243	29530.92
708.588	29416.8
708.932	29182
709.277	29218.16
709.621	29346.52
709.966	29114.21
710.31	29185.16
710.654	28856.81
710.998	28881.67
711.342	28849.13
711.687	28845.29
712.031	28605.07
712.375	28677.83
712.719	28727.32
713.063	28585.63
713.407	28662.47
713.75	28423.15
714.094	28460.89
714.438	28424.96
714.782	28403.94
715.125	28332.53
715.469	28211.18
715.812	28097.28
716.156	27942.49
716.499	28165.76
716.843	28122.59
717.186	27864.75
717.53	28010.51
717.873	27958.08
718.216	27839.44
718.559	27741.81
718.902	27582.27
719.246	27610.29
719.589	27603.74
719.932	27496.62
720.275	27454.59
720.617	27436.51
720.96	27457.3
721.303	27279.23
721.646	27517.86
721.989	27233.8
722.331	27270.86
722.674	27206.91
723.016	27145.9
723.359	27142.96
723.701	27060.47
724.044	26957.2
724.386	26755.4
724.729	27000.36
725.071	26922.85
725.413	26874.72
725.755	26857.09
726.097	26787.26
726.439	26669.75
726.782	26670.43
727.124	26645.8
727.465	26519.7
727.807	26626.36
728.149	26376.2
728.491	26435.86
728.833	26396.54
729.175	26434.5
729.516	26318.12
729.858	26258.91
730.199	26262.76
730.541	26275.64
730.882	26112.7
731.224	26265.92
731.565	26027.51
731.906	25961.07
732.248	26118.13
732.589	25907.96
732.93	25857.34
733.271	25824.35
733.612	25922.88
733.953	25908.64
734.294	25671.13
734.635	25750.68
734.976	25811.24
735.317	25712.04
735.658	25586.84
735.999	25604.92
736.339	25617.12
736.68	25660.29
737.021	25544.81
737.361	25371.71
737.702	25625.94
738.042	25470.01
738.383	25383
738.723	25482.66
739.063	25358.82
739.404	25329.67
739.744	25275.21
740.084	25185.95
740.424	25236.57
740.764	25062.79
741.104	25240.86
741.444	25108.21
741.784	25002.68
742.124	24991.83
742.464	25004.26
742.804	24937.82
743.143	24967.2
743.483	24884.94
743.823	24718.84
744.162	24837.03
744.502	24738.28
744.841	24688.11
745.181	24803.36
745.52	24771.5
745.86	24742.34
746.199	24690.82
746.538	24552.97
746.877	24682.68
747.216	24646.98
747.556	24539.64
747.895	24560.2
748.234	24370.83
748.573	24353.88
748.911	24238.85
749.25	24449.02
749.589	24274.11
749.928	24260.55
750.267	24293.77
750.605	24141.46
750.944	24104.17
751.283	24055.13
751.621	24092.42
751.96	23958.41
752.298	24085.64
752.636	24037.05
752.975	23880.67
753.313	23884.06
753.651	23904.4
753.989	23774.46
754.327	23714.57
754.666	23689.26
755.004	23733.33
755.342	23636.84
755.679	23641.81
756.017	23399.55
756.355	23546.89
756.693	23474.58
757.031	23501.47
757.368	23333.12
757.706	23322.04
758.044	23274.13
758.381	23268.48
758.719	23089.51
759.056	23115.95
759.394	23153.01
759.731	22940.58
760.068	22943.3
760.405	22835.05
760.743	22766.8
761.08	22793.69
