Data from hue_50_FLMS001491_15.txt Node
Date: Mon Feb 06 15:09:40 GMT 2017
User: dcchb
Spectrometer: FLMS00149
Trigger mode: 0
Integration Time (sec): 2.000000E-2
Scans to average: 10
Electric dark correction enabled: true
Nonlinearity correction enabled: false
Boxcar width: 0
XAxis mode: Wavelengths
Number of Pixels in Spectrum: 2048
>>>>>Begin Spectral Data<<<<<
341.393	-11.95
341.776	-11.95
342.16	-11.95
342.543	-64.83
342.927	-77.71
343.31	-44.72
343.693	-60.08
344.077	-67.77
344.46	-59.41
344.843	-64.6
345.226	-46.3
345.61	-33.19
345.993	-13.98
346.376	-17.6
346.759	12.23
347.142	14.27
347.525	51.55
347.908	49.07
348.291	85.45
348.674	83.64
349.057	111.44
349.44	139.01
349.823	144.88
350.206	157.99
350.588	183.75
350.971	215.62
351.354	249.06
351.737	254.26
352.119	260.13
352.502	257.2
352.884	261.04
353.267	284.77
353.65	291.77
354.032	296.97
354.414	311.43
354.797	298.55
355.179	325.67
355.562	334.71
355.944	319.57
356.326	341.49
356.709	333.8
357.091	338.55
357.473	347.59
357.855	339.68
358.238	346.46
358.62	363.41
359.002	354.82
359.384	339.68
359.766	333.8
360.148	353.01
360.53	349.17
360.912	335.84
361.294	353.01
361.676	319.79
362.057	342.39
362.439	325.67
362.821	335.84
363.203	326.8
363.584	323.41
363.966	326.57
364.348	313.01
364.729	332.67
365.111	322.73
365.493	315.5
365.874	317.53
366.256	324.09
366.637	326.57
367.019	332.22
367.4	315.27
367.781	327.25
368.163	307.59
368.544	321.83
368.925	314.14
369.306	336.52
369.688	297.42
370.069	299.23
370.45	321.15
370.831	326.12
371.212	321.6
371.593	311.66
371.974	317.76
372.355	324.31
372.736	324.77
373.117	332
373.498	327.48
373.879	323.86
374.26	325.22
374.641	309.17
375.021	332.45
375.402	313.01
375.783	311.66
376.163	313.92
376.544	346.01
376.925	327.93
377.305	329.96
377.686	326.35
378.066	324.99
378.447	323.18
378.827	316.4
379.208	313.47
379.588	311.66
379.968	316.4
380.349	353.24
380.729	307.36
381.109	323.18
381.489	339.23
381.87	343.07
382.25	342.62
382.63	338.55
383.01	341.94
383.39	339.45
383.77	343.52
384.15	356.86
384.53	347.59
384.91	359.79
385.29	340.81
385.67	352.79
386.049	366.35
386.429	348.72
386.809	357.98
387.189	341.26
387.568	358.66
387.948	336.97
388.328	371.54
388.707	354.37
389.087	341.04
389.466	353.01
389.846	342.62
390.225	352.11
390.605	374.26
390.984	353.24
391.363	363.63
391.743	361.6
392.122	399.11
392.501	350.75
392.881	364.76
393.26	360.7
393.639	357.76
394.018	344.2
394.397	368.61
394.776	388.94
395.155	364.54
395.534	370.87
395.913	382.39
396.292	385.33
396.671	376.06
397.05	388.94
397.429	372
397.808	368.83
398.186	395.95
398.565	387.14
398.944	388.72
399.323	378.1
399.701	397.98
400.08	394.59
400.458	374.93
400.837	375.84
401.215	392.79
401.594	385.1
401.972	396.63
402.351	391.66
402.729	398.89
403.107	397.76
403.486	376.97
403.864	388.27
404.242	401.15
404.62	397.31
404.999	403.41
405.377	411.09
405.755	398.89
406.133	405.89
406.511	424.65
406.889	406.57
407.267	415.84
407.645	396.18
408.023	414.93
408.401	429.4
408.779	401.83
409.156	420.81
409.534	415.38
409.912	430.53
410.29	439.34
410.667	423.29
411.045	451.77
411.422	418.32
411.8	414.25
412.178	416.06
412.555	422.84
412.933	450.64
413.31	454.93
413.687	446.57
414.065	462.16
414.442	466.68
414.819	451.09
415.197	465.1
415.574	451.99
415.951	452.9
416.328	466.23
416.705	458.32
417.082	469.39
417.46	444.31
417.837	502.61
418.214	471.65
418.591	475.95
418.967	460.36
419.344	468.26
419.721	491.09
420.098	491.31
420.475	481.37
420.852	529.73
421.228	487.93
421.605	503.07
421.982	490.64
422.358	515.49
422.735	506.68
423.111	506.68
423.488	516.4
423.864	508.26
424.241	517.98
424.617	514.59
424.994	507.13
425.37	516.4
425.746	494.25
426.123	531.99
426.499	512.56
426.875	538.77
427.251	523.63
427.627	523.18
428.003	544.87
428.379	546.68
428.756	538.77
429.132	557.98
429.507	553.46
429.883	560.01
430.259	554.36
430.635	568.15
431.011	575.83
431.387	553.91
431.763	573.12
432.138	594.14
432.514	554.59
432.89	602.95
433.265	595.04
433.641	622.16
434.016	588.94
434.392	601.14
434.767	629.84
435.143	605.44
435.518	621.71
435.894	601.82
436.269	633.46
436.644	601.59
437.02	622.16
437.395	667.58
437.77	639.11
438.145	645.89
438.52	648.6
438.895	650.18
439.271	662.61
439.646	663.51
440.021	678.88
440.395	675.49
440.77	649.28
441.145	670.29
441.52	685.21
441.895	702.16
442.27	671.2
442.645	686.79
443.019	699.22
443.394	659.22
443.769	686.34
444.143	676.17
444.518	683.4
444.892	706.22
445.267	727.69
445.641	734.7
446.016	711.42
446.39	715.26
446.764	745.77
447.139	729.73
447.513	755.71
447.887	719.56
448.262	737.86
448.636	752.78
449.01	730.63
449.384	762.49
449.758	773.12
450.132	763.4
450.506	788.71
450.88	787.13
451.254	744.19
451.628	751.87
452.002	781.48
452.376	786
452.75	805.66
453.123	767.92
453.497	805.88
453.871	797.52
454.244	834.13
454.618	826.45
454.992	850.85
455.365	832.77
455.739	860.34
456.112	855.6
456.486	861.93
456.859	891.08
457.232	894.69
457.606	868.03
457.979	903.06
458.352	891.98
458.725	905.77
459.099	905.77
459.472	936.27
459.845	928.14
460.218	945.31
460.591	939.44
460.964	962.26
461.337	980.34
461.71	1007.46
462.083	991.64
462.456	1014.92
462.829	985.09
463.201	1026.89
463.574	1054.46
463.947	1043.62
464.32	1057.85
464.692	1082.71
465.065	1083.84
465.438	1101.24
465.81	1126.1
466.183	1115.25
466.555	1135.82
466.928	1138.76
467.3	1191.41
467.672	1202.71
468.045	1196.15
468.417	1212.88
468.789	1245.65
469.161	1246.78
469.534	1282.93
469.906	1320.9
470.278	1329.26
470.65	1317.28
471.022	1372.42
471.394	1389.82
471.766	1429.37
472.138	1453.78
472.51	1465.98
472.882	1461.91
473.253	1551.17
473.625	1566.54
473.997	1589.59
474.369	1624.62
474.74	1657.61
475.112	1671.85
475.484	1736.71
475.855	1809.25
476.227	1798.4
476.598	1839.3
476.97	1886.08
477.341	1964.72
477.713	2003.14
478.084	2039.52
478.455	2139.41
478.827	2142.8
479.198	2261.21
479.569	2286.97
479.94	2366.07
480.311	2388.67
480.682	2521.77
481.053	2566.74
481.424	2646.51
481.795	2707.53
482.166	2763.12
482.537	2863.46
482.908	2941.19
483.279	2979.38
483.65	3104.58
484.021	3164.92
484.391	3286.72
484.762	3359.94
485.133	3424.12
485.503	3533.04
485.874	3670.21
486.244	3735.75
486.615	3871.79
486.985	3965.57
487.356	4107.26
487.726	4136.64
488.097	4273.36
488.467	4363.76
488.837	4561.94
489.207	4659.34
489.578	4785.21
489.948	4898.88
490.318	5003.51
490.688	5112.21
491.058	5266.33
491.428	5395.37
491.798	5466.33
492.168	5702.03
492.538	5783.83
492.908	5891.85
493.278	6039.42
493.648	6094.78
494.017	6256.81
494.387	6408.22
494.757	6495
495.126	6678.95
495.496	6747.87
495.866	6851.83
496.235	6998.71
496.605	7142.67
496.974	7238.26
497.344	7395.54
497.713	7507.85
498.082	7630.34
498.452	7785.36
498.821	7867.17
499.19	7984.45
499.559	8111.91
499.928	8263.99
500.298	8404.78
500.667	8433.03
501.036	8588.95
501.405	8727.71
501.774	8776.29
502.143	8979
502.512	9024.42
502.88	9066.23
503.249	9257.19
503.618	9341.03
503.987	9445.88
504.356	9522.26
504.724	9695.82
505.093	9746.21
505.462	9856.94
505.83	9999.77
506.199	10100.78
506.567	10211.06
506.936	10317.95
507.304	10507.1
507.672	10571.28
508.041	10604.95
508.409	10825.51
508.777	10871.83
509.145	10995.9
509.514	10955.9
509.882	11144.37
510.25	11338.49
510.618	11464.36
510.986	11409.22
511.354	11569.67
511.722	11683.56
512.09	11800.4
512.458	11811.47
512.826	12018.7
513.193	12072.71
513.561	12083.1
513.929	12281.97
514.297	12386.37
514.664	12446.48
515.032	12586.82
515.4	12633.37
515.767	12796.08
516.135	12869.75
516.502	12873.59
516.869	13070.42
517.237	13171.66
517.604	13116.75
517.972	13315.84
518.339	13398.09
518.706	13454.14
519.073	13505.66
519.44	13653.23
519.808	13820.68
520.175	13871.98
520.542	14067.45
520.909	14116.49
521.276	14147.68
521.643	14255.47
522.009	14322.14
522.376	14533.43
522.743	14500.89
523.11	14787.21
523.477	14891.61
523.843	14927.77
524.21	15167.54
524.577	15168.67
524.943	15274.2
525.31	15369.12
525.676	15511.48
526.043	15633.06
526.409	15724.36
526.776	15816.34
527.142	15906.05
527.508	16088.87
527.874	16154.18
528.241	16230.34
528.607	16350.11
528.973	16498.35
529.339	16507.62
529.705	16741.28
530.071	16722.75
530.437	16928.62
530.803	16918.91
531.169	17136.75
531.535	17102.18
531.901	17240.03
532.267	17233.7
532.632	17407.48
532.998	17466.91
533.364	17580.58
533.73	17499.91
534.095	17800.69
534.461	17826
534.826	17926.11
535.192	17941.25
535.557	18089.72
535.923	17970.86
536.288	18189.15
536.653	18277.51
537.019	18323.39
537.384	18360
537.749	18422.82
538.114	18466.66
538.479	18537.17
538.845	18673.89
539.21	18634.11
539.575	18705.07
539.94	18783.94
540.305	18925.86
540.67	18837.73
541.034	19021
541.399	19196.13
541.764	19206.53
542.129	19294.21
542.494	19338.28
542.858	19362.23
543.223	19450.82
543.587	19620.98
543.952	19525.39
544.316	19569.46
544.681	19738.04
545.045	19757.7
545.41	19809.68
545.774	19910.69
546.138	19937.58
546.503	19957.92
546.867	20042.67
547.231	20228.42
547.595	20241.08
547.959	20300.74
548.324	20359.04
548.688	20357.23
549.052	20463.44
549.416	20479.49
549.779	20550.45
550.143	20530.34
550.507	20745.02
550.871	20831.34
551.235	20805.58
551.599	20955.18
551.962	20917.9
552.326	21083.09
552.689	21166.03
553.053	21097.78
553.417	21291.9
553.78	21565.11
554.143	21497.32
554.507	21574.15
554.87	21574.15
555.234	21895.27
555.597	21677.42
555.96	21792.45
556.323	21834.93
556.686	21947.47
557.05	22066.34
557.413	22088.71
557.776	22194.47
558.139	22274.24
558.502	22364.86
558.865	22488.25
559.228	22641.69
559.59	22560.34
559.953	22654.57
560.316	22925.53
560.679	23100.21
561.041	23124.39
561.404	23214.33
561.767	23327.32
562.129	23250.04
562.492	23505.17
562.854	23465.63
563.217	23477.6
563.579	23608.22
563.941	23729.57
564.304	23766.41
564.666	23973.41
565.028	24022.45
565.39	24100.86
565.753	24287.07
566.115	24305.38
566.477	24421.08
566.839	24484.81
567.201	24645.71
567.563	24726.84
567.925	25002.31
568.287	24923.21
568.648	25041.86
569.01	25121.85
569.372	25275.3
569.734	25171.57
570.095	25418.57
570.457	25497.44
570.819	25532.92
571.18	25654.27
571.542	25801.84
571.903	25770.65
572.265	25880.03
572.626	26017.88
572.987	26110.98
573.349	26153.46
573.71	26261.94
574.071	26249.28
574.432	26450.63
574.794	26567.69
575.155	26646.11
575.516	26609.72
575.877	26755.48
576.238	26869.83
576.599	27041.13
576.96	27035.48
577.32	27111.18
577.681	27200.22
578.042	27286.32
578.403	27396.6
578.763	27430.49
579.124	27583.71
579.485	27656.48
579.845	27743.48
580.206	27811.05
580.566	27825.74
580.927	27992.96
581.287	28236.12
581.648	28164.26
582.008	28369.9
582.368	28445.61
582.728	28535.55
583.089	28623.91
583.449	28714.75
583.809	28846.5
584.169	28882.43
584.529	28964.92
584.889	29142.99
585.249	29052.82
585.609	29109.32
585.969	29423.89
586.329	29277.68
586.688	29432.25
587.048	29603.77
587.408	29518.8
587.768	29761.28
588.127	29668.85
588.487	29823.2
588.846	29961.73
589.206	29812.35
589.565	30170.99
589.925	30332.79
590.284	30256.18
590.643	30494.37
591.003	30556.96
591.362	30752.89
591.721	30715.6
592.08	30901.36
592.44	30957.18
592.799	31174.8
593.158	31112.43
593.517	31128.48
593.876	31320.56
594.235	31343.61
594.593	31392.88
594.952	31595.13
595.311	31513.1
595.67	31713.54
596.029	31935.91
596.387	32055.46
596.746	32122.8
597.104	31974.55
597.463	32202.35
597.822	32289.35
598.18	32297.94
598.538	32355.56
598.897	32617.02
599.255	32516.24
599.613	32968.88
599.972	32710.58
600.33	32902.21
600.688	32782.9
601.046	33064.47
601.404	33194.64
601.762	33313.73
602.12	33418.13
602.478	33478.02
602.836	33462.88
603.194	33300.85
603.552	33635.98
603.91	33511.01
604.268	33763.21
604.625	33660.84
604.983	33817.67
605.341	33665.58
605.698	33967.72
606.056	34149.86
606.413	34176.3
606.771	34156.87
607.128	34389.63
607.485	34240.03
607.843	34279.35
608.2	34522.96
608.557	34783.97
608.914	34656.74
609.272	34753.92
609.629	34787.14
609.986	35080.91
610.343	34966.79
610.7	35169.27
611.057	35144.19
611.414	35149.16
611.771	35160.46
612.127	35426.89
612.484	35454.46
612.841	35518.87
613.198	35509.6
613.554	35590.96
613.911	35750.5
614.267	35862.14
614.624	35709.15
614.98	35696.94
615.337	36063.26
615.693	35985.07
616.05	35892.42
616.406	36187.33
616.762	36204.73
617.118	36201.11
617.475	36295.57
617.831	36302.58
618.187	36397.26
618.543	36472.97
618.899	36691.49
619.255	36634.77
619.611	36706.18
619.967	36733.75
620.323	36923.58
620.678	36703.24
621.034	36731.27
621.39	36846.07
621.746	36716.12
622.101	37210.35
622.457	37074.53
622.812	36963.8
623.168	37199.05
623.523	37099.39
623.879	37264.81
624.234	37034.31
624.589	37280.86
624.945	37358.14
625.3	37339.39
625.655	37338.48
626.01	37339.16
626.365	37442.43
626.72	37428.87
627.075	37333.96
627.43	37331.02
627.785	37348.88
628.14	37463.45
628.495	37537.35
628.85	37437.91
629.205	37281.08
629.559	37598.81
629.914	37298.93
630.269	37431.13
630.623	37331.93
630.978	37330.12
631.332	37470.23
631.687	37497.8
632.041	37450.12
632.396	37526.05
632.75	37234.53
633.104	37277.24
633.459	37284.25
633.813	37220.74
634.167	37252.83
634.521	37156.11
634.875	37283.79
635.229	37282.89
635.583	37206.28
635.937	37118.83
636.291	37069.56
636.645	37114.98
636.999	37075.89
637.352	37193.17
637.706	37081.31
638.06	37203.12
638.413	36985.5
638.767	37045.38
639.121	37037.47
639.474	36786.86
639.828	36889.68
640.181	36975.55
640.534	36963.35
640.888	36793.86
641.241	36671.61
641.594	36712.06
641.947	37052.61
642.301	36839.06
642.654	36768.1
643.007	36840.87
643.36	36811.72
643.713	36679.29
644.066	36767.88
644.419	36617.82
644.771	36391.39
645.124	35948.69
645.477	36009.25
645.83	35871.4
646.182	35649.03
646.535	35621.46
646.888	35701.91
647.24	35581.69
647.593	35684.29
647.945	35627.57
648.298	35437.97
648.65	35452.66
649.002	35377.4
649.355	35455.37
649.707	35437.97
650.059	35575.82
650.411	35938.97
650.763	35944.62
651.115	36273.65
651.467	36186.42
651.819	36110.49
652.171	36206.99
652.523	36089.02
652.875	36025.97
653.227	35814.45
653.578	36137.61
653.93	36221
654.282	36017.16
654.633	35816.94
654.985	36032.08
655.337	35956.14
655.688	35884.96
656.039	36075.46
656.391	35803.61
656.742	35837.05
657.094	35868.69
657.445	35960.89
657.796	35935.35
658.147	35953.89
658.498	35891.51
658.849	35985.07
659.2	35872.76
659.551	35613.56
659.902	35819.43
660.253	35815.81
660.604	35831.4
660.955	35668.47
661.306	35892.64
661.656	35647.68
662.007	35682.03
662.358	35739.43
662.708	35707.56
663.059	35808.35
663.409	35520.22
663.76	35755.47
664.11	35739.43
664.461	35730.61
664.811	35756.6
665.161	35616.72
665.511	35670.73
665.862	35608.81
666.212	35807.67
666.562	35810.16
666.912	35668.47
667.262	35633.44
667.612	35619.66
667.962	35701.69
668.312	35543.05
668.662	35661.46
669.011	35662.37
669.361	35492.2
669.711	35464.86
670.06	35491.98
670.41	35509.83
670.76	35292.43
671.109	35421.92
671.459	35435.03
671.808	35358.87
672.157	35629.15
672.507	35148.26
672.856	35227.8
673.205	35286.56
673.554	35510.96
673.904	35328.59
674.253	35628.24
674.602	35374.47
674.951	34896.96
675.3	34779.9
675.649	35211.08
675.998	35225.32
676.346	35257.63
676.695	35423.73
677.044	35037.07
677.393	35234.36
677.741	35269.16
678.09	35111.87
678.438	35072.33
678.787	35139.9
679.135	35063.74
679.484	34828.49
679.832	34890.64
680.181	34721.15
680.529	34954.59
680.877	34870.07
681.225	34678.66
681.573	34837.98
681.922	34620.59
682.27	34568.16
682.618	34705.56
682.966	34591.66
683.314	34698.55
683.661	34574.71
684.009	34300.14
684.357	34178.34
684.705	34197.77
685.053	34224.89
685.4	34321.84
685.748	34051.34
686.095	34092.47
686.443	34086.36
686.79	33920.27
687.138	33907.61
687.485	34055.4
687.832	33797.11
688.18	33854.51
688.527	33611.12
688.874	33630.33
689.221	33575.64
689.568	33429.66
689.915	33416.78
690.262	33341.52
690.609	33202.77
690.956	33188.99
691.303	33067.41
691.65	32933.85
691.997	33088.88
692.344	32906.73
692.69	32851.82
693.037	32883.01
693.383	32688.89
693.73	32770.69
694.077	32616.57
694.423	32509.91
694.769	32377.93
695.116	32363.7
695.462	32353.75
695.808	32202.8
696.155	32239.63
696.501	32067.43
696.847	31995.12
697.193	31805.97
697.539	31898.17
697.885	31677.39
698.231	31544.96
698.577	31624.06
698.923	31519.88
699.269	31328.02
699.614	31250.51
699.96	31191.3
700.306	31198.08
700.651	30991.08
700.997	30989.95
701.342	30907.46
701.688	30930.06
702.033	30775.72
702.379	30838.54
702.724	30569.39
703.069	30781.82
703.415	30281.94
703.76	30425.67
704.105	30370.98
704.45	30283.75
704.795	30136.41
705.14	30133.25
705.485	30058.45
705.83	29971.44
706.175	30050.09
706.52	29861.16
706.865	29802.18
707.209	29790.66
707.554	29628.18
707.899	29652.36
708.243	29606.48
708.588	29571.91
708.932	29426.6
709.277	29352.48
709.621	29355.64
709.966	29190.45
710.31	29323.1
710.654	28960.4
710.998	29057.57
711.342	29032.94
711.687	28914.52
712.031	28719.73
712.375	28632.04
712.719	28725.6
713.063	28662.55
713.407	28771.7
713.75	28482.9
714.094	28528.77
714.438	28451.48
714.782	28416.46
715.125	28238.16
715.469	28240.87
715.812	28100.76
716.156	28044.26
716.499	28062.79
716.843	28149.34
717.186	28045.62
717.53	28070.02
717.873	27971.72
718.216	27895.11
718.559	27790.03
718.902	27571.28
719.246	27632.97
719.589	27661
719.932	27517.5
720.275	27536.48
720.617	27537.16
720.96	27370.16
721.303	27528.8
721.646	27445.18
721.989	27233.89
722.331	27283.83
722.674	27211.97
723.016	27362.02
723.359	27195.02
723.701	27188.47
724.044	27008.58
724.386	26972.2
724.729	27038.41
725.071	27056.04
725.413	26981.01
725.755	26927.23
726.097	26845.65
726.439	26672.77
726.782	26718.42
727.124	26791.41
727.465	26517.3
727.807	26548.71
728.149	26525.43
728.491	26384.87
728.833	26583.74
729.175	26382.39
729.516	26256.29
729.858	26369.5
730.199	26350.07
730.541	26251.32
730.882	26150.08
731.224	26395.72
731.565	26102.39
731.906	26183.75
732.248	26059.46
732.589	26115.95
732.93	25965.22
733.271	25845.68
733.612	25800.71
733.953	26004.77
734.294	25816.3
734.635	25717.32
734.976	25796.86
735.317	25616.3
735.658	25719.35
735.999	25735.85
736.339	25685.45
736.68	25646.13
737.021	25607.72
737.361	25540.15
737.702	25645.68
738.042	25438
738.383	25473.48
738.723	25484.56
739.063	25383.99
739.404	25455.86
739.744	25345.35
740.084	25268.06
740.424	25245.69
740.764	25209.31
741.104	25257.9
741.444	25040.5
741.784	25028.97
742.124	25103.32
742.464	25001.4
742.804	24966.83
743.143	24924.8
743.483	24929.09
743.823	24861.75
744.162	24798.47
744.502	24894.06
744.841	24748.53
745.181	24892.03
745.52	24620.17
745.86	24643.22
746.199	24623.34
746.538	24487.75
746.877	24643
747.216	24685.03
747.556	24438.03
747.895	24534.52
748.234	24384.47
748.573	24371.14
748.911	24285.94
749.25	24227.19
749.589	24162.56
749.928	24137.92
750.267	24134.31
750.605	24144.93
750.944	23970.47
751.283	23912.39
751.621	24000.53
751.96	23890.25
752.298	23784.94
752.636	23825.84
752.975	23748.56
753.313	23757.6
753.651	23815.67
753.989	23693.42
754.327	23584.27
754.666	23500.2
755.004	23613.42
755.342	23542.91
755.679	23513.08
756.017	23312.86
756.355	23343.14
756.693	23331.39
757.031	23256.59
