Data from hue_220_FLMS001491_00033.txt Node
Date: Tue Feb 07 16:39:22 GMT 2017
User: dcchb
Spectrometer: FLMS00149
Trigger mode: 0
Integration Time (sec): 2.000000E-2
Scans to average: 10
Electric dark correction enabled: true
Nonlinearity correction enabled: false
Boxcar width: 0
XAxis mode: Wavelengths
Number of Pixels in Spectrum: 2048
>>>>>Begin Spectral Data<<<<<
341.393	-9.17
341.776	-9.17
342.16	-9.17
342.543	-53.69
342.927	-58.43
343.31	-77.87
343.693	-60.46
344.077	-67.47
344.46	-68.15
344.843	-57.07
345.226	-32.89
345.61	-29.28
345.993	-21.14
346.376	-1.26
346.759	17.73
347.142	29.02
347.525	35.8
347.908	55.46
348.291	75.8
348.674	105.86
349.057	95.92
349.44	139.3
349.823	142.47
350.206	170.49
350.588	197.38
350.971	224.05
351.354	219.53
351.737	236.48
352.119	264.05
352.502	283.03
352.884	266.08
353.267	292.75
353.65	292.75
354.032	301.56
354.414	305.85
354.797	319.19
355.179	316.93
355.562	344.5
355.944	331.39
356.326	324.84
356.709	342.91
357.091	327.77
357.473	354.67
357.855	341.56
358.238	349.02
358.62	351.28
359.002	328
359.384	355.57
359.766	363.25
360.148	332.97
360.53	305.4
360.912	328.45
361.294	329.36
361.676	340.2
362.057	332.97
362.439	330.71
362.821	333.2
363.203	340.2
363.584	318.28
363.966	332.52
364.348	328.68
364.729	323.93
365.111	325.74
365.493	315.57
365.874	328.68
366.256	322.8
366.637	325.97
367.019	331.62
367.4	298.4
367.781	309.02
368.163	312.63
368.544	306.98
368.925	325.97
369.306	328.23
369.688	329.58
370.069	318.28
370.45	310.15
370.831	322.35
371.212	317.15
371.593	311.5
371.974	304.95
372.355	306.76
372.736	310.37
373.117	310.83
373.498	327.32
373.879	329.58
374.26	316.7
374.641	312.63
375.021	303.37
375.402	317.6
375.783	323.71
376.163	316.25
376.544	328.23
376.925	329.58
377.305	320.77
377.686	313.99
378.066	322.8
378.447	326.87
378.827	357.15
379.208	334.55
379.588	322.12
379.968	338.17
380.349	334.33
380.729	338.62
381.109	330.71
381.489	329.58
381.87	360.09
382.25	344.72
382.63	320.09
383.01	338.4
383.39	326.87
383.77	335.91
384.15	352.86
384.53	360.09
384.91	340.65
385.29	329.13
385.67	333.2
386.049	368.22
386.429	330.03
386.809	357.83
387.189	323.03
387.568	367.09
387.948	349.69
388.328	363.93
388.707	352.41
389.087	353.76
389.466	375.91
389.846	358.28
390.225	351.05
390.605	354.89
390.984	376.59
391.363	370.71
391.743	366.87
392.122	372.07
392.501	363.48
392.881	371.39
393.26	364.61
393.639	377.72
394.018	381.33
394.397	419.52
394.776	372.07
395.155	378.62
395.534	371.61
395.913	396.02
396.292	380.65
396.671	359.64
397.05	389.47
397.429	397.38
397.808	399.41
398.186	402.35
398.565	393.31
398.944	402.57
399.323	414.78
399.701	409.35
400.08	392.63
400.458	407.32
400.837	407.77
401.215	395.12
401.594	410.26
401.972	389.92
402.351	410.48
402.729	404.83
403.107	437.38
403.486	414.55
403.864	424.95
404.242	423.59
404.62	445.51
404.999	429.24
405.377	454.1
405.755	453.87
406.133	438.51
406.511	445.06
406.889	465.17
407.267	441.67
407.645	459.97
408.023	477.6
408.401	492.74
408.779	492.06
409.156	488.45
409.534	508.79
409.912	486.19
410.29	506.07
410.667	526.64
411.045	523.02
411.422	540.65
411.8	515.79
412.178	530.93
412.555	539.97
412.933	556.69
413.31	544.49
413.687	566.64
414.065	586.07
414.442	567.09
414.819	573.19
415.197	595.79
415.574	600.76
415.951	617.48
416.328	611.38
416.705	622.46
417.082	627.88
417.46	639.63
417.837	663.36
418.214	656.8
418.591	655.9
418.967	667.88
419.344	688.22
419.721	691.83
420.098	692.51
420.475	704.04
420.852	722.57
421.228	696.35
421.605	727.31
421.982	749.91
422.358	762.11
422.735	754.43
423.111	759.63
423.488	767.31
423.864	798.5
424.241	833.98
424.617	823.35
424.994	849.79
425.37	845.27
425.746	859.51
426.123	859.06
426.499	901.77
426.875	862.45
427.251	927.08
427.627	929.11
428.003	942.22
428.379	972.5
428.756	952.39
429.132	960.53
429.507	979.28
429.883	974.31
430.259	994.65
430.635	1028.55
431.011	1004.37
431.387	1018.6
431.763	1038.94
432.138	1079.17
432.514	1079.17
432.89	1110.13
433.265	1133.4
433.641	1140.41
434.016	1155.32
434.392	1174.98
434.767	1220.86
435.143	1213.85
435.518	1227.86
435.894	1249.56
436.269	1264.92
436.644	1300.18
437.02	1301.99
437.395	1344.47
437.77	1344.7
438.145	1379.72
438.52	1350.8
438.895	1407.97
439.271	1423.56
439.646	1435.54
440.021	1433.73
440.395	1500.85
440.77	1484.35
441.145	1510.34
441.52	1541.75
441.895	1554.63
442.27	1564.8
442.645	1575.65
443.019	1604.12
443.394	1622.88
443.769	1633.5
444.143	1640.96
444.518	1633.95
444.892	1651.13
445.267	1690
445.641	1690.45
446.016	1703.33
446.39	1715.31
446.764	1717.12
447.139	1716.21
447.513	1751.92
447.887	1764.35
448.262	1787.62
448.636	1758.24
449.01	1831.92
449.384	1815.87
449.758	1825.81
450.132	1847.06
450.506	1853.38
450.88	1850.45
451.254	1838.47
451.628	1893.61
452.002	1884.8
452.376	1932.03
452.75	1951.46
453.123	1957.11
453.497	1994.85
453.871	2014.06
454.244	2023.32
454.618	2049.31
454.992	2075.98
455.365	2047.73
455.739	2155.52
456.112	2103.77
456.486	2171.34
456.859	2140.61
457.232	2196.43
457.606	2215.86
457.979	2212.7
458.352	2265.58
458.725	2287.5
459.099	2275.52
459.472	2357.1
459.845	2345.8
460.218	2367.95
460.591	2403.2
460.964	2419.47
461.337	2440.26
461.71	2493.14
462.083	2539.02
462.456	2482.07
462.829	2528.17
463.201	2576.3
463.574	2583.53
463.947	2630.09
464.32	2625.79
464.692	2675.51
465.065	2723.19
465.438	2736.3
465.81	2794.38
466.183	2776.3
466.555	2828.95
466.928	2840.48
467.3	2841.15
467.672	2903.75
468.045	2959.57
468.417	2959.8
468.789	2924.32
469.161	3026.46
469.534	3058.1
469.906	3118.66
470.278	3148.72
470.65	3168.6
471.022	3195.72
471.394	3270.3
471.766	3305.1
472.138	3328.15
472.51	3415.83
472.882	3435.26
473.253	3461.7
473.625	3534.24
473.997	3580.57
474.369	3593.45
474.74	3608.14
475.112	3658.76
475.484	3722.71
475.855	3789.15
476.227	3821.69
476.598	3887.23
476.97	3902.14
477.341	3995.93
477.713	4051.29
478.084	4029.82
478.455	4163.38
478.827	4190.95
479.198	4294
479.569	4256.71
479.94	4365.18
480.311	4452.41
480.682	4480.89
481.053	4608.34
481.424	4672.74
481.795	4703.7
482.166	4740.09
482.537	4799.75
482.908	4823.25
483.279	4901.21
483.65	4965.39
484.021	5102.11
484.391	5094.88
484.762	5128.55
485.133	5189.57
485.503	5226.4
485.874	5335.1
486.244	5406.74
486.615	5529.67
486.985	5456.68
487.356	5550.46
487.726	5571.25
488.097	5726.73
488.467	5732.6
488.837	5848.53
489.207	5884.69
489.578	5974.41
489.948	6032.93
490.318	6037.68
490.688	6070.9
491.058	6115.42
491.428	6176.43
491.798	6285.36
492.168	6401.29
492.538	6395.18
492.908	6475.86
493.278	6479.25
493.648	6532.36
494.017	6563.54
494.387	6615.29
494.757	6654.39
495.126	6711.79
495.496	6743.88
495.866	6691.45
496.235	6807.83
496.605	6893.02
496.974	6890.09
497.344	6913.59
497.713	6992.01
498.082	7011.44
498.452	7031.55
498.821	7083.53
499.19	7047.82
499.559	7146.58
499.928	7147.26
500.298	7186.12
500.667	7257.31
501.036	7230.87
501.405	7304.54
501.774	7293.69
502.143	7410.98
502.512	7285.78
502.88	7325.1
503.249	7326.91
503.618	7427.47
503.987	7388.83
504.356	7401.71
504.724	7463.41
505.093	7439.23
505.462	7502.27
505.83	7534.82
506.199	7540.47
506.567	7666.79
506.936	7607.81
507.304	7669.28
507.672	7700.91
508.041	7668.15
508.409	7730.07
508.777	7714.25
509.145	7819.1
509.514	7758.99
509.882	7862.72
510.25	7827.92
510.618	7822.94
510.986	7874.92
511.354	7921.25
511.722	7937.29
512.09	7921.7
512.458	7910.17
512.826	7924.18
513.193	7965.31
513.561	7987.01
513.929	8023.39
514.297	8066.78
514.664	8015.26
515.032	8031.3
515.4	8084.86
515.767	8091.41
516.135	8050.28
516.502	7986.56
516.869	8077.85
517.237	8107.91
517.604	8072.2
517.972	8089.6
518.339	8157.4
518.706	8139.77
519.073	8117.85
519.44	8148.36
519.808	8169.83
520.175	8114.46
520.542	8217.06
520.909	8161.69
521.276	8172.31
521.643	8198.3
522.009	8217.51
522.376	8245.08
522.743	8249.6
523.11	8241.92
523.477	8290.05
523.843	8329.15
524.21	8380.44
524.577	8326.89
524.943	8379.99
525.31	8360.33
525.676	8382.48
526.043	8407.11
526.409	8382.93
526.776	8434.45
527.142	8371.63
527.508	8436.49
527.874	8354.46
528.241	8470.61
528.607	8385.42
528.973	8454.11
529.339	8506.09
529.705	8454.79
530.071	8433.55
530.437	8455.47
530.803	8416.83
531.169	8455.02
531.535	8414.11
531.901	8381.35
532.267	8468.35
532.632	8399.2
532.998	8362.14
533.364	8377.96
533.73	8328.92
534.095	8428.8
534.461	8361.46
534.826	8365.98
535.192	8406.43
535.557	8382.03
535.923	8351.07
536.288	8336.6
536.653	8334.34
537.019	8195.82
537.384	8284.4
537.749	8264.06
538.114	8257.73
538.479	8205.98
538.845	8171.64
539.21	8162.37
539.575	8201.24
539.94	8123.5
540.305	8142.94
540.67	8143.16
541.034	8089.6
541.399	8099.77
541.764	8095.93
542.129	8050.28
542.494	8015.03
542.858	8015.71
543.223	8043.5
543.587	8015.93
543.952	7971.87
544.316	7976.61
544.681	7974.35
545.045	7992.43
545.41	7944.97
545.774	7920.12
546.138	7820.01
546.503	7864.98
546.867	7816.16
547.231	7856.62
547.595	7800.8
547.959	7822.04
548.324	7713.79
548.688	7700.01
549.052	7766.67
549.416	7677.41
549.779	7676.96
550.143	7669.05
550.507	7622.72
550.871	7657.98
551.235	7587.24
551.599	7602.61
551.962	7594.93
552.326	7537.98
552.689	7534.82
553.053	7453.69
553.417	7454.37
553.78	7556.96
554.143	7479.45
554.507	7456.17
554.87	7493.69
555.234	7502.27
555.597	7400.13
555.96	7411.43
556.323	7429.96
556.686	7422.28
557.05	7448.72
557.413	7428.38
557.776	7379.79
558.139	7408.72
558.502	7411.88
558.865	7326.01
559.228	7360.81
559.59	7397.64
559.953	7358.78
560.316	7442.62
560.679	7379.34
561.041	7367.81
561.404	7361.71
561.767	7407.36
562.129	7409.62
562.492	7311.55
562.854	7427.25
563.217	7326.69
563.579	7352.22
563.941	7464.76
564.304	7441.26
564.666	7393.8
565.028	7398.55
565.39	7419.79
565.753	7415.05
566.115	7413.01
566.477	7428.83
566.839	7440.81
567.201	7467.47
567.563	7465.89
567.925	7502.95
568.287	7460.24
568.648	7452.78
569.01	7486.46
569.372	7518.55
569.734	7458.43
570.095	7492.56
570.457	7533.46
570.819	7533.01
571.18	7525.1
571.542	7547.02
571.903	7551.54
572.265	7588.83
572.626	7620.69
572.987	7600.13
573.349	7554.93
573.71	7601.71
574.071	7677.19
574.432	7659.11
574.794	7777.07
575.155	7677.41
575.516	7733.68
575.877	7752.44
576.238	7741.82
576.599	7715.6
576.96	7761.02
577.32	7751.76
577.681	7773.23
578.042	7781.36
578.403	7783.85
578.763	7827.69
579.124	7860.68
579.485	7838.99
579.845	7861.14
580.206	7886.9
580.566	7881.47
580.927	7867.69
581.287	7949.27
581.648	7960.57
582.008	7994.24
582.368	7957.63
582.728	7990.85
583.089	8001.92
583.449	7990.4
583.809	8041.7
584.169	8022.71
584.529	8079.43
584.889	8065.42
585.249	8079.43
585.609	8076.04
585.969	8154.46
586.329	8103.39
586.688	8122.15
587.048	8123.05
587.408	8088.02
587.768	8074.91
588.127	8181.58
588.487	8156.72
588.846	8228.36
589.206	8179.77
589.565	8212.76
589.925	8280.56
590.284	8254.57
590.643	8228.58
591.003	8239.88
591.362	8252.31
591.721	8291.18
592.08	8247.11
592.44	8327.11
592.799	8326.43
593.158	8364.4
593.517	8278.98
593.876	8334.34
594.235	8363.27
594.593	8338.41
594.952	8447.11
595.311	8354.68
595.67	8404.62
596.029	8523.49
596.387	8457.73
596.746	8444.85
597.104	8464.51
597.463	8438.75
597.822	8443.49
598.18	8428.13
598.538	8405.75
598.897	8487.56
599.255	8502.02
599.613	8548.35
599.972	8550.38
600.33	8532.08
600.688	8513.77
601.046	8540.21
601.404	8544.28
601.762	8613.43
602.12	8539.76
602.478	8577.73
602.836	8539.31
603.194	8530.95
603.552	8607.56
603.91	8530.95
604.268	8577.95
604.625	8587.9
604.983	8608.46
605.341	8584.28
605.698	8625.41
606.056	8634.67
606.413	8643.04
606.771	8588.57
607.128	8657.72
607.485	8611.17
607.843	8609.59
608.2	8646.88
608.557	8692.98
608.914	8627.44
609.272	8731.62
609.629	8689.36
609.986	8647.56
610.343	8735.24
610.7	8742.92
611.057	8799.64
611.414	8746.54
611.771	8759.87
612.127	8757.38
612.484	8742.24
612.841	8722.81
613.198	8711.73
613.554	8794.9
613.911	8817.49
614.267	8810.71
614.624	8799.19
614.98	8826.99
615.337	8871.05
615.693	8911.28
616.05	8843.26
616.406	8908.79
616.762	8850.71
617.118	8822.69
617.475	8855.01
617.831	8895.01
618.187	8893.42
618.543	8889.13
618.899	8968.22
619.255	8911.95
619.611	8852.97
619.967	8931.62
620.323	8984.04
620.678	8909.24
621.034	8882.58
621.39	8878.28
621.746	8870.6
622.101	8956.7
622.457	8960.99
622.812	8946.3
623.168	8936.59
623.523	8988.34
623.879	9010.03
624.234	8974.55
624.589	8935.01
624.945	8980.88
625.3	9001.44
625.655	8977.49
626.01	8950.15
626.365	9041.44
626.72	8924.16
627.075	8904.72
627.43	8972.52
627.785	8919.64
628.14	8922.58
628.495	8879.64
628.85	8931.62
629.205	8883.48
629.559	8914.89
629.914	8864.5
630.269	8897.04
630.623	8861.11
630.978	8811.84
631.332	8852.52
631.687	8879.41
632.041	8877.15
632.396	8856.36
632.75	8812.3
633.104	8834.89
633.459	8814.33
633.813	8838.74
634.167	8828.57
634.521	8791.73
634.875	8845.29
635.229	8804.61
635.583	8639.87
635.937	8745.86
636.291	8677.16
636.645	8692.98
636.999	8711.06
637.352	8677.84
637.706	8697.5
638.06	8712.64
638.413	8647.1
638.767	8622.47
639.121	8611.17
639.474	8652.3
639.828	8599.87
640.181	8641.91
640.534	8629.7
640.888	8591.29
641.241	8533.21
641.594	8631.51
641.947	8634.9
642.301	8535.02
642.654	8575.01
643.007	8574.79
643.36	8585.64
643.713	8521.46
644.066	8549.93
644.419	8503.15
644.771	8515.13
645.124	8437.62
645.477	8428.8
645.83	8398.3
646.182	8350.16
646.535	8280.56
646.888	8374.34
647.24	8256.38
647.593	8297.28
647.945	8339.31
648.298	8234.01
648.65	8188.36
649.002	8219.32
649.355	8275.59
649.707	8310.61
650.059	8333.44
650.411	8371.4
650.763	8371.86
651.115	8491.63
651.467	8495.02
651.819	8441.91
652.171	8456.6
652.523	8459.99
652.875	8483.72
653.227	8477.39
653.578	8507.67
653.93	8501.8
654.282	8420.22
654.633	8441.46
654.985	8443.94
655.337	8455.47
655.688	8512.64
656.039	8516.71
656.391	8448.69
656.742	8476.03
657.094	8424.74
657.445	8512.19
657.796	8531.63
658.147	8441.01
658.498	8466.99
658.849	8505.19
659.2	8495.92
659.551	8487.56
659.902	8560.55
660.253	8454.79
660.604	8526.2
660.955	8472.19
661.306	8504.06
661.656	8527.78
662.007	8484.17
662.358	8556.94
662.708	8605.52
663.059	8521.91
663.409	8517.16
663.76	8548.12
664.11	8546.77
664.461	8520.55
664.811	8551.96
665.161	8565.52
665.511	8550.38
665.862	8555.35
666.212	8559.87
666.562	8568.24
666.912	8568.69
667.262	8561.91
667.612	8512.19
667.962	8562.13
668.312	8466.99
668.662	8542.02
669.011	8549.03
669.361	8491.85
669.711	8528.46
670.06	8506.09
670.41	8463.15
670.76	8462.93
671.109	8522.36
671.459	8464.06
671.808	8477.16
672.157	8460.22
672.507	8432.19
672.856	8499.99
673.205	8447.79
673.554	8523.49
673.904	8468.35
674.253	8493.66
674.602	8448.46
674.951	8429.48
675.3	8290.5
675.649	8427.22
675.998	8402.59
676.346	8412.99
676.695	8403.49
677.044	8384.06
677.393	8377.73
677.741	8456.37
678.09	8393.78
678.438	8354.23
678.787	8387.67
679.135	8361.46
679.484	8330.05
679.832	8374.34
680.181	8278.07
680.529	8322.82
680.877	8251.41
681.225	8298.64
681.573	8313.1
681.922	8254.12
682.27	8168.02
682.618	8224.52
682.966	8166.89
683.314	8226.78
683.661	8151.97
684.009	8165.31
684.357	8113.11
684.705	8068.59
685.053	8097.51
685.4	8112.43
685.748	8013.22
686.095	8015.26
686.443	8005.31
686.79	7976.61
687.138	7989.27
687.485	7988.82
687.832	7938.2
688.18	7989.49
688.527	7890.96
688.874	7926.44
689.221	7867.24
689.568	7848.48
689.915	7806.9
690.262	7857.07
690.609	7764.87
690.956	7744.98
691.303	7709.5
691.65	7723.51
691.997	7749.73
692.344	7649.84
692.69	7580.01
693.037	7588.37
693.383	7465.44
693.73	7488.72
694.077	7511.31
694.423	7527.13
694.769	7453.24
695.116	7478.09
695.462	7461.15
695.808	7392.22
696.155	7403.07
696.501	7320.58
696.847	7341.15
697.193	7302.96
697.539	7288.27
697.885	7307.25
698.231	7250.53
698.577	7187.71
698.923	7176.63
699.269	7171.66
699.614	7138.22
699.96	7131.21
700.306	7079.46
700.651	7052.12
700.997	7061.61
701.342	7004.21
701.688	7086.69
702.033	6896.41
702.379	6946.13
702.724	6928.5
703.069	6970.76
703.415	6836.08
703.76	6795.4
704.105	6840.6
704.45	6756.98
704.795	6740.49
705.14	6749.98
705.485	6675.18
705.83	6702.3
706.175	6697.1
706.52	6732.58
706.865	6660.04
707.209	6668.17
707.554	6575.97
707.899	6586.59
708.243	6574.62
708.588	6566.25
708.932	6534.39
709.277	6485.58
709.621	6495.97
709.966	6486.03
710.31	6467.27
710.654	6446.26
710.998	6403.32
711.342	6410.1
711.687	6418.46
712.031	6331.68
712.375	6344.11
712.719	6273.61
713.063	6348.41
713.407	6330.1
713.75	6319.48
714.094	6257.56
714.438	6298.46
714.782	6339.82
715.125	6209.43
715.469	6325.58
715.812	6159.03
716.156	6169.2
716.499	6204.46
716.843	6168.07
717.186	6150.22
717.53	6210.56
717.873	6185.02
718.216	6176.21
718.559	6136.43
718.902	6110.9
719.246	6146.6
719.589	6089.2
719.932	6059.15
720.275	6108.19
720.617	6101.63
720.96	6087.62
721.303	6064.35
721.646	6075.42
721.989	6113.84
722.331	6044.23
722.674	6072.03
723.016	6006.27
723.359	5998.59
723.701	6022.99
724.044	5986.38
724.386	6008.08
724.729	6023.44
725.071	5987.51
725.413	6022.31
725.755	6041.75
726.097	5994.52
726.439	5983.22
726.782	5994.29
727.124	5990.68
727.465	5931.47
727.807	5972.37
728.149	5966.72
728.491	5959.26
728.833	5975.08
729.175	5952.48
729.516	5946.61
729.858	5952.71
730.199	6000.17
730.541	5950.68
730.882	5952.03
731.224	5980.28
731.565	5997.23
731.906	5960.62
732.248	5999.94
732.589	5923.78
732.93	5921.53
733.271	5970.79
733.612	5961.75
733.953	5980.28
734.294	5957
734.635	5945.48
734.976	5963.56
735.317	5950.9
735.658	5926.72
735.999	5978.47
736.339	5936.67
736.68	6005.14
737.021	5980.96
737.361	5983.44
737.702	6014.63
738.042	5970.56
738.383	6003.33
738.723	5996.33
739.063	5999.49
739.404	6025.25
739.744	6026.83
740.084	6004.69
740.424	6005.14
740.764	6047.62
741.104	6088.07
741.444	6050.56
741.784	6057.11
742.124	6123.33
742.464	6136.43
742.804	6120.84
743.143	6146.6
743.483	6156.77
743.823	6151.12
744.162	6166.94
744.502	6250.56
744.841	6278.13
745.181	6345.69
745.52	6292.36
745.86	6351.57
746.199	6402.42
746.538	6384.11
746.877	6452.13
747.216	6492.36
747.556	6536.65
747.895	6588.17
748.234	6582.52
748.573	6691.67
748.911	6704.33
749.25	6779.13
749.589	6803.08
749.928	6885.34
750.267	6962.63
750.605	7010.31
750.944	7109.52
751.283	7111.78
751.621	7229.29
751.96	7366.91
752.298	7362.17
752.636	7486.23
752.975	7516.51
753.313	7583.4
753.651	7787.24
753.989	7829.95
754.327	7996.05
754.666	8096.61
755.004	8184.97
755.342	8326.21
755.679	8391.06
756.017	8476.26
756.355	8656.14
756.693	8761.45
757.031	8913.08
757.368	9045.96
757.706	9164.6
758.044	9247.54
758.381	9448.44
758.719	9607.08
759.056	9709
759.394	9912.38
759.731	10040.96
760.068	10171.81
760.405	10281.41
760.743	10490.9
761.08	10693.15
761.417	10802.75
761.754	10937.21
762.091	11113.7
762.428	11285.45
762.765	11377.65
763.102	11640.24
763.438	11764.54
763.775	11879.11
764.112	12056.51
764.449	12356.61
764.785	12412.2
765.122	12515.48
765.458	12675.92
765.795	12882.7
766.131	13041.11
766.467	13114.33
766.804	13285.85
767.14	13459.63
767.476	13607.42
767.812	13723.81
768.148	13911.37
768.485	13999.96
768.821	14072.27
