Data from hue_22_FLMS001491_00027.txt Node
Date: Tue Feb 07 17:09:52 GMT 2017
User: dcchb
Spectrometer: FLMS00149
Trigger mode: 0
Integration Time (sec): 2.000000E-2
Scans to average: 10
Electric dark correction enabled: true
Nonlinearity correction enabled: false
Boxcar width: 0
XAxis mode: Wavelengths
Number of Pixels in Spectrum: 2048
>>>>>Begin Spectral Data<<<<<
341.393	-17.67
341.776	-17.67
342.16	-17.67
342.543	-68.06
342.927	-71.45
343.31	-82.53
343.693	-58.12
344.077	-64.45
344.46	-50.21
344.843	-59.48
345.226	-40.95
345.61	-24
345.993	-23.09
346.376	-14.28
346.759	7.87
347.142	17.81
347.525	56.23
347.908	59.17
348.291	63.91
348.674	112.95
349.057	99.16
349.44	109.56
349.823	152.72
350.206	163.8
350.588	185.72
350.971	207.41
351.354	224.36
351.737	250.12
352.119	259.16
352.502	269.33
352.884	285.15
353.267	292.61
353.65	290.8
354.032	301.19
354.414	298.25
354.797	293.96
355.179	327.63
355.562	337.12
355.944	331.02
356.326	342.55
356.709	339.16
357.091	344.81
357.473	360.17
357.855	355.88
358.238	340.97
358.62	345.94
359.002	322.21
359.384	350
359.766	340.51
360.148	345.71
360.53	337.12
360.912	335.32
361.294	341.64
361.676	344.13
362.057	321.76
362.439	328.54
362.821	335.77
363.203	328.76
363.584	317.69
363.966	317.92
364.348	306.62
364.729	313.85
365.111	326.28
365.493	337.12
365.874	297.12
366.256	311.14
366.637	317.24
367.019	305.94
367.4	310.01
367.781	312.04
368.163	320.63
368.544	315.66
368.925	318.59
369.306	323.11
369.688	334.19
370.069	313.62
370.45	340.51
370.831	315.2
371.212	327.18
371.593	320.4
371.974	309.33
372.355	318.59
372.736	327.41
373.117	328.99
373.498	324.92
373.879	305.94
374.26	305.71
374.641	333.51
375.021	327.41
375.402	324.02
375.783	330.8
376.163	334.41
376.544	326.28
376.925	344.36
377.305	320.85
377.686	328.99
378.066	307.07
378.447	332.38
378.827	310.91
379.208	340.51
379.588	326.95
379.968	323.56
380.349	351.36
380.729	329.67
381.109	338.03
381.489	349.33
381.87	356.33
382.25	357.91
382.63	338.48
383.01	364.92
383.39	346.16
383.77	348.88
384.15	340.97
384.53	346.16
384.91	347.75
385.29	352.26
385.67	350
386.049	343.23
386.429	363.34
386.809	365.15
387.189	353.62
387.568	333.73
387.948	368.99
388.328	352.72
388.707	377.12
389.087	359.95
389.466	358.59
389.846	361.08
390.225	356.78
390.605	363.56
390.984	364.47
391.363	374.86
391.743	361.3
392.122	364.92
392.501	388.42
392.881	384.35
393.26	363.79
393.639	381.19
394.018	383.22
394.397	373.51
394.776	385.03
395.155	405.82
395.534	380.29
395.913	379.16
396.292	391.36
396.671	386.61
397.05	409.21
397.429	405.14
397.808	383.9
398.186	410.34
398.565	411.47
398.944	397.46
399.323	388.2
399.701	388.87
400.08	405.14
400.458	384.81
400.837	408.76
401.215	394.3
401.594	412.15
401.972	406.5
402.351	396.33
402.729	403.56
403.107	405.37
403.486	419.61
403.864	417.8
404.242	431.81
404.62	422.32
404.999	407.86
405.377	430.23
405.755	426.61
406.133	441.3
406.511	442.43
406.889	439.95
407.267	434.07
407.645	453.96
408.023	415.99
408.401	433.17
408.779	426.16
409.156	467.52
409.534	452.15
409.912	468.19
410.29	446.27
410.667	461.41
411.045	473.84
411.422	469.1
411.8	455.54
412.178	478.59
412.555	467.29
412.933	462.54
413.31	469.78
413.687	481.75
414.065	486.72
414.442	493.73
414.819	481.07
415.197	480.85
415.574	493.73
415.951	495.31
416.328	506.38
416.705	500.96
417.082	496.67
417.46	503.67
417.837	499.61
418.214	504.13
418.591	492.37
418.967	507.51
419.344	512.94
419.721	504.35
420.098	527.63
420.475	533.73
420.852	536.21
421.228	554.07
421.605	537.34
421.982	522.66
422.358	554.97
422.735	537.12
423.111	536.89
423.488	534.86
423.864	548.87
424.241	566.27
424.617	563.11
424.994	550.23
425.37	568.76
425.746	571.47
426.123	585.48
426.499	583.45
426.875	593.16
427.251	583.9
427.627	588.42
428.003	597.91
428.379	607.85
428.756	580.06
429.132	630.45
429.507	605.14
429.883	605.37
430.259	623.9
430.635	625.25
431.011	617.34
431.387	632.26
431.763	644.01
432.138	647.4
432.514	632.94
432.89	643.1
433.265	651.47
433.641	681.97
434.016	666.61
434.392	681.75
434.767	684.23
435.143	676.78
435.518	683.78
435.894	713.84
436.269	709.09
436.644	689.43
437.02	686.95
437.395	707.06
437.77	714.29
438.145	714.74
438.52	733.95
438.895	740.73
439.271	734.4
439.646	734.4
440.021	750.67
440.395	765.14
440.77	760.62
441.145	731.46
441.52	764.01
441.895	761.07
442.27	768.98
442.645	779.82
443.019	791.58
443.394	763.33
443.769	797.22
444.143	779.15
444.518	802.2
444.892	797.22
445.267	804
445.641	800.39
446.016	818.24
446.39	815.76
446.764	798.13
447.139	812.59
447.513	845.13
447.887	821.4
448.262	811.91
448.636	823.66
449.01	868.41
449.384	854.17
449.758	884.45
450.132	856.66
450.506	875.19
450.88	862.53
451.254	867.73
451.628	903.89
452.002	893.95
452.376	890.33
452.75	892.82
453.123	893.27
453.497	924.45
453.871	931.23
454.244	927.39
454.618	941.18
454.992	938.46
455.365	950.44
455.739	960.61
456.112	1003.77
456.486	971.23
456.859	1020.95
457.232	1018.46
457.606	995.19
457.979	1028.18
458.352	1042.87
458.725	1039.48
459.099	1066.14
459.472	1049.87
459.845	1065.24
460.218	1087.84
460.591	1108.86
460.964	1099.14
461.337	1133.94
461.71	1113.15
462.083	1148.63
462.456	1142.53
462.829	1143.2
463.201	1178.46
463.574	1175.75
463.947	1216.87
464.32	1193.15
464.692	1214.61
465.065	1227.95
465.438	1268.62
465.81	1248.96
466.183	1277.89
466.555	1291
466.928	1292.8
467.3	1293.26
467.672	1301.17
468.045	1346.14
468.417	1349.3
468.789	1355.4
469.161	1399.47
469.534	1396.31
469.906	1448.51
470.278	1464.78
470.65	1460.03
471.022	1494.61
471.394	1516.53
471.766	1528.96
472.138	1523.76
472.51	1579.13
472.882	1591.55
473.253	1616.19
473.625	1637.65
473.997	1696.86
474.369	1669.07
474.74	1709.74
475.112	1708.61
475.484	1786.8
475.855	1801.04
476.227	1810.76
476.598	1840.14
476.97	1863.19
477.341	1923.75
477.713	1947.25
478.084	1973.47
478.455	2014.37
478.827	2081.48
479.198	2106.79
479.569	2095.72
479.94	2188.37
480.311	2160.8
480.682	2229.05
481.053	2283.74
481.424	2330.74
481.795	2366
482.166	2407.35
482.537	2452.1
482.908	2514.24
483.279	2500
483.65	2599.21
484.021	2608.02
484.391	2660.45
484.762	2754.01
485.133	2743.84
485.503	2797.85
485.874	2849.83
486.244	2873.33
486.615	2961.69
486.985	2952.87
487.356	3038.3
487.726	3094.34
488.097	3144.28
488.467	3158.74
488.837	3227.67
489.207	3308.12
489.578	3339.3
489.948	3367.78
490.318	3376.14
490.688	3424.05
491.058	3469.47
491.428	3536.36
491.798	3564.16
492.168	3678.5
492.538	3683.25
492.908	3723.25
493.278	3813.64
493.648	3780.42
494.017	3843.7
494.387	3889.12
494.757	3939.29
495.126	3958.5
495.496	4003.24
495.866	3977.25
496.235	4069.46
496.605	4134.99
496.974	4113.52
497.344	4160.75
497.713	4213.63
498.082	4225.61
498.452	4242.11
498.821	4309.9
499.19	4306.96
499.559	4396.68
499.928	4415.89
500.298	4433.74
500.667	4483.68
501.036	4485.49
501.405	4527.52
501.774	4574.07
502.143	4553.51
502.512	4595.32
502.88	4672.83
503.249	4668.99
503.618	4677.8
503.987	4681.19
504.356	4735.2
504.724	4753.73
505.093	4824.69
505.462	4802.32
505.83	4823.11
506.199	4834.41
506.567	4932.03
506.936	4930.22
507.304	4981.3
507.672	4996.66
508.041	5014.97
508.409	5014.97
508.777	5044.8
509.145	5078.92
509.514	5098.58
509.882	5157.56
510.25	5151.46
510.618	5164.79
510.986	5219.26
511.354	5200.27
511.722	5257.67
512.09	5309.2
512.458	5341.29
512.826	5353.72
513.193	5348.52
513.561	5348.97
513.929	5419.93
514.297	5452.47
514.664	5491.11
515.032	5519.13
515.4	5513.71
515.767	5541.73
516.135	5561.85
516.502	5555.97
516.869	5605.69
517.237	5704.21
517.604	5594.61
517.972	5665.8
518.339	5671.67
518.706	5708.28
519.073	5729.07
519.44	5777.66
519.808	5800.48
520.175	5788.96
520.542	5878
520.909	5912.12
521.276	5929.97
521.643	5931.78
522.009	5989.4
522.376	6021.27
522.743	6059.91
523.11	6055.39
523.477	6113.24
523.843	6182.62
524.21	6176.52
524.577	6218.1
524.943	6174.71
525.31	6246.35
525.676	6316.63
526.043	6323.63
526.409	6378.77
526.776	6426
527.142	6444.76
527.508	6440.92
527.874	6511.2
528.241	6578.32
528.607	6589.84
528.973	6581.71
529.339	6657.18
529.705	6693.34
530.071	6694.24
530.437	6734.02
530.803	6775.37
531.169	6898.08
531.535	6843.17
531.901	6864.86
532.267	6921.58
532.632	6952.32
532.998	6970.62
533.364	6990.96
533.73	6968.59
534.095	7098.98
534.461	7099.21
534.826	7167
535.192	7184.18
535.557	7183.05
535.923	7247.68
536.288	7243.16
536.653	7276.15
537.019	7259.65
537.384	7272.53
537.749	7328.35
538.114	7368.13
538.479	7412.42
538.845	7412.19
539.21	7427.78
539.575	7516.6
539.94	7502.81
540.305	7513.66
540.67	7552.3
541.034	7547.1
541.399	7662.13
541.764	7712.98
542.129	7689.92
542.494	7723.6
542.858	7762.24
543.223	7778.28
543.587	7824.84
543.952	7913.42
544.316	7861.45
544.681	7865.74
545.045	7925.17
545.41	7958.39
545.774	8017.37
546.138	8025.74
546.503	8057.15
546.867	8056.69
547.231	8084.04
547.595	8130.82
547.959	8191.83
548.324	8164.04
548.688	8122.91
549.052	8245.39
549.416	8232.51
549.779	8217.59
550.143	8341.21
550.507	8357.48
550.871	8350.7
551.235	8411.94
551.599	8460.53
551.962	8455.33
552.326	8503.91
552.689	8562.44
553.053	8527.42
553.417	8529.45
553.78	8649.22
554.143	8611.26
554.507	8646.51
554.87	8713.63
555.234	8777.81
555.597	8734.42
555.96	8740.74
556.323	8870.46
556.686	8804.25
557.05	8806.51
557.413	8891.02
557.776	8882.89
558.139	8954.52
558.502	9000.4
558.865	8961.98
559.228	9019.38
559.59	9126.72
559.953	9090.79
560.316	9220.96
560.679	9222.77
561.041	9275.19
561.404	9243.56
561.767	9277.23
562.129	9308.64
562.492	9368.98
562.854	9374.17
563.217	9357.9
563.579	9445.58
563.941	9513.61
564.304	9491.91
564.666	9578.46
565.028	9573.04
565.39	9575.75
565.753	9624.79
566.115	9682.87
566.477	9715.63
566.839	9726.48
567.201	9834.73
567.563	9790.89
567.925	9951.11
568.287	9875.63
568.648	9903.43
569.01	9977.32
569.372	9981.39
569.734	10018.23
570.095	10100.71
570.457	10170.54
570.819	10198.56
571.18	10191.55
571.542	10314.26
571.903	10203.08
572.265	10335.96
572.626	10477.2
572.987	10426.8
573.349	10440.36
573.71	10527.59
574.071	10537.31
574.432	10635.16
574.794	10696.4
575.155	10737.98
575.516	10793.8
575.877	10878.09
576.238	10916.73
576.599	11061.14
576.96	11104.07
577.32	11160.57
577.681	11296.61
578.042	11316.04
578.403	11401.24
578.763	11519.43
579.124	11593.55
579.485	11729.14
579.845	11846.65
580.206	11875.8
580.566	11923.26
580.927	12097.49
581.287	12279.18
581.648	12411.83
582.008	12556.01
582.368	12667.87
582.728	12791.94
583.089	12853.63
583.449	13033.97
583.809	13295.2
584.169	13405.25
584.529	13515.08
584.889	13854.28
585.249	13905.13
585.609	14050.89
585.969	14310.32
586.329	14503.53
586.688	14764.99
587.048	14979.22
587.408	15200.01
587.768	15371.08
588.127	15588.25
588.487	15792.08
588.846	16218.06
589.206	16322.24
589.565	16660.54
589.925	16903.47
590.284	17140.52
590.643	17511.14
591.003	17702.99
591.362	18042.65
591.721	18258.91
592.08	18552.24
592.44	18851.44
592.799	19105.67
593.158	19433.8
593.517	19657.29
593.876	20039.43
594.235	20212.53
594.593	20556.03
594.952	20885.06
595.311	21156.69
595.67	21542.67
596.029	21902.21
596.387	22272.14
596.746	22544.68
597.104	22797.32
597.463	23161.38
597.822	23443.86
598.18	23707.36
598.538	24098.53
598.897	24542.36
599.255	24654.45
599.613	25333.08
599.972	25321.1
600.33	25700.98
600.688	25997.01
601.046	26313.39
601.404	26724.9
601.762	26958.12
602.12	27460.25
602.478	27600.59
602.836	27951.09
603.194	28162.15
603.552	28531.86
603.91	28698.41
604.268	29170.04
604.625	29301.56
604.983	29750.14
605.341	29979.28
605.698	30241.42
606.056	30565.93
606.413	30662.65
606.771	31033.72
607.128	31316.2
607.485	31524.55
607.843	31764.77
608.2	32201.6
608.557	32553
608.914	32710.06
609.272	32912.99
609.629	33213.55
609.986	33629.36
610.343	33646.08
610.7	34138.04
611.057	34289
611.414	34209.23
611.771	34600.18
612.127	34939.38
612.484	35073.16
612.841	35400.38
613.198	35401.06
613.554	35719.24
613.911	36013.7
614.267	36109.06
614.624	36317.87
614.98	36463.86
615.337	36970.06
615.693	36956.73
616.05	37178.87
616.406	37423.15
616.762	37492.76
617.118	37620.89
617.475	37885.06
617.831	38166.41
618.187	38323.24
618.543	38328.89
618.899	38690.01
619.255	38875.55
619.611	38911.48
619.967	39087.07
620.323	39301.52
620.678	39291.58
621.034	39283.9
621.39	39506.72
621.746	39522.31
622.101	40119.13
622.457	39965.46
622.812	40019.92
623.168	40255.4
623.523	40267.37
623.879	40457.42
624.234	40349.63
624.589	40596.18
624.945	40631.88
625.3	40904.42
625.655	40737.42
626.01	40894.48
626.365	41038.65
626.72	41070.97
627.075	41011.53
627.43	41144.86
627.785	41152.77
628.14	41254.01
628.495	41421.92
628.85	41339.44
629.205	41335.14
629.559	41660.33
629.914	41509.15
630.269	41681.35
630.623	41608.58
630.978	41500.34
631.332	41924.5
631.687	41889.7
632.041	41732.65
632.396	41868.69
632.75	41880.66
633.104	41981.23
633.459	41833.43
633.813	41866.65
634.167	41944.39
634.521	42037.5
634.875	42010.38
635.229	41986.88
635.583	41950.72
635.937	42035.46
636.291	41977.38
636.645	42107.55
636.999	41941.45
637.352	42058.96
637.706	41828.46
638.06	42095.8
638.413	41935.13
638.767	41837.5
639.121	41999.53
639.474	41734.68
639.828	41803.83
640.181	41955.01
640.534	41958.4
640.888	41920.44
641.241	41722.02
641.594	41883.38
641.947	41971.28
642.301	41791.85
642.654	41830.04
643.007	41861.23
643.36	41838.18
643.713	41818.97
644.066	41963.37
644.419	41727.9
644.771	41576.04
645.124	41195.71
645.477	41079.1
645.83	40911.88
646.182	40764.31
646.535	40781.94
646.888	40747.13
647.24	40658.78
647.593	40826
647.945	40803.86
648.298	40652.22
648.65	40583.07
649.002	40449.06
649.355	40736.29
649.707	40641.15
650.059	40685.44
650.411	41321.58
650.763	41295.59
651.115	41717.73
651.467	41617.39
651.819	41544.85
652.171	41281.81
652.523	41278.87
652.875	41291.53
653.227	41306.44
653.578	41500.79
653.93	41446.1
654.282	41303.73
654.633	41268.48
654.985	41230.96
655.337	41372.88
655.688	41339.44
656.039	41513.89
656.391	41140.57
656.742	41345.99
657.094	41347.8
657.445	41473.22
657.796	41334.69
658.147	41300.34
658.498	41260.57
658.849	41193.68
659.2	41212.43
659.551	41028.03
659.902	41226.44
660.253	41294.01
660.604	41225.54
660.955	41056.96
661.306	41137.63
661.656	41245.2
662.007	41107.35
662.358	41168.82
662.708	41172.89
663.059	41040.91
663.409	40892.67
663.76	41243.39
664.11	41158.42
664.461	41056.51
664.811	41250.85
665.161	41067.13
665.511	41024.19
665.862	41035.94
666.212	41254.92
666.562	41135.83
666.912	40997.3
667.262	41004.98
667.612	41015.83
667.962	40990.97
668.312	40988.03
668.662	41138.99
669.011	41044.53
669.361	41025.77
669.711	40952.1
670.06	40874.14
670.41	40872.33
670.76	40811.77
671.109	41011.99
671.459	41002.95
671.808	40681.6
672.157	40907.81
672.507	40842.27
672.856	40734.48
673.205	40901.03
673.554	40946.68
673.904	40847.25
674.253	40923.85
674.602	40831.88
674.951	40278.45
675.3	40157.55
675.649	40705.1
675.998	40747.36
676.346	40612.68
676.695	40768.15
677.044	40526.35
677.393	40746
677.741	40611.09
678.09	40676.4
678.438	40490.64
678.787	40523.41
679.135	40630.53
679.484	40306.92
679.832	40441.83
680.181	40219.47
680.529	40290.65
680.877	40316.86
681.225	40279.8
681.573	40456.3
681.922	40176.53
682.27	40150.54
682.618	39944.67
682.966	39921.17
683.314	40072.12
683.661	39895.86
684.009	39710.33
684.357	39662.64
684.705	39655.64
685.053	39603.66
685.4	39626.49
685.748	39416.1
686.095	39348.75
686.443	39275.99
686.79	39194.86
687.138	39315.53
687.485	39336.32
687.832	39304.69
688.18	39209.1
688.527	39050.68
688.874	39007.29
689.221	38898.82
689.568	38822.89
689.915	38745.83
690.262	38688.43
690.609	38604.37
690.956	38516.46
691.303	38454.31
691.65	38270.14
691.997	38380.64
692.344	38038.28
692.69	38091.39
693.037	38137.49
693.383	37773.2
693.73	37921.9
694.077	37555.13
694.423	37763.48
694.769	37532.53
695.116	37564.17
695.462	37483.49
695.808	37405.98
696.155	37378.18
696.501	37125.54
696.847	37045.76
697.193	36919.89
697.539	37089.6
697.885	36802.61
698.231	36756.05
698.577	36623.18
698.923	36704.76
699.269	36447.36
699.614	36192.9
699.96	36229.51
700.306	36161.27
700.651	36053.47
700.997	35880.6
701.342	35921.95
701.688	35797.43
702.033	35655.97
702.379	35717.89
702.724	35601.06
703.069	35702.07
703.415	35240.84
703.76	35349.08
704.105	35282.87
704.45	35187.51
704.795	35122.88
705.14	34942.32
705.485	35093.5
705.83	34776.9
706.175	34880.17
706.52	34875.42
706.865	34620.29
707.209	34509.11
707.554	34446.51
707.899	34491.93
708.243	34337.59
708.588	34259.62
708.932	34031.61
709.277	34099.85
709.621	34109.12
709.966	33937.14
710.31	33789.8
710.654	33538.74
710.998	33699.86
711.342	33730.14
711.687	33635.23
712.031	33424.84
712.375	33440.43
712.719	33529.92
713.063	33420.77
713.407	33368.12
713.75	33165.64
714.094	33268.69
714.438	33179.2
714.782	33165.41
715.125	32997.73
715.469	32928.13
715.812	32826.21
716.156	32700.57
716.499	32587.12
716.843	32801.58
717.186	32513.68
717.53	32832.31
717.873	32699.89
718.216	32543.96
718.559	32383.06
718.902	32225.32
719.246	32447.47
719.589	32184.87
719.932	32132.22
720.275	32160.69
720.617	32042.28
720.96	31996.18
721.303	31945.11
721.646	31808.39
721.989	31711.44
722.331	31799.8
722.674	31661.95
723.016	31821.49
723.359	31665.11
723.701	31687.71
724.044	31507.83
724.386	31420.15
724.729	31451.79
725.071	31454.95
725.413	31362.97
725.755	31259.93
726.097	31154.17
726.439	31104.9
726.782	31159.36
727.124	31233.94
727.465	31080.04
727.807	30992.59
728.149	30965.02
728.491	30839.15
728.833	30888.41
729.175	30766.61
729.516	30787.62
729.858	30767.06
730.199	30851.35
730.541	30596.67
730.882	30572.04
731.224	30671.92
731.565	30508.31
731.906	30529.55
732.248	30575.65
732.589	30357.8
732.93	30315.09
733.271	30069.68
733.612	30323.23
733.953	30168.43
734.294	30179.05
734.635	30083.69
734.976	30157.13
735.317	30005.27
735.658	30076.68
735.999	30073.07
736.339	29885.27
736.68	30033.74
737.021	29878.27
737.361	29729.8
737.702	29897.48
738.042	29670.59
738.383	29690.48
738.723	29815.44
739.063	29657.93
739.404	29630.14
739.744	29570.48
740.084	29454.78
740.424	29576.58
740.764	29500.65
741.104	29570.25
741.444	29375.91
741.784	29278.06
742.124	29368.45
742.464	29244.16
742.804	29275.12
743.143	29174.33
743.483	29108.12
743.823	28991.74
744.162	28995.13
744.502	29076.93
744.841	28931.4
745.181	29059.53
745.52	28838.97
745.86	28892.98
746.199	28814.57
746.538	28854.11
746.877	28872.42
747.216	28933.21
747.556	28638.3
747.895	28628.36
748.234	28524.86
748.573	28480.56
748.911	28571.18
749.25	28541.13
749.589	28514.46
749.928	28476.5
750.267	28513.11
750.605	28464.75
750.944	28274.69
751.283	28205.54
751.621	28261.81
751.96	28078.54
752.298	28090.97
752.636	28156.96
752.975	28090.07
753.313	27958.32
753.651	28017.53
753.989	27874.48
754.327	27885.78
754.666	27577.99
755.004	27666.12
755.342	27721.94
755.679	27587.93
756.017	27374.38
756.355	27463.64
756.693	27368.05
757.031	27420.93
757.368	27265.23
757.706	27225.68
758.044	27222.52
758.381	27242.63
758.719	27106.59
759.056	27116.76
759.394	26981.17
759.731	26738.69
760.068	26707.28
