Data from hue_32_FLMS001491_00095.txt Node
Date: Tue Feb 07 17:24:16 GMT 2017
User: dcchb
Spectrometer: FLMS00149
Trigger mode: 0
Integration Time (sec): 2.000000E-2
Scans to average: 10
Electric dark correction enabled: true
Nonlinearity correction enabled: false
Boxcar width: 0
XAxis mode: Wavelengths
Number of Pixels in Spectrum: 2048
>>>>>Begin Spectral Data<<<<<
341.393	-8.35
341.776	-8.35
342.16	-8.35
342.543	-44.5
342.927	-51.51
343.31	-71.62
343.693	-75.69
344.077	-55.13
344.46	-55.35
344.843	-56.26
345.226	-56.03
345.61	-37.95
345.993	-31.4
346.376	-10.61
346.759	20.58
347.142	23.06
347.525	48.6
347.908	66.23
348.291	78.88
348.674	86.11
349.057	126.56
349.44	137.86
349.823	143.29
350.206	169.73
350.588	205.21
350.971	212.44
351.354	218.54
351.737	234.58
352.119	243.17
352.502	266.22
352.884	277.07
353.267	265.77
353.65	299.67
354.032	289.5
354.414	295.15
354.797	304.86
355.179	322.04
355.562	319.78
355.944	344.86
356.326	333.56
356.709	325.2
357.091	324.53
357.473	336.5
357.855	341.93
358.238	337.41
358.62	353.23
359.002	354.81
359.384	334.02
359.766	338.08
360.148	344.41
360.53	334.02
360.912	351.42
361.294	345.77
361.676	344.86
362.057	334.47
362.439	327.46
362.821	333.56
363.203	324.3
363.584	348.48
363.966	346.9
364.348	319.33
364.729	338.76
365.111	320.01
365.493	326.33
365.874	331.98
366.256	333.11
366.637	333.79
367.019	307.35
367.4	324.75
367.781	322.49
368.163	294.02
368.544	313.68
368.925	308.71
369.306	327.46
369.688	327.24
370.069	288.82
370.45	323.4
370.831	316.62
371.212	316.84
371.593	322.49
371.974	331.98
372.355	309.84
372.736	310.51
373.117	317.07
373.498	318.42
373.879	316.16
374.26	309.16
374.641	328.14
375.021	305.77
375.402	308.03
375.783	329.72
376.163	334.02
376.544	331.53
376.925	335.6
377.305	322.49
377.686	329.5
378.066	342.15
378.447	336.28
378.827	323.62
379.208	323.85
379.588	316.39
379.968	343.96
380.349	350.29
380.729	357.29
381.109	369.5
381.489	345.32
381.87	334.02
382.25	340.12
382.63	345.99
383.01	325.2
383.39	336.28
383.77	360
384.15	353.23
384.53	369.04
384.91	340.8
385.29	359.78
385.67	368.59
386.049	364.52
386.429	358.2
386.809	375.82
387.189	372.89
387.568	341.47
387.948	343.96
388.328	363.85
388.707	359.55
389.087	345.54
389.466	374.92
389.846	350.29
390.225	371.76
390.605	352.1
390.984	376.28
391.363	384.86
391.743	374.47
392.122	376.05
392.501	356.61
392.881	391.64
393.26	374.02
393.639	374.92
394.018	403.17
394.397	389.38
394.776	377.18
395.155	381.47
395.534	381.7
395.913	380.57
396.292	380.8
396.671	398.65
397.05	388.7
397.429	400.23
397.808	374.92
398.186	405.65
398.565	393.22
398.944	410.17
399.323	370.4
399.701	392.32
400.08	411.98
400.458	409.27
400.837	400.23
401.215	394.13
401.594	438.65
401.972	408.36
402.351	408.36
402.729	411.75
403.107	414.92
403.486	425.31
403.864	418.53
404.242	414.69
404.62	417.4
404.999	417.4
405.377	423.05
405.755	438.87
406.133	417.4
406.511	429.16
406.889	439.55
407.267	455.6
407.645	461.02
408.023	433
408.401	437.97
408.779	432.09
409.156	444.97
409.534	470.74
409.912	466.44
410.29	469.15
410.667	458.99
411.045	445.88
411.422	463.05
411.8	454.01
412.178	460.12
412.555	469.38
412.933	480.68
413.31	489.72
413.687	499.21
414.065	497.85
414.442	498.98
414.819	492.88
415.197	510.96
415.574	497.85
415.951	491.53
416.328	513.67
416.705	523.84
417.082	526.1
417.46	531.3
417.837	508.25
418.214	526.55
418.591	534.01
418.967	516.16
419.344	511.87
419.721	530.85
420.098	522.49
420.475	515.03
420.852	539.66
421.228	531.53
421.605	524.97
421.982	535.14
422.358	535.14
422.735	525.42
423.111	576.72
423.488	583.95
423.864	542.15
424.241	582.6
424.617	577.63
424.994	554.8
425.37	569.26
425.746	588.02
426.123	587.8
426.499	598.42
426.875	614.24
427.251	578.3
427.627	616.27
428.003	615.14
428.379	609.72
428.756	608.36
429.132	638.42
429.507	615.59
429.883	603.84
430.259	634.12
430.635	646.32
431.011	622.82
431.387	629.6
431.763	646.78
432.138	677.06
432.514	660.79
432.89	664.86
433.265	691.97
433.641	705.31
434.016	689.71
434.392	677.06
434.767	700.33
435.143	685.19
435.518	684.29
435.894	717.51
436.269	709.15
436.644	701.69
437.02	704.85
437.395	715.25
437.77	732.65
438.145	740.79
438.52	745.08
438.895	741.24
439.271	753.89
439.646	747.11
440.021	764.29
440.395	773.78
440.77	743.05
441.145	781.91
441.52	773.33
441.895	792.08
442.27	790.5
442.645	801.8
443.019	809.03
443.394	796.38
443.769	816.72
444.143	844.29
444.518	808.58
444.892	830.5
445.267	838.41
445.641	795.7
446.016	838.64
446.39	812.42
446.764	838.86
447.139	823.5
447.513	859.2
447.887	839.99
448.262	872.31
448.636	865.53
449.01	848.81
449.384	889.93
449.758	872.31
450.132	879.77
450.506	892.19
450.88	886.77
451.254	910.5
451.628	912.08
452.002	894.45
452.376	916.6
452.75	912.98
453.123	916.83
453.497	936.49
453.871	954.79
454.244	975.81
454.618	993.66
454.992	978.29
455.365	986.88
455.739	998.63
456.112	1011.74
456.486	1021
456.859	1025.98
457.232	1035.24
457.606	1056.71
457.979	1074.79
458.352	1052.42
458.725	1084.28
459.099	1086.54
459.472	1100.55
459.845	1130.83
460.218	1118.18
460.591	1138.74
460.964	1150.72
461.337	1163.15
461.71	1182.81
462.083	1201.11
462.456	1206.99
462.829	1195.24
463.201	1232.52
463.574	1220.55
463.947	1262.81
464.32	1263.71
464.692	1271.17
465.065	1293.77
465.438	1329.24
465.81	1335.57
466.183	1350.49
466.555	1357.72
466.928	1353.2
467.3	1399.3
467.672	1379.64
468.045	1423.71
468.417	1446.3
468.789	1453.76
469.161	1455.8
469.534	1481.33
469.906	1520.2
470.278	1540.54
470.65	1522.23
471.022	1585.74
471.394	1628.22
471.766	1632.06
472.138	1640.87
472.51	1707.54
472.882	1697.6
473.253	1750.25
473.625	1781.66
473.997	1815.79
474.369	1835.22
474.74	1868.89
475.112	1888.78
475.484	1931.71
475.855	1961.77
476.227	1987.76
476.598	2030.24
476.97	2091.71
477.341	2115.66
477.713	2171.48
478.084	2223.23
478.455	2251.93
478.827	2295.77
479.198	2360.63
479.569	2388.2
479.94	2433.4
480.311	2481.3
480.682	2569.21
481.053	2633.62
481.424	2682.88
481.795	2712.26
482.166	2777.57
482.537	2824.8
482.908	2918.81
483.279	2957
483.65	3093.49
484.021	3156.32
484.391	3208.97
484.762	3267.27
485.133	3325.8
485.503	3373.48
485.874	3480.37
486.244	3543.42
486.615	3597.43
486.985	3697.09
487.356	3772.12
487.726	3818.44
488.097	3940.02
488.467	3986.35
488.837	4121.26
489.207	4115.61
489.578	4231.32
489.948	4308.83
490.318	4404.64
490.688	4418.88
491.058	4545.88
491.428	4643.51
491.798	4697.07
492.168	4866.55
492.538	4881.47
492.908	4964.18
493.278	5076.04
493.648	5123.5
494.017	5247.11
494.387	5290.04
494.757	5335.24
495.126	5398.97
495.496	5485.07
495.866	5546.08
496.235	5601.9
496.605	5730.48
496.974	5772.52
497.344	5808.45
497.713	5907.66
498.082	5941.1
498.452	6036.69
498.821	6141.32
499.19	6177.7
499.559	6224.71
499.928	6292.96
500.298	6386.51
500.667	6466.51
501.036	6442.33
501.405	6581.31
501.774	6567.75
502.143	6630.35
502.512	6668.99
502.88	6809.55
503.249	6745.15
503.618	6900.4
503.987	6906.27
504.356	6943.56
504.724	7036.21
505.093	7057.91
505.462	7069.21
505.83	7220.16
506.199	7216.55
506.567	7314.17
506.936	7333.61
507.304	7456.32
507.672	7511.68
508.041	7482.98
508.409	7650.89
508.777	7640.94
509.145	7741.05
509.514	7658.12
509.882	7830.32
510.25	7866.02
510.618	7895.85
510.986	7922.97
511.354	8004.78
511.722	8110.99
512.09	8152.12
512.458	8110.08
512.826	8230.08
513.193	8276.63
513.561	8229.4
513.929	8314.82
514.297	8388.04
514.664	8435.5
515.032	8499.23
515.4	8551.43
515.767	8568.38
516.135	8600.24
516.502	8552.33
516.869	8752.33
517.237	8750.52
517.604	8738.77
517.972	8910.51
518.339	8873.23
518.706	8886.56
519.073	8959.33
519.44	9026.67
519.808	9129.72
520.175	9067.8
520.542	9211.07
520.909	9232.99
521.276	9197.29
521.643	9271.63
522.009	9362.71
522.376	9393.44
522.743	9451.52
523.11	9541.01
523.477	9620.33
523.843	9658.97
524.21	9796.59
524.577	9760.66
524.943	9865.07
525.31	9940.77
525.676	9981.45
526.043	9990.71
526.409	10069.58
526.776	10245.17
527.142	10147.09
527.508	10282.46
527.874	10316.58
528.241	10420.08
528.607	10379.4
528.973	10444.26
529.339	10520.64
529.705	10580.98
530.071	10654.2
530.437	10724.25
530.803	10813.29
531.169	10798.6
531.535	10893.74
531.901	10864.81
532.267	10955.88
532.632	11024.58
532.998	11104.81
533.364	11096.22
533.73	11133.51
534.095	11262.54
534.461	11281.98
534.826	11281.75
535.192	11366.95
535.557	11453.27
535.923	11417.12
536.288	11520.62
536.653	11547.96
537.019	11543.44
537.384	11685.36
537.749	11607.39
538.114	11644.23
538.479	11687.62
538.845	11775.98
539.21	11688.97
539.575	11859.14
539.94	11793.6
540.305	11954.5
540.67	11941.62
541.034	11969.42
541.399	12126.02
541.764	12177.32
542.129	12215.29
542.494	12164.21
542.858	12287.6
543.223	12238.79
543.587	12325.11
543.952	12365.56
544.316	12425.9
544.681	12453.25
545.045	12572.11
545.41	12545.45
545.774	12610.08
546.138	12637.42
546.503	12801.03
546.867	12773.92
547.231	12879.22
547.595	12901.14
547.959	12934.36
548.324	12982.95
548.688	13011.88
549.052	13030.63
549.416	13129.84
549.779	13132.1
550.143	13190.63
550.507	13206.67
550.871	13295.94
551.235	13276.05
551.599	13377.29
551.962	13365.76
552.326	13439.21
552.689	13617.96
553.053	13498.42
553.417	13588.58
553.78	13685.08
554.143	13603.95
554.507	13671.75
554.87	13815.47
555.234	13944.96
555.597	13772.53
555.96	13878.97
556.323	13868.35
556.686	13922.36
557.05	14130.26
557.413	14025.41
557.776	14120.32
558.139	14171.39
558.502	14203.48
558.865	14329.81
559.228	14353.99
559.59	14422.46
559.953	14406.64
560.316	14558.28
560.679	14521.89
561.041	14646.18
561.404	14698.61
561.767	14754.2
562.129	14767.31
562.492	14806.86
562.854	14811.15
563.217	14821.55
563.579	14966.4
563.941	14971.6
564.304	15043.01
564.666	15203
565.028	15192.38
565.39	15139.28
565.753	15320.29
566.115	15304.47
566.477	15440.96
566.839	15328.2
567.201	15554.86
567.563	15563.67
567.925	15599.6
568.287	15642.09
568.648	15723.89
569.01	15816.1
569.372	15819.49
569.734	15807.06
570.095	15903.78
570.457	16002.53
570.819	16007.28
571.18	16027.16
571.542	16261.28
571.903	16325.91
572.265	16389.64
572.626	16325.23
572.987	16495.63
573.349	16485.91
573.71	16644.32
574.071	16710.99
574.432	16797.54
574.794	16947.14
575.155	16978.55
575.516	16996.86
575.877	17174.93
576.238	17221.71
576.599	17395.04
576.96	17430.52
577.32	17574.02
577.681	17749.6
578.042	17765.87
578.403	17895.59
578.763	18011.74
579.124	18173.55
579.485	18287.22
579.845	18490.38
580.206	18524.27
580.566	18711.16
580.927	18851.27
581.287	19110.02
581.648	19094.65
582.008	19577.13
582.368	19512.5
582.728	19649.67
583.089	19831.81
583.449	20068.64
583.809	20203.32
584.169	20464.11
584.529	20520.6
584.889	20799.69
585.249	20999.01
585.609	21138.22
585.969	21460.69
586.329	21607.36
586.688	21965.54
587.048	22130.96
587.408	22288.02
587.768	22518.74
588.127	22790.83
588.487	22923.71
588.846	23384.03
589.206	23538.38
589.565	23665.15
589.925	23986.73
590.284	24202.54
590.643	24552.59
591.003	24842.52
591.362	25139.92
591.721	25273.47
592.08	25603.41
592.44	25993.45
592.799	26224.18
593.158	26509.83
593.517	26707.33
593.876	27019.64
594.235	27182.58
594.593	27517.26
594.952	27779.62
595.311	27940.52
595.67	28333.73
596.029	28723.78
596.387	28965.81
596.746	29228.4
597.104	29375.51
597.463	29649.63
597.822	29989.51
598.18	30134.59
598.538	30381.81
598.897	30786.32
599.255	30762.14
599.613	31460.43
599.972	31485.51
600.33	31749.46
600.688	31963.69
601.046	32260.63
601.404	32608.2
601.762	32817.23
602.12	33055.19
602.478	33224
602.836	33507.16
603.194	33430.55
603.552	33686.13
603.91	33880.71
604.268	34270.53
604.625	34336.51
604.983	34793.22
605.341	34750.29
605.698	34975.82
606.056	35371.51
606.413	35441.34
606.771	35764.05
607.128	35945.96
607.485	35951.84
607.843	35984.6
608.2	36369.91
608.557	36827.29
608.914	36670.69
609.272	37083.33
609.629	37301.41
609.986	37552.47
610.343	37531.91
610.7	37983.42
611.057	38039.47
611.414	38090.54
611.771	38332.79
612.127	38535.27
612.484	38751.54
612.841	38931.42
613.198	38871.99
613.554	39022.49
613.911	39371.41
614.267	39411.41
614.624	39532.53
614.98	39783.37
615.337	39883.03
615.693	39838.97
616.05	39946.53
616.406	40304.94
616.762	40285.06
617.118	40161.44
617.475	40465.39
617.831	40757.81
618.187	40836.68
618.543	41021.76
618.899	40978.6
619.255	41231.47
619.611	41235.09
619.967	41477.34
620.323	41621.29
620.678	41492.48
621.034	41576.32
621.39	41555.31
621.746	41597.79
622.101	42240.03
622.457	41938.12
622.812	42078.23
623.168	42142.86
623.523	42237.55
623.879	42451.78
624.234	42194.38
624.589	42474.83
624.945	42477.32
625.3	42544.88
625.655	42570.19
626.01	42705.78
626.365	42700.81
626.72	42732.22
627.075	42766.12
627.43	42884.76
627.785	42850.64
628.14	42919.79
628.495	43007.47
628.85	42896.97
629.205	42847.25
629.559	43277.97
629.914	43049.05
630.269	43127.02
630.623	43019.9
630.978	42931.77
631.332	43198.2
631.687	43266.45
632.041	43190.74
632.396	43407.69
632.75	43094.7
633.104	43212.66
633.459	43117.52
633.813	43206.79
634.167	43226
634.521	43064.87
634.875	43228.03
635.229	43158.2
635.583	43119.78
635.937	43028.49
636.291	43075.27
636.645	43093.34
636.999	43138.54
637.352	43165.21
637.706	43049.5
638.06	43182.16
638.413	43083.63
638.767	43034.59
639.121	43086.56
639.474	42903.07
639.828	42959.34
640.181	42993.46
640.534	43114.36
640.888	42832.11
641.241	42741.49
641.594	43026.23
641.947	42930.64
642.301	42986.68
642.654	42938.55
643.007	42807.02
643.36	42896.74
643.713	42941.03
644.066	43082.95
644.419	42700.59
644.771	42499.91
645.124	42211.79
645.477	42148.06
645.83	41939.93
646.182	41724.79
646.535	41678.92
646.888	41764.11
647.24	41547.17
647.593	41714.4
647.945	41534.74
648.298	41520.05
648.65	41445.93
649.002	41254.3
649.355	41543.78
649.707	41497.23
650.059	41573.84
650.411	42173.37
650.763	42148.74
651.115	42459.01
651.467	42405
651.819	42438.9
652.171	42230.77
652.523	42238.9
652.875	42356.19
653.227	41973.83
653.578	42369.97
653.93	42334.49
654.282	42189.19
654.633	42014.73
654.985	42226.7
655.337	42054.73
655.688	42250.43
656.039	42250.2
656.391	42039.59
656.742	42133.37
657.094	42188.51
657.445	42209.75
657.796	42238.45
658.147	42099.7
658.498	41969.76
658.849	42204.33
659.2	42106.25
659.551	41955.97
659.902	42068.51
660.253	41947.61
660.604	42138.57
660.955	41836.88
661.306	42016.99
661.656	41904
662.007	41909.19
662.358	41931.57
662.708	41996.88
663.059	41833.26
663.409	41754.17
663.76	42006.59
664.11	41971.11
664.461	41960.04
664.811	41943.54
665.161	41926.82
665.511	41816.54
665.862	41846.37
666.212	42070.77
666.562	41906.48
666.912	41762.76
667.262	41689.99
667.612	41730.22
667.962	41772.48
668.312	41764.79
668.662	41935.41
669.011	41714.85
669.361	41769.31
669.711	41807.28
670.06	41694.29
670.41	41670.1
670.76	41591.69
671.109	41658.35
671.459	41662.87
671.808	41734.06
672.157	41717.56
672.507	41510.11
672.856	41543.33
673.205	41580.62
673.554	41714.62
673.904	41495.65
674.253	41727.28
674.602	41652.7
674.951	41106.05
675.3	40726.63
675.649	41569.77
675.998	41417
676.346	41489.54
676.695	41634.85
677.044	41349.89
677.393	41300.4
677.741	41526.83
678.09	41416.1
678.438	41190.34
678.787	41286.39
679.135	41284.35
679.484	41051.14
679.832	41166.84
680.181	40855.44
680.529	41175.43
680.877	41039.84
681.225	40955.1
681.573	41230.79
681.922	40923.01
682.27	40859.96
682.618	40833.74
682.966	40739.73
683.314	40765.27
683.661	40652.5
684.009	40504.26
684.357	40439.63
684.705	40273.08
685.053	40379.29
685.4	40470.36
685.748	40178.62
686.095	40251.84
686.443	40169.81
686.79	40062.46
687.138	40040.09
687.485	40055.68
687.832	39950.6
688.18	39952.41
688.527	39719.2
688.874	39676.94
689.221	39687.33
689.568	39553.1
689.915	39480.78
690.262	39459.09
690.609	39347.91
690.956	39286.44
691.303	39137.06
691.65	38889.39
691.997	38987.69
692.344	38716.96
692.69	38769.39
693.037	38620.47
693.383	38485.78
693.73	38588.38
694.077	38319.91
694.423	38390.42
694.769	38149.29
695.116	38175.51
695.462	38094.15
695.808	38074.49
696.155	37934.61
696.501	37706.37
696.847	37728.51
697.193	37586.14
697.539	37837.66
697.885	37522.19
698.231	37470.22
698.577	37392.03
698.923	37306.38
699.269	37112.48
699.614	36897.58
699.96	36896.9
700.306	36934.41
700.651	36747.75
700.997	36592.72
701.342	36531.26
701.688	36550.47
702.033	36433.86
702.379	36355.89
702.724	36187.76
703.069	36385.72
703.415	35870.48
703.76	35974.66
704.105	35992.29
704.45	35834.78
704.795	35652.86
705.14	35620.09
705.485	35543.71
705.83	35475.47
706.175	35456.71
706.52	35333.55
706.865	35280.67
707.209	35265.98
707.554	35137.62
707.899	35254.68
708.243	34859.89
708.588	35007
708.932	34696.95
709.277	34625.77
709.621	34765.88
709.966	34433.46
710.31	34712.55
710.654	34370.41
710.998	34261.71
711.342	34429.17
711.687	34253.35
712.031	34122.96
712.375	34118.89
712.719	34104.2
713.063	34012.23
713.407	34085.67
713.75	34004.32
714.094	33947.6
714.438	33706.7
714.782	33684.1
715.125	33529.75
715.469	33703.31
715.812	33513.94
716.156	33220.84
716.499	33331.57
716.843	33299.93
717.186	32998.24
717.53	33265.13
717.873	33230.78
718.216	33074.85
718.559	32996.21
718.902	32849.32
719.246	32836.66
719.589	32828.98
719.932	32573.85
720.275	32720.96
720.617	32592.15
720.96	32633.05
721.303	32568.2
721.646	32556.45
721.989	32335.21
722.331	32503.79
722.674	32403.46
723.016	32336.57
723.359	32287.75
723.701	32290.01
724.044	32211.37
724.386	32015.22
724.729	32141.77
725.071	32092.28
725.413	31868.1
725.755	31928.89
726.097	31764.6
726.439	31587.43
726.782	31712.17
727.124	31840.08
727.465	31604.83
727.807	31661.55
728.149	31588.79
728.491	31549.02
728.833	31418.85
729.175	31324.84
729.516	31309.47
729.858	31311.51
730.199	31286.65
730.541	31230.38
730.882	31100.67
731.224	31300.43
731.565	31118.74
731.906	30927.11
732.248	31017.5
732.589	30826.55
732.93	30648.93
733.271	30882.82
733.612	30757.17
733.953	30790.16
734.294	30831.97
734.635	30604.86
734.976	30773.67
735.317	30613.9
735.658	30567.35
735.999	30512.88
736.339	30453.9
736.68	30465.65
737.021	30402.38
737.361	30229.5
737.702	30363.74
738.042	30221.14
738.383	30170.29
738.723	30329.39
739.063	30237.41
739.404	30218.43
739.744	30152.44
740.084	30017.53
740.424	30017.53
740.764	29916.06
741.104	30043.74
741.444	29973.69
741.784	29813.69
742.124	29940.02
742.464	29691.66
742.804	29733.24
743.143	29672.91
743.483	29657.09
743.823	29531.44
744.162	29520.14
744.502	29535.73
744.841	29404.21
745.181	29520.37
745.52	29458.22
745.86	29455.96
746.199	29377.32
746.538	29267.49
746.877	29432.23
747.216	29289.87
747.556	29077.44
747.895	29300.71
748.234	29057.33
748.573	28997.22
748.911	29000.83
749.25	28975.75
749.589	28867.73
749.928	28844
750.267	28972.81
750.605	28765.36
750.944	28673.84
751.283	28598.36
751.621	28729.65
751.96	28563.56
752.298	28469.55
752.636	28591.58
752.975	28411.24
753.313	28273.85
753.651	28518.36
753.989	28269.55
754.327	28065.94
754.666	28056.45
755.004	28039.73
755.342	28009.22
755.679	27971.93
756.017	27990.01
756.355	27970.13
756.693	27785.72
757.031	27889.22
757.368	27669.8
757.706	27763.13
758.044	27587.31
