Data from hue_60_FLMS001491_38.txt Node
Date: Mon Feb 06 15:17:18 GMT 2017
User: dcchb
Spectrometer: FLMS00149
Trigger mode: 0
Integration Time (sec): 2.000000E-2
Scans to average: 10
Electric dark correction enabled: true
Nonlinearity correction enabled: false
Boxcar width: 0
XAxis mode: Wavelengths
Number of Pixels in Spectrum: 2048
>>>>>Begin Spectral Data<<<<<
341.393	-31.79
341.776	-31.79
342.16	-31.79
342.543	-63.2
342.927	-83.54
343.31	-75.63
343.693	-59.14
344.077	-69.76
344.46	-63.43
344.843	-58.23
345.226	-47.39
345.61	-14.84
345.993	-15.3
346.376	-0.83
346.759	18.83
347.142	32.39
347.525	42.1
347.908	59.73
348.291	75.55
348.674	72.61
349.057	103.34
349.44	132.95
349.823	147.19
350.206	157.13
350.588	181.53
350.971	215.66
351.354	215.88
351.737	218.37
352.119	242.1
352.502	267.18
352.884	293.17
353.267	266.5
353.65	283
354.032	298.82
354.414	307.18
354.797	279.16
355.179	325.94
355.562	312.38
355.944	329.33
356.326	316.45
356.709	328.65
357.091	305.6
357.473	323.68
357.855	312.6
358.238	332.94
358.62	336.56
359.002	355.77
359.384	322.32
359.766	319.84
360.148	325.03
360.53	340.4
360.912	322.77
361.294	336.33
361.676	322.55
362.057	306.73
362.439	311.93
362.821	310.8
363.203	322.32
363.584	322.55
363.966	339.95
364.348	317.12
364.729	313.51
365.111	313.06
365.493	311.02
365.874	327.52
366.256	326.84
366.637	297.01
367.019	301.98
367.4	331.81
367.781	314.19
368.163	294.07
368.544	307.18
368.925	312.6
369.306	304.24
369.688	280.97
370.069	296.56
370.45	305.6
370.831	303.57
371.212	302.66
371.593	297.46
371.974	305.6
372.355	320.06
372.736	304.7
373.117	305.83
373.498	313.28
373.879	336.33
374.26	296.79
374.641	309.22
375.021	293.17
375.402	314.19
375.783	317.58
376.163	303.11
376.544	304.7
376.925	314.64
377.305	328.2
377.686	321.42
378.066	313.06
378.447	319.16
378.827	326.16
379.208	337.01
379.588	339.04
379.968	322.1
380.349	319.16
380.729	338.14
381.109	315.77
381.489	328.65
381.87	317.12
382.25	327.52
382.63	342.43
383.01	347.86
383.39	328.65
383.77	334.98
384.15	350.8
384.53	331.14
384.91	324.81
385.29	306.96
385.67	338.14
386.049	336.56
386.429	347.18
386.809	363.22
387.189	349.89
387.568	327.52
387.948	341.98
388.328	357.35
388.707	358.93
389.087	363.22
389.466	332.94
389.846	367.74
390.225	341.76
390.605	362.32
390.984	368.42
391.363	358.25
391.743	359.38
392.122	367.97
392.501	337.24
392.881	355.32
393.26	363.45
393.639	375.88
394.018	352.15
394.397	371.81
394.776	355.54
395.155	351.25
395.534	371.13
395.913	363.45
396.292	362.32
396.671	372.94
397.05	382.43
397.429	358.25
397.808	382.66
398.186	374.75
398.565	388.31
398.944	362.77
399.323	371.13
399.701	375.65
400.08	375.2
400.458	371.36
400.837	372.49
401.215	374.52
401.594	366.39
401.972	372.94
402.351	393.96
402.729	397.8
403.107	367.74
403.486	399.83
403.864	379.27
404.242	366.61
404.62	387.41
404.999	386.28
405.377	383.11
405.755	380.85
406.133	412.26
406.511	404.35
406.889	406.84
407.267	387.63
407.645	397.57
408.023	403.45
408.401	397.35
408.779	419.49
409.156	403.9
409.534	419.49
409.912	398.03
410.29	433.28
410.667	426.05
411.045	420.4
411.422	429.89
411.8	445.03
412.178	427.86
412.555	427.18
412.933	455.65
413.31	446.16
413.687	443.9
414.065	444.8
414.442	443.9
414.819	430.57
415.197	469.21
415.574	448.42
415.951	434.18
416.328	450.23
416.705	449.32
417.082	454.3
417.46	473.05
417.837	463.56
418.214	465.6
418.591	483.45
418.967	489.55
419.344	486.39
419.721	475.54
420.098	493.84
420.475	487.29
420.852	472.6
421.228	492.26
421.605	484.58
421.982	485.26
422.358	490.68
422.735	510.11
423.111	506.27
423.488	499.27
423.864	521.86
424.241	525.03
424.617	537.23
424.994	514.18
425.37	507.18
425.746	499.94
426.123	537.91
426.499	547.63
426.875	560.73
427.251	559.6
427.627	543.11
428.003	555.54
428.379	570.9
428.756	556.21
429.132	554.63
429.507	578.13
429.883	573.84
430.259	566.61
430.635	570.9
431.011	569.1
431.387	567.29
431.763	567.06
432.138	587.85
432.514	594.86
432.89	598.7
433.265	614.07
433.641	595.31
434.016	604.8
434.392	643.67
434.767	620.17
435.143	616.55
435.518	638.02
435.894	631.69
436.269	607.51
436.644	618.13
437.02	640.73
437.395	657.45
437.77	659.26
438.145	645.25
438.52	681.63
438.895	671.92
439.271	674.86
439.646	658.58
440.021	683.44
440.395	692.03
440.77	703.1
441.145	691.35
441.52	701.3
441.895	712.59
442.27	678.47
442.645	694.29
443.019	699.94
443.394	687.74
443.769	711.92
444.143	710.11
444.518	719.37
444.892	722.54
445.267	732.48
445.641	733.61
446.016	734.74
446.39	732.93
446.764	731.35
447.139	747.85
447.513	757.11
447.887	753.27
448.262	764.8
448.636	752.37
449.01	778.36
449.384	754.85
449.758	787.39
450.132	785.81
450.506	790.11
450.88	796.43
451.254	802.08
451.628	801.41
452.002	821.07
452.376	807.73
452.75	821.07
453.123	810.44
453.497	836.21
453.871	852.93
454.244	838.69
454.618	862.65
454.992	861.74
455.365	861.74
455.739	874.17
456.112	887.28
456.486	897.22
456.859	904.91
457.232	919.82
457.606	884.79
457.979	912.59
458.352	961.85
458.725	941.74
459.099	949.42
459.472	965.24
459.845	978.8
460.218	982.64
460.591	997.56
460.964	997.56
461.337	1012.02
461.71	1042.08
462.083	1045.47
462.456	1044.56
462.829	1066.71
463.201	1076.2
463.574	1068.74
463.947	1107.84
464.32	1118.23
464.692	1134.96
465.065	1137.44
465.438	1165.46
465.81	1173.37
466.183	1190.77
466.555	1209.76
466.928	1248.63
467.3	1248.85
467.672	1241.17
468.045	1292.01
468.417	1308.96
468.789	1314.39
469.161	1344.67
469.534	1389.64
469.906	1384.44
470.278	1401.39
470.65	1414.95
471.022	1473.48
471.394	1480.94
471.766	1495.17
472.138	1530.2
472.51	1566.36
472.882	1584.66
473.253	1654.72
473.625	1681.83
473.997	1711.89
474.369	1742.17
474.74	1802.28
475.112	1816.07
475.484	1829.63
475.855	1910.08
476.227	1958.21
476.598	2020.13
476.97	2033.24
477.341	2107.59
477.713	2202.95
478.084	2230.29
478.455	2281.14
478.827	2345.09
479.198	2434.58
479.569	2458.54
479.94	2536.05
480.311	2621.92
480.682	2698.98
481.053	2773.11
481.424	2906.66
481.795	2896.72
482.166	3016.49
482.537	3111.85
482.908	3236.6
483.279	3291.28
483.65	3337.84
484.021	3482.92
484.391	3613.08
484.762	3668.67
485.133	3764.94
485.503	3880.19
485.874	4047.87
486.244	4156.12
486.615	4276.79
486.985	4348.88
487.356	4463.46
487.726	4570.35
488.097	4789.55
488.467	4846.5
488.837	4985.02
489.207	5089.2
489.578	5246.26
489.948	5368.07
490.318	5514.05
490.688	5619.58
491.058	5759.24
491.428	5934.6
491.798	6076.97
492.168	6246.01
492.538	6436.29
492.908	6504.08
493.278	6691.19
493.648	6743.17
494.017	6909.04
494.387	7084.63
494.757	7216.15
495.126	7341.57
495.496	7516.48
495.866	7670.83
496.235	7847.77
496.605	7947.88
496.974	8122.34
497.344	8301.1
497.713	8442.79
498.082	8553.07
498.452	8690.69
498.821	8828.99
499.19	8949.89
499.559	9087.29
499.928	9246.61
500.298	9368.64
500.667	9588.29
501.036	9637.11
501.405	9809.76
501.774	9914.16
502.143	10101.27
502.512	10232.12
502.88	10438.21
503.249	10486.35
503.618	10518.66
503.987	10709.17
504.356	10913.46
504.724	11019.44
505.093	11126.33
505.462	11244.29
505.83	11400.67
506.199	11518.64
506.567	11771.74
506.936	11814
507.304	12023.94
507.672	12053.99
508.041	12231.84
508.409	12359.97
508.777	12504.6
509.145	12649
509.514	12757.48
509.882	12902.56
510.25	13079.27
510.618	13105.71
510.986	13209.21
511.354	13383.9
511.722	13612.59
512.09	13733.49
512.458	13762.65
512.826	13896.43
513.193	14009.87
513.561	14157.66
513.929	14259.58
514.297	14479.01
514.664	14603.3
515.032	14643.3
515.4	14831.09
515.767	15004.42
516.135	15074.48
516.502	15054.59
516.869	15325.09
517.237	15407.8
517.604	15448.25
517.972	15668.36
518.339	15749.49
518.706	15897.05
519.073	15966.66
519.44	16097.5
519.808	16318.29
520.175	16355.57
520.542	16557.15
520.909	16694.55
521.276	16761.66
521.643	16954.88
522.009	17113.74
522.376	17284.36
522.743	17342.21
523.11	17529.33
523.477	17756.21
523.843	17867.17
524.21	18034.17
524.577	18214.73
524.943	18273.49
525.31	18261.74
525.676	18602.29
526.043	18638.22
526.409	18795.28
526.776	19016.29
527.142	19094.03
527.508	19180.36
527.874	19441.59
528.241	19431.88
528.607	19511.2
528.973	19722.04
529.339	19776.73
529.705	20073.44
530.071	20195.7
530.437	20264.85
530.803	20407.44
531.169	20423.04
531.535	20469.81
531.901	20554.11
532.267	20723.37
532.632	20900.31
532.998	20856.7
533.364	21067.54
533.73	21053.08
534.095	21347.08
534.461	21418.26
534.826	21555.89
535.192	21550.69
535.557	21821.19
535.923	21734.87
536.288	21798.82
536.653	22011.92
537.019	22074.52
537.384	22030.9
537.749	22228.41
538.114	22247.4
538.479	22351.35
538.845	22413.72
539.21	22439.48
539.575	22437.9
539.94	22709.08
540.305	22833.82
540.67	22774.16
541.034	22838.79
541.399	22966.7
541.764	23078.11
542.129	23023.87
542.494	23245.34
542.858	23321.94
543.223	23230.65
543.587	23459.34
543.952	23462.28
544.316	23597.87
544.681	23588.83
545.045	23788.82
545.41	23922.61
545.774	23899.33
546.138	23916.73
546.503	24026.33
546.867	23991.98
547.231	24166.44
547.595	24149.04
547.959	24269.26
548.324	24267.46
548.688	24379.77
549.052	24512.65
549.416	24530.27
549.779	24561.23
550.143	24722.13
550.507	24981.56
550.871	24956.25
551.235	24987.44
551.599	25102.69
551.962	25191.72
552.326	25332.29
552.689	25471.49
553.053	25356.24
553.417	25323.7
553.78	25790.8
554.143	25588.32
554.507	25868.77
554.87	25856.79
555.234	26110.57
555.597	25966.39
555.96	26158.48
556.323	26283.22
556.686	26361.41
557.05	26459.49
557.413	26615.87
557.776	26627.62
558.139	26767.28
558.502	26867.61
558.865	26925.24
559.228	27111
559.59	27261.95
559.953	27294.49
560.316	27609.97
560.679	27496.52
561.041	27730.64
561.404	27855.38
561.767	28091.54
562.129	27896.74
562.492	28334.47
562.854	28151.42
563.217	28279.55
563.579	28456.5
563.941	28639.32
564.304	28625.08
564.666	28802.25
565.028	28984.39
565.39	29025.07
565.753	29270.49
566.115	29319.75
566.477	29420.54
566.839	29551.38
567.201	29828.44
567.563	29815.78
567.925	29966.97
568.287	30079.51
568.648	30093.97
569.01	30215.1
569.372	30346.62
569.734	30291.25
570.095	30495.54
570.457	30706.83
570.819	30712.94
571.18	30705.03
571.542	30978.01
571.903	30961.52
572.265	31133.26
572.626	31125.35
572.987	31249.87
573.349	31298.46
573.71	31433.59
574.071	31606.25
574.432	31729.18
574.794	31990.19
575.155	31882.17
575.516	31773.25
575.877	32095.5
576.238	32046.23
576.599	32201.71
576.96	32186.12
577.32	32221.37
577.681	32346.79
578.042	32477.86
578.403	32544.53
578.763	32538.2
579.124	32604.86
579.485	32764.18
579.845	32825.65
580.206	32771.19
580.566	32696.84
580.927	32817.96
581.287	32961.46
581.648	32808.93
582.008	32996.72
582.368	32986.1
582.728	33010.73
583.089	32999.43
583.449	32998.98
583.809	32974.8
584.169	33118.07
584.529	32925.08
584.889	33185.64
585.249	33078.97
585.609	33131.18
585.969	33169.82
586.329	33096.38
586.688	33311.74
587.048	33234.23
587.408	33278.07
587.768	33214.79
588.127	33256.37
588.487	33196.71
588.846	33507.21
589.206	33226.99
589.565	33278.97
589.925	33343.37
590.284	33309.93
590.643	33409.36
591.003	33417.27
591.362	33498.4
591.721	33420.21
592.08	33531.84
592.44	33566.65
592.799	33558.96
593.158	33474.9
593.517	33502.24
593.876	33645.51
594.235	33537.72
594.593	33606.87
594.952	33676.47
595.311	33617.04
595.67	33729.35
596.029	33900.87
596.387	33832.18
596.746	33984.94
597.104	33789.24
597.463	33805.96
597.822	33972.96
598.18	33884.83
598.538	33892.06
598.897	34125.28
599.255	33866.98
599.613	34286.85
599.972	34101.32
600.33	34252.5
600.688	34100.64
601.046	34268.32
601.404	34378.83
601.762	34229.68
602.12	34577.47
602.478	34497.24
602.836	34406.85
603.194	34334.54
603.552	34439.62
603.91	34405.04
604.268	34628.09
604.625	34490.92
604.983	34559.39
605.341	34403.91
605.698	34825.37
606.056	34684.81
606.413	34722.32
606.771	34910.57
607.128	34814.97
607.485	34751.7
607.843	34972.94
608.2	34993.73
608.557	35166.38
608.914	35058.13
609.272	35346.94
609.629	35412.47
609.986	35436.2
610.343	35382.87
610.7	35720.04
611.057	35502.87
611.414	35665.12
611.771	35564.56
612.127	35691.34
612.484	35834.16
612.841	35982.4
613.198	35765.23
613.554	35814.5
613.911	36087.71
614.267	36042.06
614.624	36135.17
614.98	36076.64
615.337	36309.85
615.693	36120.93
616.05	36306.01
616.406	36395.5
616.762	36323.64
617.118	36324.09
617.475	36384.2
617.831	36528.38
618.187	36571.76
618.543	36492.22
618.899	36792.78
619.255	36691.99
619.611	36671.87
619.967	36787.58
620.323	36906.9
620.678	36793.23
621.034	36828.93
621.39	36771.53
621.746	36813.34
622.101	37111.41
622.457	36823.51
622.812	37077.06
623.168	37160.68
623.523	37091.07
623.879	37295.36
624.234	36939.66
624.589	37144.4
624.945	37250.39
625.3	37363.38
625.655	37301.01
626.01	37385.98
626.365	37352.08
626.72	37330.84
627.075	37261.24
627.43	37336.49
627.785	37332.42
628.14	37348.24
628.495	37350.95
628.85	37342.37
629.205	37279.09
629.559	37614
629.914	37386.88
630.269	37376.49
630.623	37307.56
630.978	37200.22
631.332	37384.62
631.687	37511.63
632.041	37256.72
632.396	37270.28
632.75	37134.01
633.104	37280.45
633.459	37159.32
633.813	37077.29
634.167	37155.48
634.521	37099.89
634.875	37104.86
635.229	37101.02
635.583	36934.69
635.937	36971.3
636.291	36981.92
636.645	36923.62
636.999	36879.33
637.352	36943.96
637.706	36753.45
638.06	36932.43
638.413	36864.41
638.767	36804.75
639.121	36830.06
639.474	36582.61
639.828	36804.3
640.181	36727.92
640.534	36914.35
640.888	36581.71
641.241	36574.02
641.594	36577.19
641.947	36685.66
642.301	36541.48
642.654	36697.64
643.007	36695.6
643.36	36523.4
643.713	36425.33
644.066	36632.33
644.419	36378.78
644.771	36184.88
645.124	35897.66
645.477	35718.91
645.83	35681.84
646.182	35457.9
646.535	35361.85
646.888	35273.72
647.24	35219.94
647.593	35410.44
647.945	35268.97
648.298	35251.35
648.65	35166.6
649.002	35026.95
649.355	35236.43
649.707	35115.76
650.059	35234.17
650.411	35613.15
650.763	35779.69
651.115	36127.26
651.467	35943.53
651.819	35945.57
652.171	35898.56
652.523	35820.82
652.875	35751.45
653.227	35644.56
653.578	35962.29
653.93	35695.63
654.282	35701.05
654.633	35616.54
654.985	35678.23
655.337	35663.77
655.688	35730.66
656.039	35787.6
656.391	35390.78
656.742	35497.89
657.094	35557.78
657.445	35731.56
657.796	35556.2
658.147	35484.34
658.498	35561.85
658.849	35636.87
659.2	35496.76
659.551	35328.18
659.902	35678
660.253	35620.38
660.604	35511.91
660.955	35415.86
661.306	35443.43
661.656	35451.34
662.007	35392.36
662.358	35370.67
662.708	35365.92
663.059	35371.8
663.409	35264.68
663.76	35372.02
664.11	35207.96
664.461	35362.53
664.811	35342.42
665.161	35347.62
665.511	35184.46
665.862	35275.98
666.212	35340.16
666.562	35345.13
666.912	35269.65
667.262	35262.19
667.612	35261.29
667.962	35353.27
668.312	35238.47
668.662	35465.58
669.011	35346.03
669.361	35161.86
669.711	35165.02
670.06	35099.49
670.41	35002.31
670.76	35091.58
671.109	35152.59
671.459	35186.94
671.808	35041.41
672.157	35249.31
672.507	34951.92
672.856	34802.55
673.205	34969.77
673.554	35125.7
673.904	34917.57
674.253	35068.53
674.602	35035.31
674.951	34531.14
675.3	34326.85
675.649	34755.99
675.998	34857.01
676.346	34845.93
676.695	34854.07
677.044	34614.75
677.393	34817.01
677.741	34895.88
678.09	34683.23
678.438	34788.76
678.787	34801.87
679.135	34690.68
679.484	34549.44
679.832	34666.5
680.181	34470.35
680.529	34626.96
680.877	34447.98
681.225	34515.32
681.573	34585.38
681.922	34364.36
682.27	34198.27
682.618	34110.59
682.966	34158.49
683.314	34231.26
683.661	34090.7
684.009	33939.07
684.357	33848.9
684.705	33929.8
685.053	33872.4
685.4	33850.93
685.748	33693.65
686.095	33635.34
686.443	33471.05
686.79	33393.54
687.138	33692.74
687.485	33542.24
687.832	33408.46
688.18	33410.27
688.527	33258.41
688.874	33392.64
689.221	33216.15
689.568	33048.92
689.915	33124.62
690.262	32997.62
690.609	32895.02
690.956	32827.46
691.303	32871.3
691.65	32669.95
691.997	32759.66
692.344	32391.76
692.69	32548.37
693.037	32393.34
693.383	32111.77
693.73	32358.99
694.077	32112.67
694.423	32152.22
694.769	31975.95
695.116	31894.37
695.462	31796.52
695.808	31750.42
696.155	31919.91
696.501	31610.76
696.847	31568.05
697.193	31381.39
697.539	31571.9
697.885	31265.69
698.231	31167.61
698.577	31123.32
698.923	31170.78
699.269	30983.44
699.614	30734.4
699.96	30782.76
700.306	30875.42
700.651	30704.8
700.997	30564.69
701.342	30578.02
701.688	30468.65
702.033	30491.02
702.379	30374.87
702.724	30181.65
703.069	30347.97
703.415	30010.81
703.76	30122.22
704.105	30071.82
704.45	30027.3
704.795	29879.06
705.14	29767.2
705.485	29832.73
705.83	29512.74
706.175	29586.64
706.52	29526.75
706.865	29362.01
707.209	29268.45
707.554	29205.63
707.899	29354.55
708.243	29100.77
708.588	29045.63
708.932	28844.28
709.277	28859.42
709.621	28831.18
709.966	28804.74
710.31	28851.52
710.654	28530.85
710.998	28644.74
711.342	28557.06
711.687	28463.28
712.031	28423.73
712.375	28340.34
712.719	28359.78
713.063	28269.16
713.407	28360
713.75	28185.54
714.094	28167.69
714.438	28224.87
714.782	28079.11
715.125	27940.58
715.469	28003.85
715.812	27772.22
716.156	27716.63
716.499	27873.46
716.843	27719.79
717.186	27528.39
717.53	27825.78
717.873	27637.76
718.216	27574.03
718.559	27490.2
718.902	27260.82
719.246	27392.8
719.589	27226.25
719.932	27094.5
720.275	27287.26
720.617	27092.92
720.96	26993.71
721.303	26989.64
721.646	26901.51
721.989	27004.78
722.331	27003.2
722.674	26944.45
723.016	26815.86
723.359	26770.67
723.701	26927.27
724.044	26687.73
724.386	26593.04
724.729	26655.19
725.071	26642.99
725.413	26588.3
725.755	26591.24
726.097	26541.29
726.439	26345.37
726.782	26313.73
727.124	26442.54
727.465	26209.78
727.807	26488.87
728.149	26253.62
728.491	26218.82
728.833	26228.08
729.175	26045.04
729.516	25953.29
729.858	25950.8
730.199	26010.91
730.541	25820.63
730.882	25853.85
731.224	25916.9
731.565	25868.77
731.906	25856.79
732.248	25788.09
732.589	25710.81
732.93	25535.67
733.271	25623.35
733.612	25614.54
733.953	25513.98
734.294	25536.8
734.635	25475.11
734.976	25498.38
735.317	25329.12
735.658	25313.08
735.999	25326.64
736.339	25227.2
736.68	25298.84
737.021	25152.4
737.361	25110.82
737.702	25244.15
738.042	25244.15
738.383	25029.47
738.723	25116.47
739.063	25002.8
739.404	25040.32
739.744	24948.79
740.084	24870.83
740.424	24973.43
740.764	24869.02
741.104	24847.1
741.444	24745.86
741.784	24673.77
742.124	24717.16
742.464	24743.83
742.804	24645.3
743.143	24607.33
743.483	24572.31
743.823	24516.04
744.162	24400.33
744.502	24528.69
744.841	24393.55
745.181	24373.44
745.52	24279.88
745.86	24306.1
746.199	24254.35
746.538	24196.27
746.877	24291.64
747.216	24204.86
747.556	24181.81
747.895	24119.89
748.234	23955.15
748.573	23936.16
748.911	23926.67
749.25	23920.12
749.589	23861.14
749.928	23842.16
750.267	23863.62
750.605	23721.71
750.944	23705.21
751.283	23613.69
751.621	23664.76
751.96	23545.67
752.298	23573.46
752.636	23664.99
752.975	23429.06
753.313	23318.33
753.651	23468.83
753.989	23290.08
754.327	23281.94
754.666	23167.82
755.004	23179.8
755.342	23220.93
755.679	23208.05
756.017	22952.69
756.355	23029.07
756.693	22937.77
