Data from hue_22_FLMS001491_00077.txt Node
Date: Tue Feb 07 17:10:38 GMT 2017
User: dcchb
Spectrometer: FLMS00149
Trigger mode: 0
Integration Time (sec): 2.000000E-2
Scans to average: 10
Electric dark correction enabled: true
Nonlinearity correction enabled: false
Boxcar width: 0
XAxis mode: Wavelengths
Number of Pixels in Spectrum: 2048
>>>>>Begin Spectral Data<<<<<
341.393	0.07
341.776	0.07
342.16	0.07
342.543	-38.35
342.927	-62.75
343.31	-57.33
343.693	-78.57
344.077	-70.21
344.46	-68.63
344.843	-48.97
345.226	-45.58
345.61	-34.5
345.993	-18.23
346.376	5.72
346.759	10.24
347.142	27.87
347.525	14.53
347.908	57.92
348.291	75.32
348.674	97.7
349.057	132.72
349.44	130.01
349.823	156.45
350.206	156.22
350.588	178.82
350.971	187.18
351.354	220.18
351.737	247.07
352.119	255.88
352.502	261.08
352.884	267.18
353.267	296.33
353.65	285.49
354.032	285.03
354.414	325.03
354.797	277.8
355.179	314.64
355.562	318.25
355.944	307.63
356.326	325.71
356.709	339.04
357.091	330.91
357.473	321.64
357.855	338.14
358.238	357.12
358.62	324.13
359.002	346.28
359.384	340.85
359.766	346.5
360.148	316.45
360.53	332.72
360.912	331.59
361.294	325.71
361.676	328.42
362.057	306.5
362.439	323.45
362.821	324.81
363.203	334.98
363.584	318.03
363.966	321.42
364.348	321.42
364.729	342.43
365.111	326.84
365.493	330.23
365.874	329.55
366.256	318.71
366.637	306.5
367.019	308.99
367.4	296.56
367.781	315.54
368.163	312.15
368.544	329.55
368.925	308.76
369.306	307.86
369.688	315.77
370.069	308.54
370.45	299.5
370.831	297.01
371.212	310.12
371.593	316.45
371.974	302.89
372.355	285.49
372.736	324.13
373.117	304.24
373.498	320.51
373.879	316.22
374.26	322.1
374.641	315.99
375.021	300.4
375.402	301.76
375.783	306.5
376.163	318.25
376.544	325.03
376.925	327.29
377.305	320.97
377.686	345.15
378.066	326.16
378.447	323.9
378.827	328.88
379.208	310.34
379.588	350.57
379.968	325.26
380.349	330.91
380.729	315.32
381.109	337.69
381.489	332.72
381.87	341.08
382.25	319.84
382.63	314.41
383.01	351.25
383.39	350.8
383.77	358.48
384.15	333.17
384.53	338.82
384.91	336.56
385.29	352.15
385.67	340.85
386.049	337.91
386.429	340.17
386.809	328.88
387.189	329.55
387.568	365.71
387.948	360.74
388.328	368.42
388.707	345.6
389.087	369.78
389.466	373.62
389.846	354.86
390.225	348.99
390.605	344.69
390.984	348.31
391.363	356.9
391.743	375.43
392.122	352.38
392.501	371.59
392.881	364.13
393.26	343.34
393.639	365.71
394.018	370.46
394.397	391.92
394.776	374.98
395.155	380.85
395.534	370.91
395.913	395.77
396.292	373.17
396.671	369.78
397.05	386.73
397.429	381.53
397.808	373.62
398.186	399.38
398.565	383.34
398.944	389.66
399.323	384.92
399.701	381.76
400.08	394.64
400.458	390.57
400.837	387.18
401.215	396.9
401.594	416.33
401.972	376.56
402.351	381.08
402.729	388.53
403.107	406.16
403.486	431.7
403.864	390.79
404.242	418.14
404.62	394.18
404.999	421.98
405.377	426.73
405.755	428.76
406.133	393.96
406.511	409.1
406.889	412.26
407.267	418.82
407.645	413.17
408.023	412.94
408.401	443
408.779	430.12
409.156	446.61
409.534	451.13
409.912	460.17
410.29	425.14
410.667	431.7
411.045	452.26
411.422	447.74
411.8	460.17
412.178	450.23
412.555	464.01
412.933	452.94
413.31	473.28
413.687	445.26
414.065	468.98
414.442	457.01
414.819	469.66
415.197	486.61
415.574	475.99
415.951	479.15
416.328	488.87
416.705	461.75
417.082	488.87
417.46	498.36
417.837	484.13
418.214	489.78
418.591	502.88
418.967	475.54
419.344	510.11
419.721	491.81
420.098	494.52
420.475	506.5
420.852	518.48
421.228	498.14
421.605	522.09
421.982	531.81
422.358	546.72
422.735	529.77
423.111	520.28
423.488	539.72
423.864	527.06
424.241	542.88
424.617	548.3
424.994	548.53
425.37	544.92
425.746	536.55
426.123	558.02
426.499	551.02
426.875	555.99
427.251	563.67
427.627	589.89
428.003	577.91
428.379	577.23
428.756	592.6
429.132	574.97
429.507	594.86
429.883	572.48
430.259	599.15
430.635	598.25
431.011	634.63
431.387	629.43
431.763	633.5
432.138	629.21
432.514	632.82
432.89	624.23
433.265	657
433.641	616.78
434.016	659.94
434.392	621.07
434.767	654.29
435.143	669.88
435.518	648.87
435.894	669.88
436.269	680.96
436.644	709.2
437.02	682.99
437.395	688.19
437.77	715.08
438.145	707.62
438.52	729.32
438.895	722.09
439.271	708.98
439.646	728.64
440.021	722.31
440.395	729.99
440.77	733.38
441.145	735.19
441.52	734.74
441.895	744.68
442.27	731.35
442.645	754.18
443.019	789.2
443.394	785.13
443.769	762.76
444.143	755.98
444.518	778.13
444.892	778.13
445.267	789.65
445.641	784.68
446.016	778.36
446.39	788.98
446.764	788.75
447.139	804.34
447.513	817.68
447.887	813.83
448.262	813.38
448.636	838.24
449.01	800.28
449.384	828.75
449.758	823.33
450.132	839.82
450.506	856.77
450.88	868.75
451.254	838.24
451.628	854.74
452.002	877.34
452.376	864.45
452.75	871.23
453.123	882.31
453.497	900.16
453.871	911.91
454.244	895.64
454.618	901.06
454.992	927.96
455.365	929.54
455.739	953.94
456.112	962.08
456.486	941.97
456.859	943.55
457.232	972.25
457.606	974.51
457.979	1000.72
458.352	1030.78
458.725	1013.38
459.099	1024.45
459.472	1046.6
459.845	1049.31
460.218	1026.94
460.591	1062.64
460.964	1055.64
461.337	1070.78
461.71	1076.65
462.083	1092.92
462.456	1098.57
462.829	1100.15
463.201	1126.59
463.574	1139.93
463.947	1158.46
464.32	1165.92
464.692	1165.01
465.065	1181.06
465.438	1197.1
465.81	1217.67
466.183	1242.3
466.555	1245.01
466.928	1287.27
467.3	1263.09
467.672	1261.05
468.045	1331.34
468.417	1317.32
468.789	1331.34
469.161	1353.26
469.534	1351.45
469.906	1409.3
470.278	1415.4
470.65	1420.37
471.022	1437.77
471.394	1451.11
471.766	1485
472.138	1469.86
472.51	1542.63
472.882	1556.41
473.253	1568.39
473.625	1558.45
473.997	1630.08
474.369	1649.52
474.74	1652.91
475.112	1673.7
475.484	1697.2
475.855	1729.06
476.227	1747.14
476.598	1793.92
476.97	1820.36
477.341	1860.59
477.713	1912.11
478.084	1903.98
478.455	1962.73
478.827	1963.63
479.198	2008.61
479.569	2037.08
479.94	2116.63
480.311	2128.83
480.682	2171.99
481.053	2258.99
481.424	2262.61
481.795	2309.16
482.166	2332.66
482.537	2354.13
482.908	2415.83
483.279	2416.96
483.65	2447.69
484.021	2548.48
484.391	2578.31
484.762	2598.42
485.133	2639.55
485.503	2679.77
485.874	2759.55
486.244	2764.29
486.615	2851.52
486.985	2871.41
487.356	2908.24
487.726	2981.46
488.097	2996.38
488.467	3030.5
488.837	3142.36
489.207	3144.39
489.578	3200.44
489.948	3239.53
490.318	3332.86
490.688	3329.47
491.058	3352.3
491.428	3423.03
491.798	3454.9
492.168	3505.29
492.538	3535.8
492.908	3577.6
493.278	3625.51
493.648	3612.41
494.017	3692.4
494.387	3739.63
494.757	3809.69
495.126	3810.82
495.496	3828.44
495.866	3863.7
496.235	3918.84
496.605	3963.58
496.974	4002.68
497.344	4044.03
497.713	4042.9
498.082	4028.89
498.452	4122.45
498.821	4152.05
499.19	4174.2
499.559	4203.12
499.928	4243.8
500.298	4285.83
500.667	4316.57
501.036	4298.04
501.405	4361.99
501.774	4364.48
502.143	4360.18
502.512	4393.4
502.88	4467.98
503.249	4459.61
503.618	4499.16
503.987	4543.45
504.356	4550.91
504.724	4548.65
505.093	4557.01
505.462	4619.61
505.83	4643.79
506.199	4672.49
506.567	4702.55
506.936	4712.04
507.304	4729.21
507.672	4735.09
508.041	4818.47
508.409	4821.64
508.777	4829.32
509.145	4871.81
509.514	4863.45
509.882	4945.03
510.25	4936.21
510.618	4986.83
510.986	4957.68
511.354	5008.3
511.722	5015.08
512.09	5063.89
512.458	5048.53
512.826	5098.02
513.193	5135.75
513.561	5144.34
513.929	5204.68
514.297	5259.37
514.664	5235.87
515.032	5277.22
515.4	5291.91
515.767	5244.68
516.135	5305.02
516.502	5322.19
516.869	5412.13
517.237	5403.77
517.604	5347.95
517.972	5467.5
518.339	5480.38
518.706	5461.62
519.073	5438.12
519.44	5520.15
519.808	5589.75
520.175	5570.55
520.542	5592.24
520.909	5658
521.276	5643.31
521.643	5676.31
522.009	5663.65
522.376	5720.82
522.743	5733.48
523.11	5855.51
523.477	5851.67
523.843	5842.4
524.21	5969.86
524.577	5918.11
524.943	5916.07
525.31	5998.33
525.676	6032
526.043	6072.91
526.409	6077.88
526.776	6161.04
527.142	6158.55
527.508	6172.56
527.874	6254.14
528.241	6275.61
528.607	6257.31
528.973	6347.02
529.339	6358.77
529.705	6355.16
530.071	6418.21
530.437	6447.58
530.803	6520.8
531.169	6486.91
531.535	6474.7
531.901	6499.79
532.267	6563.51
532.632	6589.28
532.998	6616.39
533.364	6638.09
533.73	6690.97
534.095	6737.07
534.461	6789.04
534.826	6743.17
535.192	6803.28
535.557	6875.14
535.923	6814.35
536.288	6861.36
536.653	6940.23
537.019	6901.36
537.384	7010.51
537.749	6951.53
538.114	6994.91
538.479	6981.36
538.845	7017.06
539.21	7076.04
539.575	7105.42
539.94	7132.31
540.305	7213.21
540.67	7195.59
541.034	7164.63
541.399	7251.86
541.764	7249.6
542.129	7309.26
542.494	7287.56
542.858	7405.75
543.223	7364.17
543.587	7403.94
543.952	7396.71
544.316	7448.24
544.681	7455.24
545.045	7496.6
545.41	7528.46
545.774	7580.44
546.138	7623.37
546.503	7641.23
546.867	7690.72
547.231	7701.34
547.595	7724.39
547.959	7706.99
548.324	7726.65
548.688	7762.35
549.052	7822.92
549.416	7756.93
549.779	7827.44
550.143	7892.74
550.507	7957.83
550.871	7977.04
551.235	7964.38
551.599	8004.15
551.962	8005.74
552.326	8085.28
552.689	8029.92
553.053	8124.6
553.417	8080.54
553.78	8222.68
554.143	8091.38
554.507	8237.82
554.87	8287.76
555.234	8291.6
555.597	8277.37
555.96	8339.29
556.323	8336.57
556.686	8338.38
557.05	8400.53
557.413	8454.99
557.776	8425.61
558.139	8505.84
558.502	8518.49
558.865	8597.36
559.228	8630.13
559.59	8501.32
559.953	8610.24
560.316	8794.19
560.679	8693.63
561.041	8774.08
561.404	8790.12
561.767	8790.12
562.129	8849.33
562.492	8848.65
562.854	8878.48
563.217	8839.16
563.579	8879.16
563.941	8934.52
564.304	9031.92
564.666	9066.95
565.028	9059.49
565.39	9063.34
565.753	9109.89
566.115	9130.68
566.477	9149.43
566.839	9194.41
567.201	9287.96
567.563	9309.66
567.925	9313.05
568.287	9409.09
568.648	9348.3
569.01	9402.99
569.372	9391.91
569.734	9537.22
570.095	9542.19
570.457	9593.26
570.819	9575.64
571.18	9683.21
571.542	9690.89
571.903	9669.87
572.265	9763.2
572.626	9798.46
572.987	9793.49
573.349	9856.31
573.71	9972.24
574.071	10027.6
574.432	10047.49
574.794	10134.04
575.155	10172.46
575.516	10091.33
575.877	10202.51
576.238	10317.54
576.599	10357.09
576.96	10446.35
577.32	10582.84
577.681	10621.71
578.042	10796.17
578.403	10765.66
578.763	10840.46
579.124	10989.61
579.485	11107.58
579.845	11176.5
580.206	11232.77
580.566	11338.98
580.927	11387.12
581.287	11562.7
581.648	11672.31
582.008	11837.5
582.368	11926.99
582.728	12087.89
583.089	12236.81
583.449	12366.75
583.809	12562.23
584.169	12660.98
584.529	12823.24
584.889	13060.74
585.249	13244.47
585.609	13316.56
585.969	13632.71
586.329	13702.08
586.688	14045.35
587.048	14169.19
587.408	14422.97
587.768	14566.24
588.127	14828.16
588.487	15075.38
588.846	15305.88
589.206	15518.76
589.565	15712.43
589.925	16022.02
590.284	16214.33
590.643	16518.28
591.003	16808.44
591.362	17157.59
591.721	17384.7
592.08	17620.62
592.44	18015.87
592.799	18224.22
593.158	18529.3
593.517	18830.54
593.876	19134.71
594.235	19377.87
594.593	19751.64
594.952	20018.08
595.311	20257.62
595.67	20685.4
596.029	21014.21
596.387	21255.78
596.746	21691.48
597.104	21805.15
597.463	22154.74
597.822	22521.74
598.18	22801.28
598.538	23128.5
598.897	23647.36
599.255	23609.85
599.613	24304.06
599.972	24385.87
600.33	24835.12
600.688	24989.92
601.046	25325.28
601.404	25715.78
601.762	25974.75
602.12	26391.92
602.478	26688.18
602.836	27026.48
603.194	27205.91
603.552	27552.79
603.91	27690.64
604.268	28220.57
604.625	28320.68
604.983	28679.99
605.341	28812.87
605.698	29268
606.056	29517.03
606.413	29850.81
606.771	30075.89
607.128	30502.32
607.485	30501.42
607.843	30860.28
608.2	31177.56
608.557	31438.57
608.914	31570.54
609.272	31965.56
609.629	32310.63
609.986	32629.72
610.343	32559.44
610.7	33158.07
611.057	33224.06
611.414	33255.24
611.771	33553.76
612.127	34095.45
612.484	34178.15
612.841	34365.72
613.198	34443.68
613.554	34673.06
613.911	35123.21
614.267	35188.98
614.624	35315.53
614.98	35636.2
615.337	35919.8
615.693	35939.24
616.05	36107.6
616.406	36450.41
616.762	36440.92
617.118	36664.64
617.475	36721.14
617.831	37095.82
618.187	37220.33
618.543	37202.71
618.899	37662.81
619.255	37772.41
619.611	37854.22
619.967	38043.36
620.323	38292.4
620.678	38278.61
621.034	38381.66
621.39	38474.99
621.746	38492.17
622.101	39077.46
622.457	38826.85
622.812	39192.26
623.168	39267.29
623.523	39302.99
623.879	39504.12
624.234	39354.06
624.589	39506.38
624.945	39766.03
625.3	39631.12
625.655	39949.75
626.01	39962.64
626.365	40000.6
626.72	40027.27
627.075	40163.76
627.43	40144.33
627.785	40210.54
628.14	40264.55
628.495	40403.08
628.85	40360.82
629.205	40440.59
629.559	40578.21
629.914	40570.98
630.269	40666.8
630.623	40679.68
630.978	40519.23
631.332	40780.24
631.687	40906.11
632.041	40776.85
632.396	40937.3
632.75	40790.64
633.104	41004.64
633.459	40902.5
633.813	40899.79
634.167	40897.3
634.521	40768.04
634.875	41075.6
635.229	41036.73
635.583	40837.19
635.937	40985.66
636.291	41050.06
636.645	41006.68
636.999	40850.3
637.352	41081.7
637.706	40778.66
638.06	41091.19
638.413	40941.14
638.767	40939.79
639.121	41004.19
639.474	40766
639.828	40919.22
640.181	41063.17
640.534	41019.78
640.888	40936.85
641.241	40840.58
641.594	40852.1
641.947	41009.39
642.301	40807.36
642.654	40934.14
643.007	40949.73
643.36	40844.65
643.713	40843.74
644.066	40949.73
644.419	40765.1
644.771	40450.76
645.124	40252.57
645.477	40163.31
645.83	39935.74
646.182	39834.5
646.535	39783.66
646.888	39874.05
647.24	39621.85
647.593	39853.71
647.945	39777.33
648.298	39658.91
648.65	39594.06
649.002	39499.37
649.355	39696.65
649.707	39601.52
650.059	39710.89
650.411	40152.91
650.763	40275.17
651.115	40693.01
651.467	40528.72
651.819	40586.12
652.171	40567.59
652.523	40293.93
652.875	40464.32
653.227	40325.11
653.578	40548.83
653.93	40401.72
654.282	40339.35
654.633	40228.84
654.985	40265.9
655.337	40357.88
655.688	40268.39
656.039	40517.42
656.391	40095.06
656.742	40159.01
657.094	40173.25
657.445	40363.53
657.796	40233.14
658.147	40233.36
658.498	40216.64
658.849	40290.99
659.2	40257.32
659.551	40121.05
659.902	40358.56
660.253	40214.83
660.604	40267.26
660.955	40059.36
661.306	40177.55
661.656	40268.62
662.007	40187.71
662.358	40208.28
662.708	40109.07
663.059	40061.84
663.409	39851
663.76	40232.91
664.11	40312.46
664.461	40268.39
664.811	40173.7
665.161	40126.93
665.511	40099.81
665.862	40059.58
666.212	40181.16
666.562	40161.73
666.912	39922.18
667.262	39938.23
667.612	40008.74
667.962	40095.29
668.312	39993.37
668.662	40204.66
669.011	40074.72
669.361	39882.86
669.711	39987.72
670.06	39998.11
670.41	40006.7
670.76	39800.83
671.109	40047.61
671.459	39896.42
671.808	39849.64
672.157	39937.33
672.507	39660.5
672.856	39712.7
673.205	39810.55
673.554	39919.7
673.904	39789.76
674.253	39918.57
674.602	39875.18
674.951	39351.58
675.3	39136.44
675.649	39675.86
675.998	39655.53
676.346	39713.6
676.695	39841.51
677.044	39504.34
677.393	39581.85
677.741	39608.29
678.09	39449.88
678.438	39568.07
678.787	39604.68
679.135	39560.16
679.484	39143.9
679.832	39477.45
680.181	39142.09
680.529	39256.89
680.877	39163.56
681.225	39152.26
681.573	39419.37
681.922	39120.4
682.27	38992.72
682.618	39021.64
682.966	38957.46
683.314	39122.66
683.661	38877.92
684.009	38770.58
684.357	38622.11
684.705	38632.95
685.053	38651.03
685.4	38661.2
685.748	38447.2
686.095	38489.23
686.443	38306.41
686.79	38329.46
687.138	38336.46
687.485	38409.68
687.832	38077.26
688.18	38211.04
688.527	38049.47
688.874	37986.64
689.221	37874.1
689.568	37696.93
689.915	37624.39
690.262	37620.78
690.609	37455.58
690.956	37503.04
691.303	37364.51
691.65	37263.5
691.997	37301.01
692.344	36993
692.69	36955.71
693.037	37108.02
693.383	36691.08
693.73	36910.74
694.077	36796.39
694.423	36699.9
694.769	36631.42
695.116	36462.16
695.462	36384.2
695.808	36388.94
696.155	36427.14
696.501	36262.39
696.847	36178.78
697.193	35910.54
697.539	36053.59
697.885	35724.56
698.231	35640.72
698.577	35729.07
698.923	35607.72
699.269	35456.31
699.614	35383.1
699.96	35172.48
700.306	35341.51
700.651	35017.45
700.997	34922.54
701.342	34999.6
701.688	34830.57
702.033	34721.19
702.379	34733.17
702.724	34665.15
703.069	34704.02
703.415	34419.28
703.76	34367.3
704.105	34435.55
704.45	34344.93
704.795	34038.95
705.14	34092.28
705.485	34038.05
705.83	33969.8
706.175	33858.16
706.52	33864.72
706.865	33749.24
707.209	33706.98
707.554	33427.89
707.899	33566.65
708.243	33483.48
708.588	33337.05
708.932	33203.49
709.277	33115.81
709.621	33010.95
709.966	32934.57
710.31	32901.8
710.654	32571.87
710.998	32751.53
711.342	32685.76
711.687	32565.99
712.031	32542.27
712.375	32408.03
712.719	32474.47
713.063	32536.62
713.407	32454.81
713.75	32224.76
714.094	32322.16
714.438	32114.03
714.782	32192.44
715.125	32008.49
715.469	32081.49
715.812	31906.8
716.156	31772.79
716.499	31864.77
716.843	31772.12
717.186	31538
717.53	31667.49
717.873	31741.38
718.216	31638.79
718.559	31524.67
718.902	31290.1
719.246	31336.65
719.589	31186.14
719.932	31145.24
720.275	31266.82
720.617	31138.91
720.96	31067.5
721.303	31120.83
721.646	30976.21
721.989	30865.25
722.331	30985.24
722.674	30801.07
723.016	30951.57
723.359	30768.53
723.701	30724.01
724.044	30484.47
724.386	30511.81
724.729	30592.49
725.071	30478.14
725.413	30537.57
725.755	30330.57
726.097	30237.92
726.439	30237.24
726.782	30130.13
727.124	30228.43
727.465	30191.14
727.807	30207.86
728.149	30031.15
728.491	30084.25
728.833	30211.25
729.175	29872.28
729.516	29909.57
729.858	29872.28
730.199	29777.14
730.541	29779.63
730.882	29670.02
731.224	29809.68
731.565	29612.17
731.906	29510.26
732.248	29659.86
732.589	29618.27
732.93	29372.86
733.271	29505.06
733.612	29467.09
733.953	29413.31
734.294	29225.74
734.635	29173.99
734.976	29267.55
735.317	29158.17
735.658	29141.23
735.999	29179.19
736.339	29086.99
736.68	29142.58
737.021	29051.28
737.361	28887.9
737.702	28988.91
738.042	28945.07
738.383	28868.24
738.723	28937.61
739.063	28729.03
739.404	28813.55
739.744	28790.95
740.084	28584.86
740.424	28720.22
740.764	28644.97
741.104	28700.11
741.444	28432.54
741.784	28549.83
742.124	28477.74
742.464	28411.75
742.804	28506.21
743.143	28327.24
743.483	28368.82
743.823	28248.59
744.162	28071.2
744.502	28206.79
744.841	28150.06
745.181	28280
745.52	28158.88
745.86	28109.39
746.199	28081.37
746.538	27969.05
746.877	28060.8
747.216	28048.82
747.556	27917.53
747.895	27946.68
748.234	27813.58
748.573	27766.12
748.911	27719.79
749.25	27637.08
749.589	27598.89
749.928	27686.12
750.267	27695.84
750.605	27507.6
750.944	27452.46
751.283	27448.84
751.621	27496.52
751.96	27429.18
752.298	27368.39
752.636	27313.25
752.975	27263.53
753.313	27041.62
753.651	27210.43
753.989	27080.49
754.327	27078.91
754.666	26875.3
755.004	26941.28
755.342	26853.83
755.679	26717.33
756.017	26687.28
756.355	26894.28
756.693	26563.67
757.031	26815.18
757.368	26522.99
757.706	26420.62
758.044	26424.69
758.381	26431.01
758.719	26425.82
759.056	26391.47
759.394	26335.42
759.731	26162.55
760.068	26121.64
760.405	26015.88
