Data from hue_150_FLMS001491_00029.txt Node
Date: Tue Feb 07 16:53:50 GMT 2017
User: dcchb
Spectrometer: FLMS00149
Trigger mode: 0
Integration Time (sec): 2.000000E-2
Scans to average: 10
Electric dark correction enabled: true
Nonlinearity correction enabled: false
Boxcar width: 0
XAxis mode: Wavelengths
Number of Pixels in Spectrum: 2048
>>>>>Begin Spectral Data<<<<<
341.393	-22.5
341.776	-22.5
342.16	-22.5
342.543	-53.69
342.927	-73.12
343.31	-53.91
343.693	-71.09
344.077	-57.3
344.46	-57.3
344.843	-55.72
345.226	-48.04
345.61	-37.19
345.993	-37.19
346.376	-15.95
346.759	17.95
347.142	21.34
347.525	39.87
347.908	57.72
348.291	85.97
348.674	105.63
349.057	105.18
349.44	137.27
349.823	133.2
350.206	171.85
350.588	199.87
350.971	202.13
351.354	235.35
351.737	236.48
352.119	233.09
352.502	264.5
352.884	262.92
353.267	283.03
353.65	283.71
354.032	271.5
354.414	300.2
354.797	321.45
355.179	318.73
355.562	344.72
355.944	323.03
356.326	331.84
356.709	330.03
357.091	313.99
357.473	346.3
357.855	340.65
358.238	343.59
358.62	332.07
359.002	335.23
359.384	338.4
359.766	323.93
360.148	359.86
360.53	344.72
360.912	335.23
361.294	348.79
361.676	343.37
362.057	337.94
362.439	330.94
362.821	328.23
363.203	323.03
363.584	345.17
363.966	342.01
364.348	331.16
364.729	340.88
365.111	325.29
365.493	321.45
365.874	312.86
366.256	332.97
366.637	319.86
367.019	309.02
367.4	327.77
367.781	339.75
368.163	321.9
368.544	329.36
368.925	304.72
369.306	335.91
369.688	290.03
370.069	305.63
370.45	300.66
370.831	318.06
371.212	310.37
371.593	294.78
371.974	322.12
372.355	319.41
372.736	330.03
373.117	323.03
373.498	321.9
373.879	293.65
374.26	316.93
374.641	303.82
375.021	326.19
375.402	327.55
375.783	308.57
376.163	336.36
376.544	317.6
376.925	342.01
377.305	334.33
377.686	337.72
378.066	328.68
378.447	345.85
378.827	353.99
379.208	330.94
379.588	334.33
379.968	348.56
380.349	328.68
380.729	355.8
381.109	322.8
381.489	337.27
381.87	343.37
382.25	359.64
382.63	354.67
383.01	363.03
383.39	353.08
383.77	346.53
384.15	334.78
384.53	357.83
384.91	366.19
385.29	334.55
385.67	356.02
386.049	366.87
386.429	340.65
386.809	374.1
387.189	363.48
387.568	353.54
387.948	379.07
388.328	365.74
388.707	362.12
389.087	370.03
389.466	359.86
389.846	344.04
390.225	360.54
390.605	385.85
390.984	394.89
391.363	399.86
391.743	377.26
392.122	368.9
392.501	375
392.881	397.6
393.26	386.3
393.639	381.78
394.018	390.6
394.397	409.35
394.776	382.69
395.155	403.25
395.534	408
395.913	367.32
396.292	388.79
396.671	383.82
397.05	421.78
397.429	400.99
397.808	394.21
398.186	421.78
398.565	402.35
398.944	393.08
399.323	385.4
399.701	400.09
400.08	431.73
400.458	420.2
400.837	417.72
401.215	425.4
401.594	398.05
401.972	391.05
402.351	409.81
402.729	420.43
403.107	455.23
403.486	449.35
403.864	434.89
404.242	427.66
404.62	434.44
404.999	453.65
405.377	444.15
405.755	443.93
406.133	439.41
406.511	453.42
406.889	443.03
407.267	443.7
407.645	453.19
408.023	464.27
408.401	435.12
408.779	471.05
409.156	457.94
409.534	468.79
409.912	453.87
410.29	472.85
410.667	471.72
411.045	494.32
411.422	475.57
411.8	497.94
412.178	510.82
412.555	501.78
412.933	497.71
413.31	490.26
413.687	522.35
414.065	509.01
414.442	520.54
414.819	526.41
415.197	517.15
415.574	524.6
415.951	527.77
416.328	527.09
416.705	558.73
417.082	539.07
417.46	532.97
417.837	541.33
418.214	548.79
418.591	560.99
418.967	539.07
419.344	539.52
419.721	563.7
420.098	575.9
420.475	555.79
420.852	545.17
421.228	578.39
421.605	582
421.982	596.02
422.358	573.64
422.735	597.15
423.111	582.68
423.488	593.98
423.864	597.6
424.241	608.44
424.617	602.12
424.994	614.09
425.37	623.81
425.746	599.86
426.123	608.67
426.499	622.23
426.875	649.57
427.251	637.82
427.627	654.77
428.003	687.99
428.379	661.1
428.756	668.56
429.132	690.25
429.507	678.73
429.883	667.2
430.259	680.53
430.635	716.24
431.011	689.12
431.387	715.79
431.763	696.58
432.138	708.33
432.514	726.86
432.89	709.68
433.265	728.89
433.641	780.19
434.016	741.77
434.392	772.96
434.767	766.86
435.143	784.71
435.518	789
435.894	777.48
436.269	830.81
436.644	811.6
437.02	816.12
437.395	826.29
437.77	839.85
438.145	852.51
438.52	837.82
438.895	887.31
439.271	866.29
439.646	880.08
440.021	886.63
440.395	858.16
440.77	870.81
441.145	894.99
441.52	889.79
441.895	889.57
442.27	917.14
442.645	916.91
443.019	928.66
443.394	913.97
443.769	948.55
444.143	903.35
444.518	951.94
444.892	968.21
445.267	939.06
445.641	966.85
446.016	959.85
446.39	979.73
446.764	975.21
447.139	973.63
447.513	988.77
447.887	1000.98
448.262	1003.24
448.636	1006.17
449.01	1010.47
449.384	1057.47
449.758	1020.19
450.132	1039.85
450.506	1050.92
450.88	1059.05
451.254	1021.31
451.628	1067.64
452.002	1085.72
452.376	1078.49
452.75	1097.47
453.123	1102.67
453.497	1135.89
453.871	1118.71
454.244	1154.19
454.618	1140.41
454.992	1160.52
455.365	1192.61
455.739	1219.5
456.112	1234.87
456.486	1220.63
456.859	1244.13
457.232	1258.82
457.606	1245.72
457.979	1272.38
458.352	1287.3
458.725	1301.08
459.099	1287.75
459.472	1348.31
459.845	1359.16
460.218	1367.75
460.591	1389.67
460.964	1412.94
461.337	1412.27
461.71	1438.71
462.083	1457.69
462.456	1455.88
462.829	1467.18
463.201	1513.05
463.574	1513.73
463.947	1509.21
464.32	1588.53
464.692	1592.83
465.065	1614.29
465.438	1633.95
465.81	1640.51
466.183	1668.98
466.555	1690.45
466.928	1747.17
467.3	1727.96
467.672	1755.08
468.045	1775.19
468.417	1812.93
468.789	1840.73
469.161	1862.65
469.534	1901.29
469.906	1933.38
470.278	1998.69
470.65	2010.67
471.022	2050.21
471.394	2120.04
471.766	2081.4
472.138	2160.49
472.51	2217.44
472.882	2235.52
473.253	2295.41
473.625	2297.67
473.997	2355.07
474.369	2404.56
474.74	2459.7
475.112	2491.33
475.484	2590.99
475.855	2617.88
476.227	2683.87
476.598	2767.03
476.97	2807.93
477.341	2894.71
477.713	2943.52
478.084	2992.11
478.455	3102.39
478.827	3141.71
479.198	3274.82
479.569	3270.75
479.94	3443.85
480.311	3460.35
480.682	3553.23
481.053	3705.31
481.424	3791.41
481.795	3829.83
482.166	3983.5
482.537	4032.76
482.908	4158.41
483.279	4246.09
483.65	4399.31
484.021	4466.87
484.391	4561.33
484.762	4694.89
485.133	4779.86
485.503	4872.97
485.874	4987.31
486.244	5122.45
486.615	5298.72
486.985	5398.6
487.356	5551.82
487.726	5650.35
488.097	5820.74
488.467	5898.93
488.837	6098.92
489.207	6188.64
489.578	6315.64
489.948	6450.55
490.318	6589.98
490.688	6688.28
491.058	6808.06
491.428	6940.93
491.798	7082.85
492.168	7288.27
492.538	7378.21
492.908	7575.04
493.278	7713.57
493.648	7713.12
494.017	7884.64
494.387	8089.83
494.757	8175.25
495.126	8253.89
495.496	8409.82
495.866	8502.93
496.235	8726.2
496.605	8807.1
496.974	8872.86
497.344	8955.8
497.713	9157.82
498.082	9212.06
498.452	9310.59
498.821	9413.86
499.19	9479.62
499.559	9672.39
499.928	9767.07
500.298	9833.29
500.667	9977.46
501.036	9998.03
501.405	10189.66
501.774	10208.64
502.143	10340.17
502.512	10321.41
502.88	10527.05
503.249	10520.5
503.618	10630.78
503.987	10718.01
504.356	10890.66
504.724	10846.82
505.093	10997.1
505.462	10995.97
505.83	11120.71
506.199	11235.28
506.567	11300.14
506.936	11337.43
507.304	11536.52
507.672	11600.02
508.041	11562.51
508.409	11727.02
508.777	11833.01
509.145	11794.14
509.514	11870.3
509.882	11926.79
510.25	11892.67
510.618	12119.33
510.986	12082.72
511.354	12240.68
511.722	12346.67
512.09	12338.08
512.458	12342.83
512.826	12520
513.193	12505.76
513.561	12484.74
513.929	12566.1
514.297	12625.76
514.664	12728.35
515.032	12702.82
515.4	12792.3
515.767	12805.41
516.135	12840.89
516.502	12786.43
516.869	12975.8
517.237	12983.94
517.604	13009.47
517.972	13099.64
518.339	13122.01
518.706	13112.07
519.073	13141.9
519.44	13268.9
519.808	13311.84
520.175	13231.84
520.542	13383.7
520.909	13417.37
521.276	13376.47
521.643	13423.47
522.009	13577.59
522.376	13441.33
522.743	13567.65
523.11	13638.38
523.477	13711.15
523.843	13729.23
524.21	13839.96
524.577	13881.77
524.943	13892.16
525.31	13935.33
525.676	14044.25
526.043	14025.49
526.409	14087.19
526.776	14095.55
527.142	14126.51
527.508	14243.34
527.874	14224.81
528.241	14190.91
528.607	14124.47
528.973	14178.94
529.339	14192.72
529.705	14230.23
530.071	14308.2
530.437	14344.81
530.803	14314.3
531.169	14326.28
531.535	14274.53
531.901	14218.71
532.267	14375.31
532.632	14385.94
532.998	14296.9
533.364	14346.84
533.73	14344.81
534.095	14317.01
534.461	14311.59
534.826	14435.2
535.192	14346.61
535.557	14402.21
535.923	14293.96
536.288	14192.04
536.653	14282.66
537.019	14232.72
537.384	14295.77
537.749	14254.19
538.114	14229.78
538.479	14205.15
538.845	14167.41
539.21	14085.6
539.575	14169.44
539.94	14038.37
540.305	14057.36
540.67	14032.5
541.034	13985.27
541.399	14011.03
541.764	14039.5
542.129	14021.2
542.494	13969
542.858	13949.11
543.223	13938.94
543.587	13948.43
543.952	13795.67
544.316	13855.55
544.681	13812.39
545.045	13782.11
545.41	13818.72
545.774	13773.75
546.138	13767.19
546.503	13665.95
546.867	13656.24
547.231	13729
547.595	13634.09
547.959	13586.86
548.324	13507.77
548.688	13481.33
549.052	13556.13
549.416	13486.98
549.779	13493.3
550.143	13530.82
550.507	13529.69
550.871	13452.4
551.235	13402.68
551.599	13434.55
551.962	13330.6
552.326	13332.86
552.689	13416.24
553.053	13346.19
553.417	13200.88
553.78	13405.62
554.143	13250.37
554.507	13177.15
554.87	13279.75
555.234	13327.88
555.597	13193.2
555.96	13153.88
556.323	13304.38
556.686	13223.25
557.05	13174.44
557.413	13238.17
557.776	13164.72
558.139	13268.9
558.502	13196.36
558.865	13174.67
559.228	13245.17
559.59	13226.64
559.953	13244.72
560.316	13373.08
560.679	13238.39
561.041	13294.44
561.404	13349.35
561.767	13317.49
562.129	13204.27
562.492	13359.07
562.854	13251.5
563.217	13294.44
563.579	13266.42
563.941	13411.95
564.304	13365.62
564.666	13449.91
565.028	13383.93
565.39	13494.66
565.753	13411.95
566.115	13465.51
566.477	13421.89
566.839	13498.05
567.201	13533.98
567.563	13531.04
567.925	13631.38
568.287	13517.48
568.648	13589.35
569.01	13606.97
569.372	13655.56
569.734	13636.35
570.095	13610.81
570.457	13750.92
570.819	13701.43
571.18	13760.87
571.542	13772.39
571.903	13780.08
572.265	13756.8
572.626	13763.8
572.987	13749.34
573.349	13783.92
573.71	13791.37
574.071	13837.25
574.432	13870.92
574.794	13895.1
575.155	13889.68
575.516	13828.21
575.877	13866.85
576.238	13917.25
576.599	13889.45
576.96	13841.09
577.32	13876.57
577.681	13969.45
578.042	13999.05
578.403	13903.01
578.763	13969.9
579.124	13934.2
579.485	14044.7
579.845	14017.81
580.206	13966.29
580.566	13938.26
580.927	14052.61
581.287	13959.05
581.648	13909.79
582.008	14022.1
582.368	13992.27
582.728	13960.64
583.089	14084.7
583.449	14018.94
583.809	13999.05
584.169	14046.28
584.529	14003.12
584.889	14079.73
585.249	13914.31
585.609	13878.15
585.969	14013.97
586.329	13929
586.688	13948.66
587.048	13883.8
587.408	13859.85
587.768	13864.14
588.127	13719.96
588.487	13821.88
588.846	13869.56
589.206	13795.44
589.565	13841.99
589.925	13880.19
590.284	13852.16
590.643	13826.85
591.003	13866.17
591.362	13869.56
591.721	13829.79
592.08	13834.76
592.44	13860.53
592.799	13810.58
593.158	13779.62
593.517	13846.74
593.876	13803.35
594.235	13802.9
594.593	13776.46
594.952	13855.1
595.311	13735.78
595.67	13827.98
596.029	13878.38
596.387	13825.72
596.746	13836.57
597.104	13812.62
597.463	13735.1
597.822	13740.98
598.18	13692.17
598.538	13734.2
598.897	13689.68
599.255	13674.54
599.613	13823.69
599.972	13735.56
600.33	13782.34
600.688	13705.73
601.046	13793.63
601.404	13772.17
601.762	13792.28
602.12	13764.48
602.478	13846.29
602.836	13783.47
603.194	13773.97
603.552	13760.19
603.91	13754.99
604.268	13794.99
604.625	13731.72
604.983	13803.35
605.341	13657.82
605.698	13858.49
606.056	13816.01
606.413	13778.72
606.771	13848.1
607.128	13849.23
607.485	13766.97
607.843	13814.65
608.2	13816.91
608.557	13924.7
608.914	13908.66
609.272	13919.96
609.629	13948.43
609.986	13909.11
610.343	13870.92
610.7	14027.53
611.057	13860.53
611.414	13924.48
611.771	13950.47
612.127	13985.95
612.484	13944.14
612.841	14060.29
613.198	13911.37
613.554	14004.93
613.911	14056.23
614.267	14066.85
614.624	14063.46
614.98	14023.01
615.337	14149.33
615.693	14109.11
616.05	14083.57
616.406	14085.15
616.762	14172.83
617.118	14098.71
617.475	14091.25
617.831	14189.1
618.187	14132.38
618.543	14132.16
618.899	14225.04
619.255	14176.22
619.611	14158.6
619.967	14245.37
620.323	14287.86
620.678	14246.96
621.034	14109.56
621.39	14216.45
621.746	14130.8
622.101	14297.12
622.457	14141.87
622.812	14251.7
623.168	14236.33
623.523	14167.41
623.879	14241.98
624.234	14213.51
624.589	14189.1
624.945	14263.9
625.3	14225.04
625.655	14208.09
626.01	14239.5
626.365	14227.75
626.72	14201.99
627.075	14145.72
627.43	14225.49
627.785	14120.86
628.14	14130.35
628.495	14093.06
628.85	14154.53
629.205	14054.87
629.559	14180.07
629.914	14112.27
630.269	14110.01
630.623	14110.24
630.978	14136.45
631.332	14072.72
631.687	14160.4
632.041	14056
632.396	14107.75
632.75	14010.8
633.104	14012.61
633.459	13954.08
633.813	13961.77
634.167	14030.46
634.521	13919.51
634.875	14018.49
635.229	13894.42
635.583	13848.55
635.937	13866.85
636.291	13877.25
636.645	13813.29
636.999	13774.65
637.352	13856.23
637.706	13755.44
638.06	13792.73
638.413	13799.28
638.767	13769.45
639.121	13746.86
639.474	13698.27
639.828	13761.09
640.181	13747.76
640.534	13715.44
640.888	13602.45
641.241	13573.98
641.594	13580.53
641.947	13652.4
642.301	13638.84
642.654	13715.22
643.007	13653.53
643.36	13689.23
643.713	13571.04
644.066	13666.18
644.419	13475.45
644.771	13402.68
645.124	13293.99
645.477	13260.32
645.83	13249.47
646.182	13265.74
646.535	13190.71
646.888	13123.6
647.24	13034.56
647.593	13148.91
647.945	13095.8
648.298	13002.69
648.65	13014.45
649.002	13067.55
649.355	13143.48
649.707	13064.84
650.059	13181.45
650.411	13328.56
650.763	13297.6
651.115	13374.89
651.467	13446.98
651.819	13380.99
652.171	13399.52
652.523	13354.1
652.875	13383.48
653.227	13373.31
653.578	13496.69
653.93	13378.5
654.282	13327.21
654.633	13301.67
654.985	13341.44
655.337	13346.87
655.688	13275.46
656.039	13373.98
656.391	13231.62
656.742	13313.87
657.094	13312.52
657.445	13440.42
657.796	13289.24
658.147	13243.82
658.498	13289.24
658.849	13353.87
659.2	13314.55
659.551	13328.34
659.902	13396.58
660.253	13363.59
660.604	13394.32
660.955	13291.95
661.306	13418.73
661.656	13448.78
662.007	13401.78
662.358	13364.49
662.708	13362.91
663.059	13341.44
663.409	13268.9
663.76	13424.83
664.11	13430.25
664.461	13311.39
664.811	13352.52
665.161	13432.97
665.511	13334.21
665.862	13383.7
666.212	13386.64
666.562	13399.07
666.912	13306.64
667.262	13302.57
667.612	13434.55
667.962	13388.45
668.312	13366.98
668.662	13423.7
669.011	13325.4
669.361	13333.76
669.711	13286.08
670.06	13352.97
670.41	13356.13
670.76	13416.02
671.109	13341.44
671.459	13320.88
671.808	13340.54
672.157	13320.43
672.507	13291.95
672.856	13215.12
673.205	13256.93
673.554	13266.19
673.904	13258.73
674.253	13300.77
674.602	13286.76
674.951	13084.05
675.3	13048.12
675.649	13162.69
675.998	13230.26
676.346	13128.79
676.695	13166.08
677.044	13090.6
677.393	13082.92
677.741	13164.5
678.09	13115.01
678.438	13008.34
678.787	13054.9
679.135	13137.38
679.484	12980.1
679.832	13006.08
680.181	12953.43
680.529	13006.08
680.877	12947.78
681.225	12910.95
681.573	12949.14
681.922	12940.78
682.27	12865.07
682.618	12975.8
682.966	12800.67
683.314	12846.99
683.661	12858.29
684.009	12617.85
684.357	12738.52
684.705	12661.91
685.053	12680.67
685.4	12664.85
685.748	12628.92
686.095	12607.23
686.443	12559.54
686.79	12517.06
687.138	12605.19
687.485	12492.88
687.832	12507.79
688.18	12527
688.527	12393.45
688.874	12452.65
689.221	12370.4
689.568	12388.7
689.915	12390.96
690.262	12303.96
690.609	12246.56
690.956	12287.69
691.303	12238.42
691.65	12172.21
691.997	12138.99
692.344	12036.17
692.69	11969.95
693.037	11862.39
693.383	11909.84
693.73	11919.56
694.077	11792.78
694.423	11839.56
694.769	11797.08
695.116	11706.68
695.462	11736.06
695.808	11686.12
696.155	11678.44
696.501	11637.76
696.847	11547.14
697.193	11530.42
697.539	11474.83
697.885	11417.2
698.231	11369.97
698.577	11336.52
698.923	11381.95
699.269	11357.77
699.614	11182.18
699.96	11145.79
700.306	11096.53
700.651	11121.61
700.997	11092.01
701.342	11074.84
701.688	11019.02
702.033	10985.35
702.379	10927.27
702.724	10979.02
703.069	10961.17
703.415	10789.19
703.76	10807.27
704.105	10782.41
704.45	10859.25
704.795	10709.65
705.14	10687.05
705.485	10733.6
705.83	10571.57
706.175	10597.33
706.52	10573.38
706.865	10546.71
707.209	10541.97
707.554	10501.74
707.899	10478.02
708.243	10409.32
708.588	10346.95
708.932	10379.49
709.277	10338.36
709.621	10344.69
709.966	10265.82
710.31	10274.86
710.654	10217.46
710.998	10201.64
711.342	10129.1
711.687	10164.13
712.031	10153.96
712.375	10127.74
712.719	10101.98
713.063	10050.91
713.407	10198.47
713.75	9953.06
714.094	10024.47
714.438	9958.26
714.782	9960.74
715.125	9980.18
715.469	10000.74
715.812	9847.3
716.156	9812.5
716.499	9849.78
716.843	9833.96
717.186	9794.64
717.53	9815.21
717.873	9812.5
718.216	9808.43
718.559	9759.39
718.902	9709.45
719.246	9728.2
719.589	9672.39
719.932	9699.73
720.275	9700.86
720.617	9640.52
720.96	9611.37
721.303	9659.28
721.646	9610.02
721.989	9633.07
722.331	9660.86
722.674	9654.08
723.016	9545.61
723.359	9586.74
723.701	9602.56
724.044	9540.19
724.386	9553.97
724.729	9500.19
725.071	9555.78
725.413	9508.32
725.755	9495.67
726.097	9440.08
726.439	9396.01
726.782	9466.74
727.124	9535.44
727.465	9442.34
727.807	9413.86
728.149	9422
728.491	9405.73
728.833	9453.41
729.175	9384.03
729.516	9332.73
729.858	9422.45
730.199	9490.7
730.541	9379.51
730.882	9432.62
731.224	9379.29
731.565	9328.22
731.906	9319.4
732.248	9379.97
732.589	9250.25
732.93	9281.66
733.271	9378.84
733.612	9381.1
733.953	9356.91
734.294	9288.44
734.635	9287.99
734.976	9386.29
735.317	9267.65
735.658	9306.52
735.999	9267.65
736.339	9282.79
736.68	9331.83
737.021	9248.9
737.361	9244.38
737.702	9346.75
738.042	9404.82
738.383	9313.98
738.723	9284.6
739.063	9338.38
739.404	9331.6
739.744	9307.65
740.084	9262
740.424	9337.93
740.764	9413.41
741.104	9326.63
741.444	9307.2
741.784	9328.67
742.124	9377.93
742.464	9420.42
742.804	9424.94
743.143	9412.73
743.483	9475.33
743.823	9483.01
744.162	9442.56
744.502	9557.59
744.841	9503.13
745.181	9606.17
745.52	9509.45
745.86	9671.26
746.199	9625.38
746.538	9664.93
746.877	9742.67
747.216	9777.02
747.556	9767.53
747.895	9832.61
748.234	9840.29
748.573	9935.2
748.911	9960.51
749.25	10038.03
749.589	10040.29
749.928	10128.42
750.267	10234.86
750.605	10166.61
750.944	10290.68
751.283	10336.78
751.621	10447.73
751.96	10515.08
752.298	10556.43
752.636	10671.46
752.975	10699.25
753.313	10861.28
753.651	10922.98
753.989	10991.9
754.327	11115.74
754.666	11168.39
755.004	11297.88
755.342	11346.24
755.679	11486.8
756.017	11696.06
756.355	11756.17
756.693	11849.05
757.031	12027.58
757.368	12131.08
757.706	12230.51
758.044	12409.49
758.381	12548.92
