Data from hue_60_FLMS001491_29.txt Node
Date: Mon Feb 06 15:17:09 GMT 2017
User: dcchb
Spectrometer: FLMS00149
Trigger mode: 0
Integration Time (sec): 2.000000E-2
Scans to average: 10
Electric dark correction enabled: true
Nonlinearity correction enabled: false
Boxcar width: 0
XAxis mode: Wavelengths
Number of Pixels in Spectrum: 2048
>>>>>Begin Spectral Data<<<<<
341.393	-12.09
341.776	-12.09
342.16	-12.09
342.543	-53.44
342.927	-61.81
343.31	-64.29
343.693	-60.9
344.077	-86.89
344.46	-51.64
344.843	-57.06
345.226	-29.26
345.61	-25.42
345.993	-25.65
346.376	-24.29
346.759	26.78
347.142	24.97
347.525	54.12
347.908	50.06
348.291	74.46
348.674	86.21
349.057	108.81
349.44	118.98
349.823	152.65
350.206	169.6
350.588	189.94
350.971	227.23
351.354	228.36
351.737	252.54
352.119	257.51
352.502	281.46
352.884	291.63
353.267	285.53
353.65	280.11
354.032	301.57
354.414	300.44
354.797	322.82
355.179	309.48
355.562	333.66
355.944	318.07
356.326	327.11
356.709	335.25
357.091	346.32
357.473	332.76
357.855	332.99
358.238	347.22
358.62	345.19
359.002	343.15
359.384	335.92
359.766	331.86
360.148	358.3
360.53	332.31
360.912	319.43
361.294	318.52
361.676	345.41
362.057	339.09
362.439	338.18
362.821	334.57
363.203	356.49
363.584	328.92
363.966	331.63
364.348	321.69
364.729	322.82
365.111	335.7
365.493	314.46
365.874	317.62
366.256	307.9
366.637	310.16
367.019	312.2
367.4	325.3
367.781	311.52
368.163	337.05
368.544	317.62
368.925	296.15
369.306	332.08
369.688	315.13
370.069	321.46
370.45	322.59
370.831	338.41
371.212	327.79
371.593	329.37
371.974	331.18
372.355	335.25
372.736	307
373.117	313.55
373.498	322.36
373.879	325.53
374.26	350.61
374.641	307.68
375.021	309.48
375.402	319.65
375.783	341.12
376.163	329.6
376.544	320.56
376.925	321.46
377.305	337.73
377.686	317.84
378.066	320.33
378.447	339.54
378.827	311.97
379.208	335.25
379.588	322.36
379.968	331.86
380.349	323.27
380.729	335.25
381.109	322.59
381.489	342.7
381.87	337.05
382.25	337.28
382.63	338.64
383.01	340.67
383.39	347
383.77	334.34
384.15	343.15
384.53	343.83
384.91	336.38
385.29	364.62
385.67	360.78
386.049	347.67
386.429	346.09
386.809	341.8
387.189	335.92
387.568	356.26
387.948	344.96
388.328	350.84
388.707	341.57
389.087	350.61
389.466	357.84
389.846	369.37
390.225	361.23
390.605	358.3
390.984	334.12
391.363	345.87
391.743	363.27
392.122	358.3
392.501	364.17
392.881	378.86
393.26	352.87
393.639	353.78
394.018	353.78
394.397	353.55
394.776	351.29
395.155	360.33
395.534	360.33
395.913	375.92
396.292	354
396.671	370.72
397.05	375.47
397.429	384.06
397.808	362.36
398.186	365.08
398.565	375.92
398.944	371.18
399.323	377.96
399.701	376.15
400.08	371.18
400.458	382.7
400.837	385.87
401.215	375.47
401.594	382.48
401.972	382.48
402.351	382.25
402.729	386.32
403.107	392.65
403.486	393.1
403.864	417.28
404.242	397.16
404.62	386.09
404.999	398.29
405.377	396.94
405.755	407.11
406.133	401.23
406.511	412.31
406.889	387
407.267	397.62
407.645	405.3
408.023	418.86
408.401	425.41
408.779	413.89
409.156	414.79
409.534	403.49
409.912	426.99
410.29	427.45
410.667	446.65
411.045	414.79
411.422	437.39
411.8	461.57
412.178	471.29
412.555	451.17
412.933	442.81
413.31	431.29
413.687	432.87
414.065	458.63
414.442	452.3
414.819	439.42
415.197	460.44
415.574	469.71
415.951	461.34
416.328	482.13
416.705	467.67
417.082	482.81
417.46	488.69
417.837	472.19
418.214	452.53
418.591	492.76
418.967	479.87
419.344	490.95
419.721	485.98
420.098	500.89
420.475	510.38
420.852	510.16
421.228	509.7
421.605	472.19
421.982	492.08
422.358	515.35
422.735	511.51
423.111	511.06
423.488	515.35
423.864	518.29
424.241	533.21
424.617	514.45
424.994	536.82
425.37	515.13
425.746	548.12
426.123	540.66
426.499	538.4
426.875	540.21
427.251	531.17
427.627	542.02
428.003	550.61
428.379	541.79
428.756	553.77
429.132	540.89
429.507	562.58
429.883	545.86
430.259	557.39
430.635	562.13
431.011	567.78
431.387	583.6
431.763	608.46
432.138	589.93
432.514	596.71
432.89	608.91
433.265	606.65
433.641	603.49
434.016	626.31
434.392	639.42
434.767	643.49
435.143	643.94
435.518	622.47
435.894	634.67
436.269	629.7
436.644	624.5
437.02	659.53
437.395	640.32
437.77	670.83
438.145	676.93
438.52	654.33
438.895	649.59
439.271	647.55
439.646	646.42
440.021	710.38
440.395	692.07
440.77	674.45
441.145	692.52
441.52	702.92
441.895	690.26
442.27	709.02
442.645	694.56
443.019	727.1
443.394	720.09
443.769	717.16
444.143	720.77
444.518	728.46
444.892	697.72
445.267	735.46
445.641	758.29
446.016	756.48
446.39	724.84
446.764	745.4
447.139	753.09
447.513	765.74
447.887	747.89
448.262	756.48
448.636	766.87
449.01	764.84
449.384	771.84
449.758	753.54
450.132	776.14
450.506	778.17
450.88	815.23
451.254	793.99
451.628	793.09
452.002	786.98
452.376	820.43
452.75	835.12
453.123	824.05
453.497	844.61
453.871	817.27
454.244	845.29
454.618	858.17
454.992	856.81
455.365	871.73
455.739	879.41
456.112	883.93
456.486	890.26
456.859	890.71
457.232	925.51
457.606	937.49
457.979	928.68
458.352	943.82
458.725	941.56
459.099	941.33
459.472	953.08
459.845	984.04
460.218	974.32
460.591	989.69
460.964	1000.31
461.337	1026.98
461.71	1003.25
462.083	1042.57
462.456	1045.96
462.829	1052.74
463.201	1075.56
463.574	1071.5
463.947	1094.32
464.32	1126.41
464.692	1137.26
465.065	1150.37
465.438	1148.11
465.81	1164.15
466.183	1205.51
466.555	1218.39
466.928	1215.9
467.3	1239.4
467.672	1257.26
468.045	1266.52
468.417	1293.64
468.789	1295.9
469.161	1312.17
469.534	1331.38
469.906	1373.18
470.278	1388.33
470.65	1436.01
471.022	1464.71
471.394	1486.63
471.766	1492.73
472.138	1540.41
472.51	1565.95
472.882	1604.36
473.253	1635.32
473.625	1655.66
473.997	1735.89
474.369	1730.69
474.74	1768.43
475.112	1836.22
475.484	1866.28
475.855	1922.32
476.227	1957.58
476.598	2040.74
476.97	2049.1
477.341	2155.99
477.713	2166.61
478.084	2228.75
478.455	2310.79
478.827	2353.72
479.198	2433.72
479.569	2444.57
479.94	2620.84
480.311	2634.39
480.682	2741.51
481.053	2823.09
481.424	2935.63
481.795	2994.61
482.166	3046.81
482.537	3160.71
482.908	3215.62
483.279	3292.68
483.65	3470.76
484.021	3564.54
484.391	3612.9
484.762	3774.48
485.133	3839.33
485.503	3938.54
485.874	4055.83
486.244	4166.56
486.615	4335.14
486.985	4435.25
487.356	4585.08
487.726	4685.19
488.097	4817.16
488.467	4969.47
488.837	5104.61
489.207	5262.12
489.578	5413.08
489.948	5467.54
490.318	5646.52
490.688	5731.94
491.058	5956.11
491.428	6074.98
491.798	6248.99
492.168	6462.77
492.538	6540.73
492.908	6675.19
493.278	6889.42
493.648	6940.27
494.017	7185.23
494.387	7361.28
494.757	7455.51
495.126	7650.76
495.496	7787.93
495.866	7926.01
496.235	8121.93
496.605	8222.95
496.974	8431.53
497.344	8580.9
497.713	8696.16
498.082	8789.03
498.452	9026.54
498.821	9103.38
499.19	9266.76
499.559	9417.72
499.928	9646.41
500.298	9729.12
500.667	9926.86
501.036	10062.67
501.405	10210.47
501.774	10303.57
502.143	10500.85
502.512	10628.53
502.88	10758.25
503.249	10863.56
503.618	11038.92
503.987	11143.77
504.356	11227.16
504.724	11461.28
505.093	11562.07
505.462	11750.99
505.83	11845.23
506.199	11969.52
506.567	12224.42
506.936	12287.7
507.304	12538.99
507.672	12466
508.041	12708.71
508.409	12939.43
508.777	13041.8
509.145	13206.09
509.514	13217.39
509.882	13431.4
510.25	13542.58
510.618	13698.28
510.986	13770.15
511.354	13951.61
511.722	14150.25
512.09	14237.03
512.458	14288.78
512.826	14569.9
513.193	14584.81
513.561	14657.81
513.929	14832.94
514.297	15062.99
514.664	15201.75
515.032	15309.09
515.4	15516.99
515.767	15605.8
516.135	15638.35
516.502	15623.21
516.869	16050.31
517.237	16121.95
517.604	16134.38
517.972	16288.05
518.339	16447.36
518.706	16556.06
519.073	16676.51
519.44	16876.96
519.808	17048.7
520.175	17043.73
520.542	17292.77
520.909	17459.77
521.276	17455.25
521.643	17687.11
522.009	17834.22
522.376	17938.17
522.743	18001.22
523.11	18337.48
523.477	18404.37
523.843	18581.77
524.21	18767.3
524.577	18975.89
524.943	19070.12
525.31	19108.31
525.676	19362.32
526.043	19445.93
526.409	19630.33
526.776	19798.01
527.142	19898.12
527.508	20045.46
527.874	20189.41
528.241	20315.74
528.607	20405.45
528.973	20606.8
529.339	20608.16
529.705	20793.92
530.071	21062.84
530.437	21129.73
530.803	21233.9
531.169	21446.1
531.535	21490.85
531.901	21461.92
532.267	21667.79
532.632	21803.61
532.998	21835.25
533.364	21981.68
533.73	22063.26
534.095	22180.55
534.461	22221.45
534.826	22354.78
535.192	22491.95
535.557	22744.15
535.923	22767.42
536.288	22716.8
536.653	23009.45
537.019	22945.72
537.384	22983.92
537.749	23140.52
538.114	23177.81
538.479	23303.46
538.845	23343.91
539.21	23411.02
539.575	23505.03
539.94	23612.37
540.305	23721.75
540.67	23733.73
541.034	23748.19
541.399	23949.99
541.764	24202.19
542.129	24108.86
542.494	24114.51
542.858	24264.79
543.223	24295.07
543.587	24458
543.952	24340.72
544.316	24582.74
544.681	24631.78
545.045	24741.38
545.41	24666.13
545.774	24914.26
546.138	24913.58
546.503	25078.32
546.867	25021.83
547.231	25272.67
547.595	25317.87
547.959	25338.2
548.324	25290.52
548.688	25498.2
549.052	25634.92
549.416	25647.35
549.779	25733.9
550.143	25825.42
550.507	25791.98
550.871	26024.97
551.235	26071.74
551.599	26247.56
551.962	26285.98
552.326	26500.89
552.689	26522.13
553.053	26476.93
553.417	26508.12
553.78	26822.01
554.143	26697.26
554.507	26876.24
554.87	27004.6
555.234	27185.16
555.597	27115.78
555.96	27174.09
556.323	27342.44
556.686	27476
557.05	27686.39
557.413	27753.73
557.776	27834.18
558.139	28046.16
558.502	28020.62
558.865	28138.58
559.228	28286.37
559.59	28454.51
559.953	28438.01
560.316	28855.17
560.679	28790.99
561.041	28876.42
561.404	29089.52
561.767	29191.89
562.129	29176.52
562.492	29495.61
562.854	29463.29
563.217	29604.53
563.579	29644.53
563.941	29797.3
564.304	29932.43
564.666	30228.47
565.028	30216.95
565.39	30292.2
565.753	30519.31
566.115	30656.93
566.477	30715.92
566.839	30801.79
567.201	31002.91
567.563	31012.18
567.925	31225.73
568.287	31293.53
568.648	31355.9
569.01	31580.75
569.372	31679.05
569.734	31632.73
570.095	31848.32
570.457	31987.29
570.819	32067.74
571.18	31941.87
571.542	32237.68
571.903	32298.47
572.265	32578.47
572.626	32472.03
572.987	32581.18
573.349	32825.92
573.71	32841.51
574.071	32943.65
574.432	33060.71
574.794	33247.6
575.155	33179.58
575.516	33091.9
575.877	33278.79
576.238	33314.04
576.599	33463.41
576.96	33446.24
577.32	33534.15
577.681	33875.61
578.042	33799
578.403	33811.2
578.763	33872.89
579.124	33846
579.485	33979.33
579.845	34246.22
580.206	34006.68
580.566	34060.46
580.927	34202.83
581.287	34290.96
581.648	34275.14
582.008	34365.76
582.368	34273.79
582.728	34322.6
583.089	34387.91
583.449	34397.85
583.809	34505.87
584.169	34461.81
584.529	34499.09
584.889	34695.47
585.249	34442.15
585.609	34358.08
585.969	34592.42
586.329	34451.64
586.688	34604.4
587.048	34646.43
587.408	34577.73
587.768	34635.13
588.127	34669.26
588.487	34608.69
588.846	34758.97
589.206	34608.47
589.565	34648.69
589.925	34822.02
590.284	34753.1
590.643	34805.07
591.003	34868.8
591.362	34972.07
591.721	34911.51
592.08	34956.71
592.44	34976.82
592.799	35012.3
593.158	35035.35
593.517	35008.91
593.876	35058.63
594.235	35089.36
594.593	35141.79
594.952	35185.85
595.311	35026.54
595.67	35225.85
596.029	35394.66
596.387	35373.42
596.746	35377.26
597.104	35321.44
597.463	35191.73
597.822	35394.21
598.18	35331.61
598.538	35245.29
598.897	35511.72
599.255	35198.51
599.613	35732.28
599.972	35487.32
600.33	35604.37
600.688	35543.59
601.046	35541.33
601.404	35765.05
601.762	35764.82
602.12	35899.96
602.478	35977.92
602.836	35947.42
603.194	35912.84
603.552	35982.44
603.91	35853.63
604.268	36014.31
604.625	36054.31
604.983	36097.24
605.341	35953.97
605.698	36219.95
606.056	36244.81
606.413	36172.95
606.771	36356.22
607.128	36374.98
607.485	36290.46
607.843	36378.37
608.2	36725.02
608.557	36798.02
608.914	36619.04
609.272	36798.47
609.629	36801.18
609.986	36941.74
610.343	36791.46
610.7	37145.35
611.057	36979.25
611.414	37101.51
611.771	37089.99
612.127	37240.94
612.484	37256.08
612.841	37403.42
613.198	37146.03
613.554	37281.17
613.911	37554.61
614.267	37583.98
614.624	37668.95
614.98	37698.1
615.337	37858.1
615.693	37746.47
616.05	37763.41
616.406	37916.4
616.762	37904.88
617.118	37938.78
617.475	37929.06
617.831	38170.41
618.187	37991.66
618.543	38164.76
618.899	38525.65
619.255	38342.16
619.611	38345.09
619.967	38543.73
620.323	38509.38
620.678	38395.26
621.034	38448.82
621.39	38367.69
621.746	38440.01
622.101	38845.19
622.457	38498.54
622.812	38558.87
623.168	38766.78
623.523	38670.51
623.879	38759.55
624.234	38495.82
624.589	38849.94
624.945	38793.22
625.3	38898.53
625.655	38774.46
626.01	38879.09
626.365	38993.21
626.72	38880.9
627.075	38847.23
627.43	38771.52
627.785	38765.2
628.14	38924.29
628.495	38993.44
628.85	38758.42
629.205	38841.8
629.559	39064.4
629.914	38894.91
630.269	38881.12
630.623	38904.85
630.978	38813.78
631.332	38934.46
631.687	38871.41
632.041	38832.76
632.396	38892.2
632.75	38792.09
633.104	38915.25
633.459	38733.11
633.813	38622.83
634.167	38719.32
634.521	38713.45
634.875	38861.69
635.229	38766.78
635.583	38593.9
635.937	38668.25
636.291	38522.94
636.645	38738.08
636.999	38554.35
637.352	38544.18
637.706	38437.97
638.06	38578.53
638.413	38438.88
638.767	38301.25
639.121	38577.63
639.474	38248.15
639.828	38342.16
640.181	38344.64
640.534	38382.15
640.888	38256.96
641.241	38060.58
641.594	38223.97
641.947	38345.09
642.301	38115.04
642.654	38270.97
643.007	38160.92
643.36	38234.36
643.713	38163.18
644.066	38262.38
644.419	37999.11
644.771	37823.75
645.124	37379.47
645.477	37381.73
645.83	37098.12
646.182	37096.99
646.535	36931.35
646.888	36979.48
647.24	36883.21
647.593	36906.04
647.945	36954.4
648.298	36676.44
648.65	36817.9
649.002	36657.91
649.355	36776.55
649.707	36666.72
650.059	36866.26
650.411	37283.2
650.763	37245.91
651.115	37560.71
651.467	37505.34
651.819	37528.39
652.171	37554.15
652.523	37316.65
652.875	37352.58
653.227	37180.15
653.578	37535.62
653.93	37448.62
654.282	37248.63
654.633	37135.63
654.985	37179.25
655.337	37216.31
655.688	37071.91
656.039	37273.48
656.391	36918.01
656.742	37027.84
657.094	37133.37
657.445	37296.99
657.796	37054.51
658.147	37068.97
658.498	37003.21
658.849	37183.99
659.2	37095.41
659.551	36921.18
659.902	37151.9
660.253	36968.41
660.604	37067.16
660.955	36758.69
661.306	36909.65
661.656	36810.22
662.007	36945.81
662.358	36883.66
662.708	36999.82
663.059	36831.01
663.409	36724.57
663.76	36818.35
664.11	36927.96
664.461	37012.25
664.811	36924.34
665.161	36896.54
665.511	36772.03
665.862	36821.52
666.212	36862.42
666.562	36918.69
666.912	36881.63
667.262	36775.87
667.612	36762.08
667.962	36969.08
668.312	36618.36
668.662	36910.33
669.011	36844.79
669.361	36619.04
669.711	36703.33
670.06	36579.26
670.41	36683.22
670.76	36560.06
671.109	36720.96
671.459	36634.4
671.808	36703.1
672.157	36753.27
672.507	36519.6
672.856	36511.47
673.205	36480.28
673.554	36642.99
673.904	36510.57
674.253	36550.34
674.602	36437.57
674.951	35899.96
675.3	35881.43
675.649	36346.05
675.998	36323
676.346	36406.84
676.695	36407.29
677.044	36167.07
677.393	36292.04
677.741	36342.43
678.09	36268.99
678.438	36165.04
678.787	36327.97
679.135	36137.47
679.484	35935.67
679.832	36098.37
680.181	35831.49
680.529	36044.81
680.877	35981.99
681.225	35944.93
681.573	36189.44
681.922	35865.38
682.27	35700.64
682.618	35713.98
682.966	35578.39
683.314	35809.11
683.661	35624.94
684.009	35521.66
684.357	35373.87
684.705	35332.97
685.053	35356.02
685.4	35310.6
685.748	35240.09
686.095	35163.48
686.443	35135.91
686.79	34980.44
687.138	35124.84
687.485	35117.83
687.832	35000.32
688.18	35072.86
688.527	34708.13
688.874	34808.24
689.221	34658.64
689.568	34537.06
689.915	34529.6
690.262	34567.34
690.609	34439.43
690.956	34247.35
691.303	34250.06
691.65	34151.76
691.997	34122.15
692.344	33921.48
692.69	33783.86
693.037	33893.01
693.383	33675.39
693.73	33743.41
694.077	33542.51
694.423	33552.9
694.769	33516.29
695.116	33436.07
695.462	33403.08
695.808	33286.47
696.155	33277.2
696.501	33017.55
696.847	32912.02
697.193	32819.36
697.539	32969.87
697.885	32639.25
698.231	32506.83
698.577	32457.34
698.923	32460.73
699.269	32361.07
699.614	32145.26
699.96	32262.77
700.306	32139.83
700.651	32124.92
700.997	31968.76
701.342	31843.12
701.688	31767.19
702.033	31681.99
702.379	31769
702.724	31514.99
703.069	31585.5
703.415	31301.21
703.76	31350.48
704.105	31373.75
704.45	31207.65
704.795	31014.89
705.14	31069.8
705.485	30955.01
705.83	30868.68
706.175	30915.01
706.52	30906.42
706.865	30614.22
707.209	30724.05
707.554	30576.03
707.899	30562.25
708.243	30399.77
708.588	30445.19
708.932	30219.21
709.277	30123.84
709.621	30196.61
709.966	29927.91
710.31	30129.94
710.654	29797.97
710.998	29805.43
711.342	29851.53
711.687	29858.99
712.031	29755.71
712.375	29544.87
712.719	29580.58
713.063	29474.59
713.407	29596.85
713.75	29371.77
714.094	29479.79
714.438	29289.29
714.782	29317.99
715.125	29204.77
715.469	29238.21
715.812	29197.76
716.156	28939.24
716.499	28909.64
716.843	29008.39
717.186	28764.55
717.53	28969.07
717.873	28906.7
718.216	28794.38
718.559	28733.82
718.902	28478.91
719.246	28465.35
719.589	28449.99
719.932	28448.86
720.275	28400.27
720.617	28284.12
720.96	28170.22
721.303	28153.5
721.646	28267.17
721.989	28082.76
722.331	28139.49
722.674	28093.61
723.016	27962.32
723.359	27932.03
723.701	27939.94
724.044	27757.12
724.386	27689.33
724.729	27744.69
725.071	27739.72
725.413	27619.73
725.755	27637.35
726.097	27497.02
726.439	27435.55
726.782	27473.74
727.124	27546.06
727.465	27442.33
727.807	27347.64
728.149	27353.97
728.491	27186.06
728.833	27321.88
729.175	27121.89
729.516	27198.27
729.858	27124.82
730.199	27128.89
730.541	27063.58
730.882	26932.74
731.224	27015.9
731.565	26827.88
731.906	26835.11
732.248	26799.41
732.589	26789.69
732.93	26732.07
733.271	26679.86
733.612	26749.24
733.953	26691.61
734.294	26529.58
734.635	26560.09
734.976	26608.68
735.317	26295.01
735.658	26446.88
735.999	26486.2
736.339	26278.29
736.68	26392.87
737.021	26308.12
737.361	26185.19
737.702	26279.42
738.042	26341.57
738.383	26197.84
738.723	26191.06
739.063	26104.06
739.404	26070.84
739.744	25925.31
740.084	25916.95
740.424	26043.72
740.764	25888.02
741.104	25977.06
741.444	25838.76
741.784	25673.79
742.124	25714.92
742.464	25750.17
742.804	25642.38
743.143	25638.99
743.483	25661.36
743.823	25466.11
744.162	25479.44
744.502	25577.75
744.841	25470.18
745.181	25476.51
745.52	25350.41
745.86	25354.02
746.199	25282.84
746.538	25241.26
746.877	25343.63
747.216	25224.76
747.556	25281.26
747.895	25107.7
748.234	24990.42
748.573	25025.44
748.911	25014.82
749.25	25012.34
749.589	24802.62
749.928	24876.75
750.267	24942.06
750.605	24831.1
750.944	24688.96
751.283	24615.51
751.621	24679.24
751.96	24557.21
752.298	24446.02
752.636	24544.33
752.975	24315.41
753.313	24315.86
753.651	24442.63
753.989	24286.25
754.327	24178.01
754.666	24219.82
755.004	24163.77
755.342	24216.43
755.679	24125.35
756.017	24030.22
756.355	23971.23
