Data from hue_150_FLMS001491_00089.txt Node
Date: Tue Feb 07 16:54:40 GMT 2017
User: dcchb
Spectrometer: FLMS00149
Trigger mode: 0
Integration Time (sec): 2.000000E-2
Scans to average: 10
Electric dark correction enabled: true
Nonlinearity correction enabled: false
Boxcar width: 0
XAxis mode: Wavelengths
Number of Pixels in Spectrum: 2048
>>>>>Begin Spectral Data<<<<<
341.393	-4.7
341.776	-4.7
342.16	-4.7
342.543	-70.24
342.927	-72.95
343.31	-66.85
343.693	-60.97
344.077	-71.37
344.46	-57.58
344.843	-56.68
345.226	-54.42
345.61	-34.31
345.993	-20.97
346.376	-13.74
346.759	22.41
347.142	34.17
347.525	33.49
347.908	68.29
348.291	78.01
348.674	99.25
349.057	101.28
349.44	142.64
349.823	142.64
350.206	172.24
350.588	183.77
350.971	213.82
351.354	231.45
351.737	233.71
352.119	254.27
352.502	261.05
352.884	276.42
353.267	294.05
353.65	290.43
354.032	294.5
354.414	319.13
354.797	323.65
355.179	310.32
355.562	306.02
355.944	334.72
356.326	360.48
356.709	359.81
357.091	352.35
357.473	340.37
357.855	342.63
358.238	346.25
358.62	315.51
359.002	342.63
359.384	329.75
359.766	337.66
360.148	350.09
360.53	327.49
360.912	342.41
361.294	342.86
361.676	334.5
362.057	329.53
362.439	318.68
362.821	343.31
363.203	331.56
363.584	321.39
363.966	336.3
364.348	320.26
364.729	310.09
365.111	338.11
365.493	322.75
365.874	305.35
366.256	326.36
366.637	312.12
367.019	319.58
367.4	326.36
367.781	323.88
368.163	293.82
368.544	308.96
368.925	303.31
369.306	315.74
369.688	331.79
370.069	299.92
370.45	307.6
370.831	317.55
371.212	319.36
371.593	318.9
371.974	311.45
372.355	314.38
372.736	320.49
373.117	312.35
373.498	320.03
373.879	311.67
374.26	322.07
374.641	347.15
375.021	343.31
375.402	322.97
375.783	342.18
376.163	337.21
376.544	329.98
376.925	338.34
377.305	332.91
377.686	334.72
378.066	325.68
378.447	327.49
378.827	356.19
379.208	323.42
379.588	333.59
379.968	334.04
380.349	339.24
380.729	320.03
381.109	337.89
381.489	350.77
381.87	333.37
382.25	345.57
382.63	360.03
383.01	336.3
383.39	339.02
383.77	353.03
384.15	357.1
384.53	350.54
384.91	371.78
385.29	369.52
385.67	346.93
386.049	348.28
386.429	353.93
386.809	364.78
387.189	364.55
387.568	361.61
387.948	353.71
388.328	348.96
388.707	346.7
389.087	362.52
389.466	362.74
389.846	368.62
390.225	369.98
390.605	365.68
390.984	373.59
391.363	371.33
391.743	384.44
392.122	368.17
392.501	377.89
392.881	385.79
393.26	368.17
393.639	388.96
394.018	388.73
394.397	400.48
394.776	396.19
395.155	382.63
395.534	388.73
395.913	376.08
396.292	398.9
396.671	391.22
397.05	404.1
397.429	391.22
397.808	390.77
398.186	395.74
398.565	403.42
398.944	385.34
399.323	406.36
399.701	402.29
400.08	392.57
400.458	409.98
400.837	413.36
401.215	441.61
401.594	410.88
401.972	402.52
402.351	410.2
402.729	431.9
403.107	427.15
403.486	439.58
403.864	455.17
404.242	405.68
404.62	417.66
404.999	432.8
405.377	445.23
405.755	435.29
406.133	429.86
406.511	429.64
406.889	446.13
407.267	445.68
407.645	468.96
408.023	472.57
408.401	452.01
408.779	463.76
409.156	450.88
409.534	463.98
409.912	481.84
410.29	461.95
410.667	469.41
411.045	465.34
411.422	486.58
411.8	491.33
412.178	490.65
412.555	498.33
412.933	488.84
413.31	483.42
413.687	501.95
414.065	488.17
414.442	485.68
414.819	506.47
415.197	500.82
415.574	517.54
415.951	527.03
416.328	517.77
416.705	518.9
417.082	519.58
417.46	533.36
417.837	562.51
418.214	518.9
418.591	567.03
418.967	540.59
419.344	542.18
419.721	563.87
420.098	563.42
420.475	573.13
420.852	545.11
421.228	536.75
421.605	569.97
421.982	547.37
422.358	570.65
422.735	597.54
423.111	601.61
423.488	575.39
423.864	566.58
424.241	598.22
424.617	597.31
424.994	608.39
425.37	605
425.746	610.42
426.123	632.12
426.499	619.46
426.875	617.65
427.251	631.66
427.627	636.18
428.003	660.36
428.379	629.4
428.756	660.14
429.132	650.65
429.507	655.39
429.883	681.15
430.259	676.18
430.635	684.77
431.011	676.18
431.387	703.3
431.763	713.47
432.138	710.76
432.514	682.74
432.89	713.02
433.265	727.03
433.641	740.81
434.016	752.11
434.392	750.08
434.767	744.88
435.143	746.69
435.518	775.16
435.894	762.96
436.269	784.88
436.644	799.57
437.02	807.7
437.395	796.18
437.77	809.74
438.145	817.87
438.52	825.11
438.895	829.85
439.271	819
439.646	842.51
440.021	855.39
440.395	873.01
440.77	840.92
441.145	855.61
441.52	884.54
441.895	866.23
442.27	880.7
442.645	873.24
443.019	880.47
443.394	879.57
443.769	892
444.143	889.51
444.518	914.59
444.892	929.74
445.267	917.08
445.641	926.57
446.016	924.09
446.39	944.88
446.764	941.03
447.139	949.4
447.513	973.35
447.887	946.23
448.262	971.54
448.636	975.16
449.01	1008.15
449.384	994.14
449.758	976.06
450.132	1005.21
450.506	998.21
450.88	1011.54
451.254	1024.42
451.628	1026.23
452.002	1022.16
452.376	1055.38
452.75	1044.76
453.123	1087.7
453.497	1078.43
453.871	1126.11
454.244	1128.83
454.618	1121.14
454.992	1139
455.365	1149.84
455.739	1189.16
456.112	1207.02
456.486	1178.77
456.859	1211.76
457.232	1214.02
457.606	1201.37
457.979	1219.9
458.352	1230.52
458.725	1280.46
459.099	1252.21
459.472	1301.03
459.845	1300.8
460.218	1320.01
460.591	1322.72
460.964	1358.65
461.337	1362.72
461.71	1383.51
462.083	1401.14
462.456	1441.36
462.829	1440.68
463.201	1436.16
463.574	1458.31
463.947	1488.14
464.32	1527.46
464.692	1567.46
465.065	1544.41
465.438	1556.84
465.81	1593.22
466.183	1598.19
466.555	1632.77
466.928	1650.17
467.3	1664.41
467.672	1708.02
468.045	1733.33
468.417	1788.02
468.789	1801.58
469.161	1797.96
469.534	1833.44
469.906	1884.51
470.278	1894.23
470.65	1924.06
471.022	1950.05
471.394	1991.18
471.766	2018.29
472.138	2064.17
472.51	2141.45
472.882	2169.25
473.253	2209.93
473.625	2241.79
473.997	2304.16
474.369	2339.42
474.74	2366.08
475.112	2455.12
475.484	2456.7
475.855	2543.93
476.227	2603.36
476.598	2689.01
476.97	2727.2
477.341	2801.78
477.713	2850.36
478.084	2893.3
478.455	3022.79
478.827	3073.63
479.198	3167.87
479.569	3211.48
479.94	3324.02
480.311	3378.26
480.682	3493.51
481.053	3582.77
481.424	3643.56
481.795	3730.11
482.166	3841.52
482.537	3911.58
482.908	4015.3
483.279	4146.83
483.65	4229.31
484.021	4363.09
484.391	4427.95
484.762	4544.1
485.133	4591.79
485.503	4770.54
485.874	4860.93
486.244	5013.47
486.615	5116.74
486.985	5269.51
487.356	5339.34
487.726	5439.67
488.097	5620.69
488.467	5716.28
488.837	5848.93
489.207	6000.56
489.578	6127.79
489.948	6229.71
490.318	6408.24
490.688	6540.44
491.058	6637.61
491.428	6750.37
491.798	6919.63
492.168	7041.89
492.538	7178.16
492.908	7315.78
493.278	7442.11
493.648	7573.63
494.017	7707.41
494.387	7845.26
494.757	7924.81
495.126	8163.9
495.496	8210.9
495.866	8295.64
496.235	8412.48
496.605	8592.36
496.974	8646.82
497.344	8803.65
497.713	8845.23
498.082	8957.77
498.452	9006.81
498.821	9218.78
499.19	9277.76
499.559	9410.87
499.928	9505.78
500.298	9567.93
500.667	9739.67
501.036	9770.86
501.405	9920.91
501.774	9947.35
502.143	10032.55
502.512	10117.74
502.88	10223.05
503.249	10323.39
503.618	10380.33
503.987	10421.24
504.356	10479.31
504.724	10616.71
505.093	10670.5
505.462	10759.76
505.83	10858.74
506.199	10940.77
506.567	10965.86
506.936	11068.9
507.304	11209.69
507.672	11152.74
508.041	11357.94
508.409	11388.67
508.777	11459.85
509.145	11635.67
509.514	11564.48
509.882	11592.28
510.25	11592.51
510.618	11757.7
510.986	11780.52
511.354	11905.04
511.722	11989.78
512.09	12031.14
512.458	12055.32
512.826	12181.87
513.193	12167.63
513.561	12201.98
513.929	12269.78
514.297	12403.33
514.664	12387.06
515.032	12445.82
515.4	12536.66
515.767	12484.91
516.135	12574.4
516.502	12508.64
516.869	12697.34
517.237	12775.53
517.604	12674.96
517.972	12773.94
518.339	12844.68
518.706	12872.7
519.073	12782.31
519.44	12860.95
519.808	12922.41
520.175	12946.82
520.542	13082.41
520.909	13055.52
521.276	13088.06
521.643	13128.06
522.009	13192.24
522.376	13233.37
522.743	13218.45
523.11	13351.78
523.477	13441.5
523.843	13451.67
524.21	13406.47
524.577	13480.82
524.943	13456.41
525.31	13563.53
525.676	13613.7
526.043	13665.45
526.409	13634.49
526.776	13762.17
527.142	13746.8
527.508	13752.45
527.874	13777.76
528.241	13893.46
528.607	13806.68
528.973	13859.34
529.339	13833.58
529.705	13912.9
530.071	13936.63
530.437	13943.4
530.803	13939.56
531.169	13973.46
531.535	13843.97
531.901	13874.93
532.267	13903.86
532.632	13932.78
532.998	13940.69
533.364	13929.39
533.73	13911.09
534.095	13935.72
534.461	13893.91
534.826	13881.03
535.192	13863.18
535.557	13959
535.923	13926.23
536.288	13950.18
536.653	13882.62
537.019	13806.01
537.384	13828.15
537.749	13836.51
538.114	13857.31
538.479	13777.31
538.845	13770.53
539.21	13690.3
539.575	13670.64
539.94	13711.32
540.305	13664.32
540.67	13628.38
541.034	13694.82
541.399	13641.04
541.764	13568.05
542.129	13611.44
542.494	13533.47
542.858	13476.07
543.223	13528.95
543.587	13484.43
543.952	13453.7
544.316	13434.04
544.681	13349.75
545.045	13370.54
545.41	13281.95
545.774	13356.08
546.138	13277.66
546.503	13245.57
546.867	13218.23
547.231	13237.43
547.595	13192.92
547.959	13164.89
548.324	13121.28
548.688	13078.34
549.052	13182.29
549.416	13071.11
549.779	13084.67
550.143	12972.13
550.507	13008.51
550.871	13128.51
551.235	12941.4
551.599	13132.58
551.962	13022.3
552.326	12940.27
552.689	12955.63
553.053	12812.36
553.417	12777.33
553.78	12948.4
554.143	12842.42
554.507	12823.43
554.87	12768.97
555.234	12832.7
555.597	12755.19
555.96	12853.49
556.323	12820.5
556.686	12724.45
557.05	12808.52
557.413	12724.68
557.776	12765.36
558.139	12788.41
558.502	12799.03
558.865	12693.95
559.228	12771.23
559.59	12743.44
559.953	12806.49
560.316	12804
560.679	12775.07
561.041	12822.08
561.404	12839.7
561.767	12868.86
562.129	12744.34
562.492	12925.8
562.854	12835.41
563.217	12758.35
563.579	12847.16
563.941	12945.69
564.304	12983.2
564.666	12964.22
565.028	12955.41
565.39	12946.14
565.753	13030.89
566.115	12986.59
566.477	13037.21
566.839	13014.39
567.201	13009.42
567.563	12949.31
567.925	13073.6
568.287	13053.94
568.648	13094.39
569.01	13165.57
569.372	13110.66
569.734	13062.07
570.095	13134.16
570.457	13165.12
570.819	13114.73
571.18	13114.27
571.542	13199.7
571.903	13163.54
572.265	13147.95
572.626	13297.32
572.987	13235.63
573.349	13320.37
573.71	13381.16
574.071	13302.74
574.432	13383.42
574.794	13344.55
575.155	13387.04
575.516	13313.82
575.877	13402.63
576.238	13397.88
576.599	13380.48
576.96	13361.72
577.32	13404.66
577.681	13395.17
578.042	13434.94
578.403	13346.36
578.763	13312.46
579.124	13349.75
579.485	13401.05
579.845	13405.34
580.206	13556.52
580.566	13418.9
580.927	13447.6
581.287	13533.02
581.648	13436.75
582.008	13553.36
582.368	13468.84
582.728	13532.34
583.089	13426.81
583.449	13484.43
583.809	13494.6
584.169	13480.82
584.529	13379.35
584.889	13429.52
585.249	13370.54
585.609	13364.44
585.969	13359.69
586.329	13317.21
586.688	13427.49
587.048	13306.13
587.408	13269.75
587.768	13243.31
588.127	13316.53
588.487	13338.67
588.846	13354.49
589.206	13253.93
589.565	13277.66
589.925	13279.24
590.284	13287.83
590.643	13302.52
591.003	13234.5
591.362	13354.04
591.721	13185.01
592.08	13223.88
592.44	13323.31
592.799	13232.69
593.158	13263.42
593.517	13191.11
593.876	13285.79
594.235	13099.36
594.593	13254.16
594.952	13297.55
595.311	13296.42
595.67	13218
596.029	13385.45
596.387	13284.89
596.746	13389.07
597.104	13269.52
597.463	13170.32
597.822	13248.73
598.18	13233.14
598.538	13157.66
598.897	13217.32
599.255	13110.43
599.613	13278.79
599.972	13163.31
600.33	13273.37
600.688	13166.02
601.046	13192.69
601.404	13186.36
601.762	13185.01
602.12	13279.69
602.478	13295.29
602.836	13255.29
603.194	13184.33
603.552	13204.67
603.91	13133.48
604.268	13227.49
604.625	13172.35
604.983	13218
605.341	13265.91
605.698	13248.73
606.056	13153.37
606.413	13230.43
606.771	13324.21
607.128	13244.21
607.485	13268.39
607.843	13209.41
608.2	13290.31
608.557	13301.61
608.914	13239.47
609.272	13330.09
609.629	13332.12
609.986	13341.84
610.343	13280.15
610.7	13410.09
611.057	13294.61
611.414	13364.44
611.771	13401.95
612.127	13443.08
612.484	13350.88
612.841	13416.64
613.198	13412.12
613.554	13375.96
613.911	13429.29
614.267	13454.83
614.624	13417.99
614.98	13457.77
615.337	13431.1
615.693	13535.96
616.05	13557.65
616.406	13580.48
616.762	13602.62
617.118	13495.73
617.475	13559.69
617.831	13609.85
618.187	13564.66
618.543	13651.43
618.899	13605.79
619.255	13622.96
619.611	13579.35
619.967	13649.63
620.323	13719.91
620.678	13554.71
621.034	13619.35
621.39	13571.89
621.746	13569.4
622.101	13724.2
622.457	13571.21
622.812	13671.55
623.168	13566.01
623.523	13653.92
623.879	13728.04
624.234	13642.85
624.589	13641.49
624.945	13657.08
625.3	13606.01
625.655	13673.81
626.01	13631.55
626.365	13677.87
626.72	13660.25
627.075	13587.93
627.43	13634.71
627.785	13557.2
628.14	13584.54
628.495	13654.15
628.85	13632.68
629.205	13550.65
629.559	13668.16
629.914	13526.92
630.269	13553.36
630.623	13560.82
630.978	13550.87
631.332	13616.41
631.687	13654.82
632.041	13559.91
632.396	13477.43
632.75	13431.1
633.104	13452.57
633.459	13407.83
633.813	13439.91
634.167	13393.59
634.521	13407.15
634.875	13395.62
635.229	13376.64
635.583	13334.38
635.937	13330.54
636.291	13349.75
636.645	13282.86
636.999	13263.42
637.352	13290.54
637.706	13250.77
638.06	13239.47
638.413	13255.51
638.767	13201.5
639.121	13200.37
639.474	13201.96
639.828	13155.85
640.181	13080.6
640.534	13163.99
640.888	13145.23
641.241	13111.11
641.594	13154.72
641.947	13199.92
642.301	13093.26
642.654	13151.33
643.007	13067.5
643.36	13163.09
643.713	13071.34
644.066	13080.15
644.419	13032.02
644.771	12930.55
645.124	12848.97
645.477	12844.45
645.83	12756.77
646.182	12635.87
646.535	12604
646.888	12681.06
647.24	12522.42
647.593	12590.9
647.945	12627.05
648.298	12521.75
648.65	12493.95
649.002	12582.08
649.355	12624.57
649.707	12627.51
650.059	12649.43
650.411	12803.55
650.763	12763.55
651.115	12926.93
651.467	12781.63
651.819	12881.51
652.171	12926.71
652.523	12800.84
652.875	12801.29
653.227	12806.94
653.578	12894.84
653.93	12877.22
654.282	12711.57
654.633	12778.24
654.985	12824.11
655.337	12738.69
655.688	12800.84
656.039	12895.75
656.391	12684.68
656.742	12738.01
657.094	12851.91
657.445	12810.33
657.796	12806.49
658.147	12811
658.498	12710.67
658.849	12812.81
659.2	12825.69
659.551	12823.66
659.902	12879.48
660.253	12801.29
660.604	12782.76
660.955	12742.76
661.306	12859.82
661.656	12812.36
662.007	12782.98
662.358	12807.84
662.708	12813.49
663.059	12832.7
663.409	12722.42
663.76	12885.81
664.11	12848.74
664.461	12862.53
664.811	12833.6
665.161	12839.03
665.511	12886.71
665.862	12836.09
666.212	12856.43
666.562	12828.63
666.912	12813.49
667.262	12756.32
667.612	12886.71
667.962	12816.88
668.312	12827.5
668.662	12837.9
669.011	12803.1
669.361	12773.72
669.711	12853.94
670.06	12833.6
670.41	12790.89
670.76	12785.69
671.109	12822.76
671.459	12860.72
671.808	12779.14
672.157	12749.99
672.507	12759.25
672.856	12728.97
673.205	12658.01
673.554	12786.37
673.904	12740.27
674.253	12862.3
674.602	12694.85
674.951	12497.57
675.3	12441.98
675.649	12681.97
675.998	12719.93
676.346	12684.45
676.695	12661.63
677.044	12562.42
677.393	12645.36
677.741	12644.46
678.09	12607.62
678.438	12589.99
678.787	12618.02
679.135	12590.67
679.484	12490.34
679.832	12509.54
680.181	12398.13
680.529	12521.75
680.877	12471.8
681.225	12417.34
681.573	12470.67
681.922	12402.88
682.27	12352.49
682.618	12358.59
682.966	12369.43
683.314	12359.27
683.661	12356.78
684.009	12233.62
684.357	12201.76
684.705	12171.7
685.053	12295.99
685.4	12154.3
685.748	12148.88
686.095	12130.12
686.443	12074.53
686.79	12080.4
687.138	11981.87
687.485	12077.46
687.832	11969.9
688.18	12044.25
688.527	11988.65
688.874	11931.25
689.221	11918.37
689.568	11765.38
689.915	11797.92
690.262	11864.59
690.609	11700.98
690.956	11811.26
691.303	11642.22
691.65	11601.77
691.997	11646.52
692.344	11493.3
692.69	11565.39
693.037	11496.24
693.383	11434.54
693.73	11425.28
694.077	11410.14
694.423	11405.17
694.769	11314.55
695.116	11358.61
695.462	11282.23
695.808	11210.6
696.155	11216.7
696.501	11152.97
696.847	11193.19
697.193	11042.46
697.539	11141.9
697.885	11045.63
698.231	10969.92
698.577	11016.93
698.923	10900.09
699.269	10848.34
699.614	10870.04
699.96	10793.66
700.306	10781.91
700.651	10733.55
700.997	10573.32
701.342	10683.6
701.688	10606.54
702.033	10563.83
702.379	10556.15
702.724	10527.22
703.069	10486.55
703.415	10435.02
703.76	10430.95
704.105	10394.8
704.45	10427.11
704.795	10339.43
705.14	10327.68
705.485	10257.17
705.83	10162.71
706.175	10224.63
706.52	10239.77
706.865	10135.37
707.209	10048.14
707.554	10047.46
707.899	10099.21
708.243	10021.02
708.588	9952.1
708.932	9878.88
709.277	9947.35
709.621	9866
709.966	9812.21
710.31	9863.51
710.654	9806.79
710.998	9801.37
711.342	9850.18
711.687	9818.09
712.031	9750.52
712.375	9720.24
712.719	9684.53
713.063	9685.21
713.407	9645.44
713.75	9666.23
714.094	9610.86
714.438	9615.38
714.782	9651.54
715.125	9548.49
715.469	9542.84
715.812	9550.98
716.156	9411.77
716.499	9502.84
716.843	9510.3
717.186	9398.89
717.53	9523.63
717.873	9496.52
718.216	9388.72
718.559	9419
718.902	9314.37
719.246	9338.1
719.589	9313.02
719.932	9326.12
720.275	9356.86
720.617	9265.11
720.96	9301.27
721.303	9262.4
721.646	9293.58
721.989	9268.73
722.331	9190.54
722.674	9160.93
723.016	9227.6
723.359	9148.95
723.701	9187.37
724.044	9152.57
724.386	9121.16
724.729	9163.87
725.071	9152.34
725.413	9168.39
725.755	9094.27
726.097	9113.25
726.439	9019.47
726.782	9099.01
727.124	9060.37
727.465	8997.77
727.807	8985.34
728.149	9011.78
728.491	9051.1
728.833	8986.02
729.175	9087.26
729.516	9019.92
729.858	8979.69
730.199	9012.46
730.541	8972.01
730.882	8975.63
731.224	8976.3
731.565	8955.29
731.906	8988.51
732.248	8995.06
732.589	8934.72
732.93	8944.67
733.271	8900.6
733.612	8955.06
733.953	9016.53
734.294	8887.72
734.635	8878.9
734.976	8913.71
735.317	8914.38
735.658	8930.2
735.999	8930.43
736.339	8923.88
736.68	8949.86
737.021	8987.38
737.361	8898.34
737.702	8924.33
738.042	8999.13
738.383	8941.73
738.723	8980.15
739.063	8994.61
739.404	9062.18
739.744	8926.14
740.084	8978.56
740.424	8955.29
740.764	8937.66
741.104	9021.27
741.444	9060.6
741.784	9038.67
742.124	9030.09
742.464	9050.43
742.804	9080.48
743.143	9063.53
743.483	9096.3
743.823	9109.41
744.162	9129.52
744.502	9198.44
744.841	9139.92
745.181	9175.17
745.52	9220.14
745.86	9277.54
746.199	9329.29
746.538	9343.98
746.877	9383.52
747.216	9377.2
747.556	9463.52
747.895	9477.53
748.234	9468.49
748.573	9562.5
748.911	9575.38
749.25	9601.82
749.589	9618.55
749.928	9738.32
750.267	9895.15
750.605	9847.02
750.944	9981.93
751.283	10085.65
751.621	10133.11
751.96	10182.83
752.298	10236.84
752.636	10339.66
752.975	10366.32
753.313	10469.6
753.651	10630.72
753.989	10666.43
754.327	10811.74
754.666	10860.77
755.004	11011.5
755.342	11117.49
755.679	11202.46
756.017	11278.39
756.355	11471.61
756.693	11546.41
757.031	11680.19
757.368	11725.16
757.706	11882.22
758.044	12035.66
758.381	12161.08
758.719	12362.88
