Data from hue_140_FLMS001491_00059.txt Node
Date: Tue Feb 07 16:56:07 GMT 2017
User: dcchb
Spectrometer: FLMS00149
Trigger mode: 0
Integration Time (sec): 2.000000E-2
Scans to average: 10
Electric dark correction enabled: true
Nonlinearity correction enabled: false
Boxcar width: 0
XAxis mode: Wavelengths
Number of Pixels in Spectrum: 2048
>>>>>Begin Spectral Data<<<<<
341.393	-31.71
341.776	-31.71
342.16	-31.71
342.543	-69.22
342.927	-63.35
343.31	-76.9
343.693	-74.19
344.077	-56.79
344.46	-61.31
344.843	-43.69
345.226	-31.48
345.61	-18.83
345.993	-37.36
346.376	5.13
346.759	14.62
347.142	30.21
347.525	51.23
347.908	53.94
348.291	71.34
348.674	71.57
349.057	102.53
349.44	133.49
349.823	164.44
350.206	157.67
350.588	208.51
350.971	215.06
351.354	203.54
351.737	222.75
352.119	246.25
352.502	259.13
352.884	272.24
353.267	294.84
353.65	288.28
354.032	286.48
354.414	298.23
354.797	314.05
355.179	311.79
355.562	335.06
355.944	327.15
356.326	317.21
356.709	351.56
357.091	325.8
357.473	348.17
357.855	354.04
358.238	348.62
358.62	347.49
359.002	323.99
359.384	335.29
359.766	345.01
360.148	340.03
360.53	347.49
360.912	300.49
361.294	323.76
361.676	325.57
362.057	335.97
362.439	348.17
362.821	341.84
363.203	307.72
363.584	348.39
363.966	327.38
364.348	302.75
364.729	317.21
365.111	310.2
365.493	330.32
365.874	312.01
366.256	329.19
366.637	313.82
367.019	316.98
367.4	320.15
367.781	299.36
368.163	296.64
368.544	285.8
368.925	312.69
369.306	319.24
369.688	305.01
370.069	314.27
370.45	293.03
370.831	302.75
371.212	293.26
371.593	324.67
371.974	314.72
372.355	307.27
372.736	315.4
373.117	320.82
373.498	307.72
373.879	323.08
374.26	319.24
374.641	303.2
375.021	319.24
375.402	326.25
375.783	321.73
376.163	338.9
376.544	338.45
376.925	328.51
377.305	328.28
377.686	333.03
378.066	341.84
378.447	340.49
378.827	346.13
379.208	321.28
379.588	302.97
379.968	335.29
380.349	310.2
380.729	333.93
381.109	332.35
381.489	345.91
381.87	331.67
382.25	342.97
382.63	332.8
383.01	331.22
383.39	333.71
383.77	344.1
384.15	350.2
384.53	355.4
384.91	360.6
385.29	356.98
385.67	376.64
386.049	357.43
386.429	344.1
386.809	353.37
387.189	343.42
387.568	329.64
387.948	345.23
388.328	341.62
388.707	358.56
389.087	363.54
389.466	364.89
389.846	359.69
390.225	351.56
390.605	373.03
390.984	380.03
391.363	380.94
391.743	367.6
392.122	376.87
392.501	362.86
392.881	398.11
393.26	377.09
393.639	385.91
394.018	399.01
394.397	377.77
394.776	376.64
395.155	375.29
395.534	370.54
395.913	370.99
396.292	400.37
396.671	380.03
397.05	402.18
397.429	396.98
397.808	373.48
398.186	391.56
398.565	405.12
398.944	408.51
399.323	422.52
399.701	397.66
400.08	382.29
400.458	372.8
400.837	404.44
401.215	415.51
401.594	401.05
401.972	432.01
402.351	411.22
402.729	418.22
403.107	417.77
403.486	431.33
403.864	412.12
404.242	432.23
404.62	416.87
404.999	408.05
405.377	440.6
405.755	439.47
406.133	407.83
406.511	426.81
406.889	428.84
407.267	437.66
407.645	454.83
408.023	449.41
408.401	437.88
408.779	443.76
409.156	455.96
409.534	472.46
409.912	454.38
410.29	464.55
410.667	478.79
411.045	492.57
411.422	494.15
411.8	450.76
412.178	478.79
412.555	496.19
412.933	482.63
413.31	486.7
413.687	497.32
414.065	494.38
414.442	498.22
414.819	498.22
415.197	494.15
415.574	512.46
415.951	517.43
416.328	522.18
416.705	505.9
417.082	519.92
417.46	543.87
417.837	530.31
418.214	519.92
418.591	537.32
418.967	526.02
419.344	547.49
419.721	533.93
420.098	534.15
420.475	566.92
420.852	552.01
421.228	548.84
421.605	555.17
421.982	570.08
422.358	559.01
422.735	559.24
423.111	569.41
423.488	579.58
423.864	598.56
424.241	585.9
424.617	575.28
424.994	611.21
425.37	593.13
425.746	597.88
426.123	619.12
426.499	597.43
426.875	623.42
427.251	640.59
427.627	616.86
428.003	612.57
428.379	639.46
428.756	640.36
429.132	643.98
429.507	642.4
429.883	656.64
430.259	664.32
430.635	665.9
431.011	660.7
431.387	673.13
431.763	693.92
432.138	658.9
432.514	699.8
432.89	710.65
433.265	713.58
433.641	732.11
434.016	709.52
434.392	690.31
434.767	722.85
435.143	741.83
435.518	742.73
435.894	728.5
436.269	740.7
436.644	738.67
437.02	781.83
437.395	779.34
437.77	794.71
438.145	816.63
438.52	789.97
438.895	814.37
439.271	797.2
439.646	820.92
440.021	799.91
440.395	828.83
440.77	823.41
441.145	834.26
441.52	860.02
441.895	843.52
442.27	846.23
442.645	829.51
443.019	863.41
443.394	846.69
443.769	883.97
444.143	870.19
444.518	861.15
444.892	883.07
445.267	899.79
445.641	896.85
446.016	911.09
446.39	908.38
446.764	905.89
447.139	918.1
447.513	918.32
447.887	942.05
448.262	911.54
448.636	940.92
449.01	940.7
449.384	929.62
449.758	934.59
450.132	970.98
450.506	964.65
450.88	974.14
451.254	1001.03
451.628	995.16
452.002	1025.67
452.376	1037.19
452.75	1012.78
453.123	1014.14
453.497	1044.65
453.871	1062.5
454.244	1075.16
454.618	1069.73
454.992	1085.55
455.365	1079
455.739	1098.21
456.112	1112.22
456.486	1102.95
456.859	1129.39
457.232	1152.89
457.606	1171.42
457.979	1198.99
458.352	1202.16
458.725	1232.67
459.099	1204.19
459.472	1230.86
459.845	1262.04
460.218	1236.96
460.591	1286.68
460.964	1288.48
461.337	1295.49
461.71	1316.28
462.083	1326
462.456	1360.8
462.829	1349.27
463.201	1361.25
463.574	1406.22
463.947	1410.06
464.32	1419.55
464.692	1468.82
465.065	1489.16
465.438	1485.54
465.81	1519.66
466.183	1564.63
466.555	1568.25
466.928	1568.48
467.3	1603.28
467.672	1607.34
468.045	1655.48
468.417	1695.03
468.789	1689.6
469.161	1711.3
469.534	1740.22
469.906	1812.99
470.278	1805.53
470.65	1834.68
471.022	1881.91
471.394	1920.78
471.766	1911.07
472.138	1984.74
472.51	2017.96
472.882	2063.83
473.253	2089.37
473.625	2125.52
473.997	2189.48
474.369	2226.76
474.74	2262.02
475.112	2336.14
475.484	2384.27
475.855	2468.34
476.227	2476.02
476.598	2573.42
476.97	2582.46
477.341	2666.75
477.713	2739.29
478.084	2793.08
478.455	2859.29
478.827	2928.67
479.198	3032.39
479.569	3034.43
479.94	3145.16
480.311	3250.69
480.682	3358.49
481.053	3460.18
481.424	3516.9
481.795	3628.31
482.166	3714.18
482.537	3783.78
482.908	3910.34
483.279	4034.85
483.65	4105.36
484.021	4221.97
484.391	4290.21
484.762	4453.82
485.133	4525.69
485.503	4594.61
485.874	4760.03
486.244	4894.26
486.615	5013.13
486.985	5160.92
487.356	5254.71
487.726	5351.43
488.097	5536.96
488.467	5630.97
488.837	5795.94
489.207	5892.2
489.578	6064.4
489.948	6194.12
490.318	6299.88
490.688	6352.98
491.058	6550.72
491.428	6722.24
491.798	6813.54
492.168	7022.34
492.538	7096.24
492.908	7241.77
493.278	7386.85
493.648	7444.03
494.017	7717.01
494.387	7755.88
494.757	7965.37
495.126	8033.62
495.496	8189.32
495.866	8235.87
496.235	8421.85
496.605	8579.82
496.974	8736.65
497.344	8804.67
497.713	8870.66
498.082	9006.7
498.452	9158.11
498.821	9266.35
499.19	9337.09
499.559	9508.15
499.928	9581.15
500.298	9724.19
500.667	9801.48
501.036	9864.3
501.405	10037.86
501.774	10082.6
502.143	10170.74
502.512	10265.65
502.88	10397.62
503.249	10446.43
503.618	10574.11
503.987	10654.79
504.356	10709.7
504.724	10778.86
505.093	10818.63
505.462	10921.68
505.83	11016.36
506.199	11063.37
506.567	11266.07
506.936	11275.79
507.304	11342.91
507.672	11437.14
508.041	11533.41
508.409	11656.8
508.777	11715.78
509.145	11763.91
509.514	11809.34
509.882	11901.09
510.25	11931.82
510.618	12014.98
510.986	12056.56
511.354	12123.45
511.722	12266.05
512.09	12270.34
512.458	12289.55
512.826	12350.34
513.193	12459.04
513.561	12503.56
513.929	12553.05
514.297	12638.92
514.664	12682.53
515.032	12674.4
515.4	12828.29
515.767	12854.51
516.135	12888.63
516.502	12765.02
516.869	12935.41
517.237	13002.07
517.604	12942.64
517.972	13087.49
518.339	13046.59
518.706	13188.28
519.073	13182.41
519.44	13158
519.808	13246.81
520.175	13198.23
520.542	13458.33
520.909	13445.23
521.276	13346.7
521.643	13427.6
522.009	13603.41
522.376	13495.62
522.743	13604.09
523.11	13686.58
523.477	13769.06
523.843	13768.38
524.21	13800.24
524.577	13895.16
524.943	13877.08
525.31	13891.54
525.676	13966.57
526.043	13972.67
526.409	14044.08
526.776	14149.84
527.142	14070.52
527.508	14129.5
527.874	14109.61
528.241	14218.76
528.607	14220.8
528.973	14229.61
529.339	14138.09
529.705	14255.37
530.071	14280.68
530.437	14276.84
530.803	14319.33
531.169	14360.68
531.535	14295.15
531.901	14290.4
532.267	14334.24
532.632	14349.38
532.998	14308.48
533.364	14400.91
533.73	14290.18
534.095	14357.29
534.461	14335.6
534.826	14337.41
535.192	14286.79
535.557	14309.16
535.923	14290.18
536.288	14284.3
536.653	14254.02
537.019	14235.71
537.384	14250.18
537.749	14200.91
538.114	14146
538.479	14193.45
538.845	14190.97
539.21	14176.28
539.575	14110.97
539.94	14100.35
540.305	14112.78
540.67	14063.29
541.034	14073.23
541.399	13993.46
541.764	13999.56
542.129	13936.29
542.494	13919.34
542.858	13913.01
543.223	13828.27
543.587	13921.15
543.952	13792.34
544.316	13809.96
544.681	13716.63
545.045	13757.53
545.41	13730.42
545.774	13712.34
546.138	13626.46
546.503	13685.67
546.867	13536.75
547.231	13688.61
547.595	13556.41
547.959	13503.08
548.324	13548.27
548.688	13530.65
549.052	13494.72
549.416	13468.95
549.779	13406.13
550.143	13390.31
550.507	13381.27
550.871	13452.01
551.235	13272.35
551.599	13246.13
551.962	13371.33
552.326	13373.36
552.689	13221.05
553.053	13202.29
553.417	13250.2
553.78	13315.06
554.143	13216.76
554.507	13240.71
554.87	13211.11
555.234	13269.86
555.597	13119.13
555.96	13069.19
556.323	13180.37
556.686	13040.94
557.05	13107.61
557.413	13094.05
557.776	13070.55
558.139	13083.88
558.502	13075.29
558.865	13051.56
559.228	13162.97
559.59	13079.81
559.953	13146.48
560.316	13230.99
560.679	13165.46
561.041	13154.84
561.404	13209.3
561.767	13204.55
562.129	13155.29
562.492	13172.46
562.854	13233.03
563.217	13223.76
563.579	13169.3
563.941	13157.1
564.304	13235.74
564.666	13224.89
565.028	13257.43
565.39	13251.11
565.753	13281.61
566.115	13292.91
566.477	13371.1
566.839	13379.92
567.201	13377.66
567.563	13335.62
567.925	13477.99
568.287	13412.23
568.648	13481.83
569.01	13508.5
569.372	13572
569.734	13440.25
570.095	13496.52
570.457	13526.13
570.819	13602.28
571.18	13504.43
571.542	13592.79
571.903	13559.8
572.265	13551.89
572.626	13656.52
572.987	13595.96
573.349	13637.99
573.71	13693.81
574.071	13687.93
574.432	13736.29
574.794	13699.68
575.155	13723.64
575.516	13597.09
575.877	13696.29
576.238	13692.9
576.599	13740.36
576.96	13702.85
577.32	13689.74
577.681	13733.81
578.042	13870.98
578.403	13728.61
578.763	13733.58
579.124	13738.1
579.485	13855.61
579.845	13810.19
580.206	13797.08
580.566	13747.82
580.927	13794.37
581.287	13772
581.648	13779.68
582.008	13832.56
582.368	13783.3
582.728	13803.86
583.089	13799.34
583.449	13803.41
583.809	13794.59
584.169	13718.44
584.529	13630.76
584.889	13750.3
585.249	13727.93
585.609	13629.63
585.969	13760.92
586.329	13654.71
586.688	13743.07
587.048	13689.96
587.408	13753.24
587.768	13634.6
588.127	13656.29
588.487	13631.44
588.846	13700.36
589.206	13601.61
589.565	13667.59
589.925	13672.56
590.284	13635.73
590.643	13603.41
591.003	13542.4
591.362	13656.75
591.721	13636.41
592.08	13621.72
592.44	13613.58
592.799	13656.97
593.158	13614.94
593.517	13493.13
593.876	13571.32
594.235	13546.69
594.593	13549.86
594.952	13614.94
595.311	13535.84
595.67	13566.13
596.029	13613.81
596.387	13592.57
596.746	13583.98
597.104	13539.01
597.463	13594.6
597.822	13611.55
598.18	13587.59
598.538	13482.96
598.897	13594.15
599.255	13486.35
599.613	13628.5
599.972	13538.33
600.33	13649.06
600.688	13467.37
601.046	13575.62
601.404	13577.65
601.762	13527.48
602.12	13678.21
602.478	13598.89
602.836	13562.74
603.194	13535.39
603.552	13497.43
603.91	13443.42
604.268	13547.82
604.625	13404.1
604.983	13535.62
605.341	13492.23
605.698	13588.27
606.056	13569.97
606.413	13558.44
606.771	13586.69
607.128	13540.82
607.485	13439.58
607.843	13518.9
608.2	13573.81
608.557	13750.75
608.914	13598.89
609.272	13638.89
609.629	13630.31
609.986	13705.78
610.343	13693.58
610.7	13779.45
611.057	13717.08
611.414	13694.26
611.771	13640.25
612.127	13744.43
612.484	13795.5
612.841	13816.97
613.198	13739.68
613.554	13759.34
613.911	13804.31
614.267	13786.91
614.624	13740.81
614.98	13742.17
615.337	13871.66
615.693	13884.76
616.05	13856.74
616.406	13943.74
616.762	13854.93
617.118	13924.54
617.475	13830.3
617.831	13879.56
618.187	13915.5
618.543	13923.18
618.899	13924.54
619.255	13915.72
619.611	13917.76
619.967	13896.74
620.323	13963.86
620.678	13961.6
621.034	13954.14
621.39	13957.53
621.746	13896.97
622.101	14040.01
622.457	13957.98
622.812	14043.18
623.168	14003.4
623.523	13975.83
623.879	14069.39
624.234	13947.36
624.589	13958.43
624.945	13948.04
625.3	13952.56
625.655	14021.03
626.01	14005.89
626.365	13975.83
626.72	13988.04
627.075	13947.81
627.43	13950.75
627.785	13997.53
628.14	13905.33
628.495	13938.55
628.85	13973.8
629.205	13930.86
629.559	13986
629.914	13857.64
630.269	13935.83
630.623	13877.76
630.978	13869.4
631.332	13975.38
631.687	13939
632.041	13904.65
632.396	13885.89
632.75	13807.25
633.104	13859.68
633.459	13788.27
633.813	13749.62
634.167	13790.53
634.521	13784.43
634.875	13810.87
635.229	13783.3
635.583	13614.94
635.937	13698.55
636.291	13632.11
636.645	13731.77
636.999	13587.59
637.352	13621.27
637.706	13542.62
638.06	13571.55
638.413	13513.92
638.767	13532.68
639.121	13543.3
639.474	13477.32
639.828	13468.5
640.181	13500.14
640.534	13528.84
640.888	13461.5
641.241	13429.18
641.594	13506.24
641.947	13450.42
642.301	13416.75
642.654	13478.67
643.007	13480.7
643.36	13402.97
643.713	13369.75
644.066	13461.95
644.419	13307.38
644.771	13250.88
645.124	13160.71
645.477	13107.61
645.83	13041.17
646.182	13016.31
646.535	12887.27
646.888	12996.42
647.24	12929.31
647.593	12943.32
647.945	12916.88
648.298	12863.32
648.65	12887.05
649.002	12759.37
649.355	12891.34
649.707	12924.11
650.059	12977.89
650.411	13154.39
650.763	13171.56
651.115	13284.78
651.467	13162.07
651.819	13227.38
652.171	13173.14
652.523	13223.08
652.875	13181.28
653.227	13146.25
653.578	13271.44
653.93	13195.29
654.282	13153.26
654.633	13095.63
654.985	13205.68
655.337	13251.56
655.688	13285.46
656.039	13273.25
656.391	13145.57
656.742	13206.59
657.094	13162.52
657.445	13181.96
657.796	13190.32
658.147	13160.71
658.498	13200.71
658.849	13201.84
659.2	13201.84
659.551	13157.32
659.902	13187.38
660.253	13070.77
660.604	13164.78
660.955	13134.73
661.306	13177.44
661.656	13129.98
662.007	13232.35
662.358	13183.76
662.708	13182.86
663.059	13159.58
663.409	13141.28
663.76	13236.42
664.11	13240.49
664.461	13255.85
664.811	13271.9
665.161	13191.22
665.511	13055.86
665.862	13205.01
666.212	13252.69
666.562	13249.98
666.912	13203.2
667.262	13221.73
667.612	13176.53
667.962	13227.15
668.312	13226.93
668.662	13247.72
669.011	13216.31
669.361	13209.07
669.711	13219.02
670.06	13162.07
670.41	13115.52
670.76	13134.95
671.109	13227.15
671.459	13226.93
671.808	13135.86
672.157	13148.28
672.507	13089.53
672.856	13058.57
673.205	13160.94
673.554	13065.8
673.904	13046.82
674.253	13118
674.602	13082.52
674.951	12931.79
675.3	12808.86
675.649	13078
675.998	13077.78
676.346	13037.55
676.695	13011.11
677.044	12917.78
677.393	13074.61
677.741	13036.42
678.09	13002.53
678.438	12904.45
678.787	12990.32
679.135	12956.2
679.484	12776.54
679.832	12911.91
680.181	12813.6
680.529	12789.2
680.877	12823.55
681.225	12830.1
681.573	12818.12
681.922	12771.12
682.27	12709.65
682.618	12685.02
682.966	12659.94
683.314	12681.63
683.661	12583.1
684.009	12563.21
684.357	12504.46
684.705	12506.72
685.053	12533.39
685.4	12544.68
685.748	12440.05
686.095	12443.67
686.443	12328.64
686.79	12306.72
687.138	12337.68
687.485	12344.24
687.832	12384.91
688.18	12297.46
688.527	12195.54
688.874	12177.01
689.221	12245.94
689.568	12108.99
689.915	12155.32
690.262	12108.76
690.609	12033.51
690.956	12071.93
691.303	11971.82
691.65	11907.86
691.997	11878.94
692.344	11785.83
692.69	11788.55
693.037	11797.13
693.383	11673.52
693.73	11681.2
694.077	11771.37
694.423	11547.65
694.769	11657.25
695.116	11551.04
695.462	11575.22
695.808	11441.44
696.155	11547.65
696.501	11385.39
696.847	11439.63
697.193	11271.27
697.539	11376.35
697.885	11273.08
698.231	11255.68
698.577	11217.49
698.923	11220.43
699.269	11065.85
699.614	11058.17
699.96	11029.02
700.306	10950.15
700.651	10980.88
700.997	10875.35
701.342	10894.33
701.688	10866.54
702.033	10848.23
702.379	10841.23
702.724	10751.96
703.069	10864.28
703.415	10682.36
703.76	10701.34
704.105	10697.5
704.45	10648.69
704.795	10577.05
705.14	10511.29
705.485	10469.48
705.83	10494.79
706.175	10484.4
706.52	10433.78
706.865	10484.63
707.209	10354.69
707.554	10340.67
707.899	10305.2
708.243	10238.3
708.588	10276.27
708.932	10171.64
709.277	10221.13
709.621	10191.75
709.966	10124.63
710.31	10117.86
710.654	9973.23
710.998	10089.83
711.342	9984.3
711.687	10014.13
712.031	9958.76
712.375	9901.59
712.719	9967.58
713.063	9945.2
713.407	9907.92
713.75	9807.81
714.094	9864.53
714.438	9858.88
714.782	9843.29
715.125	9784.53
715.469	9842.38
715.812	9727.36
716.156	9744.08
716.499	9704.76
716.843	9687.36
717.186	9642.16
717.53	9705.44
717.873	9686.23
718.216	9678.09
718.559	9648.49
718.902	9525.78
719.246	9561.94
719.589	9575.72
719.932	9447.36
720.275	9530.53
720.617	9497.98
720.96	9620.02
721.303	9509.06
721.646	9569.17
721.989	9481.49
722.331	9476.97
722.674	9422.51
723.016	9445.33
723.359	9461.15
723.701	9469.74
724.044	9400.13
724.386	9291.21
724.729	9373.02
725.071	9362.17
725.413	9405.56
725.755	9375.28
726.097	9312.68
726.439	9260.25
726.782	9300.93
727.124	9417.99
727.465	9272.68
727.807	9315.62
728.149	9258.89
728.491	9311.77
728.833	9321.49
729.175	9283.98
729.516	9302.51
729.858	9275.17
730.199	9369.4
730.541	9242.17
730.882	9254.83
731.224	9321.49
731.565	9179.35
731.906	9187.03
732.248	9214.15
732.589	9222.74
732.93	9170.31
733.271	9150.42
733.612	9282.17
733.953	9276.3
734.294	9218.44
734.635	9192
734.976	9238.33
735.317	9204.89
735.658	9179.8
735.999	9252.79
736.339	9163.08
736.68	9281.72
737.021	9253.7
737.361	9217.54
737.702	9197.88
738.042	9165.11
738.383	9184.32
738.723	9236.75
739.063	9256.64
739.404	9264.32
739.744	9250.08
740.084	9292.79
740.424	9323.53
740.764	9239.46
741.104	9314.26
741.444	9297.99
741.784	9237.88
742.124	9264.54
742.464	9353.36
742.804	9398.1
743.143	9364.2
743.483	9369.63
743.823	9344.54
744.162	9421.83
744.502	9377.31
744.841	9396.07
745.181	9493.69
745.52	9461.83
745.86	9561.94
746.199	9571.66
746.538	9595.84
746.877	9667.47
747.216	9736.4
747.556	9651.2
747.895	9737.53
748.234	9757.64
748.573	9751.76
748.911	9865.66
749.25	9866.11
749.589	9969.84
749.928	10056.84
750.267	10127.8
750.605	10151.3
750.944	10255.48
751.283	10252.09
751.621	10423.38
751.96	10401.92
752.298	10507.68
752.636	10613.44
752.975	10711.06
753.313	10710.16
753.651	10880.32
753.989	10956.25
754.327	11033.54
754.666	11109.02
755.004	11251.38
755.342	11353.3
755.679	11510.14
756.017	11508.55
756.355	11797.81
756.693	11853.63
757.031	11992.61
757.368	12135.2
757.706	12202.55
758.044	12429.66
758.381	12539.49
