Data from hue_60_FLMS001491_70.txt Node
Date: Mon Feb 06 15:17:45 GMT 2017
User: dcchb
Spectrometer: FLMS00149
Trigger mode: 0
Integration Time (sec): 2.000000E-2
Scans to average: 10
Electric dark correction enabled: true
Nonlinearity correction enabled: false
Boxcar width: 0
XAxis mode: Wavelengths
Number of Pixels in Spectrum: 2048
>>>>>Begin Spectral Data<<<<<
341.393	-7.97
341.776	-7.97
342.16	-7.97
342.543	-72.6
342.927	-66.5
343.31	-67.4
343.693	-79.15
344.077	-49.32
344.46	-50.68
344.843	-65.14
345.226	-47.06
345.61	-42.54
345.993	-28.53
346.376	5.82
346.759	10.34
347.142	28.64
347.525	58.25
347.908	63.44
348.291	80.85
348.674	77.91
349.057	104.57
349.44	133.27
349.823	127.62
350.206	174.63
350.588	198.36
350.971	208.75
351.354	243.78
351.737	243.1
352.119	253.27
352.502	244.91
352.884	272.48
353.267	279.26
353.65	290.11
354.032	309.99
354.414	291.91
354.797	315.42
355.179	306.83
355.562	320.16
355.944	324
356.326	333.72
356.709	367.17
357.091	351.8
357.473	354.28
357.855	342.53
358.238	358.8
358.62	349.76
359.002	333.49
359.384	351.8
359.766	328.97
360.148	347.5
360.53	337.79
360.912	346.38
361.294	316.77
361.676	346.83
362.057	327.17
362.439	326.26
362.821	346.15
363.203	323.1
363.584	329.88
363.966	326.94
364.348	332.14
364.729	327.84
365.111	323.1
365.493	335.98
365.874	305.7
366.256	321.07
366.637	326.49
367.019	328.97
367.4	320.84
367.781	299.37
368.163	314.96
368.544	304.12
368.925	320.84
369.306	312.48
369.688	334.4
370.069	314.51
370.45	317.45
370.831	323.55
371.212	314.29
371.593	314.96
371.974	314.96
372.355	327.39
372.736	316.32
373.117	327.84
373.498	326.49
373.879	341.4
374.26	325.36
374.641	325.13
375.021	328.97
375.402	331.01
375.783	297.56
376.163	350.67
376.544	322.65
376.925	315.42
377.305	317.9
377.686	322.42
378.066	318.13
378.447	335.3
378.827	334.85
379.208	322.65
379.588	323.78
379.968	332.36
380.349	341.63
380.729	328.97
381.109	346.15
381.489	312.93
381.87	338.92
382.25	325.13
382.63	330.1
383.01	348.41
383.39	348.18
383.77	349.99
384.15	329.88
384.53	336.21
384.91	335.08
385.29	342.76
385.67	343.66
386.049	337.34
386.429	353.83
386.809	346.38
387.189	367.62
387.568	353.83
387.948	365.36
388.328	352.25
388.707	352.93
389.087	366.71
389.466	387.96
389.846	363.55
390.225	353.83
390.605	360.84
390.984	352.02
391.363	365.58
391.743	368.3
392.122	363.32
392.501	369.65
392.881	401.06
393.26	381.4
393.639	366.26
394.018	361.29
394.397	356.54
394.776	354.06
395.155	381.85
395.534	363.78
395.913	386.37
396.292	389.54
396.671	391.35
397.05	399.93
397.429	373.27
397.808	370.1
398.186	381.63
398.565	380.27
398.944	385.47
399.323	395.64
399.701	386.83
400.08	390.67
400.458	383.66
400.837	399.93
401.215	397.45
401.594	377.79
401.972	388.41
402.351	399.03
402.729	405.36
403.107	385.47
403.486	389.31
403.864	398.58
404.242	407.39
404.62	406.71
404.999	389.54
405.377	401.74
405.755	416.66
406.133	419.37
406.511	404.23
406.889	414.62
407.267	412.59
407.645	413.49
408.023	397
408.401	413.27
408.779	450.78
409.156	425.24
409.534	430.21
409.912	420.72
410.29	429.08
410.667	441.74
411.045	463.66
411.422	442.19
411.8	438.58
412.178	450.1
412.555	446.26
412.933	433.6
413.31	457.33
413.687	462.53
414.065	461.4
414.442	457.33
414.819	454.39
415.197	461.17
415.574	449.65
415.951	472.47
416.328	473.15
416.705	468.41
417.082	476.54
417.46	486.94
417.837	491.46
418.214	505.47
418.591	493.26
418.967	464.79
419.344	484
419.721	492.13
420.098	493.94
420.475	484.9
420.852	514.73
421.228	491.68
421.605	505.24
421.982	501.17
422.358	492.81
422.735	516.54
423.111	518.35
423.488	528.07
423.864	538.69
424.241	528.29
424.617	541.62
424.994	525.35
425.37	528.29
425.746	523.09
426.123	545.92
426.499	533.26
426.875	560.38
427.251	565.8
427.627	558.35
428.003	556.99
428.379	553.83
428.756	575.3
429.132	573.49
429.507	567.61
429.883	562.19
430.259	583.43
430.635	575.52
431.011	601.51
431.387	598.8
431.763	594.28
432.138	609.19
432.514	603.77
432.89	612.81
433.265	618.01
433.641	610.1
434.016	612.81
434.392	625.24
434.767	648.06
435.143	641.96
435.518	635.86
435.894	660.04
436.269	646.48
436.644	665.91
437.02	648.29
437.395	662.75
437.77	658.23
438.145	677.89
438.52	673.82
438.895	667.72
439.271	708.17
439.646	696.87
440.021	707.95
440.395	695.52
440.77	688.29
441.145	705.91
441.52	713.82
441.895	700.49
442.27	717.66
442.645	711.34
443.019	729.42
443.394	714.28
443.769	735.97
444.143	755.4
444.518	741.17
444.892	758.12
445.267	734.84
445.641	762.86
446.016	784.56
446.39	757.66
446.764	776.65
447.139	761.05
447.513	763.77
447.887	761.51
448.262	730.77
448.636	799.47
449.01	788.17
449.384	788.85
449.758	797.44
450.132	810.77
450.506	820.26
450.88	815.52
451.254	800.37
451.628	809.19
452.002	835.4
452.376	839.02
452.75	824.55
453.123	811.67
453.497	836.31
453.871	875.85
454.244	876.08
454.618	882.86
454.992	884.21
455.365	882.18
455.739	897.32
456.112	895.51
456.486	909.75
456.859	917.89
457.232	937.77
457.606	944.33
457.979	944.78
458.352	982.06
458.725	976.87
459.099	989.3
459.472	1017.32
459.845	1007.15
460.218	1015.51
460.591	1018
460.964	1017.32
461.337	1048.28
461.71	1047.6
462.083	1069.52
462.456	1086.24
462.829	1087.82
463.201	1095.73
463.574	1098.45
463.947	1152.46
464.32	1154.72
464.692	1150.2
465.065	1173.47
465.438	1198.78
465.81	1177.09
466.183	1214.15
466.555	1248.27
466.928	1243.75
467.3	1270.64
467.672	1293.47
468.045	1315.62
468.417	1343.64
468.789	1364.2
469.161	1366.01
469.534	1376.86
469.906	1422.05
470.278	1429.28
470.65	1459.34
471.022	1481.49
471.394	1514.48
471.766	1557.87
472.138	1582.73
472.51	1605.1
472.882	1603.29
473.253	1648.94
473.625	1722.16
473.997	1742.95
474.369	1783.85
474.74	1820.69
475.112	1866.79
475.484	1923.51
475.855	1933.9
476.227	1963.73
476.598	2043.96
476.97	2114.01
477.341	2177.74
477.713	2212.99
478.084	2229.49
478.455	2324.4
478.827	2375.7
479.198	2432.65
479.569	2512.65
479.94	2588.8
480.311	2635.35
480.682	2739.98
481.053	2825.41
481.424	2931.17
481.795	2986.53
482.166	3068.79
482.537	3132.29
482.908	3250.03
483.279	3359.4
483.65	3429.91
484.021	3504.26
484.391	3597.36
484.762	3745.16
485.133	3820.63
485.503	3892.04
485.874	4045.94
486.244	4168.65
486.615	4306.5
486.985	4366.83
487.356	4555.08
487.726	4673.49
488.097	4749.88
488.467	4869.65
488.837	5021.28
489.207	5164.78
489.578	5326.13
489.948	5438.67
490.318	5572.9
490.688	5656.29
491.058	5879.11
491.428	6006.57
491.798	6193
492.168	6317.29
492.538	6456.04
492.908	6581.69
493.278	6862.59
493.648	6839.99
494.017	7021.45
494.387	7204.27
494.757	7329.92
495.126	7491.72
495.496	7598.84
495.866	7743.02
496.235	7913.18
496.605	8083.8
496.974	8152.27
497.344	8350.91
497.713	8451.7
498.082	8637.68
498.452	8840.84
498.821	8981.63
499.19	9077.9
499.559	9259.59
499.928	9380.71
500.298	9547.04
500.667	9754.94
501.036	9766.01
501.405	9967.37
501.774	10103.41
502.143	10201.26
502.512	10316.06
502.88	10533
503.249	10610.06
503.618	10731.86
503.987	10885.53
504.356	11028.13
504.724	11133.21
505.093	11363.49
505.462	11403.26
505.83	11587.44
506.199	11698.17
506.567	11947.2
506.936	11918.05
507.304	12239.17
507.672	12299.51
508.041	12364.82
508.409	12568.2
508.777	12743.11
509.145	12851.81
509.514	12942.88
509.882	13036.89
510.25	13231.69
510.618	13370.21
510.986	13504.9
511.354	13602.07
511.722	13757.32
512.09	13950.31
512.458	13961.61
512.826	14127.03
513.193	14222.62
513.561	14449.28
513.929	14497.19
514.297	14680.91
514.664	14760.46
515.032	14896.05
515.4	15067.12
515.767	15144.18
516.135	15304.63
516.502	15175.59
516.869	15652.64
517.237	15670.72
517.604	15709.36
517.972	15967.43
518.339	16069.35
518.706	16200.87
519.073	16274.54
519.44	16364.48
519.808	16587.76
520.175	16638.83
520.542	16834.08
520.909	16916.11
521.276	17058.7
521.643	17302.09
522.009	17304.8
522.376	17509.99
522.743	17616.88
523.11	17825.69
523.477	18025.01
523.843	18068.62
524.21	18300.93
524.577	18424.77
524.943	18453.24
525.31	18644.43
525.676	18856.85
526.043	19001.7
526.409	19053.45
526.776	19271.53
527.142	19355.14
527.508	19410.51
527.874	19670.84
528.241	19809.59
528.607	19829.93
528.973	20052.52
529.339	20096.59
529.705	20198.51
530.071	20442.8
530.437	20631.04
530.803	20609.8
531.169	20758.49
531.535	20813.18
531.901	20834.42
532.267	21013.4
532.632	21196.45
532.998	21314.64
533.364	21378.36
533.73	21515.31
534.095	21601.86
534.461	21719.15
534.826	21842.31
535.192	21927.05
535.557	22031.45
535.923	22103.09
536.288	22194.84
536.653	22183.32
537.019	22261.73
537.384	22421.05
537.749	22520.71
538.114	22447.94
538.479	22574.04
538.845	22678.67
539.21	22690.65
539.575	22762.28
539.94	23066.91
540.305	23108.49
540.67	22963.86
541.034	23104.65
541.399	23125.44
541.764	23308.48
542.129	23367.24
542.494	23356.62
542.858	23570.17
543.223	23648.81
543.587	23779.66
543.952	23840.67
544.316	23821.01
544.681	23905.76
545.045	23978.07
545.41	24032.53
545.774	24190.27
546.138	24125.86
546.503	24307.78
546.867	24234.11
547.231	24517.72
547.595	24535.12
547.959	24637.49
548.324	24684.27
548.688	24672.29
549.052	24769.24
549.416	24899.85
549.779	25016.01
550.143	25079.06
550.507	25161.09
550.871	25236.34
551.235	25145.95
551.599	25521.98
551.962	25528.09
552.326	25590.68
552.689	25793.62
553.053	25562.66
553.417	25709.1
553.78	26069.99
554.143	25945.48
554.507	26011.01
554.87	26157
555.234	26489.64
555.597	26341.4
555.96	26374.17
556.323	26550.43
556.686	26642.63
557.05	26748.84
557.413	26863.42
557.776	26950.42
558.139	27095.95
558.502	27093.02
558.865	27236.06
559.228	27359.68
559.59	27542.5
559.953	27634.25
560.316	27876.72
560.679	27963.5
561.041	27960.56
561.404	28231.97
561.767	28361.01
562.129	28331.85
562.492	28655.91
562.854	28485.75
563.217	28670.83
563.579	28727.32
563.941	28812.97
564.304	29122.57
564.666	29257.25
565.028	29229.91
565.39	29322.79
565.753	29576.57
566.115	29558.94
566.477	29802.55
566.839	29840.06
567.201	29963.22
567.563	30082.99
567.925	30243.22
568.287	30311.01
568.648	30272.37
569.01	30610.21
569.372	30762.07
569.734	30675.52
570.095	30937.66
570.457	30928.4
570.819	31062.18
571.18	30945.57
571.542	31297.2
571.903	31246.13
572.265	31355.73
572.626	31513.47
572.987	31546.91
573.349	31638.43
573.71	31799.11
574.071	31891.08
574.432	31953.68
574.794	32287
575.155	32242.94
575.516	32117.29
575.877	32313.67
576.238	32455.36
576.599	32513.44
576.96	32662.14
577.32	32608.8
577.681	32777.84
578.042	32869.36
578.403	32834.33
578.763	32749.14
579.124	32853.99
579.485	32961.34
579.845	33103.25
580.206	33122.01
580.566	33139.64
580.927	33115.23
581.287	33226.87
581.648	33248.33
582.008	33362.46
582.368	33359.74
582.728	33391.83
583.089	33432.06
583.449	33298.05
583.809	33376.24
584.169	33555.22
584.529	33455.11
584.889	33746.4
585.249	33460.98
585.609	33422.79
585.969	33616.01
586.329	33478.39
586.688	33656.69
587.048	33512.28
587.408	33561.55
587.768	33586.63
588.127	33629.34
588.487	33537.37
588.846	33902.1
589.206	33528.1
589.565	33565.39
589.925	33835.89
590.284	33674.09
590.643	33763.8
591.003	33785.72
591.362	33988.43
591.721	33808.09
592.08	33811.26
592.44	34008.31
592.799	34032.95
593.158	33868.66
593.517	33925.61
593.876	33947.3
594.235	34072.49
594.593	33987.52
594.952	34104.13
595.311	33858.49
595.67	33997.69
596.029	34371.02
596.387	34335.09
596.746	34399.04
597.104	34162.21
597.463	34188.88
597.822	34387.51
598.18	34284.24
598.538	34222.77
598.897	34459.6
599.255	34238.37
599.613	34867.73
599.972	34603.55
600.33	34649.43
600.688	34549.32
601.046	34556.77
601.404	34773.72
601.762	34692.14
602.12	34886.71
602.478	34892.13
602.836	34870.44
603.194	34798.35
603.552	34877.44
603.91	34881.06
604.268	35039.25
604.625	34925.58
604.983	35171
605.341	34814.17
605.698	35115.63
606.056	35205.8
606.413	35059.36
606.771	35376.87
607.128	35341.61
607.485	35284.89
607.843	35345.23
608.2	35592.45
608.557	35719.46
608.914	35544.55
609.272	35734.6
609.629	35782.96
609.986	35864.31
610.343	35709.29
610.7	36062.5
611.057	36099.56
611.414	35982.5
611.771	36030.41
612.127	36237.63
612.484	36213.91
612.841	36328.25
613.198	36277.41
613.554	36338.65
613.911	36500.23
614.267	36497.29
614.624	36486.67
614.98	36565.54
615.337	36712.65
615.693	36764.17
616.05	36573.45
616.406	36995.81
616.762	36789.94
617.118	36804.17
617.475	36838.07
617.831	36952.87
618.187	36936.83
618.543	37139.08
618.899	37241.22
619.255	37224.5
619.611	37164.16
619.967	37393.99
620.323	37586.3
620.678	37337.72
621.034	37290.26
621.39	37385.18
621.746	37283.71
622.101	37703.13
622.457	37411.16
622.812	37563.02
623.168	37627.2
623.523	37652.74
623.879	37802.11
624.234	37455.46
624.589	37654.55
624.945	37745.62
625.3	37749.91
625.655	37738.39
626.01	37909.68
626.365	37767.09
626.72	37826.29
627.075	37740.65
627.43	37750.14
627.785	37808.21
628.14	37835.11
628.495	37796.92
628.85	37774.54
629.205	37627.88
629.559	37927.76
629.914	37758.27
630.269	37809.8
630.623	37799.18
630.978	37693.87
631.332	37782.23
631.687	37922.56
632.041	37748.1
632.396	37925.73
632.75	37708.78
633.104	37808.44
633.459	37609.58
633.813	37646.41
634.167	37719.63
634.521	37570.26
634.875	37752.17
635.229	37691.38
635.583	37378.4
635.937	37529.8
636.291	37584.72
636.645	37500.65
636.999	37423.37
637.352	37571.61
637.706	37353.54
638.06	37431.5
638.413	37430.6
638.767	37408.9
639.121	37382.46
639.474	37123.94
639.828	37188.57
640.181	37312.18
640.534	37248.23
640.888	37032.87
641.241	37041.91
641.594	37134.33
641.947	37158.97
642.301	37046.2
642.654	37102.7
643.007	37062.25
643.36	37120.1
643.713	36962.14
644.066	37053.88
644.419	36881.46
644.771	36817.73
645.124	36442.38
645.477	36316.05
645.83	36115.6
646.182	35890.07
646.535	35886.23
646.888	35897.08
647.24	35727.59
647.593	35940.02
647.945	35801.26
648.298	35583.64
648.65	35617.31
649.002	35506.81
649.355	35710.64
649.707	35561.04
650.059	35757.87
650.411	36205.55
650.763	36267.01
651.115	36590.39
651.467	36468.14
651.819	36481.92
652.171	36558.53
652.523	36347.69
652.875	36323.51
653.227	36203.29
653.578	36475.59
653.93	36317.63
654.282	36183.4
654.633	36086.45
654.985	36316.05
655.337	36209.16
655.688	36156.28
656.039	36223.4
656.391	35953.8
656.742	36056.17
657.094	36081.25
657.445	36169.16
657.796	36196.73
658.147	35992.22
658.498	35950.18
658.849	36097.98
659.2	35967.81
659.551	35883.52
659.902	36128.03
660.253	35893.91
660.604	35918.32
660.955	35964.2
661.306	36060.46
661.656	35893.69
662.007	35888.27
662.358	35865.67
662.708	35968.49
663.059	35970.52
663.409	35630.87
663.76	36019.79
664.11	35933.46
664.461	35909.28
664.811	35917.87
665.161	35878.55
665.511	35761.72
665.862	35774.37
666.212	35854.14
666.562	35870.41
666.912	35796.97
667.262	35636.29
667.612	35686.01
667.962	35766.46
668.312	35728.27
668.662	35847.36
669.011	35759.23
669.361	35796.29
669.711	35646.01
670.06	35659.12
670.41	35560.36
670.76	35606.69
671.109	35621.38
671.459	35615.96
671.808	35503.64
672.157	35674.03
672.507	35375.96
672.856	35498.9
673.205	35552.23
673.554	35686.01
673.904	35375.74
674.253	35646.69
674.602	35646.92
674.951	35050.77
675.3	34917.44
675.649	35353.82
675.998	35423.42
676.346	35250.09
676.695	35437.2
677.044	35183.88
677.393	35316.3
677.741	35370.54
678.09	35343.19
678.438	35089.64
678.787	35168.06
679.135	35339.58
679.484	35020.04
679.832	35178.91
680.181	34898.46
680.529	35100.72
680.877	34855.3
681.225	34961.28
681.573	35006.71
681.922	34813.94
682.27	34698.01
682.618	34732.59
682.966	34604.01
683.314	34772.59
683.661	34652.37
684.009	34512.93
684.357	34512.26
684.705	34603.78
685.053	34385.25
685.4	34276.78
685.748	34191.81
686.095	34100.52
686.443	34048.77
686.79	34074.08
687.138	34079.5
687.485	34175.77
687.832	33948.88
688.18	33904.36
688.527	33736.91
688.874	33867.53
689.221	33764.03
689.568	33714.54
689.915	33576.69
690.262	33582.56
690.609	33457.82
690.956	33358.61
691.303	33366.98
691.65	33188.9
691.997	33244.27
692.344	32868.91
692.69	33049.7
693.037	32907.1
693.383	32792.98
693.73	32879.53
694.077	32667.33
694.423	32657.39
694.769	32556.6
695.116	32350.73
695.462	32428.92
695.808	32335.59
696.155	32387.79
696.501	32021.7
696.847	32084.3
697.193	31780.58
697.539	31962.27
697.885	31735.38
698.231	31553.01
698.577	31489.06
698.923	31656.51
699.269	31536.74
699.614	31394.82
699.96	31360.93
700.306	31277.31
700.651	31238.9
700.997	31028.28
701.342	31009.52
701.688	31104.44
702.033	30929.3
702.379	30923.2
702.724	30733.82
703.069	30858.57
703.415	30382.42
703.76	30537.45
704.105	30364.34
704.45	30266.27
704.795	30292.71
705.14	30065.37
705.485	30168.19
705.83	29969.1
706.175	29978.82
706.52	29997.12
706.865	29795.77
707.209	29651.37
707.554	29710.35
707.899	29721.65
708.243	29496.57
708.588	29600.52
708.932	29408.21
709.277	29351.71
709.621	29410.24
709.966	29222.68
710.31	29307.65
710.654	28829.24
710.998	29158.72
711.342	29107.65
711.687	29064.26
712.031	28803.25
712.375	28717.15
712.719	28789.47
713.063	28742.24
713.407	29001.67
713.75	28676.93
714.094	28676.48
714.438	28554.9
714.782	28506.09
715.125	28432.87
715.469	28493.21
715.812	28337.5
716.156	28149.71
716.499	28120.56
716.843	28113.78
717.186	28098.19
717.53	28115.59
717.873	28081.69
718.216	27962.37
718.559	27824.07
718.902	27621.59
719.246	27747.91
719.589	27696.16
719.932	27601.48
720.275	27549.05
720.617	27509.28
720.96	27349.51
721.303	27464.53
721.646	27549.73
721.989	27434.48
722.331	27524.64
722.674	27355.16
723.016	27305.21
723.359	27278.32
723.701	27322.84
724.044	27013.24
724.386	26924.89
724.729	27097.54
725.071	26912.68
725.413	27000.36
725.755	27005.11
726.097	26747.71
726.439	26683.54
726.782	26676.53
727.124	26774.38
727.465	26604.67
727.807	26519.47
728.149	26563.54
728.491	26495.29
728.833	26494.61
729.175	26498.46
729.516	26491.45
729.858	26488.74
730.199	26307.73
730.541	26269.99
730.882	26341.4
731.224	26325.35
731.565	26135.3
731.906	26148.41
732.248	26229.08
732.589	26051.01
732.93	25975.31
733.271	25862.54
733.612	25947.74
733.953	25936.89
734.294	25908.41
734.635	25731.7
734.976	25785.25
735.317	25740.51
735.658	25780.73
735.999	25741.64
736.339	25636.33
736.68	25681.08
737.021	25569.67
737.361	25484.92
737.702	25631.36
738.042	25519.72
738.383	25417.13
738.723	25534.64
739.063	25387.3
739.404	25451.93
739.744	25244.93
740.084	25109.57
740.424	25214.2
740.764	25239.96
741.104	25258.71
741.444	25153.18
741.784	25077.48
742.124	25051.04
742.464	25086.97
742.804	24922.45
743.143	25005.16
743.483	25067.53
743.823	24763.81
744.162	24863.24
744.502	24826.64
744.841	24782.57
745.181	24968.78
745.52	24821.21
745.86	24754.55
746.199	24637.94
746.538	24645.17
746.877	24639.75
747.216	24673.65
747.556	24506.19
747.895	24491.95
748.234	24411.51
748.573	24463.48
748.911	24369.02
749.25	24316.37
749.589	24212.41
749.928	24209.7
750.267	24411.51
750.605	24123.83
750.944	24136.71
751.283	23977.62
751.621	24092.42
751.96	23940.1
752.298	24004.51
752.636	23863.95
752.975	23807.68
753.313	23778.75
753.651	23874.57
753.989	23668.7
754.327	23613.79
754.666	23497.63
755.004	23585.54
755.342	23538.31
755.679	23483.17
756.017	23356.84
756.355	23427.58
756.693	23339.22
757.031	23308.48
