Data from hue_270_FLMS001491_00076.txt Node
Date: Tue Feb 07 15:57:41 GMT 2017
User: dcchb
Spectrometer: FLMS00149
Trigger mode: 0
Integration Time (sec): 2.000000E-2
Scans to average: 10
Electric dark correction enabled: true
Nonlinearity correction enabled: false
Boxcar width: 0
XAxis mode: Wavelengths
Number of Pixels in Spectrum: 2048
>>>>>Begin Spectral Data<<<<<
341.393	-23.66
341.776	-23.66
342.16	-23.66
342.543	-61.85
342.927	-67.5
343.31	-81.74
343.693	-54.39
344.077	-53.04
344.46	-51.23
344.843	-59.36
345.226	-50.78
345.61	-38.12
345.993	-13.94
346.376	0.97
346.759	12.5
347.142	32.16
347.525	38.49
347.908	65.83
348.291	68.32
348.674	93.63
349.057	90.69
349.44	129.33
349.823	138.15
350.206	161.42
350.588	210.46
350.971	214.98
351.354	211.14
351.737	223.12
352.119	223.57
352.502	242.78
352.884	247.97
353.267	278.48
353.65	289.33
354.032	278.93
354.414	285.03
354.797	323
355.179	307.41
355.562	311.93
355.944	316.9
356.326	311.02
356.709	325.03
357.091	308.31
357.473	334.07
357.855	315.09
358.238	341.98
358.62	332.04
359.002	351.93
359.384	323.23
359.766	355.32
360.148	323.23
360.53	314.19
360.912	361.64
361.294	329.55
361.676	309.89
362.057	321.42
362.439	312.6
362.821	316.22
363.203	335.2
363.584	334.53
363.966	329.33
364.348	318.93
364.729	303.34
365.111	314.64
365.493	287.97
365.874	315.99
366.256	315.54
366.637	304.92
367.019	321.64
367.4	305.83
367.781	309.89
368.163	302.66
368.544	294.98
368.925	286.16
369.306	330.91
369.688	283.9
370.069	318.93
370.45	295.66
370.831	283.23
371.212	310.57
371.593	304.02
371.974	306.73
372.355	311.93
372.736	309.22
373.117	306.5
373.498	299.95
373.879	320.74
374.26	289.78
374.641	290.23
375.021	330.23
375.402	316.22
375.783	306.73
376.163	281.19
376.544	303.34
376.925	327.75
377.305	315.77
377.686	309.89
378.066	314.41
378.447	314.41
378.827	300.18
379.208	325.71
379.588	329.33
379.968	323.9
380.349	310.57
380.729	312.83
381.109	329.33
381.489	328.42
381.87	346.5
382.25	326.16
382.63	311.93
383.01	323
383.39	321.87
383.77	328.88
384.15	325.26
384.53	327.07
384.91	341.08
385.29	353.28
385.67	338.82
386.049	343.34
386.429	344.24
386.809	358.03
387.189	343.79
387.568	363.9
387.948	339.5
388.328	335.2
388.707	346.95
389.087	368.2
389.466	361.19
389.846	361.87
390.225	353.28
390.605	368.42
390.984	344.69
391.363	348.54
391.743	367.74
392.122	359.16
392.501	366.61
392.881	382.66
393.26	372.04
393.639	362.09
394.018	387.86
394.397	387.86
394.776	392.38
395.155	364.58
395.534	370.23
395.913	375.88
396.292	358.03
396.671	375.2
397.05	375.88
397.429	371.36
397.808	393.96
398.186	407.74
398.565	397.35
398.944	395.99
399.323	390.12
399.701	379.04
400.08	396.22
400.458	405.48
400.837	419.04
401.215	400.96
401.594	413.39
401.972	430.79
402.351	432.83
402.729	429.89
403.107	440.74
403.486	442.32
403.864	438.93
404.242	444.58
404.62	446.39
404.999	433.96
405.377	441.64
405.755	449.55
406.133	438.7
406.511	428.76
406.889	446.84
407.267	443.67
407.645	477.8
408.023	486.16
408.401	483.9
408.779	490
409.156	480.28
409.534	485.71
409.912	494.75
410.29	502.2
410.667	520.96
411.045	513.28
411.422	509.44
411.8	537.91
412.178	515.31
412.555	545.37
412.933	546.5
413.31	552.82
413.687	562.99
414.065	584.46
414.442	588.3
414.819	553.95
415.197	570.9
415.574	582.65
415.951	606.83
416.328	606.16
416.705	597.12
417.082	628.3
417.46	630.56
417.837	627.4
418.214	619.49
418.591	626.27
418.967	664.01
419.344	676.21
419.721	654.97
420.098	665.59
420.475	673.27
420.852	680.96
421.228	695.19
421.605	732.71
421.982	703.33
422.358	712.37
422.735	737
423.111	741.29
423.488	744.01
423.864	770.45
424.241	799.6
424.617	798.24
424.994	801.86
425.37	812.48
425.746	835.3
426.123	842.53
426.499	832.82
426.875	840.05
427.251	847.96
427.627	856.32
428.003	887.96
428.379	877.56
428.756	886.15
429.132	904.23
429.507	918.69
429.883	935.41
430.259	935.41
430.635	936.54
431.011	960.72
431.387	984
431.763	1022.87
432.138	965.02
432.514	1010.21
432.89	999.37
433.265	1047.5
433.641	1063.77
434.016	1086.14
434.392	1069.42
434.767	1107.84
435.143	1124.79
435.518	1122.75
435.894	1154.84
436.269	1183.32
436.644	1198.01
437.02	1214.5
437.395	1208.17
437.77	1214.05
438.145	1247.5
438.52	1261.05
438.895	1277.1
439.271	1271
439.646	1330.43
440.021	1321.17
440.395	1335.85
440.77	1306.25
441.145	1372.69
441.52	1385.12
441.895	1375.18
442.27	1412.91
442.645	1411.78
443.019	1442.07
443.394	1447.49
443.769	1445.46
444.143	1436.42
444.518	1477.77
444.892	1438.9
445.267	1489.3
445.641	1485.68
446.016	1501.27
446.39	1520.48
446.764	1524.1
447.139	1521.16
447.513	1521.84
447.887	1552.35
448.262	1547.37
448.636	1546.02
449.01	1576.3
449.384	1578.33
449.758	1583.76
450.132	1616.53
450.506	1641.16
450.88	1614.04
451.254	1642.06
451.628	1651.78
452.002	1652.23
452.376	1673.02
452.75	1696.75
453.123	1690.2
453.497	1690.87
453.871	1711.89
454.244	1783.07
454.618	1764.54
454.992	1800.25
455.365	1801.15
455.739	1849.51
456.112	1846.58
456.486	1874.82
456.859	1847.93
457.232	1900.13
457.606	1910.75
457.979	1946.91
458.352	1952.11
458.725	1988.72
459.099	1947.59
459.472	1978.1
459.845	2033.24
460.218	2017.42
460.591	2010.19
460.964	2078.89
461.337	2100.81
461.71	2138.55
462.083	2149.39
462.456	2180.58
462.829	2178.54
463.201	2180.58
463.574	2228.26
463.947	2225.1
464.32	2291.76
464.692	2266.23
465.065	2300.35
465.438	2339.22
465.81	2342.83
466.183	2350.29
466.555	2412.66
466.928	2445.88
467.3	2376.28
467.672	2454.02
468.045	2505.99
468.417	2483.85
468.789	2515.71
469.161	2576.73
469.534	2605.43
469.906	2611.08
470.278	2624.63
470.65	2657.85
471.022	2709.83
471.394	2748.92
471.766	2788.47
472.138	2780.11
472.51	2828.02
472.882	2867.34
473.253	2866.66
473.625	2936.04
473.997	2969.71
474.369	2989.14
474.74	3037.05
475.112	3068.01
475.484	3095.81
475.855	3118.86
476.227	3148.46
476.598	3213.55
476.97	3243.15
477.341	3312.75
477.713	3349.14
478.084	3378.96
478.455	3427.33
478.827	3486.08
479.198	3530.15
479.569	3557.49
479.94	3604.04
480.311	3636.36
480.682	3691.27
481.053	3745.73
481.424	3785.51
481.795	3828.67
482.166	3853.3
482.537	3956.12
482.908	3995.67
483.279	4019.17
483.65	4056.01
484.021	4128.32
484.391	4127.87
484.762	4234.31
485.133	4220.07
485.503	4273.63
485.874	4326.28
486.244	4312.05
486.615	4446.28
486.985	4404.02
487.356	4531.7
487.726	4580.29
488.097	4624.13
488.467	4653.06
488.837	4753.84
489.207	4750.91
489.578	4794.52
489.948	4805.37
490.318	4897.57
490.688	4906.83
491.058	4922.2
491.428	5025.02
491.798	5063.89
492.168	5149.09
492.538	5155.42
492.908	5238.12
493.278	5279.93
493.648	5248.52
494.017	5324
494.387	5311.34
494.757	5392.02
495.126	5423.66
495.496	5424.11
495.866	5436.99
496.235	5526.25
496.605	5547.27
496.974	5534.84
497.344	5630.43
497.713	5627.49
498.082	5696.19
498.452	5737.55
498.821	5672.46
499.19	5735.74
499.559	5759.02
499.928	5782.74
500.298	5824.55
500.667	5850.99
501.036	5821.61
501.405	5893.93
501.774	5886.92
502.143	5926.24
502.512	5873.59
502.88	5976.18
503.249	5969.41
503.618	5984.32
503.987	6023.19
504.356	6081.72
504.724	6062.51
505.093	6074.71
505.462	6072
505.83	6103.64
506.199	6136.86
506.567	6181.15
506.936	6170.53
507.304	6239.23
507.672	6249.17
508.041	6266.12
508.409	6281.71
508.777	6332.79
509.145	6365.1
509.514	6351.32
509.882	6361.26
510.25	6340.02
510.618	6384.99
510.986	6432.22
511.354	6454.36
511.722	6454.59
512.09	6482.16
512.458	6515.38
512.826	6515.15
513.193	6532.78
513.561	6553.8
513.929	6545.89
514.297	6568.71
514.664	6618.88
515.032	6601.93
515.4	6608.94
515.767	6698.88
516.135	6688.48
516.502	6621.82
516.869	6725.32
517.237	6651.65
517.604	6658.43
517.972	6749.72
518.339	6701.59
518.706	6739.55
519.073	6761.93
519.44	6734.36
519.808	6810.29
520.175	6763.06
520.542	6888.48
520.909	6863.17
521.276	6835.6
521.643	6860.46
522.009	6938.19
522.376	6939.32
522.743	6942.26
523.11	6971.19
523.477	7035.37
523.843	7061.13
524.21	7030.17
524.577	7144.52
524.943	7099.77
525.31	7064.97
525.676	7192.65
526.043	7194.01
526.409	7236.72
526.776	7215.02
527.142	7251.41
527.508	7276.49
527.874	7268.35
528.241	7289.6
528.607	7288.92
528.973	7352.19
529.339	7314
529.705	7327.79
530.071	7381.57
530.437	7408.01
530.803	7427.67
531.169	7478.29
531.535	7443.72
531.901	7432.19
532.267	7502.02
532.632	7565.75
532.998	7489.82
533.364	7559.65
533.73	7570.27
534.095	7570.72
534.461	7611.17
534.826	7569.82
535.192	7600.32
535.557	7665.86
535.923	7565.07
536.288	7671.06
536.653	7657.95
537.019	7587.44
537.384	7655.46
537.749	7671.73
538.114	7660.89
538.479	7688.46
538.845	7672.64
539.21	7650.94
539.575	7654.56
539.94	7669.93
540.305	7749.7
540.67	7738.17
541.034	7703.6
541.399	7714.44
541.764	7739.98
542.129	7710.6
542.494	7761.22
542.858	7722.35
543.223	7766.87
543.587	7781.56
543.952	7761.45
544.316	7775.01
544.681	7760.54
545.045	7850.03
545.41	7830.6
545.774	7763.71
546.138	7838.28
546.503	7800.09
546.867	7824.95
547.231	7838.06
547.595	7855.68
547.959	7875.57
548.324	7880.32
548.688	7924.38
549.052	7840.54
549.416	7891.84
549.779	7909.47
550.143	7823.37
550.507	7890.26
550.871	7889.13
551.235	7864.04
551.599	7914.44
551.962	7984.27
552.326	7926.64
552.689	7936.36
553.053	7938.84
553.417	7893.65
553.78	8055.45
554.143	8012.97
554.507	7968.45
554.87	8062.91
555.234	8107.65
555.597	8024.72
555.96	8100.2
556.323	8007.77
556.686	8050.03
557.05	8047.54
557.413	8069.24
557.776	8116.47
558.139	8119.18
558.502	8125.73
558.865	8189.69
559.228	8141.33
559.59	8237.37
559.953	8219.74
560.316	8281.66
560.679	8226.97
561.041	8281.21
561.404	8322.56
561.767	8364.37
562.129	8291.83
562.492	8388.78
562.854	8420.41
563.217	8419.06
563.579	8431.26
563.941	8478.27
564.304	8502.9
564.666	8487.98
565.028	8549.22
565.39	8530.02
565.753	8539.96
566.115	8597.58
566.477	8644.36
566.839	8675.55
567.201	8749.22
567.563	8726.17
567.925	8786.05
568.287	8725.49
568.648	8758.26
569.01	8847.3
569.372	8922.55
569.734	8955.32
570.095	8925.71
570.457	8891.36
570.819	8887.52
571.18	8969.55
571.542	9086.39
571.903	9059.27
572.265	9054.97
572.626	9077.12
572.987	9143.78
573.349	9142.88
573.71	9141.53
574.071	9183.11
574.432	9187.63
574.794	9258.58
575.155	9288.19
575.516	9260.39
575.877	9306.72
576.238	9334.29
576.599	9457.9
576.96	9361.41
577.32	9429.43
577.681	9542.87
578.042	9488.41
578.403	9488.63
578.763	9494.06
579.124	9575.41
579.485	9629.42
579.845	9633.72
580.206	9616.09
580.566	9674.17
580.927	9701.06
581.287	9748.74
581.648	9749.64
582.008	9859.7
582.368	9802.75
582.728	9805.46
583.089	9852.24
583.449	9895.86
583.809	9995.51
584.169	9933.37
584.529	9954.16
584.889	10068.05
585.249	10060.6
585.609	10063.53
585.969	10110.09
586.329	10082.97
586.688	10207.26
587.048	10105.34
587.408	10156.87
587.768	10233.02
588.127	10241.61
588.487	10230.31
588.846	10261.04
589.206	10333.13
589.565	10316.18
589.925	10369.97
590.284	10348.5
590.643	10399.12
591.003	10448.38
591.362	10532.22
591.721	10503.52
592.08	10529.74
592.44	10510.98
592.799	10520.7
593.158	10605.67
593.517	10562.5
593.876	10664.2
594.235	10644.99
594.593	10652.45
594.952	10628.27
595.311	10696.96
595.67	10679.56
596.029	10739.9
596.387	10706.91
596.746	10760.92
597.104	10781.48
597.463	10792.56
597.822	10859.45
598.18	10736.96
598.538	10798.2
598.897	10852.89
599.255	10767.92
599.613	11016.73
599.972	10952.1
600.33	10941.25
600.688	10924.98
601.046	10900.57
601.404	10937.64
601.762	10965.43
602.12	10982.38
602.478	11002.72
602.836	10919.33
603.194	10916.39
603.552	10929.5
603.91	10938.09
604.268	11011.76
604.625	10971.08
604.983	11053.79
605.341	10945.09
605.698	11052.44
606.056	11110.51
606.413	11106.9
606.771	11139.89
607.128	11118.65
607.485	11087.91
607.843	11112.77
608.2	11177.86
608.557	11216.05
608.914	11112.55
609.272	11176.73
609.629	11178.76
609.986	11307.8
610.343	11212.88
610.7	11283.39
611.057	11269.38
611.414	11248.14
611.771	11247.46
612.127	11333.56
612.484	11391.86
612.841	11385.99
613.198	11370.39
613.554	11357.51
613.911	11340.11
614.267	11372.43
614.624	11366.33
614.98	11398.64
615.337	11388.7
615.693	11481.35
616.05	11433.89
616.406	11496.49
616.762	11519.99
617.118	11500.56
617.475	11447.23
617.831	11477.73
618.187	11493.1
618.543	11502.37
618.899	11472.76
619.255	11502.14
619.611	11490.62
619.967	11602.48
620.323	11623.72
620.678	11513.67
621.034	11535.81
621.39	11549.15
621.746	11521.8
622.101	11677.28
622.457	11576.04
622.812	11546.66
623.168	11552.76
623.523	11595.92
623.879	11661.68
624.234	11587.34
624.589	11617.62
624.945	11596.38
625.3	11598.86
625.655	11625.75
626.01	11561.12
626.365	11611.06
626.72	11578.07
627.075	11566.32
627.43	11602.48
627.785	11586.21
628.14	11579.43
628.495	11529.71
628.85	11582.82
629.205	11510.73
629.559	11568.13
629.914	11500.79
630.269	11518.19
630.623	11450.17
630.978	11432.76
631.332	11480.9
631.687	11476.15
632.041	11450.39
632.396	11426.21
632.75	11420.11
633.104	11463.95
633.459	11380.56
633.813	11404.06
634.167	11403.61
634.521	11338.76
634.875	11375.82
635.229	11322.26
635.583	11239.1
635.937	11399.54
636.291	11277.97
636.645	11309.38
636.999	11270.73
637.352	11287.91
637.706	11204.07
638.06	11285.42
638.413	11240
638.767	11189.61
639.121	11245.2
639.474	11135.82
639.828	11238.19
640.181	11171.3
640.534	11235.48
640.888	11094.92
641.241	11164.52
641.594	11142.15
641.947	11181.47
642.301	11239.78
642.654	11088.37
643.007	11124.75
643.36	11036.84
643.713	10987.58
644.066	11136.05
644.419	11075.71
644.771	11030.74
645.124	10949.39
645.477	10837.75
645.83	10825.77
646.182	10773.57
646.535	10756.4
646.888	10693.57
647.24	10654.48
647.593	10726.34
647.945	10733.57
648.298	10692.9
648.65	10680.47
649.002	10621.71
649.355	10682.5
649.707	10678.43
650.059	10706.91
650.411	10887.02
650.763	10859.22
651.115	10955.71
651.467	10971.08
651.819	10961.14
652.171	10937.64
652.523	10886.79
652.875	10875.26
653.227	10926.11
653.578	10910.74
653.93	10959.33
654.282	10866.68
654.633	10860.58
654.985	10894.02
655.337	10943.29
655.688	10967.69
656.039	10907.81
656.391	10894.02
656.742	10938.31
657.094	10879.33
657.445	10923.4
657.796	10945.55
658.147	10889.05
658.498	10952.55
658.849	10898.99
659.2	10868.03
659.551	10888.15
659.902	10955.26
660.253	10909.84
660.604	10920.46
660.955	10812.22
661.306	10880.24
661.656	10899.22
662.007	10969.95
662.358	10959.78
662.708	10922.04
663.059	10908.03
663.409	10879.33
663.76	10882.72
664.11	10938.54
664.461	10881.14
664.811	10874.81
665.161	10927.24
665.511	10888.82
665.862	10927.92
666.212	10944.19
666.562	10976.05
666.912	10894.02
667.262	10913
667.612	10908.03
667.962	10898.54
668.312	10889.05
668.662	10998.43
669.011	10905.32
669.361	10902.38
669.711	10825.55
670.06	10912.33
670.41	10843.85
670.76	10854.02
671.109	10813.35
671.459	10906.9
671.808	10838.88
672.157	10933.57
672.507	10768.83
672.856	10818.77
673.205	10836.85
673.554	10856.51
673.904	10832.55
674.253	10876.17
674.602	10802.5
674.951	10625.33
675.3	10585.78
675.649	10724.76
675.998	10769.05
676.346	10735.61
676.695	10805.21
677.044	10744.42
677.393	10833.91
677.741	10778.77
678.09	10757.53
678.438	10732.9
678.787	10737.42
679.135	10755.72
679.484	10667.13
679.832	10669.17
680.181	10576.29
680.529	10608.38
680.877	10557.53
681.225	10605.44
681.573	10633.24
681.922	10438.67
682.27	10482.73
682.618	10535.61
682.966	10503.52
683.314	10488.38
683.661	10482.96
684.009	10482.73
684.357	10359.12
684.705	10363.87
685.053	10364.32
685.4	10339.46
685.748	10294.04
686.095	10251.33
686.443	10276.64
686.79	10181.05
687.138	10287.94
687.485	10272.79
687.832	10155.28
688.18	10233.02
688.527	10163.87
688.874	10119.35
689.221	10081.16
689.568	10064.44
689.915	9974.27
690.262	9996.19
690.609	9941.28
690.956	9941.28
691.303	9924.1
691.65	9854.73
691.997	9839.36
692.344	9749.64
692.69	9763.43
693.037	9838.23
693.383	9699.02
693.73	9713.26
694.077	9669.87
694.423	9653.6
694.769	9583.1
695.116	9596.43
695.462	9559.59
695.808	9547.62
696.155	9513.49
696.501	9468.07
696.847	9456.55
697.193	9286.61
697.539	9359.37
697.885	9290.22
698.231	9273.73
698.577	9287.51
698.923	9242.54
699.269	9229.43
699.614	9174.74
699.96	9133.39
700.306	9109.89
700.651	9119.6
700.997	9033.96
701.342	9045.26
701.688	9058.14
702.033	8998.93
702.379	8972.94
702.724	8915.77
703.069	8965.71
703.415	8812.72
703.76	8875.09
704.105	8814.08
704.45	8776.11
704.795	8754.19
705.14	8730.91
705.485	8698.15
705.83	8617.92
706.175	8667.87
706.52	8595.78
706.865	8622.67
707.209	8603.91
707.554	8492.28
707.899	8541.99
708.243	8512.39
708.588	8476.23
708.932	8477.14
709.277	8413.41
709.621	8368.44
709.966	8371.38
710.31	8312.17
710.654	8323.69
710.998	8314.65
711.342	8357.36
711.687	8312.39
712.031	8339.74
712.375	8211.15
712.719	8183.81
713.063	8209.8
713.407	8208.44
713.75	8126.64
714.094	8101.33
714.438	8181.32
714.782	8099.97
715.125	8048.22
715.469	8065.17
715.812	8120.31
716.156	8043.02
716.499	8118.05
716.843	8067.2
717.186	8032.18
717.53	8005.28
717.873	8052.29
718.216	8000.31
718.559	7968
718.902	7909.47
719.246	7877.83
719.589	7944.49
719.932	7876.7
720.275	7920.99
720.617	7904.72
720.96	7904.5
721.303	7847.32
721.646	7876.47
721.989	7858.85
722.331	7882.8
722.674	7810.71
723.016	7877.83
723.359	7792.86
723.701	7819.3
724.044	7782.92
724.386	7704.95
724.729	7753.54
725.071	7765.06
725.413	7771.17
725.755	7790.37
726.097	7702.69
726.439	7695.69
726.782	7692.07
727.124	7723.26
727.465	7720.77
727.807	7723.94
728.149	7659.98
728.491	7639.42
728.833	7701.11
729.175	7619.98
729.516	7613.43
729.858	7617.27
730.199	7600.55
730.541	7587.67
730.882	7682.13
731.224	7650.49
731.565	7597.16
731.906	7649.36
732.248	7662.92
732.589	7667.44
732.93	7628.57
733.271	7612.75
733.612	7649.14
733.953	7615.69
734.294	7635.35
734.635	7552.64
734.976	7629.93
735.317	7628.12
735.658	7594
735.999	7606.65
736.339	7568.01
736.68	7644.39
737.021	7662.02
737.361	7620.44
737.702	7619.76
738.042	7630.15
738.383	7622.24
738.723	7652.07
739.063	7628.8
739.404	7628.57
739.744	7669.25
740.084	7656.59
740.424	7635.58
740.764	7667.21
741.104	7706.31
741.444	7642.58
741.784	7737.27
742.124	7678.74
742.464	7763.26
742.804	7718.74
743.143	7784.05
743.483	7765.06
743.823	7744.95
744.162	7740.21
744.502	7748.34
744.841	7796.93
745.181	7889.35
745.52	7829.24
745.86	7932.07
746.199	7936.36
746.538	8027.88
746.877	8040.09
747.216	8021.55
747.556	8112.63
747.895	8114.43
748.234	8116.69
748.573	8130.03
748.911	8207.09
749.25	8299.06
749.589	8250.7
749.928	8391.71
750.267	8544.48
750.605	8523.24
750.944	8597.36
751.283	8669.22
751.621	8732.5
751.96	8784.47
752.298	8836
752.636	8928.2
752.975	9009.55
753.313	9044.8
753.651	9238.7
753.989	9269.66
754.327	9370.67
754.666	9434.62
755.004	9572.93
755.342	9700.83
755.679	9820.15
756.017	9934.05
756.355	10048.62
756.693	10091.33
757.031	10275.51
757.368	10393.7
757.706	10488.38
758.044	10655.16
758.381	10807.92
758.719	10869.84
759.056	11108.48
759.394	11253.56
759.731	11297.85
760.068	11466.44
760.405	11615.58
760.743	11778.29
761.08	11941.45
761.417	12053.76
761.754	12164.72
762.091	12304.61
762.428	12461.21
762.765	12607.42
763.102	12841.77
763.438	12882.44
