Data from hue_110_FLMS001491_00022.txt Node
Date: Tue Feb 07 17:01:05 GMT 2017
User: dcchb
Spectrometer: FLMS00149
Trigger mode: 0
Integration Time (sec): 2.000000E-2
Scans to average: 10
Electric dark correction enabled: true
Nonlinearity correction enabled: false
Boxcar width: 0
XAxis mode: Wavelengths
Number of Pixels in Spectrum: 2048
>>>>>Begin Spectral Data<<<<<
341.393	-22.53
341.776	-22.53
342.16	-22.53
342.543	-67.72
342.927	-88.74
343.31	-88.29
343.693	-80.15
344.077	-69.53
344.46	-56.43
344.843	-58.23
345.226	-29.53
345.61	-38.12
345.993	-8.52
346.376	7.3
346.759	8.66
347.142	12.95
347.525	41.2
347.908	76.9
348.291	80.52
348.674	78.03
349.057	123.23
349.44	123.68
349.823	144.25
350.206	174.08
350.588	188.31
350.971	200.07
351.354	228.77
351.737	237.58
352.119	254.08
352.502	273.51
352.884	292.04
353.267	278.03
353.65	280.74
354.032	297.01
354.414	308.09
354.797	299.72
355.179	314.19
355.562	332.72
355.944	319.38
356.326	324.36
356.709	328.2
357.091	358.03
357.473	354.86
357.855	341.76
358.238	353.06
358.62	357.58
359.002	324.81
359.384	343.56
359.766	340.63
360.148	337.01
360.53	354.41
360.912	337.91
361.294	337.69
361.676	334.75
362.057	334.75
362.439	326.62
362.821	347.18
363.203	348.76
363.584	336.11
363.966	316.45
364.348	317.8
364.729	318.71
365.111	330.23
365.493	338.14
365.874	322.32
366.256	321.64
366.637	317.58
367.019	314.86
367.4	333.62
367.781	303.57
368.163	304.24
368.544	331.59
368.925	320.29
369.306	332.04
369.688	312.83
370.069	318.71
370.45	316.22
370.831	330.01
371.212	317.8
371.593	307.18
371.974	308.99
372.355	333.85
372.736	338.59
373.117	316.9
373.498	308.31
373.879	307.63
374.26	329.33
374.641	328.88
375.021	328.2
375.402	317.8
375.783	307.41
376.163	313.06
376.544	311.93
376.925	319.16
377.305	345.15
377.686	348.08
378.066	322.77
378.447	347.18
378.827	330.23
379.208	328.88
379.588	333.85
379.968	332.49
380.349	339.5
380.729	333.62
381.109	350.34
381.489	342.66
381.87	333.62
382.25	338.59
382.63	344.02
383.01	337.24
383.39	345.82
383.77	334.98
384.15	347.63
384.53	346.73
384.91	338.82
385.29	352.83
385.67	351.93
386.049	367.29
386.429	353.28
386.809	363.9
387.189	357.12
387.568	353.51
387.948	347.63
388.328	339.27
388.707	371.59
389.087	344.47
389.466	353.06
389.846	367.29
390.225	372.72
390.605	368.2
390.984	362.32
391.363	365.48
391.743	379.04
392.122	380.4
392.501	375.43
392.881	379.5
393.26	385.15
393.639	370.23
394.018	381.08
394.397	370.46
394.776	403
395.155	374.3
395.534	377.01
395.913	365.71
396.292	365.03
396.671	372.04
397.05	398.48
397.429	396.22
397.808	387.86
398.186	399.16
398.565	393.73
398.944	387.86
399.323	384.02
399.701	389.44
400.08	385.37
400.458	395.77
400.837	411.59
401.215	410.23
401.594	414.07
401.972	396.44
402.351	404.13
402.729	384.69
403.107	395.54
403.486	396.67
403.864	392.83
404.242	404.13
404.62	418.59
404.999	428.76
405.377	402.32
405.755	387.63
406.133	405.71
406.511	410.91
406.889	402.32
407.267	423.34
407.645	423.56
408.023	420.4
408.401	424.01
408.779	440.51
409.156	435.54
409.534	450.45
409.912	438.48
410.29	443.45
410.667	461.08
411.045	448.65
411.422	444.13
411.8	453.39
412.178	453.17
412.555	462.66
412.933	470.57
413.31	465.14
413.687	444.58
414.065	472.37
414.442	475.76
414.819	490.68
415.197	461.53
415.574	486.61
415.951	488.87
416.328	492.49
416.705	492.71
417.082	503.11
417.46	518.93
417.837	495.88
418.214	501.75
418.591	495.42
418.967	501.3
419.344	504.92
419.721	496.78
420.098	526.38
420.475	514.18
420.852	528.19
421.228	534.52
421.605	509.89
421.982	532.26
422.358	516.44
422.735	538.81
423.111	536.33
423.488	545.37
423.864	543.56
424.241	561.64
424.617	553.28
424.994	532.49
425.37	569.55
425.746	550.56
426.123	562.99
426.499	570.68
426.875	569.32
427.251	575.65
427.627	561.64
428.003	575.2
428.379	578.59
428.756	603.9
429.132	595.76
429.507	604.12
429.883	599.38
430.259	617.23
430.635	619.94
431.011	610
431.387	637.12
431.763	628.08
432.138	622.43
432.514	621.75
432.89	658.13
433.265	650.45
433.641	659.04
434.016	659.71
434.392	660.84
434.767	673.95
435.143	696.55
435.518	697.23
435.894	678.7
436.269	678.24
436.644	679.83
437.02	701.97
437.395	686.61
437.77	710.11
438.145	709.43
438.52	749.88
438.895	732.93
439.271	754.85
439.646	748.3
440.021	745.14
440.395	747.62
440.77	731.12
441.145	749.43
441.52	756.43
441.895	771.12
442.27	783.33
442.645	742.42
443.019	804.34
443.394	804.57
443.769	792.82
444.143	795.98
444.518	795.53
444.892	805.93
445.267	821.29
445.641	825.36
446.016	809.77
446.39	828.07
446.764	829.2
447.139	831.24
447.513	823.1
447.887	834.4
448.262	861.74
448.636	850.44
449.01	864.91
449.384	865.13
449.758	888.18
450.132	863.32
450.506	883.89
450.88	887.96
451.254	871.01
451.628	916.88
452.002	943.32
452.376	926.6
452.75	940.38
453.123	926.37
453.497	937.22
453.871	944.9
454.244	957.79
454.618	960.27
454.992	956.88
455.365	965.02
455.739	999.14
456.112	1013.83
456.486	1018.8
456.859	1009.76
457.232	1041.4
457.606	1044.56
457.979	1051.79
458.352	1064
458.725	1087.05
459.099	1088.4
459.472	1103.09
459.845	1095.41
460.218	1134.05
460.591	1153.26
460.964	1145.58
461.337	1149.87
461.71	1188.29
462.083	1196.2
462.456	1173.83
462.829	1193.49
463.201	1218.12
463.574	1240.49
463.947	1278.46
464.32	1278.91
464.692	1340.83
465.065	1323.88
465.438	1319.58
465.81	1356.19
466.183	1346.7
466.555	1399.13
466.928	1420.37
467.3	1429.41
467.672	1445.46
468.045	1464.89
468.417	1534.27
468.789	1522.06
469.161	1527.94
469.534	1569.97
469.906	1611.33
470.278	1616.07
470.65	1667.15
471.022	1707.14
471.394	1734.26
471.766	1741.95
472.138	1739.01
472.51	1797.09
472.882	1834.82
473.253	1869.85
473.625	1904.43
473.997	1992.56
474.369	2006.35
474.74	2087.93
475.112	2087.93
475.484	2143.97
475.855	2197.07
476.227	2268.49
476.598	2315.26
476.97	2382.38
477.341	2430.29
477.713	2495.15
478.084	2529.72
478.455	2626.67
478.827	2684.97
479.198	2791.18
479.569	2840.22
479.94	2911.63
480.311	2948.69
480.682	3073.66
481.053	3146.65
481.424	3248.35
481.795	3313.88
482.166	3432.07
482.537	3517.49
482.908	3592.52
483.279	3689.24
483.65	3820.08
484.021	4000.87
484.391	4028.44
484.762	4096.91
485.133	4211.26
485.503	4303.46
485.874	4487.41
486.244	4597.69
486.615	4753.84
486.985	4848.08
487.356	5008.75
487.726	5060.73
488.097	5240.61
488.467	5339.59
488.837	5523.54
489.207	5599.25
489.578	5736.19
489.948	5859.8
490.318	5998.56
490.688	6128.27
491.058	6327.14
491.428	6404.2
491.798	6554.93
492.168	6755.15
492.538	6865.88
492.908	7010.06
493.278	7098.19
493.648	7255.02
494.017	7364.17
494.387	7560.32
494.757	7631.51
495.126	7873.99
495.496	7939.3
495.866	8040.31
496.235	8226.75
496.605	8385.16
496.974	8450.24
497.344	8622.67
497.713	8691.37
498.082	8778.37
498.452	8988.76
498.821	9040.28
499.19	9158.02
499.559	9212.94
499.928	9415.19
500.298	9461.74
500.667	9667.16
501.036	9697.22
501.405	9805.69
501.774	9807.95
502.143	9986.25
502.512	10083.42
502.88	10253.59
503.249	10218.33
503.618	10321.61
503.987	10495.61
504.356	10464.88
504.724	10603.18
505.093	10658.1
505.462	10730.86
505.83	10797.98
506.199	10938.77
506.567	11092.43
506.936	11096.95
507.304	11233.45
507.672	11247.91
508.041	11367.46
508.409	11441.35
508.777	11548.02
509.145	11618.52
509.514	11633.44
509.882	11749.82
510.25	11808.57
510.618	11853.77
510.986	11854
511.354	11937.38
511.722	12025.74
512.09	12125.4
512.458	12067.1
512.826	12244.49
513.193	12254.21
513.561	12289.46
513.929	12425.28
514.297	12413.08
514.664	12593.41
515.032	12560.64
515.4	12666.18
515.767	12671.6
516.135	12667.31
516.502	12615.56
516.869	12830.69
517.237	12849
517.604	12827.98
517.972	12862.11
518.339	12948.43
518.706	12952.05
519.073	12896.91
519.44	13038.6
519.808	13082.66
520.175	13083.12
520.542	13186.84
520.909	13187.29
521.276	13182.77
521.643	13267.29
522.009	13336.9
522.376	13316.33
522.743	13385.48
523.11	13444.69
523.477	13567.4
523.843	13516.33
524.21	13684.91
524.577	13590.45
524.943	13686.72
525.31	13719.71
525.676	13764.91
526.043	13688.75
526.409	13820.95
526.776	13837.9
527.142	13929.42
527.508	13836.09
527.874	13893.72
528.241	13934.39
528.607	13937.56
528.973	13994.28
529.339	13910.21
529.705	14017.1
530.071	14063.2
530.437	14047.16
530.803	14084.67
531.169	14006.48
531.535	13987.05
531.901	13976.2
532.267	13995.18
532.632	14007.16
532.998	14006.71
533.364	14002.64
533.73	14000.83
534.095	14106.82
534.461	14062.75
534.826	13974.39
535.192	14068.85
535.557	13992.02
535.923	13887.16
536.288	13963.32
536.653	13968.97
537.019	13825.7
537.384	13873.15
537.749	13891
538.114	13785.02
538.479	13831.8
538.845	13738.92
539.21	13728.52
539.575	13776.66
539.94	13653.27
540.305	13771.69
540.67	13659.82
541.034	13680.61
541.399	13631.35
541.764	13583.67
542.129	13568.53
542.494	13531.24
542.858	13550.45
543.223	13477.91
543.587	13504.35
543.952	13383.9
544.316	13486.72
544.681	13408.31
545.045	13386.61
545.41	13386.39
545.774	13336.22
546.138	13368.08
546.503	13254.41
546.867	13222.77
547.231	13269.1
547.595	13203.11
547.959	13246.73
548.324	13158.14
548.688	13069.56
549.052	13032.04
549.416	13075.43
549.779	13072.72
550.143	13067.52
550.507	13021.65
550.871	13021.2
551.235	12876.57
551.599	12980.07
551.962	12867.08
552.326	12946.17
552.689	12903.23
553.053	12804.93
553.417	12724.48
553.78	12893.29
554.143	12709.57
554.507	12784.14
554.87	12703.24
555.234	12836.57
555.597	12719.28
555.96	12712.28
556.323	12693.97
556.686	12632.05
557.05	12702.79
557.413	12622.79
557.776	12559.97
558.139	12697.14
558.502	12712.73
558.865	12637.7
559.228	12654.65
559.59	12734.88
559.953	12616.46
560.316	12770.58
560.679	12735.78
561.041	12657.36
561.404	12706.63
561.767	12749.34
562.129	12646.29
562.492	12779.62
562.854	12657.82
563.217	12714.54
563.579	12685.84
563.941	12765.16
564.304	12788.89
564.666	12802.22
565.028	12736.23
565.39	12806.97
565.753	12880.64
566.115	12806.51
566.477	12814.87
566.839	12789.56
567.201	12927.41
567.563	12852.39
567.925	12955.89
568.287	12898.71
568.648	12869.11
569.01	12967.87
569.372	12969.67
569.734	12907.98
570.095	12898.71
570.457	12985.49
570.819	13017.58
571.18	12981.65
571.542	12932.61
571.903	12964.25
572.265	13056.45
572.626	13040.63
572.987	13002.44
573.349	13027.75
573.71	13065.04
574.071	13075.43
574.432	13086.73
574.794	13237.24
575.155	13149.1
575.516	13061.2
575.877	13032.27
576.238	13057.35
576.599	13204.92
576.96	13163.57
577.32	13160.18
577.681	13197.69
578.042	13249.21
578.403	13180.97
578.763	13141.42
579.124	13133.74
579.485	13185.49
579.845	13194.98
580.206	13148.65
580.566	13218.93
580.927	13148.65
581.287	13195.2
581.648	13132.15
582.008	13237.24
582.368	13166.28
582.728	13262.32
583.089	13112.72
583.449	13129.67
583.809	13177.58
584.169	13241.98
584.529	13061.2
584.889	13209.21
585.249	13040.18
585.609	13035.43
585.969	13136.45
586.329	13130.35
586.688	13109.78
587.048	13068.65
587.408	13064.36
587.768	12961.09
588.127	13001.99
588.487	12950.92
588.846	13159.5
589.206	12940.52
589.565	13017.36
589.925	13052.61
590.284	12993.85
590.643	12987.07
591.003	13024.81
591.362	13042.67
591.721	12971.93
592.08	13001.54
592.44	13047.86
592.799	12946.85
593.158	12953.85
593.517	12954.98
593.876	13015.1
594.235	12845.38
594.593	12896
594.952	12961.76
595.311	12914.76
595.67	12986.17
596.029	13004.47
596.387	12992.05
596.746	12981.2
597.104	12844.25
597.463	12879.51
597.822	12962.44
598.18	12751.6
598.538	12852.39
598.897	12929
599.255	12829.34
599.613	12992.27
599.972	12925.83
600.33	12872.95
600.688	12922.22
601.046	12879.28
601.404	12907.3
601.762	12829.79
602.12	12926.51
602.478	12963.8
602.836	12911.14
603.194	12772.16
603.552	12808.32
603.91	12874.31
604.268	12904.36
604.625	12860.07
604.983	12953.4
605.341	12821.2
605.698	12899.62
606.056	12934.65
606.413	12898.94
606.771	12982.1
607.128	12938.71
607.485	12856.68
607.843	12864.59
608.2	12928.09
608.557	12956.34
608.914	13012.84
609.272	13006.51
609.629	12976
609.986	13017.13
610.343	13037.24
610.7	13054.42
611.057	12999.95
611.414	13024.13
611.771	12994.53
612.127	13095.77
612.484	13029.78
612.841	13124.92
613.198	13091.93
613.554	13156.79
613.911	13152.72
614.267	13080.63
614.624	13114.75
614.98	13134.41
615.337	13173.06
615.693	13096.45
616.05	13093.06
616.406	13233.17
616.762	13169.67
617.118	13186.62
617.475	13246.73
617.831	13190.23
618.187	13179.61
618.543	13293.28
618.899	13308.87
619.255	13297.12
619.611	13191.59
619.967	13312.94
620.323	13310.91
620.678	13230.91
621.034	13248.08
621.39	13280.4
621.746	13181.19
622.101	13411.92
622.457	13237.01
622.812	13385.48
623.168	13392.71
623.523	13312.71
623.879	13374.18
624.234	13268.65
624.589	13304.81
624.945	13328.31
625.3	13329.21
625.655	13303.22
626.01	13361.08
626.365	13325.6
626.72	13320.85
627.075	13289.44
627.43	13293.51
627.785	13261.42
628.14	13280.17
628.495	13259.61
628.85	13325.82
629.205	13267.52
629.559	13304.81
629.914	13250.34
630.269	13252.83
630.623	13300.74
630.978	13193.4
631.332	13258.48
631.687	13214.86
632.041	13192.94
632.396	13172.61
632.75	13114.3
633.104	13170.12
633.459	13048.32
633.813	13171.7
634.167	13064.36
634.521	13146.62
634.875	13121.08
635.229	13127.64
635.583	13082.66
635.937	12987.3
636.291	13035.89
636.645	12961.54
636.999	12934.65
637.352	12931.93
637.706	12925.61
638.06	12950.24
638.413	12988.88
638.767	12873.63
639.121	12898.26
639.474	12816.23
639.828	12804.03
640.181	12808.1
640.534	12833.18
640.888	12842.22
641.241	12814.87
641.594	12781.88
641.947	12851.48
642.301	12807.42
642.654	12749.34
643.007	12779.62
643.36	12719.74
643.713	12719.51
644.066	12817.13
644.419	12682
644.771	12680.42
645.124	12496.69
645.477	12482.91
645.83	12449.01
646.182	12341.22
646.535	12374.21
646.888	12411.27
647.24	12251.73
647.593	12374.21
647.945	12386.19
648.298	12266.41
648.65	12212.18
649.002	12272.52
649.355	12279.97
649.707	12313.42
650.059	12392.97
650.411	12446.97
650.763	12474.54
651.115	12610.13
651.467	12644.94
651.819	12580.3
652.171	12620.3
652.523	12532.62
652.875	12550.48
653.227	12490.59
653.578	12636.8
653.93	12626.41
654.282	12580.53
654.633	12532.62
654.985	12581.66
655.337	12552.73
655.688	12599.97
656.039	12608.55
656.391	12606.74
656.742	12498.73
657.094	12561.32
657.445	12549.57
657.796	12641.09
658.147	12557.93
658.498	12549.35
658.849	12534.43
659.2	12572.62
659.551	12549.12
659.902	12566.97
660.253	12743.69
660.604	12628.21
660.955	12541.44
661.306	12595.9
661.656	12639.06
662.007	12693.75
662.358	12651.94
662.708	12652.62
663.059	12693.97
663.409	12634.54
663.76	12660.98
664.11	12731.04
664.461	12693.3
664.811	12635.22
665.161	12655.56
665.511	12661.21
665.862	12675.44
666.212	12643.81
666.562	12743.46
666.912	12630.7
667.262	12643.81
667.612	12626.86
667.962	12653.3
668.312	12571.72
668.662	12693.97
669.011	12627.31
669.361	12594.77
669.711	12609.23
670.06	12714.09
670.41	12601.1
670.76	12632.05
671.109	12579.17
671.459	12659.62
671.808	12572.62
672.157	12673.86
672.507	12585.73
672.856	12548.22
673.205	12495.34
673.554	12556.35
673.904	12591.15
674.253	12663.47
674.602	12676.12
674.951	12398.16
675.3	12310.93
675.649	12511.15
675.998	12501.44
676.346	12545.28
676.695	12520.42
677.044	12418.5
677.393	12468.44
677.741	12491.72
678.09	12468.67
678.438	12377.15
678.787	12378.95
679.135	12344.15
679.484	12376.69
679.832	12324.27
680.181	12281.78
680.529	12319.97
680.877	12267.09
681.225	12298.73
681.573	12289.69
681.922	12305.06
682.27	12190.71
682.618	12206.98
682.966	12135.12
683.314	12163.14
683.661	12130.37
684.009	12072.97
684.357	12056.25
684.705	11955.01
685.053	12058.74
685.4	12029.58
685.748	11984.61
686.095	11945.29
686.443	11842.92
686.79	11886.76
687.138	11862.58
687.485	11831.85
687.832	11878.4
688.18	11822.58
688.527	11734.45
688.874	11693.77
689.221	11675.92
689.568	11653.32
689.915	11577.85
690.262	11616.71
690.609	11591.4
690.956	11514.12
691.303	11552.76
691.65	11446.55
691.997	11436.61
692.344	11378.98
692.69	11332.2
693.037	11311.64
693.383	11228.7
693.73	11247.91
694.077	11222.15
694.423	11140.57
694.769	11115.94
695.116	11072.77
695.462	11038.88
695.808	11009.5
696.155	11056.96
696.501	10919.56
696.847	11011.31
697.193	10894.7
697.539	10834.14
697.885	10861.48
698.231	10804.98
698.577	10793.69
698.923	10708.49
699.269	10642.05
699.614	10637.08
699.96	10598.21
700.306	10599.34
700.651	10521.38
700.997	10541.71
701.342	10429.63
701.688	10409.97
702.033	10381.49
702.379	10367.93
702.724	10346.47
703.069	10317.77
703.415	10213.59
703.76	10155.51
704.105	10264.89
704.45	10193.47
704.795	10069.64
705.14	10088.17
705.485	9974.95
705.83	10006.14
706.175	10025.12
706.52	9903.09
706.865	9928.4
707.209	9855.63
707.554	9864.9
707.899	9847.04
708.243	9777.21
708.588	9784.45
708.932	9740.38
709.277	9718.23
709.621	9734.96
709.966	9674.39
710.31	9687.5
710.654	9630.33
710.998	9606.15
711.342	9593.04
711.687	9493.38
712.031	9531.57
712.375	9486.15
712.719	9492.48
713.063	9527.96
713.407	9492.7
713.75	9476.43
714.094	9451.35
714.438	9353.72
714.782	9431.91
715.125	9344.91
715.469	9344.68
715.812	9315.53
716.156	9236.21
716.499	9263.33
716.843	9290.22
717.186	9227.4
717.53	9317.57
717.873	9263.33
718.216	9222.43
718.559	9201.41
718.902	9126.38
719.246	9167.06
719.589	9186.5
719.932	9121.19
720.275	9102.88
720.617	9124.58
720.96	9122.54
721.303	9120.28
721.646	9097.23
721.989	8970.68
722.331	9059.72
722.674	9083.22
723.016	9102.43
723.359	9051.58
723.701	8975.65
724.044	9030.57
724.386	9055.43
724.729	8950.8
725.071	8998.48
725.413	8998.7
725.755	8956.45
726.097	8948.76
726.439	8902.66
726.782	8842.78
727.124	8965.03
727.465	8889.78
727.807	8940.63
728.149	8894.98
728.491	8838.03
728.833	8902.89
729.175	8895.2
729.516	8849.78
729.858	8849.78
730.199	8839.84
730.541	8894.75
730.882	8865.6
731.224	8889.55
731.565	8728.2
731.906	8805.71
732.248	8820.4
732.589	8822.21
732.93	8811.59
733.271	8848.2
733.612	8815.43
733.953	8851.82
734.294	8783.57
734.635	8808.65
734.976	8878.03
735.317	8843.23
735.658	8820.4
735.999	8797.13
736.339	8811.14
736.68	8881.64
737.021	8850.23
737.361	8836
737.702	8833.74
738.042	8887.97
738.383	8797.81
738.723	8857.46
739.063	8839.16
739.404	8946.73
739.744	8861.08
740.084	8897.24
740.424	8859.27
740.764	8954.41
741.104	8881.87
741.444	8971.81
741.784	8951.02
742.124	8937.91
742.464	8963.22
742.804	9006.61
743.143	8998.48
743.483	9065.37
743.823	9012.94
744.162	9120.73
744.502	9202.54
744.841	9108.76
745.181	9213.61
745.52	9227.4
745.86	9287.51
746.199	9243.67
746.538	9271.92
746.877	9301.97
747.216	9458.13
747.556	9406.38
747.895	9525.24
748.234	9554.17
748.573	9607.73
748.911	9668.29
749.25	9770.21
749.589	9786.25
749.928	9889.3
750.267	9953.93
750.605	10070.54
750.944	10075.51
751.283	10089.52
751.621	10227.6
751.96	10332.91
752.298	10379.23
752.636	10478.89
752.975	10608.38
753.313	10633.92
753.651	10839.11
753.989	10873.46
754.327	10945.55
754.666	11118.42
755.004	11266.67
755.342	11361.35
755.679	11443.39
756.017	11536.94
756.355	11752.08
756.693	11852.64
757.031	12048.34
757.368	12089.47
757.706	12266.87
758.044	12372.85
758.381	12515.67
758.719	12749.34
759.056	12891.03
