Data from hue_38_FLMS001491_00062.txt Node
Date: Tue Feb 07 17:31:48 GMT 2017
User: dcchb
Spectrometer: FLMS00149
Trigger mode: 0
Integration Time (sec): 2.000000E-2
Scans to average: 10
Electric dark correction enabled: true
Nonlinearity correction enabled: false
Boxcar width: 0
XAxis mode: Wavelengths
Number of Pixels in Spectrum: 2048
>>>>>Begin Spectral Data<<<<<
341.393	-10.56
341.776	-10.56
342.16	-10.56
342.543	-43.56
342.927	-55.54
343.31	-65.93
343.693	-69.55
344.077	-64.35
344.46	-65.25
344.843	-55.08
345.226	-40.85
345.61	-10.11
345.993	-26.38
346.376	-2.66
346.759	6.16
347.142	24.91
347.525	30.56
347.908	60.62
348.291	73.05
348.674	86.16
349.057	118.7
349.44	131.35
349.823	128.87
350.206	147.85
350.588	200.73
350.971	207.96
351.354	223.33
351.737	238.02
352.119	252.48
352.502	263.78
352.884	259.71
353.267	303.33
353.65	281.18
354.032	306.49
354.414	305.81
354.797	322.08
355.179	325.02
355.562	313.49
355.944	338.35
356.326	316.21
356.709	342.87
357.091	336.32
357.473	364.57
357.855	339.48
358.238	343.78
358.62	343.78
359.002	364.11
359.384	328.64
359.766	346.26
360.148	351.91
360.53	348.75
360.912	360.95
361.294	340.84
361.676	331.57
362.057	336.54
362.439	321.63
362.821	330.67
363.203	343.32
363.584	312.36
363.966	341.74
364.348	328.64
364.729	334.28
365.111	322.31
365.493	328.86
365.874	322.31
366.256	331.12
366.637	333.38
367.019	316.43
367.4	318.92
367.781	313.49
368.163	338.35
368.544	338.13
368.925	322.53
369.306	353.27
369.688	323.89
370.069	323.66
370.45	321.86
370.831	346.04
371.212	323.21
371.593	334.51
371.974	318.47
372.355	328.86
372.736	305.36
373.117	307.17
373.498	329.09
373.879	329.31
374.26	337
374.641	315.75
375.021	321.86
375.402	330.44
375.783	327.73
376.163	350.78
376.544	342.87
376.925	327.96
377.305	330.9
377.686	325.92
378.066	322.99
378.447	345.58
378.827	343.78
379.208	331.35
379.588	358.01
379.968	338.13
380.349	341.74
380.729	331.12
381.109	331.12
381.489	341.74
381.87	354.62
382.25	340.39
382.63	340.84
383.01	362.76
383.39	346.49
383.77	333.83
384.15	362.76
384.53	352.59
384.91	352.36
385.29	346.04
385.67	370.67
386.049	363.21
386.429	382.42
386.809	358.69
387.189	357.34
387.568	349.2
387.948	363.66
388.328	373.15
388.707	374.28
389.087	378.58
389.466	376.77
389.846	378.35
390.225	377.9
390.605	375.41
390.984	368.41
391.363	370.67
391.743	387.62
392.122	392.59
392.501	400.05
392.881	397.56
393.26	363.44
393.639	392.36
394.018	374.74
394.397	395.98
394.776	398.46
395.155	384.45
395.534	401.4
395.913	392.59
396.292	399.59
396.671	412.25
397.05	390.33
397.429	395.07
397.808	406.83
398.186	400.05
398.565	378.58
398.944	400.95
399.323	420.38
399.701	403.66
400.08	399.14
400.458	409.31
400.837	415.41
401.215	417.67
401.594	395.3
401.972	406.83
402.351	420.16
402.729	412.7
403.107	428.29
403.486	433.27
403.864	450.67
404.242	424.9
404.62	434.62
404.999	439.37
405.377	439.82
405.755	434.4
406.133	427.62
406.511	440.5
406.889	451.34
407.267	441.63
407.645	460.61
408.023	453.6
408.401	457.45
408.779	455.86
409.156	456.09
409.534	468.74
409.912	441.63
410.29	446.6
410.667	474.85
411.045	474.85
411.422	482.08
411.8	487.28
412.178	493.6
412.555	496.54
412.933	491.34
413.31	508.52
413.687	496.31
414.065	518.69
414.442	516.65
414.819	506.03
415.197	527.27
415.574	519.36
415.951	511
416.328	517.56
416.705	524.79
417.082	548.52
417.46	533.15
417.837	551
418.214	545.8
418.591	520.27
418.967	544.45
419.344	544.45
419.721	547.61
420.098	549.42
420.475	546.26
420.852	574.96
421.228	571.34
421.605	565.47
421.982	558.46
422.358	571.11
422.735	577.22
423.111	572.47
423.488	582.64
423.864	590.32
424.241	576.31
424.617	595.52
424.994	614.28
425.37	592.58
425.746	602.75
426.123	610.66
426.499	603.43
426.875	619.93
427.251	604.56
427.627	635.97
428.003	623.54
428.379	627.84
428.756	655.86
429.132	639.81
429.507	647.95
429.883	652.02
430.259	655.18
430.635	661.51
431.011	659.47
431.387	681.62
431.763	692.24
432.138	685.69
432.514	708.06
432.89	689.08
433.265	698.34
433.641	702.86
434.016	721.39
434.392	719.13
434.767	715.07
435.143	723.2
435.518	758.68
435.894	741.73
436.269	757.1
436.644	787.61
437.02	772.47
437.395	749.87
437.77	794.39
438.145	768.62
438.52	793.71
438.895	776.08
439.271	787.61
439.646	800.71
440.021	803.65
440.395	821.73
440.77	789.87
441.145	823.09
441.52	841.16
441.895	831.9
442.27	847.72
442.645	814.05
443.019	877.77
443.394	839.81
443.769	855.4
444.143	841.62
444.518	868.73
444.892	886.36
445.267	874.61
445.641	885.46
446.016	897.21
446.39	879.36
446.764	875.51
447.139	911.9
447.513	920.26
447.887	892.46
448.262	886.81
448.636	922.29
449.01	922.52
449.384	957.32
449.758	922.07
450.132	958.22
450.506	933.59
450.88	954.61
451.254	956.19
451.628	983.76
452.002	969.3
452.376	1003.42
452.75	995.74
453.123	993.25
453.497	983.53
453.871	1009.75
454.244	1034.61
454.618	1045.68
454.992	1042.29
455.365	1033.02
455.739	1049.29
456.112	1091.33
456.486	1087.26
456.859	1099.01
457.232	1118.45
457.606	1112.8
457.979	1113.93
458.352	1160.7
458.725	1160.03
459.099	1155.28
459.472	1160.93
459.845	1168.84
460.218	1188.95
460.591	1208.39
460.964	1204.77
461.337	1251.55
461.71	1275.5
462.083	1267.82
462.456	1275.73
462.829	1276.18
463.201	1302.17
463.574	1319.57
463.947	1332.45
464.32	1376.07
464.692	1381.72
465.065	1405.22
465.438	1436.4
465.81	1450.19
466.183	1469.4
466.555	1474.14
466.928	1464.2
467.3	1496.29
467.672	1524.76
468.045	1564.08
468.417	1596.17
468.789	1581.94
469.161	1593.91
469.534	1631.88
469.906	1654.93
470.278	1701.93
470.65	1720.01
471.022	1720.92
471.394	1774.93
471.766	1813.79
472.138	1824.42
472.51	1857.41
472.882	1880.46
473.253	1917.29
473.625	1940.57
473.997	2038.65
474.369	2031.64
474.74	2066.22
475.112	2107.12
475.484	2141.24
475.855	2188.47
476.227	2220.11
476.598	2275.25
476.97	2315.7
477.341	2386.43
477.713	2447.45
478.084	2454
478.455	2599.31
478.827	2626.88
479.198	2664.39
479.569	2717.05
479.94	2806.99
480.311	2853.31
480.682	2914.56
481.053	3029.81
481.424	3072.74
481.795	3163.36
482.166	3212.18
482.537	3300.76
482.908	3420.08
483.279	3433.86
483.65	3525.16
484.021	3652.62
484.391	3671.37
484.762	3824.81
485.133	3858.71
485.503	3945.72
485.874	4084.02
486.244	4150.91
486.615	4249.44
486.985	4321.3
487.356	4418.25
487.726	4498.24
488.097	4665.92
488.467	4740.72
488.837	4854.17
489.207	4944.56
489.578	5036.99
489.948	5124.22
490.318	5270.65
490.688	5343.87
491.058	5436.75
491.428	5566.24
491.798	5639.46
492.168	5796.29
492.538	5875.38
492.908	5984.08
493.278	6082.16
493.648	6172.55
494.017	6280.8
494.387	6382.94
494.757	6456.84
495.126	6582.03
495.496	6669.94
495.866	6793.78
496.235	6871.06
496.605	6991.74
496.974	7029.25
497.344	7117.84
497.713	7226.76
498.082	7302.24
498.452	7459.07
498.821	7559.63
499.19	7557.6
499.559	7683.47
499.928	7796.01
500.298	7834.2
500.667	8054.99
501.036	8033.97
501.405	8150.58
501.774	8162.33
502.143	8255.88
502.512	8338.59
502.88	8413.85
503.249	8470.12
503.618	8566.61
503.987	8673.5
504.356	8729.09
504.724	8806.6
505.093	8877.56
505.462	8974.28
505.83	9049.76
506.199	9111.23
506.567	9276.2
506.936	9295.41
507.304	9377.44
507.672	9442.29
508.041	9562.74
508.409	9621.05
508.777	9684.77
509.145	9766.81
509.514	9847.93
509.882	9923.64
510.25	9964.99
510.618	10079.79
510.986	10018.55
511.354	10174.25
511.722	10239.56
512.09	10345.32
512.458	10333.8
512.826	10471.65
513.193	10492.66
513.561	10555.94
513.929	10688.59
514.297	10771.3
514.664	10849.94
515.032	10957.28
515.4	11072.31
515.767	11061.23
516.135	11082.48
516.502	11081.8
516.869	11232.53
517.237	11317.5
517.604	11272.08
517.972	11404.28
518.339	11453.09
518.706	11529.24
519.073	11527.44
519.44	11636.36
519.808	11739.63
520.175	11720.43
520.542	12015.11
520.909	11918.61
521.276	11984.37
521.643	12167.19
522.009	12201.32
522.376	12267.08
522.743	12332.16
523.11	12424.36
523.477	12580.06
523.843	12594.3
524.21	12760.85
524.577	12881.07
524.943	12940.73
525.31	12963.33
525.676	13059.6
526.043	13130.11
526.409	13220.95
526.776	13285.58
527.142	13314.73
527.508	13347.73
527.874	13614.84
528.241	13624.11
528.607	13680.15
528.973	13815.74
529.339	13844.66
529.705	13876.53
530.071	14077.65
530.437	14108.39
530.803	14219.34
531.169	14201.94
531.535	14196.52
531.901	14256.4
532.267	14332.11
532.632	14448.94
532.998	14511.54
533.364	14667.69
533.73	14643.74
534.095	14805.09
534.461	14861.13
534.826	14870.17
535.192	14912.88
535.557	15080.11
535.923	15085.99
536.288	15185.42
536.653	15196.27
537.019	15203.5
537.384	15256.6
537.749	15310.61
538.114	15431.74
538.479	15459.31
538.845	15478.29
539.21	15520.1
539.575	15582.92
539.94	15697.72
540.305	15752.86
540.67	15812.3
541.034	15773.88
541.399	15895.91
541.764	16000.54
542.129	15913.54
542.494	16010.48
542.858	16128.45
543.223	16145.85
543.587	16344.71
543.952	16310.36
544.316	16339.51
544.681	16401.89
545.045	16471.94
545.41	16511.94
545.774	16672.16
546.138	16729.11
546.503	16725.27
546.867	16715.1
547.231	16889.78
547.595	16912.83
547.959	16950.8
548.324	16990.34
548.688	17078.25
549.052	17084.13
549.416	17124.8
549.779	17282.09
550.143	17240.73
550.507	17356.21
550.871	17464.91
551.235	17505.58
551.599	17655.41
551.962	17605.7
552.326	17688.4
552.689	17748.06
553.053	17738.12
553.417	17708.74
553.78	17961.62
554.143	17967.95
554.507	18023.54
554.87	18003.65
555.234	18230.31
555.597	18208.84
555.96	18204.55
556.323	18299.01
556.686	18373.81
557.05	18511.21
557.413	18476.63
557.776	18630.53
558.139	18642.5
558.502	18637.31
558.865	18833.23
559.228	18830.75
559.59	18881.82
559.953	18965.21
560.316	19188.48
560.679	19075.26
561.041	19255.6
561.404	19355.48
561.767	19464.18
562.129	19294.69
562.492	19566.77
562.854	19524.97
563.217	19559.09
563.579	19692.19
563.941	19668.01
564.304	19794.79
564.666	19958.4
565.028	19979.87
565.39	20035.24
565.753	20158.17
566.115	20080.21
566.477	20356.81
566.839	20335.57
567.201	20462.12
567.563	20437.94
567.925	20646.75
568.287	20668.21
568.648	20705.05
569.01	20824.59
569.372	20983.23
569.734	20971.03
570.095	21135.55
570.457	21137.35
570.819	21247.18
571.18	21318.37
571.542	21429.32
571.903	21370.12
572.265	21535.99
572.626	21628.87
572.987	21572.82
573.349	21774.4
573.71	21952.47
574.071	21931.68
574.432	22139.36
574.794	22291.22
575.155	22274.73
575.516	22216.65
575.877	22463.87
576.238	22559.46
576.599	22643.53
576.96	22772.57
577.32	22884.88
577.681	23072.22
578.042	23184.98
578.403	23288.94
578.763	23447.58
579.124	23552.21
579.485	23828.58
579.845	23933.44
580.206	23995.58
580.566	24140.66
580.927	24337.72
581.287	24455.68
581.648	24577.49
582.008	24886.18
582.368	24893.19
582.728	25134.08
583.089	25255.89
583.449	25349.45
583.809	25568.2
584.169	25748.53
584.529	25997.34
584.889	26294.05
585.249	26191.01
585.609	26436.65
585.969	26708.28
586.329	26981.95
586.688	27173.35
587.048	27252.45
587.408	27463.29
587.768	27590.29
588.127	27829.83
588.487	28072.31
588.846	28373.77
589.206	28395.69
589.565	28558.63
589.925	28931.95
590.284	29040.65
590.643	29249.68
591.003	29585.72
591.362	29772.61
591.721	29971.92
592.08	30193.16
592.44	30406.26
592.799	30599.93
593.158	30762.64
593.517	30788.4
593.876	31181.84
594.235	31283.3
594.593	31542.73
594.952	31781.82
595.311	31940.91
595.67	32254.35
596.029	32578.41
596.387	32681.46
596.746	32960.77
597.104	33023.82
597.463	33265.62
597.822	33640.75
598.18	33560.76
598.538	33822.9
598.897	34069.44
599.255	34086.62
599.613	34672.59
599.972	34695.19
600.33	34772.93
600.688	34992.36
601.046	35130.43
601.404	35437.54
601.762	35724.99
602.12	35833.69
602.478	36051.09
602.836	36130.86
603.194	36115.72
603.552	36295.37
603.91	36391.64
604.268	36761.35
604.625	36788.24
604.983	36968.35
605.341	37035.69
605.698	37239.53
606.056	37385.74
606.413	37595
606.771	37802.23
607.128	37909.34
607.485	37977.81
607.843	38037.7
608.2	38433.17
608.557	38553.39
608.914	38487.63
609.272	38800.62
609.629	39042.19
609.986	39177.33
610.343	39000.39
610.7	39425.01
611.057	39491.45
611.414	39580.26
611.771	39829.52
612.127	39914.26
612.484	39884.43
612.841	40187.93
613.198	40168.94
613.554	40244.2
613.911	40535.26
614.267	40602.6
614.624	40605.54
614.98	40792.43
615.337	40951.75
615.693	40993.78
616.05	41239.2
616.406	41329.82
616.762	41304.96
617.118	41463.37
617.475	41419.76
617.831	41588.57
618.187	41761.22
618.543	41710.6
618.899	41908.11
619.255	41991.72
619.611	42026.97
619.967	42203.01
620.323	42319.4
620.678	42209.57
621.034	42405.5
621.39	42352.84
621.746	42263.13
622.101	42902.66
622.457	42433.07
622.812	42654.75
623.168	42887.74
623.523	42811.13
623.879	42929.78
624.234	42752.15
624.589	43069.43
624.945	43038.02
625.3	43124.35
625.655	43101.07
626.01	43144.68
626.365	43167.51
626.72	43146.04
627.075	43088.64
627.43	43220.16
627.785	43149.88
628.14	43353.94
628.495	43394.62
628.85	43356.66
629.205	43179.49
629.559	43488.86
629.914	43277.11
630.269	43331.57
630.623	43287.73
630.978	43354.4
631.332	43327.96
631.687	43405.69
632.041	43346.71
632.396	43479.82
632.75	43366.83
633.104	43439.14
633.459	43243.67
633.813	43256.77
634.167	43326.6
634.521	43412.02
634.875	43393.72
635.229	43388.52
635.583	43124.12
635.937	43289.31
636.291	43234.63
636.645	43255.64
636.999	43202.08
637.352	43377.22
637.706	43102.2
638.06	43199.6
638.413	43166.83
638.767	43100.84
639.121	42992.82
639.474	42964.35
639.828	42998.7
640.181	43105.36
640.534	43051.13
640.888	43019.72
641.241	42846.61
641.594	42949.66
641.947	43043.44
642.301	43000.28
642.654	42977.01
643.007	42883.9
643.36	42836.44
643.713	42894.75
644.066	42952.83
644.419	42739.27
644.771	42440.97
645.124	42104.94
645.477	41988.78
645.83	41915.11
646.182	41581.56
646.535	41613.88
646.888	41716.25
647.24	41562.35
647.593	41740.88
647.945	41684.84
648.298	41562.81
648.65	41349.25
649.002	41399.87
649.355	41503.82
649.707	41541.34
650.059	41759.86
650.411	42186.29
650.763	42191.49
651.115	42614.76
651.467	42518.26
651.819	42412.27
652.171	42375.44
652.523	42341.99
652.875	42222.22
653.227	42130.25
653.578	42332.28
653.93	42220.87
654.282	42035.79
654.633	41878.28
654.985	42111.72
655.337	42166.18
655.688	42162.79
656.039	42255.22
656.391	41926.86
656.742	42125.28
657.094	42171.38
657.445	42183.81
657.796	41972.51
658.147	42019.74
658.498	41997.37
658.849	41957.15
659.2	42006.41
659.551	41982.46
659.902	41920.54
660.253	41940.65
660.604	41996.47
660.955	41863.59
661.306	41850.48
661.656	41956.47
662.007	41829.47
662.358	41806.19
662.708	41816.58
663.059	41817.94
663.409	41555.35
663.76	42057.93
664.11	42007.77
664.461	41934.32
664.811	41895.68
665.161	41761.9
665.511	41690.71
665.862	41782.23
666.212	41795.34
666.562	41713.31
666.912	41733.87
667.262	41652.29
667.612	41626.98
667.962	41744.72
668.312	41777.94
668.662	41792.4
669.011	41696.81
669.361	41722.12
669.711	41780.43
670.06	41737.26
670.41	41566.2
670.76	41586.99
671.109	41658.17
671.459	41530.72
671.808	41579.08
672.157	41751.05
672.507	41468.8
672.856	41461.57
673.205	41534.33
673.554	41702.46
673.904	41455.69
674.253	41648.23
674.602	41635.12
674.951	41034.68
675.3	40823.39
675.649	41377.95
675.998	41306.09
676.346	41275.36
676.695	41467.44
677.044	41086.66
677.393	41204.17
677.741	41389.02
678.09	41189.93
678.438	41141.12
678.787	41157.39
679.135	41174.79
679.484	41016.61
679.832	41103.83
680.181	40870.39
680.529	40983.84
680.877	40894.12
681.225	40814.35
681.573	41133.89
681.922	40810.73
682.27	40579.33
682.618	40686.67
682.966	40551.31
683.314	40540.46
683.661	40476.05
684.009	40368.71
684.357	40367.81
684.705	40370.29
685.053	40327.81
685.4	40265.89
685.748	39965.79
686.095	40010.08
686.443	39924.66
686.79	39724.44
687.138	39990.64
687.485	39931.44
687.832	39757.43
688.18	39747.94
688.527	39623.87
688.874	39618
689.221	39506.36
689.568	39569.41
689.915	39267.72
690.262	39290.1
690.609	39246.48
690.956	39086.03
691.303	39161.06
691.65	38801.3
691.997	38900.73
692.344	38705.48
692.69	38591.81
693.037	38759.04
693.383	38393.62
693.73	38500.29
694.077	38232.72
694.423	38417.58
694.769	38165.83
695.116	38130.58
695.462	38056.46
695.808	37956.57
696.155	38025.05
696.501	37785.5
696.847	37740.31
697.193	37505.29
697.539	37509.58
697.885	37276.14
698.231	37222.35
698.577	37228.46
698.923	37204.73
699.269	36964.06
699.614	36801.8
699.96	36851.52
700.306	36802.48
700.651	36524.52
700.997	36402.72
701.342	36538.53
701.688	36378.08
702.033	36201.14
702.379	36243.17
702.724	36129.73
703.069	36273.9
703.415	35945.78
703.76	35855.61
704.105	35933.8
704.45	35729.06
704.795	35522.74
705.14	35576.3
705.485	35506.47
705.83	35355.06
706.175	35335.17
706.52	35411.1
706.865	35216.53
707.209	35187.38
707.554	35009.53
707.899	35114.84
708.243	34867.61
708.588	34898.12
708.932	34693.83
709.277	34635.53
709.621	34721.4
709.966	34289.1
710.31	34420.62
710.654	34061.99
710.998	34054.75
711.342	34281.41
711.687	34069.44
712.031	34028.31
712.375	33833.97
712.719	33862.22
713.063	33898.15
713.407	33943.12
713.75	33762.11
714.094	33802.56
714.438	33593.98
714.782	33691.37
715.125	33512.62
715.469	33483.02
715.812	33367.09
716.156	33245.96
716.499	33234.21
716.843	33327.32
717.186	32951.05
717.53	33265.4
717.873	33071.5
718.216	33065.4
718.559	32893.88
718.902	32716.94
719.246	32807.1
719.589	32604.17
719.932	32488.69
720.275	32552.19
720.617	32501.35
720.96	32321.69
721.303	32402.14
721.646	32479.88
721.989	32163.96
722.331	32266.55
722.674	32286.89
723.016	32313.11
723.359	32189.27
723.701	32196.27
724.044	32025.2
724.386	31752.44
724.729	31989.95
725.071	31905.21
725.413	31879.9
725.755	31916.51
726.097	31741.14
726.439	31601.71
726.782	31515.39
727.124	31699.11
727.465	31389.97
727.807	31431.09
728.149	31330.08
728.491	31330.98
728.833	31296.41
729.175	31285.79
729.516	31168.5
729.858	31114.72
730.199	31187.03
730.541	31032.01
730.882	31136.86
731.224	31190.87
731.565	30867.95
731.906	30909.75
732.248	30942.75
732.589	30765.58
732.93	30678.12
733.271	30717.21
733.612	30837.21
733.953	30779.13
734.294	30583.89
734.635	30545.24
734.976	30574.85
735.317	30399.03
735.658	30491.23
735.999	30480.38
736.339	30305.7
736.68	30382.53
737.021	30290.11
737.361	30225.25
737.702	30374.17
738.042	30221.63
738.383	30120.85
738.723	30093.05
739.063	29992.04
739.404	30105.25
739.744	30036.78
740.084	29926.28
740.424	29940.74
740.764	29806.73
741.104	30044.24
741.444	29693.51
741.784	29631.82
742.124	29743.91
742.464	29507.53
742.804	29572.16
743.143	29579.62
743.483	29557.25
743.823	29397.48
744.162	29402
744.502	29275.67
744.841	29292.85
745.181	29303.01
745.52	29265.05
745.86	29151.38
746.199	29291.49
746.538	29220.08
746.877	29184.15
747.216	29096.01
747.556	29049.01
747.895	29148.67
748.234	28841.33
748.573	28925.85
748.911	28853.99
749.25	28774.89
749.589	28715.01
749.928	28799.07
750.267	28817.83
750.605	28655.8
750.944	28551.62
751.283	28484.05
751.621	28590.04
751.96	28441.79
752.298	28359.76
752.636	28353.66
752.975	28372.87
753.313	28058.08
753.651	28286.09
753.989	28029.38
754.327	28175.81
754.666	27914.12
755.004	28012.65
755.342	28089.04
755.679	27899.21
756.017	27757.29
756.355	27833
