Data from hue_240_FLMS001491_00072.txt Node
Date: Tue Feb 07 16:35:55 GMT 2017
User: dcchb
Spectrometer: FLMS00149
Trigger mode: 0
Integration Time (sec): 2.000000E-2
Scans to average: 10
Electric dark correction enabled: true
Nonlinearity correction enabled: false
Boxcar width: 0
XAxis mode: Wavelengths
Number of Pixels in Spectrum: 2048
>>>>>Begin Spectral Data<<<<<
341.393	-21.75
341.776	-21.75
342.16	-21.75
342.543	-52.26
342.927	-68.53
343.31	-76.66
343.693	-74.18
344.077	-51.81
344.46	-75.53
344.843	-50.45
345.226	-42.77
345.61	-28.53
345.993	-13.84
346.376	-14.29
346.759	11.02
347.142	18.7
347.525	46.95
347.908	71.58
348.291	61.18
348.674	97.34
349.057	121.3
349.44	124.46
349.823	131.01
350.206	131.24
350.588	168.75
350.971	200.84
351.354	220.05
351.737	222.31
352.119	248.3
352.502	256.66
352.884	271.8
353.267	262.31
353.65	279.26
354.032	272.03
354.414	293.27
354.797	305.02
355.179	330.1
355.562	325.36
355.944	320.16
356.326	318.13
356.709	306.38
357.091	331.01
357.473	322.19
357.855	348.86
358.238	331.91
358.62	333.49
359.002	345.7
359.384	326.94
359.766	335.53
360.148	332.36
360.53	345.7
360.912	351.12
361.294	312.48
361.676	338.92
362.057	344.34
362.439	321.07
362.821	320.16
363.203	320.39
363.584	324.23
363.966	313.61
364.348	318.35
364.729	328.75
365.111	321.29
365.493	314.51
365.874	313.61
366.256	302.31
366.637	295.98
367.019	319.48
367.4	299.6
367.781	306.83
368.163	288.52
368.544	299.82
368.925	295.3
369.306	300.73
369.688	297.34
370.069	318.13
370.45	295.53
370.831	313.61
371.212	309.77
371.593	299.14
371.974	297.79
372.355	309.77
372.736	322.87
373.117	319.94
373.498	285.13
373.879	298.47
374.26	294.85
374.641	305.47
375.021	317.68
375.402	293.72
375.783	311.35
376.163	300.05
376.544	323.78
376.925	328.3
377.305	311.57
377.686	324.45
378.066	312.93
378.447	312.93
378.827	336.43
379.208	328.97
379.588	311.12
379.968	332.14
380.349	341.63
380.729	336.66
381.109	336.88
381.489	339.37
381.87	323.78
382.25	340.73
382.63	354.96
383.01	318.58
383.39	325.58
383.77	345.92
384.15	322.65
384.53	339.82
384.91	342.76
385.29	315.64
385.67	323.78
386.049	337.34
386.429	342.53
386.809	337.11
387.189	355.41
387.568	362.65
387.948	367.39
388.328	375.75
388.707	354.74
389.087	347.28
389.466	350.44
389.846	356.54
390.225	364.91
390.605	359.03
390.984	368.07
391.363	357.67
391.743	389.76
392.122	353.38
392.501	380.95
392.881	380.27
393.26	373.27
393.639	361.74
394.018	353.61
394.397	379.14
394.776	385.24
395.155	384.34
395.534	385.47
395.913	373.04
396.292	395.41
396.671	372.36
397.05	387.96
397.429	373.04
397.808	398.13
398.186	382.31
398.565	407.16
398.944	401.74
399.323	390.67
399.701	387.73
400.08	401.74
400.458	406.49
400.837	402.42
401.215	389.09
401.594	404.9
401.972	425.47
402.351	415.75
402.729	412.59
403.107	424.79
403.486	431.12
403.864	417.56
404.242	425.7
404.62	435.41
404.999	446.03
405.377	445.58
405.755	451.23
406.133	439.71
406.511	428.63
406.889	448.52
407.267	446.94
407.645	455.75
408.023	467.73
408.401	465.02
408.779	483.09
409.156	506.37
409.534	481.29
409.912	483.32
410.29	498.46
410.667	512.47
411.045	499.37
411.422	504.11
411.8	525.13
412.178	512.92
412.555	525.58
412.933	547.05
413.31	527.84
413.687	554.51
414.065	552.25
414.442	580.72
414.819	561.96
415.197	560.83
415.574	565.35
415.951	581.62
416.328	598.57
416.705	602.41
417.082	608.52
417.46	604.9
417.837	643.09
418.214	604.9
418.591	622.07
418.967	654.84
419.344	655.97
419.721	631.11
420.098	654.39
420.475	650.77
420.852	672.24
421.228	674.5
421.605	676.99
421.982	712.69
422.358	706.59
422.735	711.79
423.111	714.73
423.488	703.65
423.864	733.48
424.241	748.62
424.617	717.89
424.994	759.25
425.37	754.05
425.746	767.83
426.123	788.62
426.499	815.29
426.875	814.39
427.251	809.41
427.627	813.48
428.003	819.81
428.379	848.28
428.756	831.33
429.132	840.15
429.507	877.89
429.883	851.9
430.259	911.33
430.635	891.67
431.011	890.32
431.387	931.22
431.763	934.83
432.138	939.58
432.514	921.05
432.89	966.92
433.265	984.78
433.641	1000.14
434.016	1013.48
434.392	1035.85
434.767	1034.72
435.143	1046.24
435.518	1068.39
435.894	1087.82
436.269	1087.82
436.644	1100.48
437.02	1114.26
437.395	1123.53
437.77	1157.65
438.145	1166.24
438.52	1158.11
438.895	1200.14
439.271	1189.52
439.646	1213.02
440.021	1270.64
440.395	1241.94
440.77	1231.32
441.145	1233.81
441.52	1271.32
441.895	1280.36
442.27	1281.27
442.645	1317.87
443.019	1317.2
443.394	1343.86
443.769	1326.46
444.143	1364.65
444.518	1388.83
444.892	1382.51
445.267	1379.12
445.641	1408.72
446.016	1417.53
446.39	1426.35
446.764	1442.84
447.139	1435.39
447.513	1437.87
447.887	1459.57
448.262	1477.87
448.636	1466.12
449.01	1482.16
449.384	1491.66
449.758	1516.74
450.132	1486.23
450.506	1529.85
450.88	1500.02
451.254	1537.76
451.628	1556.29
452.002	1577.76
452.376	1586.34
452.75	1637.19
453.123	1622.5
453.497	1647.36
453.871	1632.44
454.244	1681.93
454.618	1675.61
454.992	1708.15
455.365	1695.94
455.739	1755.15
456.112	1755.83
456.486	1754.93
456.859	1794.47
457.232	1822.27
457.606	1814.36
457.979	1838.54
458.352	1865.66
458.725	1904.75
459.099	1895.49
459.472	1934.36
459.845	1952.66
460.218	1971.87
460.591	1999.21
460.964	1988.59
461.337	2045.99
461.71	2051.87
462.083	2098.65
462.456	2078.31
462.829	2093.67
463.201	2125.76
463.574	2183.39
463.947	2152.66
464.32	2199.89
464.692	2231.52
465.065	2225.42
465.438	2262.48
465.81	2331.41
466.183	2348.58
466.555	2361.01
466.928	2376.83
467.3	2344.29
467.672	2414.34
468.045	2427.9
468.417	2450.05
468.789	2512.19
469.161	2510.39
469.534	2549.93
469.906	2614.79
470.278	2584.06
470.65	2632.42
471.022	2654.11
471.394	2699.53
471.766	2777.05
472.138	2760.77
472.51	2817.04
472.882	2867.89
473.253	2916.48
473.625	2925.29
473.997	2961.67
474.369	3004.84
474.74	3007.32
475.112	3051.84
475.484	3103.82
475.855	3184.94
476.227	3158.73
476.598	3243.7
476.97	3256.13
477.341	3345.62
477.713	3368.44
478.084	3367.54
478.455	3502.22
478.827	3499.74
479.198	3571.83
479.569	3606.85
479.94	3683.46
480.311	3711.94
480.682	3780.64
481.053	3880.52
481.424	3921.42
481.795	3948.09
482.166	3971.59
482.537	4011.36
482.908	4081.87
483.279	4123
483.65	4174.3
484.021	4261.98
484.391	4315.99
484.762	4334.07
485.133	4384.24
485.503	4404.57
485.874	4512.82
486.244	4572.25
486.615	4589.43
486.985	4670.78
487.356	4718.46
487.726	4797.33
488.097	4840.72
488.467	4807.5
488.837	4971.34
489.207	5015.86
489.578	5050.88
489.948	5092.92
490.318	5130.88
490.688	5151.9
491.058	5236.42
491.428	5233.25
491.798	5304.44
492.168	5440.93
492.538	5476.41
492.908	5486.58
493.278	5573.81
493.648	5568.16
494.017	5581.04
494.387	5677.99
494.757	5709.17
495.126	5729.28
495.496	5786.23
495.866	5856.51
496.235	5908.49
496.605	5879.56
496.974	5900.81
497.344	5960.69
497.713	6003.18
498.082	6004.76
498.452	6049.73
498.821	6086.34
499.19	6126.56
499.559	6166.79
499.928	6196.16
500.298	6211.98
500.667	6247.46
501.036	6277.74
501.405	6278.2
501.774	6275.03
502.143	6325.65
502.512	6350.29
502.88	6345.54
503.249	6400.68
503.618	6440.23
503.987	6444.97
504.356	6455.14
504.724	6512.54
505.093	6515.03
505.462	6544.63
505.83	6605.19
506.199	6600.9
506.567	6631.63
506.936	6708.92
507.304	6769.71
507.672	6807.9
508.041	6755.02
508.409	6876.15
508.777	6839.31
509.145	6908.46
509.514	6836.15
509.882	6937.16
510.25	6864.85
510.618	6925.19
510.986	6950.72
511.354	7025.3
511.722	7009.48
512.09	7065.97
512.458	7034.11
512.826	7112.52
513.193	7095.8
513.561	7090.38
513.929	7181.22
514.297	7150.04
514.664	7156.59
515.032	7270.49
515.4	7219.87
515.767	7269.36
516.135	7220.09
516.502	7206.31
516.869	7289.92
517.237	7268.68
517.604	7326.53
517.972	7382.57
518.339	7399.75
518.706	7368.34
519.073	7379.64
519.44	7389.13
519.808	7475.68
520.175	7470.93
520.542	7519.52
520.909	7545.06
521.276	7551.38
521.643	7559.74
522.009	7573.53
522.376	7589.8
522.743	7595
523.11	7648.33
523.477	7735.56
523.843	7716.58
524.21	7780.76
524.577	7738.5
524.943	7819.17
525.31	7859.4
525.676	7801.77
526.043	7870.92
526.409	7895.78
526.776	7877.48
527.142	7942.11
527.508	7953.41
527.874	8023.91
528.241	7983.01
528.607	7973.29
528.973	8060.07
529.339	8073.86
529.705	8045.83
530.071	8121.31
530.437	8082.44
530.803	8139.84
531.169	8112.95
531.535	8093.52
531.901	8114.08
532.267	8087.41
532.632	8173.97
532.998	8164.7
533.364	8169.67
533.73	8150.24
534.095	8199.73
534.461	8112.05
534.826	8236.79
535.192	8221.87
535.557	8232.72
535.923	8234.3
536.288	8198.82
536.653	8203.57
537.019	8213.51
537.384	8211.25
537.749	8206.51
538.114	8239.95
538.479	8206.28
538.845	8224.36
539.21	8172.16
539.575	8178.94
539.94	8216.22
540.305	8209.67
540.67	8194.08
541.034	8209.9
541.399	8222.1
541.764	8162.67
542.129	8189.78
542.494	8173.06
542.858	8253.96
543.223	8128.09
543.587	8186.39
543.952	8206.96
544.316	8245.6
544.681	8121.99
545.045	8168.32
545.41	8223.23
545.774	8183.46
546.138	8180.29
546.503	8149.33
546.867	8127.87
547.231	8243.34
547.595	8175.77
547.959	8135.32
548.324	8204.93
548.688	8166.73
549.052	8155.66
549.416	8186.62
549.779	8156.34
550.143	8106.17
550.507	8135.1
550.871	8170.12
551.235	8126.51
551.599	8119.28
551.962	8185.04
552.326	8145.27
552.689	8189.78
553.053	8069.56
553.417	8161.76
553.78	8140.75
554.143	8125.15
554.507	8189.78
554.87	8150.69
555.234	8233.17
555.597	8132.84
555.96	8188.43
556.323	8177.36
556.686	8194.08
557.05	8197.69
557.413	8217.81
557.776	8215.32
558.139	8250.35
558.502	8246.96
558.865	8231.37
559.228	8298.48
559.59	8277.69
559.953	8307.07
560.316	8343
560.679	8344.58
561.041	8366.05
561.404	8438.37
561.767	8413.51
562.129	8304.36
562.492	8409.21
562.854	8374.86
563.217	8402.89
563.579	8440.85
563.941	8444.69
564.304	8477.23
564.666	8514.3
565.028	8453.28
565.39	8546.39
565.753	8568.76
566.115	8570.34
566.477	8567.63
566.839	8595.2
567.201	8665.25
567.563	8674.97
567.925	8698.7
568.287	8675.2
568.648	8735.98
569.01	8711.8
569.372	8754.97
569.734	8715.87
570.095	8816.21
570.457	8817.56
570.819	8796.77
571.18	8855.3
571.542	8916.32
571.903	8864.12
572.265	8854.63
572.626	8960.84
572.987	8977.79
573.349	8987.28
573.71	8930.56
574.071	9018.46
574.432	8997.22
574.794	8995.19
575.155	9040.61
575.516	9044.9
575.877	9085.35
576.238	9088.07
576.599	9151.79
576.96	9171.68
577.32	9183.2
577.681	9198.57
578.042	9213.71
578.403	9245.58
578.763	9203.32
579.124	9295.74
579.485	9254.16
579.845	9313.14
580.206	9355.86
580.566	9354.95
580.927	9312.92
581.287	9372.13
581.648	9337.55
582.008	9460.94
582.368	9427.04
582.728	9406.25
583.089	9416.19
583.449	9446.7
583.809	9467.94
584.169	9507.04
584.529	9458.45
584.889	9578.9
585.249	9566.47
585.609	9472.91
585.969	9543.2
586.329	9488.51
586.688	9540.71
587.048	9520.37
587.408	9502.97
587.768	9483.54
588.127	9591.1
588.487	9516.53
588.846	9679.01
589.206	9549.07
589.565	9537.09
589.925	9616.64
590.284	9602.18
590.643	9644.44
591.003	9673.81
591.362	9723.3
591.721	9620.26
592.08	9681.95
592.44	9626.81
592.799	9698.9
593.158	9618.9
593.517	9664.32
593.876	9686.02
594.235	9672.23
594.593	9704.55
594.952	9720.14
595.311	9695.96
595.67	9723.3
596.029	9771.21
596.387	9712.68
596.746	9779.8
597.104	9761.95
597.463	9689.86
597.822	9768.73
598.18	9777.99
598.538	9792.45
598.897	9793.81
599.255	9732.57
599.613	9856.63
599.972	9806.24
600.33	9833.13
600.688	9793.58
601.046	9807.82
601.404	9869.97
601.762	9853.02
602.12	9899.34
602.478	9930.08
602.836	9857.99
603.194	9855.28
603.552	9910.42
603.91	9812.57
604.268	9881.72
604.625	9847.82
604.983	9946.57
605.341	9898.21
605.698	9897.31
606.056	9964.2
606.413	9941.83
606.771	10000.81
607.128	9962.85
607.485	9968.49
607.843	9909.06
608.2	9972.34
608.557	9997.65
608.914	9996.74
609.272	9987.7
609.629	10019.79
609.986	10053.24
610.343	10020.47
610.7	10095.5
611.057	9982.28
611.414	10033.8
611.771	10057.31
612.127	10121.94
612.484	10003.97
612.841	10086.23
613.198	10055.95
613.554	10038.32
613.911	10195.83
614.267	10099.79
614.624	10115.38
614.98	10112.67
615.337	10107.25
615.693	10146.57
616.05	10170.98
616.406	10224.53
616.762	10101.82
617.118	10170.07
617.475	10132.11
617.831	10197.19
618.187	10201.03
618.543	10236.74
618.899	10337.3
619.255	10164.42
619.611	10243.97
619.967	10273.12
620.323	10255.95
620.678	10270.41
621.034	10198.09
621.39	10216.62
621.746	10224.08
622.101	10341.37
622.457	10233.12
622.812	10188.15
623.168	10203.29
623.523	10244.19
623.879	10310.18
624.234	10329.84
624.589	10289.39
624.945	10272.67
625.3	10245.32
625.655	10285.32
626.01	10267.02
626.365	10278.77
626.72	10262.72
627.075	10222.95
627.43	10255.04
627.785	10203.97
628.14	10214.59
628.495	10233.57
628.85	10274.02
629.205	10218.43
629.559	10286.45
629.914	10246
630.269	10208.26
630.623	10208.71
630.978	10159.9
631.332	10176.17
631.687	10203.97
632.041	10150.64
632.396	10154.25
632.75	10090.53
633.104	10167.81
633.459	10069.28
633.813	10098.44
634.167	10090.98
634.521	10156.06
634.875	10140.02
635.229	10042.84
635.583	10058.44
635.937	9998.1
636.291	9983.18
636.645	9962.17
636.999	10004.43
637.352	10023.18
637.706	9907.03
638.06	9985.9
638.413	9977.99
638.767	9929.85
639.121	9963.98
639.474	9869.74
639.828	9871.55
640.181	9895.05
640.534	9907.03
640.888	9810.76
641.241	9785.9
641.594	9874.26
641.947	9841.94
642.301	9889.4
642.654	9827.48
643.007	9829.06
643.36	9840.59
643.713	9781.83
644.066	9785.9
644.419	9731.67
644.771	9772.79
645.124	9646.92
645.477	9609.18
645.83	9605.11
646.182	9474.95
646.535	9453.03
646.888	9491.45
647.24	9422.29
647.593	9472.24
647.945	9383.43
648.298	9401.05
648.65	9382.07
649.002	9345.91
649.355	9448.06
649.707	9468.17
650.059	9506.13
650.411	9617.09
650.763	9633.81
651.115	9625.45
651.467	9671.55
651.819	9683.08
652.171	9612.8
652.523	9642.63
652.875	9631.1
653.227	9601.95
653.578	9591.1
653.93	9577.77
654.282	9566.47
654.633	9613.48
654.985	9527.6
655.337	9549.75
655.688	9589.3
656.039	9634.94
656.391	9547.04
656.742	9574.38
657.094	9559.92
657.445	9601.27
657.796	9617.54
658.147	9514.27
658.498	9544.78
658.849	9598.34
659.2	9583.19
659.551	9539.58
659.902	9570.77
660.253	9560.37
660.604	9587.94
660.955	9593.36
661.306	9564.89
661.656	9588.39
662.007	9612.12
662.358	9571.9
662.708	9550.88
663.059	9577.54
663.409	9476.98
663.76	9582.29
664.11	9606.47
664.461	9540.94
664.811	9581.61
665.161	9585.23
665.511	9570.09
665.862	9557.21
666.212	9640.82
666.562	9609.86
666.912	9603.98
667.262	9573.25
667.612	9525.12
667.962	9537.55
668.312	9560.82
668.662	9599.69
669.011	9564.44
669.361	9584.32
669.711	9581.84
670.06	9549.3
670.41	9497.55
670.76	9445.34
671.109	9533.7
671.459	9474.27
671.808	9451.9
672.157	9550.2
672.507	9405.12
672.856	9409.41
673.205	9436.76
673.554	9466.81
673.904	9466.36
674.253	9484.89
674.602	9471.11
674.951	9303.43
675.3	9248.29
675.649	9448.28
675.998	9368.96
676.346	9359.7
676.695	9422.29
677.044	9361.51
677.393	9430.88
677.741	9403.31
678.09	9351.56
678.438	9347.49
678.787	9330.55
679.135	9333.26
679.484	9242.86
679.832	9306.14
680.181	9268.4
680.529	9350.66
680.877	9216.42
681.225	9260.04
681.573	9275.63
681.922	9151.57
682.27	9189.98
682.618	9179.59
682.966	9098.69
683.314	9170.55
683.661	9185.69
684.009	9061.63
684.357	9093.26
684.705	9020.95
685.053	9066.15
685.4	9039.71
685.748	9023.89
686.095	9025.02
686.443	8976.88
686.79	8931.01
687.138	8994.28
687.485	9024.34
687.832	8845.13
688.18	8925.13
688.527	8868.64
688.874	8851.46
689.221	8838.58
689.568	8777.34
689.915	8809.2
690.262	8817.11
690.609	8769.88
690.956	8679.94
691.303	8707.74
691.65	8627.51
691.997	8666.38
692.344	8659.83
692.69	8543.9
693.037	8578.48
693.383	8464.13
693.73	8565.14
694.077	8435.88
694.423	8454.64
694.769	8467.07
695.116	8399.72
695.462	8419.16
695.808	8307.52
696.155	8281.99
696.501	8264.13
696.847	8304.13
697.193	8157.02
697.539	8268.43
697.885	8233.17
698.231	8181.65
698.577	8184.14
698.923	8177.81
699.269	8104.59
699.614	8047.64
699.96	7987.98
700.306	8019.62
700.651	8010.81
700.997	7877.7
701.342	7960.86
701.688	7899.62
702.033	7880.87
702.379	7889.45
702.724	7910.24
703.069	7829.57
703.415	7763.36
703.76	7773.07
704.105	7685.62
704.45	7753.64
704.795	7670.93
705.14	7691.27
705.485	7639.52
705.83	7624.38
706.175	7573.3
706.52	7506.41
706.865	7557.94
707.209	7619.18
707.554	7565.85
707.899	7551.84
708.243	7472.97
708.588	7471.84
708.932	7471.39
709.277	7409.01
709.621	7442.01
709.966	7376.47
710.31	7352.29
710.654	7336.47
710.998	7311.84
711.342	7321.56
711.687	7286.31
712.031	7257.38
712.375	7261.22
712.719	7259.19
713.063	7341.45
713.407	7287.44
713.75	7188.91
714.094	7227.55
714.438	7160.89
714.782	7199.53
715.125	7172.86
715.469	7197.72
715.812	7059.42
716.156	7138.74
716.499	7039.76
716.843	7102.81
717.186	6980.1
717.53	7081.79
717.873	7074.33
718.216	7067.55
718.559	7021.68
718.902	6993.66
719.246	6966.99
719.589	6963.15
719.932	6924.73
720.275	6951.17
720.617	6943.94
720.96	6957.5
721.303	6936.48
721.646	6969.25
721.989	6913.21
722.331	6970.83
722.674	6918.18
723.016	6875.47
723.359	6861.23
723.701	6897.16
724.044	6860.55
724.386	6842.25
724.729	6912.76
725.071	6851.29
725.413	6808.8
725.755	6839.76
726.097	6789.37
726.439	6796.83
726.782	6833.44
727.124	6798.63
727.465	6804.51
727.807	6797.05
728.149	6790.05
728.491	6758.41
728.833	6816.71
729.175	6769.03
729.516	6761.8
729.858	6752.31
730.199	6774.45
730.541	6725.42
730.882	6739.88
731.224	6777.39
731.565	6703.5
731.906	6678.19
732.248	6726.32
732.589	6650.39
732.93	6714.8
733.271	6668.02
733.612	6698.52
733.953	6726.77
734.294	6692.65
734.635	6705.53
734.976	6722.48
735.317	6661.24
735.658	6688.58
735.999	6707.56
736.339	6723.16
736.68	6709.15
737.021	6665.3
737.361	6639.54
737.702	6685.42
738.042	6671.63
738.383	6695.59
738.723	6755.25
739.063	6749.82
739.404	6733.55
739.744	6711.63
740.084	6674.34
740.424	6682.25
740.764	6763.61
741.104	6785.98
741.444	6735.81
741.784	6724.96
742.124	6730.84
742.464	6732.2
742.804	6778.75
743.143	6795.47
743.483	6780.78
743.823	6740.11
744.162	6796.37
744.502	6860.55
744.841	6842.7
745.181	6834.34
745.52	6835.47
745.86	6863.94
746.199	6907.56
746.538	6913.21
746.877	6947.11
747.216	6999.76
747.556	6951.63
747.895	7041.79
748.234	7011.28
748.573	7061.45
748.911	7042.24
749.25	7104.62
749.589	7173.54
749.928	7143.26
750.267	7209.7
750.605	7255.35
750.944	7276.81
751.283	7306.64
751.621	7374.21
751.96	7388.9
752.298	7484.94
752.636	7542.34
752.975	7510.48
753.313	7634.09
753.651	7731.72
753.989	7788.67
754.327	7820.75
754.666	7871.83
755.004	7967.64
755.342	8001.32
755.679	8096.23
756.017	8137.13
756.355	8211.7
756.693	8322.66
757.031	8381.19
757.368	8491.25
757.706	8543.22
758.044	8661.86
758.381	8729.43
758.719	8830.22
759.056	8927.17
759.394	8977.79
759.731	8981.18
760.068	9208.74
760.405	9225.92
760.743	9405.35
761.08	9432.46
761.417	9564.66
761.754	9664.77
762.091	9690.99
762.428	9785.45
762.765	9860.7
763.102	9998.1
763.438	10038.55
763.775	10173.46
764.112	10251.43
764.449	10341.37
764.785	10403.96
765.122	10480.12
765.458	10527.12
765.795	10581.36
766.131	10678.98
766.467	10736.38
766.804	10863.61
767.14	10861.13
