Data from hue_50_FLMS001491_42.txt Node
Date: Mon Feb 06 15:10:11 GMT 2017
User: dcchb
Spectrometer: FLMS00149
Trigger mode: 0
Integration Time (sec): 2.000000E-2
Scans to average: 10
Electric dark correction enabled: true
Nonlinearity correction enabled: false
Boxcar width: 0
XAxis mode: Wavelengths
Number of Pixels in Spectrum: 2048
>>>>>Begin Spectral Data<<<<<
341.393	-13.8
341.776	-13.8
342.16	-13.8
342.543	-54.93
342.927	-60.58
343.31	-60.58
343.693	-56.06
344.077	-67.58
344.46	-69.62
344.843	-63.06
345.226	-49.28
345.61	-18.32
345.993	-26.45
346.376	-9.96
346.759	14.9
347.142	30.72
347.525	48.35
347.908	61.45
348.291	77.95
348.674	83.83
349.057	103.71
349.44	141.9
349.823	129.02
350.206	152.98
350.588	197.49
350.971	197.72
351.354	213.77
351.737	244.5
352.119	246.31
352.502	274.33
352.884	275.91
353.267	267.1
353.65	285.63
354.032	298.74
354.414	301.22
354.797	308
355.179	319.98
355.562	311.39
355.944	331.5
356.326	331.05
356.709	343.48
357.091	343.93
357.473	338.96
357.855	346.19
358.238	337.83
358.62	340.99
359.002	344.61
359.384	346.42
359.766	353.42
360.148	331.95
360.53	346.64
360.912	352.74
361.294	313.2
361.676	330.6
362.057	339.64
362.439	321.79
362.821	319.07
363.203	323.59
363.584	341.9
363.966	309.13
364.348	317.94
364.729	316.36
365.111	310.26
365.493	323.14
365.874	302.8
366.256	302.12
366.637	319.98
367.019	308.68
367.4	304.16
367.781	314.78
368.163	325.85
368.544	314.33
368.925	318.17
369.306	338.06
369.688	302.35
370.069	313.65
370.45	308.9
370.831	316.59
371.212	321.79
371.593	332.63
371.974	321.79
372.355	313.42
372.736	309.13
373.117	302.35
373.498	318.62
373.879	299.64
374.26	315.68
374.641	331.5
375.021	287.66
375.402	330.6
375.783	329.47
376.163	302.8
376.544	326.53
376.925	326.76
377.305	305.51
377.686	334.21
378.066	319.98
378.447	315.23
378.827	310.03
379.208	330.82
379.588	329.24
379.968	345.74
380.349	312.75
380.729	322.24
381.109	327.89
381.489	336.47
381.87	335.34
382.25	354.55
382.63	321.79
383.01	353.42
383.39	330.82
383.77	336.47
384.15	328.56
384.53	333.99
384.91	325.18
385.29	315.68
385.67	341.9
386.049	354.55
386.429	365.85
386.809	324.05
387.189	338.51
387.568	339.19
387.948	337.83
388.328	341.9
388.707	350.03
389.087	326.76
389.466	348.9
389.846	349.81
390.225	346.87
390.605	364.5
390.984	356.13
391.363	361.78
391.743	350.26
392.122	363.82
392.501	372.18
392.881	350.94
393.26	351.84
393.639	375.12
394.018	356.59
394.397	353.65
394.776	364.5
395.155	363.37
395.534	359.75
395.913	357.26
396.292	380.99
396.671	362.91
397.05	380.31
397.429	381.44
397.808	374.21
398.186	389.58
398.565	376.47
398.944	376.02
399.323	392.07
399.701	375.8
400.08	362.01
400.458	390.26
400.837	381.22
401.215	390.94
401.594	386.87
401.972	383.7
402.351	406.75
402.729	388
403.107	396.81
403.486	392.52
403.864	395.91
404.242	397.04
404.62	385.29
404.999	388
405.377	405.17
405.755	383.48
406.133	395.23
406.511	411.27
406.889	400.2
407.267	393.42
407.645	396.36
408.023	408.56
408.401	381.22
408.779	400.65
409.156	420.09
409.534	425.06
409.912	415.79
410.29	417.6
410.667	433.19
411.045	434.78
411.422	429.13
411.8	432.52
412.178	433.87
412.555	428
412.933	439.52
413.31	445.17
413.687	421.44
414.065	446.3
414.442	449.92
414.819	438.84
415.197	448.56
415.574	443.14
415.951	464.38
416.328	456.02
416.705	478.39
417.082	450.14
417.46	475.45
417.837	463.48
418.214	445.17
418.591	472.29
418.967	494.21
419.344	481.56
419.721	484.94
420.098	471.39
420.475	474.32
420.852	498.5
421.228	483.14
421.605	496.02
421.982	503.93
422.358	495.57
422.735	504.38
423.111	503.93
423.488	505.06
423.864	519.97
424.241	521.1
424.617	525.17
424.994	521.33
425.37	507.54
425.746	501.89
426.123	535.79
426.499	533.08
426.875	536.69
427.251	536.24
427.627	529.69
428.003	532.18
428.379	537.82
428.756	545.73
429.132	538.5
429.507	580.54
429.883	566.98
430.259	563.81
430.635	546.86
431.011	559.07
431.387	590.93
431.763	572.4
432.138	570.82
432.514	574.21
432.89	589.35
433.265	599.07
433.641	610.37
434.016	589.35
434.392	612.17
434.767	607.43
435.143	612.17
435.518	628.44
435.894	623.25
436.269	637.48
436.644	609.24
437.02	641.32
437.395	615.79
437.77	629.57
438.145	642.45
438.52	650.59
438.895	668.89
439.271	658.5
439.646	651.95
440.021	677.03
440.395	661.44
440.77	684.49
441.145	684.71
441.52	680.19
441.895	709.8
442.27	689.01
442.645	693.07
443.019	701.89
443.394	703.24
443.769	708.44
444.143	714.32
444.518	699.4
444.892	708.67
445.267	687.65
445.641	714.77
446.016	733.3
446.39	738.5
446.764	735.11
447.139	732.85
447.513	719.51
447.887	739.63
448.262	743.24
448.636	741.21
449.01	749.57
449.384	738.27
449.758	757.03
450.132	751.38
450.506	788.21
450.88	776.91
451.254	777.37
451.628	792.73
452.002	799.29
452.376	786.86
452.75	806.29
453.123	808.55
453.497	825.05
453.871	807.87
454.244	826.63
454.618	817.59
454.992	840.87
455.365	835.44
455.739	863.47
456.112	874.31
456.486	857.14
456.859	882
457.232	881.09
457.606	906.85
457.979	922.67
458.352	928.55
458.725	965.38
459.099	930.36
459.472	957.7
459.845	929.45
460.218	959.51
460.591	966.97
460.964	991.37
461.337	960.86
461.71	1005.16
462.083	1020.07
462.456	1018.49
462.829	1050.81
463.201	1032.05
463.574	1063.46
463.947	1058.04
464.32	1089.45
464.692	1093.06
465.065	1098.04
465.438	1136.91
465.81	1117.92
466.183	1136
466.555	1153.18
466.928	1182.78
467.3	1206.06
467.672	1184.14
468.045	1218.48
468.417	1252.38
468.789	1239.28
469.161	1260.74
469.534	1283.34
469.906	1334.19
470.278	1336.45
470.65	1356.33
471.022	1393.17
471.394	1434.52
471.766	1410.57
472.138	1467.29
472.51	1505.26
472.882	1531.25
473.253	1560.62
473.625	1605.14
473.997	1637.68
474.369	1623.67
474.74	1639.49
475.112	1745.93
475.484	1798.13
475.855	1813.72
476.227	1823.89
476.598	1923.1
476.97	1947.73
477.341	1986.37
477.713	2019.37
478.084	2066.15
478.455	2126.94
478.827	2181.62
479.198	2278.34
479.569	2302.98
479.94	2421.39
480.311	2441.28
480.682	2540.48
481.053	2602.18
481.424	2668.39
481.795	2756.3
482.166	2804.88
482.537	2890.31
482.908	2984.09
483.279	3010.98
483.65	3153.58
484.021	3235.61
484.391	3356.28
484.762	3435.83
485.133	3517.63
485.503	3586.78
485.874	3681.47
486.244	3803.5
486.615	3905.19
486.985	3999.65
487.356	4140.89
487.726	4239.87
488.097	4373.66
488.467	4461.34
488.837	4602.35
489.207	4743.14
489.578	4816.58
489.948	4950.36
490.318	5102.22
490.688	5134.09
491.058	5311.71
491.428	5420.63
491.798	5568.2
492.168	5709.21
492.538	5782.21
492.908	5971.35
493.278	6098.58
493.648	6145.59
494.017	6319.82
494.387	6443.66
494.757	6625.8
495.126	6680.71
495.496	6847.72
495.866	6917.77
496.235	7035.28
496.605	7209.51
496.974	7263.75
497.344	7411.77
497.713	7541.26
498.082	7755.04
498.452	7812.66
498.821	7931.98
499.19	8032.77
499.559	8151.18
499.928	8274.57
500.298	8417.84
500.667	8525.64
501.036	8587.1
501.405	8731.06
501.774	8851.5
502.143	8914.78
502.512	9037.49
502.88	9183.02
503.249	9283.81
503.618	9367.65
503.987	9482
504.356	9612.39
504.724	9651.71
505.093	9841.99
505.462	9829.11
505.83	10012.6
506.199	10133.73
506.567	10271.13
506.936	10271.81
507.304	10521.74
507.672	10506.15
508.041	10618.24
508.409	10761.06
508.777	10924.9
509.145	11010.32
509.514	11080.6
509.882	11145.68
510.25	11258.67
510.618	11312.91
510.986	11415.28
511.354	11591.55
511.722	11690.98
512.09	11855.95
512.458	11830.86
512.826	11997.41
513.193	12073.79
513.561	12081.48
513.929	12189.5
514.297	12410.06
514.664	12497.06
515.032	12508.13
515.4	12617.51
515.767	12785.86
516.135	12823.15
516.502	12796.03
516.869	13054.56
517.237	13183.37
517.604	13132.07
517.972	13343.36
518.339	13337.94
518.706	13422.68
519.073	13561.21
519.44	13581.55
519.808	13780.87
520.175	13821.77
520.542	14086.85
520.909	14014.31
521.276	14078.94
521.643	14270.35
522.009	14421.08
522.376	14536.78
522.743	14555.99
523.11	14747.39
523.477	14907.84
523.843	14985.58
524.21	15110.77
524.577	15199.81
524.943	15226.25
525.31	15442.97
525.676	15543.98
526.043	15618.33
526.409	15649.07
526.776	15831.21
527.142	15895.39
527.508	15986.68
527.874	16098.09
528.241	16230.07
528.607	16266.9
528.973	16430.29
529.339	16483.85
529.705	16607.68
530.071	16742.82
530.437	16926.77
530.803	16908.69
531.169	17051.51
531.535	17055.58
531.901	17157.05
532.267	17220.55
532.632	17347.1
532.998	17346.87
533.364	17541.45
533.73	17527.21
534.095	17649.69
534.461	17713.19
534.826	17804.72
535.192	17982.56
535.557	18077.48
535.923	18149.11
536.288	18150.02
536.653	18239.73
537.019	18264.59
537.384	18404.02
537.749	18485.6
538.114	18471.82
538.479	18543.45
538.845	18628.42
539.21	18535.77
539.575	18757.23
539.94	18785.93
540.305	18917.23
540.67	18949.32
541.034	18946.61
541.399	19040.16
541.764	19217.11
542.129	19243.55
542.494	19264.79
542.858	19235.41
543.223	19440.38
543.587	19429.31
543.952	19475.86
544.316	19643.76
544.681	19614.16
545.045	19786.58
545.41	19790.43
545.774	19859.12
546.138	19895.51
546.503	19933.47
546.867	19955.39
547.231	20094.82
547.595	20159.23
547.959	20328.04
548.324	20194.48
548.688	20358.55
549.052	20464.53
549.416	20456.17
549.779	20465.44
550.143	20588.6
550.507	20727.8
550.871	20741.59
551.235	20781.81
551.599	20910.85
551.962	21089.37
552.326	21026.1
552.689	21149.49
553.053	21075.14
553.417	21153.78
553.78	21503.38
554.143	21334.34
554.507	21545.18
554.87	21516.03
555.234	21756.02
555.597	21745.85
555.96	21628.8
556.323	21773.88
556.686	21716.25
557.05	22018.62
557.413	22097.26
557.776	22175.67
558.139	22354.65
558.502	22382.45
558.865	22403.24
559.228	22613.63
559.59	22676.23
559.953	22760.97
560.316	22948.54
560.679	22847.97
561.041	22942.66
561.404	23171.81
561.767	23225.36
562.129	23071.92
562.492	23501.06
562.854	23407.05
563.217	23526.82
563.579	23637.1
563.941	23683.88
564.304	23859.25
564.666	23953.71
565.028	24045
565.39	24149.86
565.753	24320.7
566.115	24384.88
566.477	24480.47
566.839	24455.84
567.201	24659.45
567.563	24656.74
567.925	24816.06
568.287	24801.82
568.648	24887.69
569.01	25089.27
569.372	25249.72
569.734	25082.49
570.095	25334.23
570.457	25432.99
570.819	25575.13
571.18	25534.68
571.542	25817.39
571.903	25683.38
572.265	25855.13
572.626	25950.04
572.987	25957.95
573.349	26169.47
573.71	26321.78
574.071	26296.92
574.432	26510.02
574.794	26620.53
575.155	26688.1
575.516	26654.88
575.877	26742.56
576.238	26894.87
576.599	26974.42
576.96	26966.96
577.32	27229.78
577.681	27183.68
578.042	27281.75
578.403	27372.37
578.763	27556.1
579.124	27557.23
579.485	27728.52
579.845	27806.71
580.206	27802.87
580.566	27826.6
580.927	28141.17
581.287	28094.61
581.648	28097.33
582.008	28381.39
582.368	28378.45
582.728	28395.85
583.089	28515.39
583.449	28508.16
583.809	28730.3
584.169	28903.18
584.529	28822.05
584.889	29169.39
585.249	29192.21
585.609	29096.4
585.969	29330.29
586.329	29257.97
586.688	29517.18
587.048	29571.64
587.408	29540.23
587.768	29604.18
588.127	29732.99
588.487	29765.3
588.846	30063.15
589.206	29859.99
589.565	30111.96
589.925	30405.51
590.284	30321.22
590.643	30408.68
591.003	30542.46
591.362	30725.28
591.721	30823.81
592.08	30764.15
592.44	30899.06
592.799	31000.3
593.158	31111.03
593.517	31205.27
593.876	31354.87
594.235	31323
594.593	31394.64
594.952	31579.95
595.311	31555.31
595.67	31678.7
596.029	31868.75
596.387	31970.44
596.746	32083.66
597.104	31894.51
597.463	32061.74
597.822	32296.54
598.18	32315.97
598.538	32199.82
598.897	32468.96
599.255	32369.98
599.613	32872.34
599.972	32734.04
600.33	32691.56
600.688	32769.75
601.046	32928.84
601.404	33191.43
601.762	33066.24
602.12	33361.59
602.478	33451.54
602.836	33423.06
603.194	33192.56
603.552	33492.44
603.91	33345.32
604.268	33715.71
604.625	33633.23
604.983	33771.53
605.341	33520.23
605.698	33936.49
606.056	34012.65
606.413	34120.67
606.771	34185.3
607.128	34350.27
607.485	33991.18
607.843	34280.67
608.2	34309.14
608.557	34549.81
608.914	34452.19
609.272	34698.06
609.629	34734.21
609.986	34829.35
610.343	34848.79
610.7	35050.36
611.057	35155.45
611.414	35055.34
611.771	35306.85
612.127	35369.9
612.484	35298.49
612.841	35485.83
613.198	35385.72
613.554	35351.6
613.911	35651.48
614.267	35739.61
614.624	35683.12
614.98	35884.47
615.337	35941.19
615.693	35962.66
616.05	35970.79
616.406	36117.68
616.762	36088.53
617.118	35980.51
617.475	36116.32
617.831	36181.63
618.187	36318.58
618.543	36343.44
618.899	36551.34
619.255	36478.35
619.611	36406.26
619.967	36595.18
620.323	36718.34
620.678	36626.59
621.034	36571
621.39	36601.06
621.746	36696.87
622.101	37120.14
622.457	36818.45
622.812	36926.47
623.168	37044.66
623.523	37167.82
623.879	36984.55
624.234	36924.66
624.589	37118.56
624.945	37217.99
625.3	37308.16
625.655	37234.04
626.01	37232.23
626.365	37287.14
626.72	37138.67
627.075	37279.01
627.43	37204.21
627.785	37135.05
628.14	37242.17
628.495	37356.29
628.85	37305.67
629.205	37241.04
629.559	37448.94
629.914	37238.55
630.269	37295.5
630.623	37253.92
630.978	37252.11
631.332	37327.59
631.687	37408.72
632.041	37266.35
632.396	37308.61
632.75	37259.12
633.104	37252.34
633.459	37099.58
633.813	37194.04
634.167	37192.23
634.521	37126.02
634.875	37237.88
635.229	37147.48
635.583	37007.15
635.937	36927.38
636.291	37064.77
636.645	37053.93
636.999	36839.7
637.352	37138.22
637.706	37036.3
638.06	37007.83
638.413	37061.61
638.767	36876.08
639.121	36946.59
639.474	36717.66
639.828	36648.97
640.181	36853.48
640.534	36735.07
640.888	36696.65
641.241	36647.16
641.594	36726.93
641.947	36839.47
642.301	36643.54
642.654	36682.19
643.007	36831.33
643.36	36597.22
643.713	36514.51
644.066	36824.1
644.419	36530.55
644.771	36303.89
645.124	35926.27
645.477	35945.93
645.83	35705.49
646.182	35431.82
646.535	35576.45
646.888	35618.48
647.24	35313.18
647.593	35589.56
647.945	35457.36
648.298	35199.96
648.65	35270.92
649.002	35142.56
649.355	35374.2
649.707	35268.89
650.059	35446.96
650.411	35804.02
650.763	35885.82
651.115	36271.57
651.467	35951.81
651.819	36109.54
652.171	35998.59
652.523	36056.21
652.875	36103.44
653.227	35853.96
653.578	36169.66
653.93	35953.62
654.282	35797.91
654.633	35731.02
654.985	35660.97
655.337	35834.75
655.688	35742.77
656.039	35992.26
656.391	35662.1
656.742	35701.19
657.094	35786.16
657.445	35812.38
657.796	35798.37
658.147	35711.36
658.498	35618.26
658.849	35628.88
659.2	35531.48
659.551	35556.34
659.902	35674.3
660.253	35676.56
660.604	35799.27
660.955	35452.84
661.306	35624.13
661.656	35570.58
662.007	35531.93
662.358	35536.68
662.708	35546.17
663.059	35528.09
663.409	35241.32
663.76	35587.98
664.11	35515.21
664.461	35525.61
664.811	35593.4
665.161	35551.14
665.511	35379.17
665.862	35541.2
666.212	35544.81
666.562	35648.09
666.912	35473.18
667.262	35512.5
667.612	35569.67
667.962	35524.25
668.312	35521.76
668.662	35527.87
669.011	35428.43
669.361	35378.26
669.711	35351.15
670.06	35238.38
670.41	35171.72
670.76	35122.68
671.109	35396.57
671.459	35333.75
671.808	35250.58
672.157	35329
672.507	35132.4
672.856	35061.21
673.205	35109.8
673.554	35364.03
673.904	35306.4
674.253	35410.35
674.602	35298.94
674.951	34796.36
675.3	34546.42
675.649	34994.09
675.998	34964.49
676.346	35063.92
676.695	35175.78
677.044	34837.94
677.393	34952.97
677.741	35148.44
678.09	34821.9
678.438	34886.75
678.787	34887.88
679.135	34873.65
679.484	34638.4
679.832	34857.37
680.181	34583.03
680.529	34766.3
680.877	34626.65
681.225	34580.77
681.573	34714.1
681.922	34392.53
682.27	34625.29
682.618	34432.53
682.966	34372.42
683.314	34388.23
683.661	34392.98
684.009	34261.01
684.357	33924.29
684.705	34007.91
685.053	34015.81
685.4	34100.33
685.748	33770.4
686.095	33835.03
686.443	33678.65
686.79	33825.09
687.138	33781.7
687.485	33713.45
687.832	33641.36
688.18	33665.32
688.527	33510.07
688.874	33487.24
689.221	33305.78
689.568	33442.5
689.915	33297.64
690.262	33266.23
690.609	33050.42
690.956	33047.7
691.303	33063.98
691.65	32869.18
691.997	32860.14
692.344	32543.99
692.69	32607.94
693.037	32679.35
693.383	32480.49
693.73	32408.85
694.077	32212.25
694.423	32325.24
694.769	32166.15
695.116	32073.04
695.462	32082.31
695.808	32063.32
696.155	31936.55
696.501	31759.38
696.847	31844.12
697.193	31738.36
697.539	31716.67
697.885	31434.19
698.231	31383.12
698.577	31327.3
698.923	31442.32
699.269	31168.21
699.614	31101.31
699.96	31022.45
700.306	31053.86
700.651	30894.31
700.997	30779.29
701.342	30754.43
701.688	30595.79
702.033	30638.73
702.379	30558.5
702.724	30400.77
703.069	30678.5
703.415	30240.55
703.76	30178.4
704.105	30153.77
704.45	30196.03
704.795	29997.39
705.14	29951.74
705.485	29852.08
705.83	29746.32
706.175	29796.72
706.52	29760.79
706.865	29616.38
707.209	29618.87
707.554	29489.15
707.899	29653.22
708.243	29469.27
708.588	29270.85
708.932	29133.68
709.277	29250.29
709.621	29127.58
709.966	28994.03
710.31	29067.24
710.654	28782.73
710.998	28813.69
711.342	28970.3
711.687	28642.17
712.031	28570.53
712.375	28490.08
712.719	28518.78
713.063	28492.57
713.407	28467.49
713.75	28287.38
714.094	28414.38
714.438	28215.74
714.782	28204.89
715.125	28092.13
715.469	28155.18
715.812	27959.7
716.156	27829.08
716.499	27966.26
716.843	28005.58
717.186	27756.32
717.53	27868.86
717.873	27796.54
718.216	27708.86
718.559	27696.21
718.902	27489.88
719.246	27521.3
719.589	27407.4
719.932	27428.42
720.275	27370.79
720.617	27320.85
720.96	27329.66
721.303	27316.1
721.646	27229.33
721.989	27002.44
722.331	27160.85
722.674	27152.94
723.016	27121.76
723.359	26977.36
723.701	27032.27
724.044	26827.98
724.386	26757.25
724.729	26867.75
725.071	26853.52
725.413	26742.79
725.755	26710.92
726.097	26654.88
726.439	26566.97
726.782	26545.05
727.124	26608.78
727.465	26435.22
727.807	26554.54
728.149	26376.24
728.491	26244.27
728.833	26409.46
729.175	26313.87
729.516	26191.16
729.858	26274.1
730.199	26160.43
730.541	26084.95
730.882	26110.26
731.224	26268.45
731.565	25949.36
731.906	25976.93
732.248	26044.72
732.589	25867.78
732.93	25886.99
733.271	25795.69
733.612	25868.23
733.953	25826.43
734.294	25651.06
734.635	25605.41
734.976	25763.38
735.317	25539.88
735.658	25594.79
735.999	25555.47
736.339	25474.8
736.68	25525.42
737.021	25477.73
737.361	25248.14
737.702	25429.37
738.042	25262.82
738.383	25264.41
738.723	25313.44
739.063	25204.52
739.404	25242.49
739.744	25080.68
740.084	24980.12
740.424	25066.67
740.764	25034.58
741.104	25142.15
741.444	24921.14
741.784	24955.49
742.124	24939.9
742.464	24900.57
742.804	24751.65
743.143	24827.36
743.483	24729.96
743.823	24649.96
744.162	24711.65
744.502	24759.33
744.841	24492.9
745.181	24705.78
745.52	24497.87
745.86	24571.77
746.199	24515.05
746.538	24449.74
746.877	24525.44
747.216	24412.68
747.556	24385.33
747.895	24467.37
748.234	24324.54
748.573	24241.16
748.911	24128.39
749.25	24148.28
749.589	24061.27
749.928	24134.04
750.267	24057.43
750.605	24023.99
750.944	24055.4
751.283	23824.67
751.621	23959.36
751.96	23896.08
752.298	23773.82
752.636	23813.37
752.975	23636.88
753.313	23546.49
753.651	23659.7
753.989	23588.07
754.327	23595.75
754.666	23418.58
755.004	23489.54
755.342	23463.78
755.679	23373.61
756.017	23212.26
756.355	23362.31
756.693	23177.91
757.031	23265.14
