Data from hue_160_FLMS001491_00064.txt Node
Date: Tue Feb 07 16:51:31 GMT 2017
User: dcchb
Spectrometer: FLMS00149
Trigger mode: 0
Integration Time (sec): 2.000000E-2
Scans to average: 10
Electric dark correction enabled: true
Nonlinearity correction enabled: false
Boxcar width: 0
XAxis mode: Wavelengths
Number of Pixels in Spectrum: 2048
>>>>>Begin Spectral Data<<<<<
341.393	-22.65
341.776	-22.65
342.16	-22.65
342.543	-56.1
342.927	-68.08
343.31	-50.45
343.693	-73.73
344.077	-71.92
344.46	-64.24
344.843	-46.61
345.226	-46.83
345.61	-14.97
345.993	-40.28
346.376	-3.22
346.759	15.99
347.142	15.08
347.525	40.62
347.908	71.13
348.291	72.71
348.674	86.04
349.057	110.68
349.44	138.02
349.823	153.39
350.206	167.62
350.588	206.94
350.971	220.05
351.354	236.1
351.737	262.76
352.119	247.62
352.502	273.16
352.884	283.55
353.267	287.39
353.65	296.21
354.032	297.79
354.414	318.58
354.797	312.03
355.179	317
355.562	321.52
355.944	334.4
356.326	342.08
356.709	327.39
357.091	329.2
357.473	352.7
357.855	327.39
358.238	332.14
358.62	341.18
359.002	349.09
359.384	350.89
359.766	343.66
360.148	343.21
360.53	345.7
360.912	344.34
361.294	332.59
361.676	334.4
362.057	332.59
362.439	346.38
362.821	339.82
363.203	324
363.584	331.01
363.966	316.55
364.348	322.42
364.729	330.56
365.111	321.29
365.493	316.09
365.874	325.58
366.256	296.88
366.637	321.07
367.019	332.36
367.4	317.22
367.781	313.38
368.163	302.53
368.544	317.68
368.925	328.75
369.306	317
369.688	343.21
370.069	325.36
370.45	307.28
370.831	331.91
371.212	321.29
371.593	317.22
371.974	319.94
372.355	317.9
372.736	343.66
373.117	341.18
373.498	305.25
373.879	328.07
374.26	305.47
374.641	327.17
375.021	323.55
375.402	302.76
375.783	325.81
376.163	307.28
376.544	340.73
376.925	311.35
377.305	322.65
377.686	340.73
378.066	333.72
378.447	340.5
378.827	341.86
379.208	340.27
379.588	342.08
379.968	354.28
380.349	329.2
380.729	338.69
381.109	331.91
381.489	335.75
381.87	328.97
382.25	354.06
382.63	338.01
383.01	327.39
383.39	333.04
383.77	347.5
384.15	348.41
384.53	355.64
384.91	343.89
385.29	371.46
385.67	355.64
386.049	365.58
386.429	358.58
386.809	378.92
387.189	341.4
387.568	371.69
387.948	354.06
388.328	362.19
388.707	356.77
389.087	377.56
389.466	368.97
389.846	372.59
390.225	383.44
390.605	407.62
390.984	368.3
391.363	364
391.743	350.44
392.122	356.54
392.501	392.93
392.881	377.33
393.26	380.95
393.639	391.8
394.018	377.33
394.397	385.92
394.776	388.41
395.155	375.75
395.534	376.66
395.913	400.38
396.292	421.63
396.671	371.46
397.05	375.98
397.429	403.1
397.808	414.4
398.186	399.93
398.565	385.92
398.944	414.62
399.323	404.23
399.701	406.71
400.08	396.54
400.458	390.44
400.837	411.23
401.215	401.06
401.594	405.81
401.972	412.81
402.351	408.52
402.729	384.11
403.107	407.39
403.486	438.12
403.864	426.82
404.242	432.7
404.62	414.17
404.999	438.58
405.377	431.12
405.755	416.66
406.133	443.32
406.511	441.06
406.889	439.71
407.267	468.41
407.645	459.37
408.023	464.56
408.401	463.66
408.779	461.17
409.156	445.58
409.534	471.8
409.912	448.29
410.29	461.63
410.667	488.74
411.045	470.89
411.422	478.57
411.8	465.24
412.178	472.93
412.555	502.98
412.933	498.46
413.31	489.87
413.687	491.91
414.065	512.7
414.442	509.99
414.819	515.18
415.197	519.7
415.574	513.6
415.951	530.78
416.328	495.75
416.705	521.29
417.082	515.64
417.46	536.88
417.837	538.69
418.214	519.03
418.591	552.02
418.967	542.53
419.344	528.74
419.721	523.09
420.098	555.41
420.475	561.51
420.852	534.62
421.228	546.14
421.605	556.99
421.982	547.95
422.358	575.52
422.735	579.14
423.111	554.28
423.488	579.59
423.864	592.47
424.241	585.46
424.617	586.14
424.994	613.26
425.37	608.52
425.746	608.74
426.123	604.45
426.499	618.46
426.875	633.37
427.251	637.89
427.627	655.07
428.003	643.09
428.379	650.1
428.756	629.76
429.132	643.77
429.507	679.47
429.883	673.37
430.259	666.37
430.635	658.91
431.011	680.6
431.387	664.78
431.763	686.48
432.138	710.66
432.514	719.02
432.89	701.62
433.265	719.02
433.641	733.03
434.016	758.34
434.392	740.94
434.767	751.11
435.143	743.65
435.518	767.38
435.894	775.06
436.269	789.3
436.644	803.99
437.02	788.62
437.395	794.72
437.77	794.05
438.145	807.38
438.52	820.26
438.895	846.25
439.271	795.4
439.646	848.96
440.021	851.45
440.395	876.53
440.77	863.65
441.145	851.67
441.52	876.53
441.895	882.18
442.27	893.71
442.645	894.16
443.019	934.16
443.394	908.17
443.769	907.72
444.143	899.81
444.518	939.13
444.892	923.76
445.267	919.24
445.641	953.59
446.016	954.49
446.39	958.79
446.764	944.78
447.139	935.74
447.513	942.52
447.887	952.46
448.262	941.16
448.636	964.66
449.01	963.31
449.384	999.01
449.758	1001.95
450.132	1003.76
450.506	1045.34
450.88	1012.8
451.254	1033.59
451.628	1045.34
452.002	1051.22
452.376	1062.97
452.75	1082.17
453.123	1073.59
453.497	1092.34
453.871	1084.21
454.244	1133.92
454.618	1164.88
454.992	1123.3
455.365	1144.09
455.739	1148.39
456.112	1207.14
456.486	1205.79
456.859	1181.83
457.232	1209.86
457.606	1248.72
457.979	1225
458.352	1246.24
458.725	1262.96
459.099	1274.49
459.472	1315.16
459.845	1309.29
460.218	1354.03
460.591	1342.28
460.964	1331.21
461.337	1384.09
461.71	1427.25
462.083	1407.59
462.456	1427.93
462.829	1459.11
463.201	1459.57
463.574	1472.22
463.947	1517.42
464.32	1575.72
464.692	1544.08
465.065	1569.62
465.438	1582.27
465.81	1601.26
466.183	1653.91
466.555	1641.71
466.928	1692.33
467.3	1683.74
467.672	1723.06
468.045	1751.08
468.417	1818.65
468.789	1814.59
469.161	1829.73
469.534	1870.85
469.906	1918.99
470.278	1933
470.65	1950.17
471.022	2025.88
471.394	2056.39
471.766	2093
472.138	2115.14
472.51	2176.16
472.882	2204.18
473.253	2225.2
473.625	2263.61
473.997	2305.65
474.369	2390.16
474.74	2405.08
475.112	2485.98
475.484	2532.76
475.855	2623.15
476.227	2635.35
476.598	2717.39
476.97	2773.88
477.341	2878.51
477.713	2932.07
478.084	2935.91
478.455	3088.45
478.827	3107.43
479.198	3210.48
479.569	3294.32
479.94	3383.36
480.311	3462.68
480.682	3589
481.053	3663.58
481.424	3732.5
481.795	3798.04
482.166	3903.8
482.537	3988.54
482.908	4158.03
483.279	4235.76
483.65	4311.47
484.021	4472.82
484.391	4531.58
484.762	4673.94
485.133	4720.05
485.503	4802.08
485.874	4964.78
486.244	5087.95
486.615	5252.01
486.985	5358.45
487.356	5472.57
487.726	5587.82
488.097	5713.47
488.467	5824.88
488.837	5962.72
489.207	6085.21
489.578	6195.49
489.948	6311.42
490.318	6450.17
490.688	6555.48
491.058	6696.49
491.428	6873.66
491.798	7044.05
492.168	7206.31
492.538	7251.05
492.908	7367.43
493.278	7510.71
493.648	7624.83
494.017	7813.3
494.387	7842.45
494.757	8022.11
495.126	8149.33
495.496	8239.27
495.866	8360.85
496.235	8425.26
496.605	8649.89
496.974	8646.72
497.344	8815.76
497.713	8887.85
498.082	9012.81
498.452	9137.1
498.821	9258.68
499.19	9282.86
499.559	9410.32
499.928	9484.44
500.298	9642.63
500.667	9678.33
501.036	9692.57
501.405	9865.67
501.774	9886.69
502.143	10059.11
502.512	10071.09
502.88	10151.54
503.249	10201.94
503.618	10315.6
503.987	10408.48
504.356	10457.3
504.724	10595.6
505.093	10598.31
505.462	10683.5
505.83	10718.08
506.199	10790.17
506.567	10955.14
506.936	10950.39
507.304	11072.42
507.672	11095.92
508.041	11150.16
508.409	11226.77
508.777	11298.63
509.145	11376.14
509.514	11385.18
509.882	11474.44
510.25	11488.91
510.618	11603.93
510.986	11577.04
511.354	11728
511.722	11709.47
512.09	11742.69
512.458	11786.75
512.826	11944.71
513.193	11847.32
513.561	11957.82
513.929	12015.9
514.297	12096.12
514.664	12151.94
515.032	12185.84
515.4	12236.68
515.767	12214.99
516.135	12357.13
516.502	12145.39
516.869	12327.53
517.237	12358.49
517.604	12391.71
517.972	12520.29
518.339	12457.7
518.706	12489.56
519.073	12488.65
519.44	12524.81
519.808	12584.25
520.175	12580.63
520.542	12629.67
520.909	12718.93
521.276	12674.64
521.643	12763.22
522.009	12872.6
522.376	12873.96
522.743	12919.15
523.11	12931.58
523.477	13078.92
523.843	13013.61
524.21	13092.48
524.577	13078.47
524.943	13149.43
525.31	13200.5
525.676	13186.49
526.043	13264.45
526.409	13219.71
526.776	13273.94
527.142	13297.22
527.508	13352.13
527.874	13347.62
528.241	13328.18
528.607	13350.55
528.973	13396.65
529.339	13268.75
529.705	13456.99
530.071	13402.98
530.437	13377.67
530.803	13465.8
531.169	13450.21
531.535	13311.46
531.901	13435.97
532.267	13362.3
532.632	13417.9
532.998	13414.96
533.364	13334.73
533.73	13405.69
534.095	13418.12
534.461	13412.25
534.826	13400.95
535.192	13393.26
535.557	13409.76
535.923	13326.15
536.288	13321.4
536.653	13353.49
537.019	13214.74
537.384	13235.53
537.749	13207.96
538.114	13277.33
538.479	13046.38
538.845	13190.33
539.21	13086.38
539.575	13124.8
539.94	13082.99
540.305	13089.99
540.67	13075.53
541.034	12941.3
541.399	12950.56
541.764	12963.22
542.129	12868.31
542.494	12922.77
542.858	12879.83
543.223	12803.22
543.587	12884.8
543.952	12754.64
544.316	12775.2
544.681	12690.91
545.045	12655.66
545.41	12658.14
545.774	12693.85
546.138	12541.76
546.503	12583.79
546.867	12546.05
547.231	12593.28
547.595	12533.17
547.959	12554.87
548.324	12334.99
548.688	12380.18
549.052	12353.74
549.416	12370.92
549.779	12327.53
550.143	12320.75
550.507	12282.78
550.871	12246.63
551.235	12239.62
551.599	12246.85
551.962	12107.2
552.326	12160.53
552.689	12096.35
553.053	12116.69
553.417	12101.32
553.78	12205.95
554.143	12111.72
554.507	12007.54
554.87	12029.46
555.234	12119.85
555.597	11993.75
555.96	11981.32
556.323	11964.6
556.686	12045.95
557.05	12026.29
557.413	11909.46
557.776	11965.96
558.139	12002.34
558.502	11963.47
558.865	11935.45
559.228	11942.45
559.59	11890.03
559.953	11918.05
560.316	11965.28
560.679	11911.04
561.041	12052.51
561.404	11977.48
561.767	12007.99
562.129	11950.36
562.492	11976.8
562.854	11945.62
563.217	11954.88
563.579	11899.52
563.941	12045.05
564.304	12077.14
564.666	12046.86
565.028	12050.47
565.39	11975.22
565.753	12062.45
566.115	12097.7
566.477	12197.36
566.839	12115.56
567.201	12174.76
567.563	12198.27
567.925	12243.46
568.287	12229
568.648	12177.93
569.01	12223.58
569.372	12239.62
569.734	12259.28
570.095	12302.44
570.457	12337.02
570.819	12282.56
571.18	12272.62
571.542	12342.67
571.903	12278.94
572.265	12331.14
572.626	12306.96
572.987	12398.71
573.349	12439.16
573.71	12398.94
574.071	12433.29
574.432	12367.75
574.794	12516.45
575.155	12403.01
575.516	12372.05
575.877	12462.44
576.238	12445.72
576.599	12440.75
576.96	12453.4
577.32	12466.73
577.681	12480.97
578.042	12479.84
578.403	12450.01
578.763	12480.75
579.124	12363.01
579.485	12494.76
579.845	12435.77
580.206	12399.39
580.566	12385.61
580.927	12449.79
581.287	12561.42
581.648	12451.82
582.008	12431.93
582.368	12450.69
582.728	12454.31
583.089	12440.75
583.449	12498.37
583.809	12510.58
584.169	12450.01
584.529	12440.29
584.889	12545.15
585.249	12458.15
585.609	12469.22
585.969	12346.96
586.329	12411.82
586.688	12406.17
587.048	12373.63
587.408	12371.14
587.768	12427.41
588.127	12317.13
588.487	12324.82
588.846	12424.48
589.206	12283.24
589.565	12288.21
589.925	12402.1
590.284	12354.87
590.643	12302.67
591.003	12330.24
591.362	12380.41
591.721	12311.71
592.08	12383.57
592.44	12266.97
592.799	12315.78
593.158	12377.92
593.517	12242.33
593.876	12321.65
594.235	12279.17
594.593	12236.23
594.952	12314.65
595.311	12304.25
595.67	12190.81
596.029	12323.24
596.387	12334.31
596.746	12348.32
597.104	12150.58
597.463	12265.84
597.822	12237.14
598.18	12199.17
598.538	12209.79
598.897	12224.71
599.255	12151.26
599.613	12364.82
599.972	12190.36
600.33	12189.91
600.688	12250.02
601.046	12256.57
601.404	12315.78
601.762	12212.5
602.12	12255.21
602.478	12323.91
602.836	12288.21
603.194	12296.8
603.552	12298.15
603.91	12149.68
604.268	12299.96
604.625	12210.92
604.983	12324.59
605.341	12195.56
605.698	12286.63
606.056	12245.27
606.413	12259.96
606.771	12294.54
607.128	12280.75
607.485	12335.89
607.843	12298.38
608.2	12290.02
608.557	12362.1
608.914	12276
609.272	12321.2
609.629	12319.62
609.986	12377.02
610.343	12388.32
610.7	12421.09
611.057	12430.8
611.414	12359.84
611.771	12475.77
612.127	12466.51
612.484	12410.01
612.841	12395.55
613.198	12465.15
613.554	12410.24
613.911	12533.63
614.267	12509.22
614.624	12450.92
614.98	12490.69
615.337	12571.36
615.693	12470.8
616.05	12512.38
616.406	12558.26
616.762	12553.51
617.118	12574.53
617.475	12593.06
617.831	12541.31
618.187	12543.12
618.543	12648.88
618.899	12611.59
619.255	12602.55
619.611	12623.79
619.967	12641.42
620.323	12617.92
620.678	12617.69
621.034	12570.01
621.39	12614.53
621.746	12570.69
622.101	12706.28
622.457	12547.41
622.812	12567.3
623.168	12648.88
623.523	12631.02
623.879	12686.62
624.234	12604.36
624.589	12637.8
624.945	12628.09
625.3	12597.58
625.655	12646.39
626.01	12685.03
626.365	12642.55
626.72	12611.36
627.075	12629.44
627.43	12605.04
627.785	12649.1
628.14	12620.18
628.495	12710.8
628.85	12674.86
629.205	12608.2
629.559	12642.32
629.914	12642.1
630.269	12500.18
630.623	12573.85
630.978	12485.49
631.332	12610.23
631.687	12576.34
632.041	12553.06
632.396	12495.43
632.75	12517.81
633.104	12449.79
633.459	12487.3
633.813	12448.88
634.167	12465.38
634.521	12454.53
634.875	12402.78
635.229	12364.82
635.583	12353.74
635.937	12412.05
636.291	12372.05
636.645	12303.8
636.999	12294.54
637.352	12277.36
637.706	12300.86
638.06	12299.28
638.413	12331.6
638.767	12289.56
639.121	12288.21
639.474	12140.87
639.828	12175.67
640.181	12278.04
640.534	12197.36
640.888	12200.07
641.241	12113.07
641.594	12172.96
641.947	12170.7
642.301	12133.64
642.654	12083.24
643.007	12093.86
643.36	12062.45
643.713	12063.13
644.066	12161.43
644.419	12008.89
644.771	11988.78
645.124	11833.08
645.477	11831.27
645.83	11695.68
646.182	11807.99
646.535	11712.18
646.888	11751.27
647.24	11591.05
647.593	11695.46
647.945	11689.81
648.298	11564.84
648.65	11549.02
649.002	11625.85
649.355	11681.44
649.707	11659.75
650.059	11640.09
650.411	11847.54
650.763	11867.65
651.115	11982.23
651.467	11935.22
651.819	11899.07
652.171	11912.62
652.523	11907.65
652.875	11844.83
653.227	11804.83
653.578	11942.91
653.93	11889.57
654.282	11891.38
654.633	11860.42
654.985	11920.99
655.337	11859.97
655.688	11878.95
656.039	11914.66
656.391	11833.3
656.742	11901.33
657.094	11911.49
657.445	11892.06
657.796	11945.17
658.147	11850.25
658.498	11842.34
658.849	11915.11
659.2	11864.49
659.551	11850.71
659.902	11913.75
660.253	11941.78
660.604	11849.12
660.955	11885.96
661.306	11916.92
661.656	11929.12
662.007	11981.78
662.358	11955.56
662.708	11934.32
663.059	11968.67
663.409	11820.65
663.76	11955.79
664.11	11950.36
664.461	12013.86
664.811	11972.96
665.161	11894.77
665.511	11930.03
665.862	12024.26
666.212	11933.64
666.562	11941.55
666.912	11945.62
667.262	11949.23
667.612	11928.67
667.962	11971.61
668.312	11921.21
668.662	11976.35
669.011	11870.82
669.361	11896.13
669.711	11862.68
670.06	11875.56
670.41	11838.95
670.76	11863.59
671.109	11885.96
671.459	11904.04
671.808	11862.46
672.157	11906.75
672.507	11729.8
672.856	11767.32
673.205	11810.93
673.554	11876.92
673.904	11773.65
674.253	11854.77
674.602	11794.89
674.951	11663.59
675.3	11601.22
675.649	11753.53
675.998	11785.85
676.346	11744.95
676.695	11782.68
677.044	11666.3
677.393	11739.97
677.741	11736.81
678.09	11673.08
678.438	11665.63
678.787	11671.5
679.135	11640.32
679.484	11570.03
679.832	11613.65
680.181	11522.58
680.529	11663.14
680.877	11586.98
681.225	11548.34
681.573	11553.09
681.922	11434.22
682.27	11452.07
682.618	11518.06
682.966	11432.41
683.314	11462.47
683.661	11336.37
684.009	11336.59
684.357	11359.42
684.705	11391.51
685.053	11299.99
685.4	11320.55
685.748	11281.91
686.095	11264.05
686.443	11194.9
686.79	11175.92
687.138	11174.56
687.485	11161.23
687.832	11121.68
688.18	11116.49
688.527	11093.44
688.874	11064.96
689.221	10988.36
689.568	11000.78
689.915	10974.12
690.262	10986.1
690.609	10917.62
690.956	10907.23
691.303	10863.39
691.65	10746.33
691.997	10764.86
692.344	10720.57
692.69	10768.02
693.037	10728.7
693.383	10634.47
693.73	10659.78
694.077	10565.54
694.423	10549.5
694.769	10487.35
695.116	10510.63
695.462	10410.52
695.808	10480.35
696.155	10430.4
696.501	10353.8
696.847	10299.11
697.193	10258.2
697.539	10288.94
697.885	10235.61
698.231	10197.19
698.577	10142.5
698.923	10160.35
699.269	10068.83
699.614	9943.18
699.96	9951.77
700.306	9988.83
700.651	9927.37
700.997	9859.35
701.342	9775.73
701.688	9824.77
702.033	9793.58
702.379	9859.8
702.724	9752.23
703.069	9786.13
703.415	9694.38
703.76	9607.15
704.105	9670.88
704.45	9634.94
704.795	9565.34
705.14	9485.12
705.485	9527.15
705.83	9421.62
706.175	9510.2
706.52	9409.64
706.865	9438.79
707.209	9366.48
707.554	9312.92
707.899	9366.93
708.243	9332.13
708.588	9334.16
708.932	9156.54
709.277	9201.06
709.621	9185.01
709.966	9154.05
710.31	9139.36
710.654	8988.86
710.998	9112.47
711.342	9123.32
711.687	9085.35
712.031	9011.01
712.375	8935.08
712.719	8978.24
713.063	8978.92
713.407	8967.84
713.75	8901.18
714.094	8938.47
714.438	8966.49
714.782	8877
715.125	8806.94
715.469	8897.79
715.812	8842.65
716.156	8839.49
716.499	8815.3
716.843	8865.7
717.186	8710.67
717.53	8798.58
717.873	8769.66
718.216	8724.69
718.559	8717
718.902	8677
719.246	8701.86
719.589	8627.74
719.932	8611.02
720.275	8701.64
720.617	8688.53
720.96	8642.65
721.303	8562.66
721.646	8592.49
721.989	8572.37
722.331	8567.18
722.674	8593.16
723.016	8523.11
723.359	8569.66
723.701	8560.17
724.044	8512.49
724.386	8499.16
724.729	8548.42
725.071	8465.26
725.413	8524.69
725.755	8459.38
726.097	8464.13
726.439	8373.06
726.782	8464.58
727.124	8548.65
727.465	8476.1
727.807	8397.24
728.149	8432.04
728.491	8418.71
728.833	8397.69
729.175	8411.25
729.516	8413.96
729.858	8431.36
730.199	8410.8
730.541	8422.77
730.882	8379.16
731.224	8450.34
731.565	8318.59
731.906	8395.2
732.248	8395.65
732.589	8363.79
732.93	8349.33
733.271	8368.54
733.612	8360.18
733.953	8404.02
734.294	8333.51
734.635	8334.64
734.976	8362.66
735.317	8305.26
735.658	8359.5
735.999	8377.58
736.339	8352.27
736.68	8361.76
737.021	8335.32
737.361	8339.39
737.702	8356.33
738.042	8356.11
738.383	8349.78
738.723	8364.7
739.063	8340.29
739.404	8398.59
739.744	8362.21
740.084	8420.06
740.424	8372.83
740.764	8481.53
741.104	8437.24
741.444	8399.72
741.784	8436.56
742.124	8453.28
742.464	8458.25
742.804	8498.48
743.143	8479.27
743.483	8542.09
743.823	8469.33
744.162	8554.29
744.502	8570.34
744.841	8566.27
745.181	8670
745.52	8635.65
745.86	8660.96
746.199	8722.2
746.538	8724.69
746.877	8735.08
747.216	8807.17
747.556	8881.29
747.895	8856.66
748.234	8944.79
748.573	8974.62
748.911	8965.36
749.25	9032.25
749.589	9086.48
749.928	9208.51
750.267	9262.07
750.605	9250.55
750.944	9391.11
751.283	9426.81
751.621	9508.39
751.96	9557.88
752.298	9641.05
752.636	9757.88
752.975	9871.55
753.313	9910.87
753.651	10135.04
753.989	10035.84
754.327	10208.94
754.666	10270.41
755.004	10416.62
755.342	10526.67
755.679	10660.23
756.017	10742.94
756.355	10847.34
756.693	11014.12
757.031	11164.62
757.368	11283.26
757.706	11399.64
758.044	11551.73
758.381	11680.09
758.719	11795.57
759.056	11984.49
