Data from hue_38_FLMS001491_00070.txt Node
Date: Tue Feb 07 17:31:50 GMT 2017
User: dcchb
Spectrometer: FLMS00149
Trigger mode: 0
Integration Time (sec): 2.000000E-2
Scans to average: 10
Electric dark correction enabled: true
Nonlinearity correction enabled: false
Boxcar width: 0
XAxis mode: Wavelengths
Number of Pixels in Spectrum: 2048
>>>>>Begin Spectral Data<<<<<
341.393	-14.53
341.776	-14.53
342.16	-14.53
342.543	-56.79
342.927	-86.62
343.31	-78.26
343.693	-72.16
344.077	-58.15
344.46	-65.83
344.843	-61.76
345.226	-57.02
345.61	-18.15
345.993	-24.25
346.376	-10.24
346.759	8.52
347.142	31.34
347.525	43.32
347.908	66.14
348.291	94.16
348.674	91
349.057	111.34
349.44	128.97
349.823	157.89
350.206	178.23
350.588	207.83
350.971	223.2
351.354	241.5
351.737	243.09
352.119	255.52
352.502	249.64
352.884	279.24
353.267	259.58
353.65	305.91
354.032	296.87
354.414	316.08
354.797	313.14
355.179	330.99
355.562	323.76
355.944	341.16
356.326	345.68
356.709	362.18
357.091	358.79
357.473	348.62
357.855	363.08
358.238	332.8
358.62	348.62
359.002	327.15
359.384	353.82
359.766	362.63
360.148	339.58
360.53	351.11
360.912	334.61
361.294	345.01
361.676	351.33
362.057	323.08
362.439	340.03
362.821	314.72
363.203	360.82
363.584	335.29
363.966	335.97
364.348	322.86
364.729	331.22
365.111	321.5
365.493	316.53
365.874	326.7
366.256	322.86
366.637	308.62
367.019	314.72
367.4	302.75
367.781	339.36
368.163	334.61
368.544	307.27
368.925	304.78
369.306	309.75
369.688	311.11
370.069	323.08
370.45	327.6
370.831	316.98
371.212	324.21
371.593	327.15
371.974	293.71
372.355	323.31
372.736	333.71
373.117	339.58
373.498	311.56
373.879	307.04
374.26	319.69
374.641	319.69
375.021	323.08
375.402	307.72
375.783	338.45
376.163	330.09
376.544	326.93
376.925	320.15
377.305	335.74
377.686	328.28
378.066	331.67
378.447	317.66
378.827	347.94
379.208	347.72
379.588	347.94
379.968	322.86
380.349	342.97
380.729	335.51
381.109	351.56
381.489	361.5
381.87	346.81
382.25	355.4
382.63	346.36
383.01	354.04
383.39	347.94
383.77	351.56
384.15	380.94
384.53	347.04
384.91	351.56
385.29	366.02
385.67	365.12
386.049	364.89
386.429	368.73
386.809	359.02
387.189	373.7
387.568	352.91
387.948	361.73
388.328	347.04
388.707	377.32
389.087	367.38
389.466	352.01
389.846	348.17
390.225	382.07
390.605	370.09
390.984	379.13
391.363	384.33
391.743	379.13
392.122	363.76
392.501	362.86
392.881	383.87
393.26	398.79
393.639	392.01
394.018	395.17
394.397	391.33
394.776	387.49
395.155	402.18
395.534	399.47
395.913	400.6
396.292	400.14
396.671	376.19
397.05	394.72
397.429	397.66
397.808	399.24
398.186	399.92
398.565	404.89
398.944	411.9
399.323	411.67
399.701	403.76
400.08	414.16
400.458	410.54
400.837	414.83
401.215	403.53
401.594	410.77
401.972	440.14
402.351	423.2
402.729	422.97
403.107	436.3
403.486	438.79
403.864	431.78
404.242	420.03
404.62	440.6
404.999	433.82
405.377	430.43
405.755	440.6
406.133	439.47
406.511	453.25
406.889	443.53
407.267	455.74
407.645	447.6
408.023	452.35
408.401	464.32
408.779	428.39
409.156	444.66
409.534	460.93
409.912	457.77
410.29	453.02
410.667	488.96
411.045	476.53
411.422	475.85
411.8	491.67
412.178	480.37
412.555	487.37
412.933	507.26
413.31	510.2
413.687	502.29
414.065	524.89
414.442	500.71
414.819	538.67
415.197	506.58
415.574	507.71
415.951	528.73
416.328	526.02
416.705	546.58
417.082	544.1
417.46	538.9
417.837	541.84
418.214	549.75
418.591	547.26
418.967	536.64
419.344	557.2
419.721	543.19
420.098	553.36
420.475	550.42
420.852	563.53
421.228	568.5
421.605	573.7
421.982	545.23
422.358	570.99
422.735	566.02
423.111	581.61
423.488	580.71
423.864	576.19
424.241	590.87
424.617	617.54
424.994	579.12
425.37	599.91
425.746	605.11
426.123	587.03
426.499	627.71
426.875	617.77
427.251	632.68
427.627	601.95
428.003	642.4
428.379	646.01
428.756	647.82
429.132	649.18
429.507	651.66
429.883	651.66
430.259	643.08
430.635	685.11
431.011	702.06
431.387	675.17
431.763	668.39
432.138	683.75
432.514	664.77
432.89	704.09
433.265	724.88
433.641	716.07
434.016	725.33
434.392	713.13
434.767	747.03
435.143	712.9
435.518	743.19
435.894	755.39
436.269	777.76
436.644	742.51
437.02	752
437.395	792.45
437.77	789.97
438.145	768.27
438.52	787.71
438.895	774.82
439.271	797.65
439.646	828.61
440.021	817.76
440.395	808.5
440.77	790.64
441.145	829.51
441.52	822.73
441.895	844.2
442.27	830.42
442.645	844.43
443.019	861.38
443.394	840.13
443.769	833.81
444.143	872.67
444.518	851.43
444.892	853.24
445.267	870.41
445.641	879.45
446.016	876.06
446.39	871.54
446.764	894.37
447.139	889.4
447.513	882.84
447.887	891.66
448.262	926.68
448.636	898.21
449.01	941.6
449.384	916.74
449.758	944.09
450.132	943.18
450.506	948.38
450.88	986.8
451.254	973.69
451.628	959.45
452.002	974.82
452.376	969.62
452.75	988.6
453.123	1015.72
453.497	1015.72
453.871	1017.08
454.244	1045.78
454.618	1059.79
454.992	1070.86
455.365	1055.72
455.739	1066.34
456.112	1055.04
456.486	1097.75
456.859	1098.88
457.232	1104.53
457.606	1096.62
457.979	1123.52
458.352	1129.39
458.725	1153.12
459.099	1186.79
459.472	1184.98
459.845	1210.29
460.218	1233.8
460.591	1216.39
460.964	1214.81
461.337	1260.91
461.71	1292.32
462.083	1313.12
462.456	1301.59
462.829	1283.06
463.201	1334.81
463.574	1338.43
463.947	1354.92
464.32	1354.24
464.692	1382.72
465.065	1386.79
465.438	1434.92
465.81	1456.61
466.183	1455.26
466.555	1475.37
466.928	1495.71
467.3	1497.97
467.672	1523.28
468.045	1543.84
468.417	1581.13
468.789	1588.59
469.161	1579.77
469.534	1655.25
469.906	1683.73
470.278	1710.17
470.65	1738.87
471.022	1799.2
471.394	1787.23
471.766	1807.79
472.138	1826.1
472.51	1893.44
472.882	1906.09
473.253	1940.22
473.625	1960.56
473.997	2003.04
474.369	2036.49
474.74	2078.07
475.112	2127.33
475.484	2138.18
475.855	2185.41
476.227	2268.34
476.598	2280.77
476.97	2351.51
477.341	2408
477.713	2469.69
478.084	2461.79
478.455	2579.75
478.827	2597.6
479.198	2691.38
479.569	2726.64
479.94	2823.36
480.311	2842.79
480.682	2968.21
481.053	3033.97
481.424	3118.04
481.795	3126.63
482.166	3201.65
482.537	3302.67
482.908	3384.93
483.279	3440.06
483.65	3558.03
484.021	3630.57
484.391	3723.9
484.762	3793.28
485.133	3841.64
485.503	3926.83
485.874	4042.53
486.244	4084.12
486.615	4212.93
486.985	4285.69
487.356	4446.14
487.726	4486.82
488.097	4687.26
488.467	4731.78
488.837	4856.3
489.207	4978.1
489.578	5046.8
489.948	5139.23
490.318	5268.72
490.688	5289.73
491.058	5442.05
491.428	5598.43
491.798	5674.58
492.168	5812.21
492.538	5858.08
492.908	6024.63
493.278	6087.68
493.648	6190.28
494.017	6304.85
494.387	6352.76
494.757	6490.83
495.126	6575.35
495.496	6645.86
495.866	6711.84
496.235	6890.14
496.605	7006.07
496.974	7126.07
497.344	7145.05
497.713	7235.67
498.082	7323.8
498.452	7442.67
498.821	7581.2
499.19	7592.72
499.559	7700.07
499.928	7829.78
500.298	7893.73
500.667	8033.16
501.036	8063.9
501.405	8143.9
501.774	8171.24
502.143	8313.16
502.512	8368.97
502.88	8480.84
503.249	8547.05
503.618	8611.23
503.987	8696.42
504.356	8734.61
504.724	8863.65
505.093	8956.98
505.462	9038.56
505.83	9088.73
506.199	9131.89
506.567	9239.01
506.936	9304.09
507.304	9485.1
507.672	9496.63
508.041	9551.99
508.409	9587.25
508.777	9712.44
509.145	9798.32
509.514	9896.17
509.882	9836.51
510.25	9960.35
510.618	10034.24
510.986	10111.53
511.354	10213.45
511.722	10284.63
512.09	10403.5
512.458	10416.6
512.826	10559.65
513.193	10581.8
513.561	10568.69
513.929	10779.98
514.297	10859.98
514.664	10858.4
515.032	10947.89
515.4	10999.87
515.767	11157.38
516.135	11189.69
516.502	11201.22
516.869	11324.83
517.237	11344.94
517.604	11286.86
517.972	11433.75
518.339	11516.46
518.706	11547.2
519.073	11635.78
519.44	11640.53
519.808	11807.3
520.175	11833.06
520.542	11971.14
520.909	12082.32
521.276	12123.45
521.643	12127.97
522.009	12316.44
522.376	12368.87
522.743	12419.26
523.11	12461.97
523.477	12698.8
523.843	12687.51
524.21	12796.66
524.577	12969.08
524.943	12962.75
525.31	12997.1
525.676	13110.09
526.043	13196.19
526.409	13293.59
526.776	13403.19
527.142	13398.67
527.508	13469.86
527.874	13557.54
528.241	13683.19
528.607	13702.62
528.973	13835.05
529.339	13844.54
529.705	14000.69
530.071	14142.61
530.437	14194.13
530.803	14231.42
531.169	14266.9
531.535	14314.36
531.901	14332.66
532.267	14369.27
532.632	14539.89
532.998	14617.62
533.364	14764.74
533.73	14775.81
534.095	14842.03
534.461	14904.62
534.826	14945.98
535.192	15074.11
535.557	15132.86
535.923	15054
536.288	15215.35
536.653	15305.97
537.019	15265.29
537.384	15304.61
537.749	15436.81
538.114	15437.26
538.479	15411.5
538.845	15606.75
539.21	15620.08
539.575	15758.84
539.94	15727.65
540.305	15860.76
540.67	15879.96
541.034	15928.1
541.399	16049
541.764	16044.48
542.129	16071.37
542.494	16162.22
542.858	16184.81
543.223	16269.78
543.587	16432.72
543.952	16359.5
544.316	16456.45
544.681	16448.08
545.045	16591.13
545.41	16671.58
545.774	16787.28
546.138	16761.97
546.503	16875.87
546.867	16824.57
547.231	17078.8
547.595	17003.32
547.959	17076.09
548.324	17146.15
548.688	17144.56
549.052	17254.62
549.416	17319.25
549.779	17283.32
550.143	17379.59
550.507	17477.44
550.871	17524.89
551.235	17523.31
551.599	17609.86
551.962	17697.54
552.326	17775.06
552.689	17825.68
553.053	17794.72
553.417	17807.6
553.78	18099.34
554.143	18092.34
554.507	18057.99
554.87	18152.67
555.234	18281.26
555.597	18315.61
555.96	18361.48
556.323	18317.87
556.686	18444.64
557.05	18617.97
557.413	18528.48
557.776	18686.67
558.139	18718.53
558.502	18795.14
558.865	18801.69
559.228	18975.02
559.59	19049.6
559.953	19083.95
560.316	19264.28
560.679	19220.67
561.041	19347.9
561.404	19413.43
561.767	19502.69
562.129	19435.8
562.492	19624.05
562.854	19657.94
563.217	19641.22
563.579	19840.54
563.941	19930.48
564.304	20033.98
564.666	20089.34
565.028	20141.32
565.39	20108.55
565.753	20201.43
566.115	20330.69
566.477	20414.08
566.839	20452.27
567.201	20639.39
567.563	20527.53
567.925	20721.19
568.287	20758.03
568.648	20821.98
569.01	20921.64
569.372	21069.88
569.734	21067.62
570.095	21232.82
570.457	21178.36
570.819	21364.34
571.18	21338.58
571.542	21495.18
571.903	21522.75
572.265	21671.9
572.626	21725.46
572.987	21812.24
573.349	21962.97
573.71	22087.71
574.071	22082.29
574.432	22180.82
574.794	22461.03
575.155	22452.9
575.516	22377.42
575.877	22639.56
576.238	22696.28
576.599	22778.54
576.96	22997.29
577.32	22949.61
577.681	23239.09
578.042	23278.41
578.403	23370.84
578.763	23455.58
579.124	23660.55
579.485	23833.65
579.845	24105.96
580.206	23969.92
580.566	24189.58
580.927	24385.73
581.287	24589.34
581.648	24670.47
582.008	24917.69
582.368	25009.67
582.728	25232.94
583.089	25361.75
583.449	25597.22
583.809	25702.53
584.169	25813.04
584.529	25929.64
584.889	26431.78
585.249	26439.46
585.609	26493.02
585.969	26859.11
586.329	27086.9
586.688	27107.24
587.048	27435.59
587.408	27518.98
587.768	27663.16
588.127	28005.07
588.487	28090.94
588.846	28429.24
589.206	28473.76
589.565	28694.54
589.925	28982.9
590.284	29148.32
590.643	29433.28
591.003	29706.72
591.362	30002.53
591.721	30065.35
592.08	30273.48
592.44	30640.03
592.799	30757.54
593.158	30789.85
593.517	31043.63
593.876	31408.82
594.235	31449.95
594.593	31685.65
594.952	32023.95
595.311	32085.19
595.67	32371.73
596.029	32793.42
596.387	32871.83
596.746	33046.97
597.104	33141.88
597.463	33364.93
597.822	33666.16
598.18	33702.55
598.538	33912.71
598.897	34251.68
599.255	34329.65
599.613	34892.57
599.972	34705.68
600.33	35162.85
600.688	35125.79
601.046	35445.33
601.404	35679.67
601.762	35646.68
602.12	36073.11
602.478	36181.12
602.836	36291.63
603.194	36264.74
603.552	36573.66
603.91	36571.62
604.268	36958.96
604.625	36831.28
604.983	37299.51
605.341	37108.78
605.698	37344.71
606.056	37676.68
606.413	37690.46
606.771	37968.65
607.128	38026.05
607.485	38142.43
607.843	38094.75
608.2	38561.63
608.557	38604.79
608.914	38642.08
609.272	39019.92
609.629	39060.6
609.986	39360.93
610.343	39299.69
610.7	39627.59
611.057	39565.67
611.414	39792.78
611.771	39851.08
612.127	40062.83
612.484	40103.06
612.841	40477.51
613.198	40292.2
613.554	40392.31
613.911	40672.76
614.267	40704.17
614.624	40756.37
614.98	41055.35
615.337	41308
615.693	41173.76
616.05	41220.31
616.406	41596.8
616.762	41348.22
617.118	41443.59
617.475	41557.71
617.831	41682
618.187	41791.15
618.543	41800.41
618.899	42232.72
619.255	42161.76
619.611	42361.75
619.967	42297.35
620.323	42463.45
620.678	42355.2
621.034	42456.67
621.39	42446.04
621.746	42448.3
622.101	43004.9
622.457	42609.43
622.812	42855.75
623.168	42947.27
623.523	42959.7
623.879	43100.49
624.234	42915.64
624.589	43235.63
624.945	43174.16
625.3	43150.43
625.655	43265.23
626.01	43373.48
626.365	43375.74
626.72	43297.77
627.075	43294.84
627.43	43308.4
627.785	43282.63
628.14	43458.67
628.495	43408.96
628.85	43323.99
629.205	43337.09
629.559	43598.11
629.914	43466.58
630.269	43607.82
630.623	43521.95
630.978	43446.92
631.332	43527.15
631.687	43772.34
632.041	43517.66
632.396	43795.39
632.75	43542.06
633.104	43587.03
633.459	43482.63
633.813	43416.87
634.167	43536.41
634.521	43545.23
634.875	43592.68
635.229	43472.46
635.583	43345.68
635.937	43436.08
636.291	43393.59
636.645	43419.8
636.999	43374.38
637.352	43468.16
637.706	43252.13
638.06	43418.67
638.413	43307.72
638.767	43282.41
639.121	43385.91
639.474	43198.57
639.828	43180.71
640.181	43183.88
640.534	43224.56
640.888	43043.32
641.241	42921.51
641.594	43044.9
641.947	43270.43
642.301	43182.97
642.654	43037.22
643.007	43052.36
643.36	43143.2
643.713	42989.08
644.066	43208.28
644.419	42777.79
644.771	42640.16
645.124	42205.6
645.477	42172.15
645.83	42103.91
646.182	41780.75
646.535	41673.18
646.888	41813.52
647.24	41741.66
647.593	41924.02
647.945	41830.47
648.298	41730.36
648.65	41546.18
649.002	41475.9
649.355	41707.76
649.707	41714.54
650.059	41714.54
650.411	42393.16
650.763	42232.94
651.115	42720.39
651.467	42528.98
651.819	42622.31
652.171	42579.15
652.523	42342.54
652.875	42468.42
653.227	42342.09
653.578	42477.91
653.93	42476.78
654.282	42220.06
654.633	42112.27
654.985	42225.71
655.337	42260.74
655.688	42162.89
656.039	42430.23
656.391	42214.64
656.742	42243.34
657.094	42137.35
657.445	42288.99
657.796	42211.93
658.147	42083.79
658.498	42215.09
658.849	42215.32
659.2	42108.65
659.551	42063.91
659.902	42213.51
660.253	42149.33
660.604	42181.87
660.955	41828.43
661.306	42129.9
661.656	42033.63
662.007	42117.47
662.358	42028.43
662.708	42133.96
663.059	42060.07
663.409	41797.47
663.76	42106.84
664.11	42068.65
664.461	41982.33
664.811	41991.37
665.161	41994.76
665.511	41831.15
665.862	41906.62
666.212	41969.9
666.562	42024.14
666.912	41856.68
667.262	41781.88
667.612	42001.76
667.962	41963.35
668.312	41798.38
668.662	42074.98
669.011	41932.16
669.361	41924.48
669.711	41970.35
670.06	41747.98
670.41	41724.71
670.76	41724.71
671.109	41900.97
671.459	41807.42
671.808	41797.47
672.157	41825.04
672.507	41580.76
672.856	41540.98
673.205	41587.99
673.554	41701.88
673.904	41644.26
674.253	41835.89
674.602	41581.21
674.951	41137.6
675.3	40843.15
675.649	41572.4
675.998	41578.05
676.346	41499.18
676.695	41625.28
677.044	41369.01
677.393	41497.14
677.741	41456.47
678.09	41420.54
678.438	41275.68
678.787	41376.02
679.135	41442.68
679.484	41144.84
679.832	41263.25
680.181	40997.27
680.529	41109.81
680.877	40986.87
681.225	40962.24
681.573	41189.81
681.922	40950.27
682.27	40804.05
682.618	40798.63
682.966	40788.01
683.314	40729.71
683.661	40669.14
684.009	40582.82
684.357	40509.37
684.705	40381.69
685.053	40358.64
685.4	40393.9
685.748	40170.4
686.095	40215.6
686.443	40087.69
686.79	40108.03
687.138	40053.11
687.485	39972.66
687.832	39911.65
688.18	40012.89
688.527	39736.29
688.874	39819.45
689.221	39667.36
689.568	39598.66
689.915	39486.12
690.262	39418.1
690.609	39379.91
690.956	39252.68
691.303	39202.06
691.65	39042.29
691.997	39042.07
692.344	38873.71
692.69	38834.84
693.037	38836.87
693.383	38582.87
693.73	38577.9
694.077	38475.75
694.423	38346.72
694.769	38218.59
695.116	38243.9
695.462	38171.58
695.808	38026.27
696.155	38064.24
696.501	37761.87
696.847	37861.08
697.193	37553.74
697.539	37493.63
697.885	37383.81
698.231	37350.13
698.577	37381.55
698.923	37232.17
699.269	37139.52
699.614	37008.45
699.96	36867.66
700.306	36958.28
700.651	36724.16
700.997	36568.91
701.342	36674.67
701.688	36605.75
702.033	36407.56
702.379	36449.82
702.724	36288.01
703.069	36331.63
703.415	36003.5
703.76	35946.55
704.105	36029.26
704.45	35888.7
704.795	35721.93
705.14	35512.22
705.485	35519.67
705.83	35447.13
706.175	35544.53
706.52	35351.77
706.865	35234.94
707.209	35248.27
707.554	35204.43
707.899	35134.6
708.243	34905
708.588	35034.26
708.932	34781.39
709.277	34763.54
709.621	34717.89
709.966	34504.33
710.31	34623.88
710.654	34281.74
710.998	34404
711.342	34363.77
711.687	34157.45
712.031	33975.31
712.375	34004.23
712.719	34216.66
713.063	33989.54
713.407	34011.92
713.75	33991.8
714.094	33776.67
714.438	33641.08
714.782	33693.96
715.125	33690.12
715.469	33608.31
715.812	33359.96
716.156	33275.89
716.499	33336.91
716.843	33332.16
717.186	33037.48
717.53	33279.73
717.873	33204.71
718.216	33096.23
718.559	33014.43
718.902	32849.69
719.246	32900.08
719.589	32799.07
719.932	32517.04
720.275	32729.24
720.617	32576.7
720.96	32642.01
721.303	32441.11
721.646	32576.93
721.989	32351.62
722.331	32353.2
722.674	32249.93
723.016	32306.88
723.359	32352.75
723.701	32296.93
724.044	32092.19
724.386	32037.96
724.729	32102.59
725.071	31968.81
725.413	32041.8
725.755	31940.56
726.097	31842.48
726.439	31726.1
726.782	31691.07
727.124	31692.66
727.465	31579.44
727.807	31569.04
728.149	31600.23
728.491	31521.36
728.833	31473.45
729.175	31450.85
729.516	31247.47
729.858	31280.46
730.199	31184.65
730.541	31208.37
730.882	31072.78
731.224	31248.15
731.565	30944.43
731.906	31015.61
732.248	31023.52
732.589	30711.66
732.93	30893.58
733.271	30799.12
733.612	30835.28
733.953	30819.91
734.294	30693.59
734.635	30664.89
734.976	30602.97
735.317	30478.9
735.658	30471.9
735.999	30527.04
736.339	30336.31
736.68	30460.6
737.021	30343.76
737.361	30195.97
737.702	30385.35
738.042	30262.18
738.383	30315.52
738.723	30316.42
739.063	30107.84
739.404	30167.27
739.744	30088.4
740.084	29939.26
740.424	29965.92
740.764	29881.18
741.104	29931.35
741.444	29850.22
741.784	29972.02
742.124	29819.03
742.464	29764.8
742.804	29675.31
743.143	29642.31
743.483	29765.25
743.823	29433.73
744.162	29456.1
744.502	29555.31
744.841	29406.61
745.181	29502.88
745.52	29357.35
745.86	29367.29
746.199	29291.36
746.538	29235.32
746.877	29292.49
747.216	29324.36
747.556	29159.16
747.895	29289.55
748.234	29063.57
748.573	29064.48
748.911	28978.38
749.25	29027.64
749.589	28801.88
749.928	28832.39
750.267	28869.68
750.605	28756.91
750.944	28643.92
751.283	28635.11
751.621	28545.85
751.96	28569.12
752.298	28535.45
752.636	28477.37
752.975	28429.24
753.313	28279.64
753.651	28422.91
753.989	28254.33
754.327	28191.28
754.666	28121
755.004	28171.39
755.342	28113.09
755.679	28048.23
756.017	27946.31
756.355	27966.65
756.693	27918.74
