Data from hue_10_FLMS001491_85.txt Node
Date: Mon Feb 06 15:32:41 GMT 2017
User: dcchb
Spectrometer: FLMS00149
Trigger mode: 0
Integration Time (sec): 2.000000E-2
Scans to average: 10
Electric dark correction enabled: true
Nonlinearity correction enabled: false
Boxcar width: 0
XAxis mode: Wavelengths
Number of Pixels in Spectrum: 2048
>>>>>Begin Spectral Data<<<<<
341.393	-19.02
341.776	-19.02
342.16	-19.02
342.543	-59.93
342.927	-65.35
343.31	-68.52
343.693	-57.44
344.077	-90.44
344.46	-42.75
344.843	-40.95
345.226	-45.69
345.61	-29.65
345.993	-20.61
346.376	-12.92
346.759	2.67
347.142	11.93
347.525	35.44
347.908	76.11
348.291	72.5
348.674	86.96
349.057	123.34
349.44	128.99
349.823	134.19
350.206	152.72
350.588	204.02
350.971	203.79
351.354	232.49
351.737	257.35
352.119	254.87
352.502	262.55
352.884	281.31
353.267	269.78
353.65	294.41
354.032	293.51
354.414	301.64
354.797	322.66
355.179	321.31
355.562	326.95
355.944	331.02
356.326	328.99
356.709	333.73
357.091	341.87
357.473	347.07
357.855	350.46
358.238	358.82
358.62	350
359.002	347.75
359.384	364.47
359.766	343
360.148	355.88
360.53	340.97
360.912	326.73
361.294	324.24
361.676	348.2
362.057	331.7
362.439	317.92
362.821	334.86
363.203	343.9
363.584	345.71
363.966	326.5
364.348	332.6
364.729	338.25
365.111	336.9
365.493	329.21
365.874	325.6
366.256	335.09
366.637	337.12
367.019	314.53
367.4	309.33
367.781	329.44
368.163	336.67
368.544	302.55
368.925	328.76
369.306	334.64
369.688	336.45
370.069	335.99
370.45	304.36
370.831	315.2
371.212	305.03
371.593	316.11
371.974	328.54
372.355	305.49
372.736	305.71
373.117	307.29
373.498	317.92
373.879	328.54
374.26	313.85
374.641	294.87
375.021	291.93
375.402	329.89
375.783	308.42
376.163	324.69
376.544	331.47
376.925	330.57
377.305	340.74
377.686	336.22
378.066	315.2
378.447	335.54
378.827	335.09
379.208	318.37
379.588	321.76
379.968	314.3
380.349	346.16
380.729	346.39
381.109	330.12
381.489	359.04
381.87	351.13
382.25	348.42
382.63	346.62
383.01	329.67
383.39	340.51
383.77	354.3
384.15	370.8
384.53	358.82
384.91	333.51
385.29	346.84
385.67	345.26
386.049	335.32
386.429	342.77
386.809	369.21
387.189	355.2
387.568	370.34
387.948	356.56
388.328	340.51
388.707	356.11
389.087	356.56
389.466	364.47
389.846	355.65
390.225	366.95
390.605	362.43
390.984	371.47
391.363	341.19
391.743	347.52
392.122	344.58
392.501	371.7
392.881	359.27
393.26	359.04
393.639	380.74
394.018	383
394.397	362.21
394.776	370.34
395.155	377.12
395.534	375.77
395.913	368.08
396.292	381.19
396.671	394.98
397.05	395.88
397.429	391.59
397.808	397.46
398.186	386.61
398.565	381.64
398.944	393.62
399.323	368.99
399.701	377.57
400.08	398.37
400.458	388.2
400.837	406.73
401.215	377.57
401.594	388.87
401.972	400.63
402.351	402.66
402.729	400.63
403.107	405.6
403.486	391.59
403.864	402.88
404.242	426.39
404.62	406.05
404.999	390.46
405.377	404.47
405.755	413.28
406.133	413.05
406.511	418.93
406.889	385.26
407.267	399.95
407.645	412.83
408.023	408.76
408.401	430.23
408.779	428.87
409.156	436.1
409.534	439.95
409.912	437.01
410.29	437.91
410.667	432.94
411.045	442.21
411.422	433.17
411.8	459.61
412.178	422.32
412.555	439.95
412.933	458.02
413.31	462.32
413.687	469.1
414.065	459.38
414.442	461.19
414.819	456.67
415.197	458.93
415.574	489.66
415.951	471.36
416.328	477.01
416.705	459.83
417.082	494.41
417.46	485.37
417.837	483.11
418.214	506.38
418.591	485.59
418.967	479.49
419.344	490.34
419.721	488.53
420.098	510.45
420.475	499.61
420.852	498.7
421.228	500.28
421.605	516.55
421.982	504.35
422.358	521.75
422.735	523.79
423.111	530.11
423.488	528.98
423.864	522.2
424.241	530.57
424.617	487.4
424.994	550.23
425.37	522.2
425.746	544.12
426.123	542.32
426.499	552.26
426.875	550
427.251	560.62
427.627	581.19
428.003	545.48
428.379	560.39
428.756	584.35
429.132	594.74
429.507	601.98
429.883	601.52
430.259	566.72
430.635	582.99
431.011	598.13
431.387	588.64
431.763	599.49
432.138	602.43
432.514	621.64
432.89	606.27
433.265	630.22
433.641	627.74
434.016	630.9
434.392	644.91
434.767	643.56
435.143	629.77
435.518	644.91
435.894	650.11
436.269	655.99
436.644	670.22
437.02	663.22
437.395	674.06
437.77	683.1
438.145	687.17
438.52	668.19
438.895	714.74
439.271	676.55
439.646	698.24
440.021	698.7
440.395	699.6
440.77	705.7
441.145	730.11
441.52	727.17
441.895	721.29
442.27	715.87
442.645	721.29
443.019	735.08
443.394	724.46
443.769	748.64
444.143	729.88
444.518	759.49
444.892	738.7
445.267	750.45
445.641	779.37
446.016	775.98
446.39	762.65
446.764	769.43
447.139	770.33
447.513	770.11
447.887	784.12
448.262	758.81
448.636	787.96
449.01	779.6
449.384	777.79
449.758	792.03
450.132	806.26
450.506	820.28
450.88	787.51
451.254	799.94
451.628	811.01
452.002	816.66
452.376	830.22
452.75	829.31
453.123	844.46
453.497	866.38
453.871	875.19
454.244	860.5
454.618	865.25
454.992	877
455.365	892.14
455.739	875.41
456.112	905.7
456.486	897.56
456.859	922.87
457.232	930.78
457.606	924.45
457.979	942.53
458.352	952.02
458.725	942.53
459.099	960.61
459.472	966.49
459.845	970.78
460.218	982.98
460.591	1003.55
460.964	987.5
461.337	1016.88
461.71	1016.65
462.083	1025.92
462.456	1027.73
462.829	1058.01
463.201	1065.01
463.574	1065.92
463.947	1082.87
464.32	1076.99
464.692	1090.78
465.065	1105.69
465.438	1130.78
465.81	1134.84
466.183	1138.91
466.555	1154.5
466.928	1157.67
467.3	1184.79
467.672	1178.01
468.045	1205.8
468.417	1246.03
468.789	1237.21
469.161	1220.04
469.534	1272.47
469.906	1234.05
470.278	1278.34
470.65	1298.23
471.022	1318.79
471.394	1323.31
471.766	1352.69
472.138	1368.28
472.51	1416.42
472.882	1420.71
473.253	1444.44
473.625	1450.54
473.997	1491.44
474.369	1480.14
474.74	1498.68
475.112	1522.18
475.484	1557.88
475.855	1589.29
476.227	1590.42
476.598	1650.99
476.97	1694.6
477.341	1721.49
477.713	1740.02
478.084	1773.7
478.455	1807.59
478.827	1788.16
479.198	1890.08
479.569	1897.31
479.94	1934.82
480.311	1948.83
480.682	1984.31
481.053	2031.54
481.424	2059.11
481.795	2105.66
482.166	2124.65
482.537	2143.4
482.908	2172.56
483.279	2213.01
483.65	2236.51
484.021	2337.98
484.391	2333.68
484.762	2380.23
485.133	2391.08
485.503	2434.02
485.874	2495.03
486.244	2537.52
486.615	2566.67
486.985	2607.35
487.356	2668.36
487.726	2661.13
488.097	2720.79
488.467	2778.42
488.837	2819.32
489.207	2870.16
489.578	2880.11
489.948	2921.46
490.318	2943.38
490.688	2991.52
491.058	3042.82
491.428	3072.42
491.798	3111.97
492.168	3226.31
492.538	3207.33
492.908	3252.98
493.278	3280.78
493.648	3295.92
494.017	3434.22
494.387	3393.99
494.757	3424.95
495.126	3439.42
495.496	3461.11
495.866	3539.53
496.235	3544.5
496.605	3598.96
496.974	3577.04
497.344	3626.53
497.713	3645.29
498.082	3686.87
498.452	3719.41
498.821	3723.25
499.19	3785.62
499.559	3804.6
499.928	3862.45
500.298	3845.05
500.667	3893.19
501.036	3852.74
501.405	3931.15
501.774	3930.93
502.143	3983.36
502.512	3989.01
502.88	4020.64
503.249	4056.35
503.618	4099.28
503.987	4098.83
504.356	4147.19
504.724	4133.86
505.093	4156.01
505.462	4219.51
505.83	4162.56
506.199	4247.76
506.567	4307.19
506.936	4271.03
507.304	4320.75
507.672	4336.57
508.041	4324.14
508.409	4352.39
508.777	4422.21
509.145	4410.24
509.514	4450.91
509.882	4452.72
510.25	4476.45
510.618	4459.73
510.986	4526.39
511.354	4530.01
511.722	4569.55
512.09	4617.92
512.458	4573.62
512.826	4639.84
513.193	4639.38
513.561	4677.57
513.929	4675.54
514.297	4702.43
514.664	4734.97
515.032	4729.1
515.4	4737.91
515.767	4761.19
516.135	4785.37
516.502	4757.12
516.869	4840.96
517.237	4806.16
517.604	4802.77
517.972	4827.85
518.339	4873.95
518.706	4850.45
519.073	4931.58
519.44	4914.18
519.808	4981.75
520.175	4968.41
520.542	5005.93
520.909	5061.07
521.276	4986.95
521.643	5077.56
522.009	5074.4
522.376	5109.88
522.743	5156.66
523.11	5170.44
523.477	5203.44
523.843	5226.26
524.21	5256.32
524.577	5287.05
524.943	5274.85
525.31	5337.44
525.676	5380.38
526.043	5387.61
526.409	5423.77
526.776	5472.36
527.142	5498.12
527.508	5502.86
527.874	5559.59
528.241	5579.47
528.607	5566.59
528.973	5654.05
529.339	5594.61
529.705	5679.36
530.071	5716.87
530.437	5701.28
530.803	5788.51
531.169	5827.15
531.535	5812.91
531.901	5758.22
532.267	5827.38
532.632	5877.54
532.998	5876.87
533.364	5911.67
533.73	5940.59
534.095	5976.3
534.461	5969.74
534.826	6006.13
535.192	6041.38
535.557	6098.55
535.923	6070.98
536.288	6085.45
536.653	6126.58
537.019	6122.06
537.384	6185.11
537.749	6171.09
538.114	6194.82
538.479	6246.8
538.845	6280.47
539.21	6263.97
539.575	6314.59
539.94	6320.92
540.305	6384.87
540.67	6379.68
541.034	6408.83
541.399	6479.34
541.764	6472.1
542.129	6481.37
542.494	6484.31
542.858	6555.49
543.223	6535.15
543.587	6600.24
543.952	6572.44
544.316	6664.64
544.681	6648.14
545.045	6768.37
545.41	6725.2
545.774	6720.23
546.138	6757.52
546.503	6767.24
546.867	6850.62
547.231	6894.92
547.595	6890.85
547.959	6864.86
548.324	6879.78
548.688	6911.64
549.052	6940.79
549.416	6935.59
549.779	6970.17
550.143	6959.32
550.507	7035.48
550.871	7052.43
551.235	7061.24
551.599	7134.69
551.962	7169.03
552.326	7139.66
552.689	7214.01
553.053	7221.46
553.417	7204.06
553.78	7325.87
554.143	7282.25
554.507	7290.39
554.87	7314.12
555.234	7395.7
555.597	7352.08
555.96	7351.63
556.323	7444.28
556.686	7449.03
557.05	7478.86
557.413	7494.9
557.776	7545.52
558.139	7599.53
558.502	7578.74
558.865	7590.49
559.228	7625.52
559.59	7672.98
559.953	7691.73
560.316	7743.93
560.679	7776.48
561.041	7774.44
561.404	7805.4
561.767	7842.92
562.129	7820.77
562.492	7976.92
562.854	7853.99
563.217	7870.71
563.579	7934.21
563.941	8021.67
564.304	7984.83
564.666	8025.96
565.028	8136.24
565.39	8076.36
565.753	8130.82
566.115	8163.13
566.477	8151.61
566.839	8232.51
567.201	8209.91
567.563	8256.01
567.925	8315.9
568.287	8330.81
568.648	8332.17
569.01	8431.15
569.372	8462.33
569.734	8417.59
570.095	8472.05
570.457	8504.59
570.819	8545.72
571.18	8588.21
571.542	8714.3
571.903	8660.29
572.265	8722.89
572.626	8808.99
572.987	8758.15
573.349	8896.45
573.71	8929.21
574.071	8961.08
574.432	8981.87
574.794	9062.09
575.155	9160.85
575.516	9145.71
575.877	9225.03
576.238	9300.05
576.599	9357
576.96	9424.57
577.32	9533.94
577.681	9710.66
578.042	9608.29
578.403	9795.86
578.763	9815.74
579.124	9861.17
579.485	10027.04
579.845	10178.67
580.206	10275.17
580.566	10303.42
580.927	10384.77
581.287	10549.51
581.648	10616.4
582.008	10742.95
582.368	10908.82
582.728	11040.8
583.089	11215.71
583.449	11289.15
583.809	11553.1
584.169	11692.98
584.529	11793.09
584.889	12101.79
585.249	12156.47
585.609	12413.64
585.969	12590.36
586.329	12812.28
586.688	13027.41
587.048	13280.06
587.408	13419.72
587.768	13668.98
588.127	13813.61
588.487	14080.49
588.846	14429.18
589.206	14595.51
589.565	14867.36
589.925	15138.54
590.284	15389.61
590.643	15631.86
591.003	15945.08
591.362	16234.56
591.721	16362.47
592.08	16863.47
592.44	17048.32
592.799	17295.55
593.158	17637.46
593.517	17921.07
593.876	18256.88
594.235	18405.12
594.593	18760.37
594.952	19138.66
595.311	19314.48
595.67	19679.44
596.029	20158.07
596.387	20415.92
596.746	20712.86
597.104	20942.01
597.463	21184.26
597.822	21625.6
598.18	21807.52
598.538	22190.11
598.897	22590.1
599.255	22619.93
599.613	23263.98
599.972	23440.92
600.33	23828.94
600.688	23980.8
601.046	24519.09
601.404	24764.73
601.762	24933.77
602.12	25400.42
602.478	25692.62
602.836	25902.78
603.194	26012.61
603.552	26398.81
603.91	26620.27
604.268	26996.54
604.625	27210.99
604.983	27626.35
605.341	27647.37
605.698	28155.6
606.056	28411.64
606.413	28578.64
606.771	28893.44
607.128	29273.76
607.485	29386.98
607.843	29579.74
608.2	30041.43
608.557	30193.29
608.914	30451.59
609.272	30697.91
609.629	30999.37
609.986	31207.95
610.343	31348.06
610.7	31782.4
611.057	31933.13
611.414	32056.97
611.771	32214.7
612.127	32573.34
612.484	32742.83
612.841	33018.52
613.198	33055.13
613.554	33280.21
613.911	33612.63
614.267	33857.6
614.624	33990.02
614.98	34164.94
615.337	34461.42
615.693	34461.88
616.05	34709.1
616.406	35050.11
616.762	34988.19
617.118	35145.7
617.475	35307.96
617.831	35503.66
618.187	35676.31
618.543	35785.23
618.899	36148.16
619.255	36185.22
619.611	36425.21
619.967	36467.25
620.323	36676.96
620.678	36700.91
621.034	36610.75
621.39	36887.8
621.746	36885.77
622.101	37405.08
622.457	37115.37
622.812	37466.32
623.168	37632.64
623.523	37619.08
623.879	37923.25
624.234	37739.53
624.589	37925.74
624.945	38049.35
625.3	37977.26
625.655	38208.22
626.01	38395.11
626.365	38274.88
626.72	38360.76
627.075	38479.17
627.43	38566.4
627.785	38685.72
628.14	38534.31
628.495	38789.67
628.85	38716.23
629.205	38714.87
629.559	39013.4
629.914	38693.63
630.269	38757.81
630.623	38900.18
630.978	38837.81
631.332	39136.1
631.687	39217.68
632.041	39046.16
632.396	39233.73
632.75	39062.66
633.104	39205.48
633.459	38985.37
633.813	39021.53
634.167	39073.73
634.521	39149.66
634.875	39320.28
635.229	39172.03
635.583	39086.61
635.937	39145.37
636.291	39052.26
636.645	39094.97
636.999	39211.13
637.352	39337.45
637.706	38981.31
638.06	39216.33
638.413	39148.76
638.767	39071.25
639.121	39119.61
639.474	38958.93
639.828	39072.6
640.181	39035.99
640.534	39099.72
640.888	39074.64
641.241	38849.11
641.594	38993.51
641.947	39073.73
642.301	39019.04
642.654	39006.16
643.007	39060.63
643.36	38910.12
643.713	38819.05
644.066	39016.11
644.419	38696.79
644.771	38572.05
645.124	38336.8
645.477	38259.29
645.83	38008.9
646.182	37773.88
646.535	37774.56
646.888	37976.13
647.24	37746.08
647.593	37957.15
647.945	37909.7
648.298	37691.62
648.65	37635.58
649.002	37642.81
649.355	37819.3
649.707	37558.52
650.059	37737.5
650.411	38257.26
650.763	38297.93
651.115	38598.94
651.467	38595.78
651.819	38595.1
652.171	38587.64
652.523	38387.65
652.875	38479.62
653.227	38320.08
653.578	38485.95
653.93	38450.02
654.282	38307.65
654.633	38189.69
654.985	38269.69
655.337	38327.76
655.688	38379.74
656.039	38443.69
656.391	38083.93
656.742	38275.11
657.094	38185.62
657.445	38283.7
657.796	38205.96
658.147	38141.55
658.498	38084.15
658.849	38237.82
659.2	38089.58
659.551	38051.84
659.902	38288.44
660.253	38253.42
660.604	38197.37
660.955	38076.92
661.306	38290.02
661.656	38047.32
662.007	37930.71
662.358	38081.67
662.708	38052.06
663.059	37996.7
663.409	37877.38
663.76	38061.56
664.11	38055.45
664.461	38048.22
664.811	37958.06
665.161	38029.01
665.511	37990.6
665.862	38097.49
666.212	38020.2
666.562	38178.84
666.912	37982.91
667.262	37989.47
667.612	37991.05
667.962	38085.74
668.312	38016.81
668.662	38085.06
669.011	37883.93
669.361	37974.78
669.711	37947.89
670.06	37878.51
670.41	37844.39
670.76	37846.87
671.109	37865.4
671.459	37752.86
671.808	37872.18
672.157	37854.1
672.507	37530.95
672.856	37671.74
673.205	37795.57
673.554	37784.27
673.904	37673.09
674.253	37749.47
674.602	37653.66
674.951	37126.89
675.3	36976.16
675.649	37539.76
675.998	37639.19
676.346	37513.77
676.695	37713.32
677.044	37423.83
677.393	37396.94
677.741	37501.57
678.09	37343.16
678.438	37301.12
678.787	37374.12
679.135	37475.13
679.484	37204.63
679.832	37489.82
680.181	37063.62
680.529	37177.74
680.877	37176.83
681.225	36993.34
681.573	37225.87
681.922	36975.03
682.27	36906.33
682.618	36913.34
682.966	36726.9
683.314	36889.61
683.661	36796.73
684.009	36596.06
684.357	36447.59
684.705	36505.21
685.053	36502.05
685.4	36575.72
685.748	36202.85
686.095	36289.4
686.443	36110.87
686.79	36063.42
687.138	36247.14
687.485	36293.01
687.832	36031.55
688.18	36013.02
688.527	35910.88
688.874	35804.67
689.221	35827.26
689.568	35571.9
689.915	35531.23
690.262	35557.44
690.609	35440.16
690.956	35388.63
691.303	35349.31
691.65	35258.69
691.997	35218.24
692.344	34958.81
692.69	34914.07
693.037	35091.92
693.383	34688.09
693.73	34940.06
694.077	34712.27
694.423	34678.82
694.769	34554.53
695.116	34495.55
695.462	34561.31
695.808	34272.28
696.155	34349.79
696.501	34025.96
696.847	34093.75
697.193	33957.71
697.539	34000.65
697.885	33693.31
698.231	33602.24
698.577	33541.67
698.923	33637.04
699.269	33538.96
699.614	33193.89
699.96	33201.57
700.306	33170.16
700.651	33156.15
700.997	33035.7
701.342	32985.76
701.688	32919.54
702.033	32850.17
702.379	32783.05
702.724	32542.38
703.069	32721.58
703.415	32357.52
703.76	32388.26
704.105	32343.97
704.45	32371.31
704.795	32188.94
705.14	31976.74
705.485	32010.19
705.83	31924.54
706.175	32009.06
706.52	31864.88
706.865	31725.9
707.209	31797.99
707.554	31611.78
707.899	31583.99
708.243	31545.79
708.588	31450.66
708.932	31207.05
709.277	31059.48
709.621	31213.6
709.966	31015.64
710.31	31074.39
710.654	30731.35
710.998	30871.91
711.342	30827.85
711.687	30791.46
712.031	30777
712.375	30481.19
712.719	30658.13
713.063	30443.68
713.407	30550.79
713.75	30345.83
714.094	30246.85
714.438	30237.35
714.782	30358.26
715.125	30124.59
715.469	30167.07
715.812	29993.52
716.156	29916.46
716.499	30002.11
716.843	29918.49
717.186	29855.44
717.53	29942.22
717.873	29814.09
718.216	29772.96
718.559	29737.25
718.902	29424.72
719.246	29655
719.589	29492.29
719.932	29423.14
720.275	29398.28
720.617	29278.28
720.96	29253.65
721.303	29266.31
721.646	29269.24
721.989	29095.24
722.331	29071.28
722.674	28994.9
723.016	29070.83
723.359	28958.52
723.701	28883.27
724.044	28778.18
724.386	28546.33
724.729	28775.02
725.071	28692.08
725.413	28679.66
725.755	28553.33
726.097	28620.22
726.439	28443.96
726.782	28380.91
727.124	28516.04
727.465	28392.88
727.807	28332.55
728.149	28359.89
728.491	28292.77
728.833	28308.14
729.175	28062.27
729.516	28060.24
729.858	28144.75
730.199	28051.42
730.541	27924.87
730.882	27986.57
731.224	28055.49
731.565	28016.4
731.906	27723.75
732.248	27814.82
732.589	27705.44
732.93	27562.4
733.271	27654.37
733.612	27621.15
733.953	27577.54
734.294	27475.85
734.635	27548.61
734.976	27504.09
735.317	27306.13
735.658	27261.61
735.999	27347.49
736.339	27259.58
736.68	27298.22
737.021	27317.21
737.361	27323.08
737.702	27242.86
738.042	27180.26
738.383	27028.63
738.723	27145.23
739.063	27038.34
739.404	27186.14
739.744	26980.94
740.084	26893.94
740.424	26897.56
740.764	26791.34
741.104	26947.95
741.444	26833.6
741.784	26687.84
742.124	26764.9
742.464	26537.11
742.804	26616.66
743.143	26568.07
743.483	26618.92
743.823	26381.41
744.162	26415.76
744.502	26472.71
744.841	26304.35
745.181	26413.73
745.52	26435.19
745.86	26356.33
746.199	26316.78
746.538	26201.08
746.877	26278.59
747.216	26307.06
747.556	26110.46
747.895	26190.91
748.234	26013.74
748.573	26097.35
748.911	25962.21
749.25	25980.97
749.589	25911.82
749.928	25731.94
750.267	25866.85
750.605	25751.6
750.944	25689.45
751.283	25580.3
751.621	25831.37
751.96	25549.57
752.298	25527.87
752.636	25479.97
752.975	25375.79
753.313	25353.19
753.651	25449.23
753.989	25359.06
754.327	25190.93
754.666	25234.55
755.004	25231.38
755.342	25218.5
755.679	25143.93
756.017	24982.58
756.355	25131.73
756.693	24894.67
757.031	24912.75
757.368	24811.96
757.706	24856.25
758.044	24674.56
758.381	24766.09
758.719	24560.44
759.056	24620.78
759.394	24492.87
759.731	24282.93
760.068	24392.08
760.405	24360.9
