Data from hue_150_FLMS001491_00100.txt Node
Date: Tue Feb 07 16:54:49 GMT 2017
User: dcchb
Spectrometer: FLMS00149
Trigger mode: 0
Integration Time (sec): 2.000000E-2
Scans to average: 10
Electric dark correction enabled: true
Nonlinearity correction enabled: false
Boxcar width: 0
XAxis mode: Wavelengths
Number of Pixels in Spectrum: 2048
>>>>>Begin Spectral Data<<<<<
341.393	-15.8
341.776	-15.8
342.16	-15.8
342.543	-51.28
342.927	-78.85
343.31	-66.65
343.693	-76.37
344.077	-69.36
344.46	-44.73
344.843	-56.93
345.226	-51.06
345.61	-39.53
345.993	-16.93
346.376	5.21
346.759	11.31
347.142	20.35
347.525	49.05
347.908	68.94
348.291	77.98
348.674	82.5
349.057	106.23
349.44	99.67
349.823	146
350.206	160.24
350.588	188.48
350.971	223.96
351.354	207.47
351.737	240.69
352.119	219.44
352.502	252.21
352.884	251.53
353.267	264.87
353.65	284.07
354.032	293.11
354.414	290.4
354.797	309.38
355.179	299.89
355.562	314.81
355.944	323.17
356.326	318.42
356.709	307.58
357.091	341.7
357.473	332.89
357.855	328.59
358.238	320.68
358.62	333.79
359.002	321.14
359.384	343.28
359.766	341.47
360.148	331.08
360.53	335.82
360.912	345.32
361.294	313.23
361.676	317.97
362.057	325.66
362.439	310.97
362.821	317.97
363.203	332.21
363.584	335.82
363.966	339.44
364.348	315.71
364.729	304.19
365.111	299.67
365.493	306.9
365.874	297.86
366.256	302.15
366.637	310.74
367.019	288.82
367.4	304.41
367.781	321.81
368.163	298.76
368.544	308.25
368.925	288.14
369.306	315.71
369.688	310.74
370.069	295.83
370.45	313.9
370.831	324.53
371.212	308.71
371.593	306.67
371.974	315.03
372.355	300.8
372.736	328.82
373.117	320.01
373.498	304.64
373.879	307.58
374.26	312.77
374.641	336.05
375.021	307.12
375.402	320.46
375.783	297.41
376.163	298.09
376.544	309.16
376.925	322.04
377.305	343.73
377.686	342.83
378.066	317.07
378.447	293.34
378.827	304.19
379.208	331.53
379.588	333.79
379.968	322.72
380.349	328.59
380.729	323.4
381.109	328.14
381.489	319.55
381.87	305.77
382.25	314.13
382.63	320.91
383.01	327.46
383.39	318.2
383.77	348.03
384.15	322.94
384.53	320.91
384.91	337.63
385.29	328.82
385.67	320.91
386.049	347.35
386.429	341.25
386.809	336.05
387.189	357.74
387.568	336.28
387.948	335.6
388.328	355.26
388.707	344.64
389.087	348.93
389.466	352.55
389.846	356.16
390.225	347.58
390.605	341.7
390.984	337.18
391.363	371.53
391.743	345.77
392.122	355.26
392.501	344.86
392.881	384.64
393.26	362.04
393.639	361.13
394.018	354.81
394.397	357.29
394.776	378.99
395.155	369.5
395.534	373.79
395.913	378.76
396.292	381.92
396.671	374.47
397.05	367.69
397.429	375.37
397.808	387.8
398.186	371.76
398.565	364.3
398.944	368.82
399.323	370.17
399.701	355.26
400.08	367.91
400.458	378.31
400.837	368.37
401.215	396.84
401.594	396.84
401.972	391.42
402.351	389.16
402.729	396.16
403.107	397.07
403.486	394.81
403.864	397.97
404.242	378.54
404.62	409.72
404.999	405.2
405.377	402.94
405.755	423.73
406.133	407.46
406.511	409.95
406.889	417.86
407.267	405.43
407.645	415.6
408.023	431.64
408.401	419.89
408.779	413.56
409.156	431.19
409.534	414.47
409.912	423.96
410.29	445.65
410.667	445.2
411.045	435.48
411.422	450.85
411.8	441.36
412.178	435.26
412.555	467.35
412.933	448.36
413.31	461.92
413.687	464.18
414.065	453.34
414.442	478.65
414.819	459.44
415.197	469.61
415.574	456.27
415.951	465.76
416.328	485.65
416.705	461.02
417.082	467.12
417.46	473.67
417.837	460.12
418.214	490.4
418.591	499.89
418.967	470.06
419.344	482.04
419.721	497.85
420.098	487.46
420.475	504.18
420.852	497.85
421.228	488.81
421.605	502.6
421.982	512.54
422.358	510.74
422.735	515.25
423.111	518.19
423.488	523.39
423.864	553.45
424.241	556.84
424.617	535.82
424.994	557.06
425.37	531.98
425.746	552.54
426.123	568.59
426.499	538.08
426.875	538.31
427.251	548.25
427.627	578.3
428.003	554.35
428.379	573.33
428.756	580.79
429.132	566.78
429.507	601.58
429.883	591.41
430.259	609.04
430.635	580.11
431.011	579.89
431.387	622.6
431.763	614.24
432.138	627.57
432.514	605.87
432.89	632.99
433.265	625.08
433.641	621.47
434.016	625.08
434.392	631.18
434.767	653.33
435.143	675.02
435.518	670.73
435.894	654.91
436.269	667.79
436.644	673.22
437.02	690.39
437.395	692.65
437.77	681.8
438.145	697.62
438.52	708.02
438.895	717.06
439.271	695.36
439.646	750.28
440.021	707.11
440.395	715.7
440.77	753.89
441.145	726.55
441.52	743.72
441.895	745.53
442.27	758.19
442.645	743.27
443.019	762.71
443.394	755.02
443.769	775.36
444.143	763.16
444.518	776.04
444.892	766.32
445.267	779.88
445.641	792.31
446.016	796.38
446.39	789.6
446.764	824.85
447.139	818.07
447.513	807.68
447.887	826.43
448.262	828.92
448.636	835.25
449.01	832.99
449.384	842.48
449.758	836.6
450.132	861.23
450.506	849.71
450.88	844.29
451.254	886.32
451.628	861.91
452.002	876.83
452.376	896.26
452.75	894.68
453.123	909.37
453.497	903.95
453.871	911.63
454.244	917.73
454.618	916.83
454.992	953.21
455.365	939.65
455.739	965.86
456.112	971.51
456.486	988.91
456.859	1011.06
457.232	1005.86
457.606	992.98
457.979	1034.56
458.352	1067.78
458.725	1060.33
459.099	1080.66
459.472	1078.63
459.845	1091.06
460.218	1073.43
460.591	1109.59
460.964	1085.41
461.337	1134
461.71	1156.59
462.083	1144.16
462.456	1160.44
462.829	1188.46
463.201	1204.05
463.574	1201.56
463.947	1216.93
464.32	1237.27
464.692	1248.34
465.065	1272.3
465.438	1303.48
465.81	1293.09
466.183	1294.9
466.555	1348.68
466.928	1341.9
467.3	1378.06
467.672	1399.3
468.045	1431.84
468.417	1456.7
468.789	1476.81
469.161	1484.04
469.534	1547.54
469.906	1571.05
470.278	1558.84
470.65	1609.24
471.022	1640.42
471.394	1637.71
471.766	1673.64
472.138	1736.92
472.51	1765.17
472.882	1776.01
473.253	1845.62
473.625	1868.21
473.997	1904.14
474.369	1952.51
474.74	1976.01
475.112	2032.05
475.484	2040.64
475.855	2103.46
476.227	2150.01
476.598	2239.05
476.97	2286.73
477.341	2355.43
477.713	2355.66
478.084	2426.84
478.455	2492.83
478.827	2571.47
479.198	2654.18
479.569	2715.65
479.94	2790.22
480.311	2843.56
480.682	2924.23
481.053	3017.56
481.424	3065.02
481.795	3166.94
482.166	3238.12
482.537	3361.06
482.908	3421.17
483.279	3533.93
483.65	3589.07
484.021	3716.53
484.391	3804.66
484.762	3895.05
485.133	3946.35
485.503	4080.13
485.874	4228.15
486.244	4267.02
486.615	4410.75
486.985	4559.67
487.356	4682.83
487.726	4789.49
488.097	4874.01
488.467	4991.52
488.837	5112.42
489.207	5239.65
489.578	5405.52
489.948	5489.59
490.318	5574.1
490.688	5678.51
491.058	5826.98
491.428	5951.72
491.798	6108.55
492.168	6247.76
492.538	6325.72
492.908	6424.7
493.278	6635.09
493.648	6704.7
494.017	6824.24
494.387	6965.48
494.757	7035.08
495.126	7200.5
495.496	7245.02
495.866	7402.31
496.235	7436.88
496.605	7686.14
496.974	7702.64
497.344	7843.42
497.713	7927.49
498.082	8016.3
498.452	8151.21
498.821	8225.79
499.19	8337.2
499.559	8440.7
499.928	8614.25
500.298	8668.71
500.667	8790.52
501.036	8776.51
501.405	8863.06
501.774	8992.55
502.143	9081.36
502.512	9097.18
502.88	9219.66
503.249	9260.56
503.618	9370.39
503.987	9439.99
504.356	9491.29
504.724	9605.19
505.093	9655.58
505.462	9668.23
505.83	9784.62
506.199	9853.77
506.567	10006.08
506.936	10059.86
507.304	10140.76
507.672	10149.13
508.041	10210.59
508.409	10298.73
508.777	10377.59
509.145	10429.12
509.514	10428.21
509.882	10505.5
510.25	10586.18
510.618	10603.13
510.986	10671.6
511.354	10749.34
511.722	10814.42
512.09	10903.91
512.458	10858.26
512.826	10977.58
513.193	11005.83
513.561	10968.54
513.929	11033.4
514.297	11163.79
514.664	11201.75
515.032	11209.21
515.4	11204.24
515.767	11254.18
516.135	11326.95
516.502	11213.96
516.869	11386.61
517.237	11364.46
517.604	11382.54
517.972	11431.13
518.339	11512.71
518.706	11477.68
519.073	11467.06
519.44	11513.38
519.808	11669.99
520.175	11553.16
520.542	11659.82
520.909	11717.67
521.276	11649.2
521.643	11743.89
522.009	11814.62
522.376	11742.3
522.743	11784.11
523.11	11850.55
523.477	11857.56
523.843	11968.96
524.21	11981.85
524.577	12029.75
524.943	12027.72
525.31	12053.03
525.676	12127.15
526.043	12063.2
526.409	12076.08
526.776	12222.29
527.142	12153.59
527.508	12209.64
527.874	12245.34
528.241	12252.12
528.607	12162.86
528.973	12188.85
529.339	12244.89
529.705	12242.4
530.071	12262.97
530.437	12291.67
530.803	12274.04
531.169	12248.05
531.535	12179.58
531.901	12194.5
532.267	12246.25
532.632	12192.69
532.998	12184.1
533.364	12215.51
533.73	12161.28
534.095	12249.41
534.461	12153.82
534.826	12231.78
535.192	12122.18
535.557	12180.26
535.923	12127.15
536.288	12077.89
536.653	12059.58
537.019	11992.47
537.384	12028.17
537.749	12040.38
538.114	11903.88
538.479	11964.67
538.845	11903.88
539.21	11772.81
539.575	11835.64
539.94	11819.82
540.305	11813.49
540.67	11721.74
541.034	11768.29
541.399	11706.82
541.764	11669.09
542.129	11684.45
542.494	11674.06
542.858	11612.36
543.223	11571.46
543.587	11575.53
543.952	11482.88
544.316	11492.14
544.681	11480.39
545.045	11425.7
545.41	11445.59
545.774	11342.31
546.138	11301.86
546.503	11282.66
546.867	11274.29
547.231	11297.34
547.595	11270
547.959	11231.81
548.324	11122.89
548.688	11155.88
549.052	11087.63
549.416	11080.85
549.779	11074.3
550.143	10991.14
550.507	11039.05
550.871	11026.39
551.235	10876.11
551.599	10907.3
551.962	10903.46
552.326	10889.9
552.689	10891.25
553.053	10779.62
553.417	10773.97
553.78	10950.46
554.143	10754.99
554.507	10729.45
554.87	10777.36
555.234	10711.6
555.597	10675.89
555.96	10729.68
556.323	10743.69
556.686	10658.49
557.05	10650.13
557.413	10665.95
557.776	10630.02
558.139	10588.44
558.502	10625.5
558.865	10612.16
559.228	10614.65
559.59	10566.29
559.953	10536.69
560.316	10607.87
560.679	10578.95
561.041	10670.47
561.404	10643.12
561.767	10545.27
562.129	10657.14
562.492	10628.21
562.854	10519.06
563.217	10500.98
563.579	10503.01
563.941	10628.21
564.304	10541.66
564.666	10580.3
565.028	10712.05
565.39	10589.57
565.753	10601.32
566.115	10639.51
566.477	10659.39
566.839	10700.07
567.201	10713.4
567.563	10732.84
567.925	10690.81
568.287	10626.63
568.648	10721.09
569.01	10726.06
569.372	10698.94
569.734	10681.99
570.095	10803.12
570.457	10733.29
570.819	10799.73
571.18	10763.35
571.542	10816.9
571.903	10762.89
572.265	10788.88
572.626	10798.83
572.987	10832.5
573.349	10838.15
573.71	10776.91
574.071	10832.5
574.432	10776.91
574.794	10848.77
575.155	10783.23
575.516	10797.7
575.877	10852.84
576.238	10889.67
576.599	10938.48
576.96	10919.95
577.32	10873.4
577.681	10945.49
578.042	10962.66
578.403	10837.7
578.763	10819.84
579.124	10887.86
579.485	10859.39
579.845	11036.79
580.206	10858.71
580.566	10828.66
580.927	10869.78
581.287	10937.13
581.648	10818.94
582.008	10872.95
582.368	10867.3
582.728	10838.6
583.089	10862.1
583.449	10836.34
583.809	10900.97
584.169	10880.86
584.529	10801.31
584.889	10903.46
585.249	10832.27
585.609	10792.72
585.969	10763.8
586.329	10775.78
586.688	10774.42
587.048	10789.11
587.408	10737.36
587.768	10776.68
588.127	10740.75
588.487	10713.86
588.846	10760.18
589.206	10712.27
589.565	10743.46
589.925	10751.37
590.284	10691.94
590.643	10638.6
591.003	10677.25
591.362	10706.4
591.721	10648.77
592.08	10707.76
592.44	10682.9
592.799	10653.52
593.158	10636.34
593.517	10664.59
593.876	10695.78
594.235	10628.44
594.593	10653.07
594.952	10603.13
595.311	10644.71
595.67	10658.26
596.029	10743.23
596.387	10692.61
596.746	10712.27
597.104	10674.08
597.463	10593.86
597.822	10618.72
598.18	10580.98
598.538	10539.85
598.897	10604.03
599.255	10521.32
599.613	10742.56
599.972	10624.14
600.33	10641.54
600.688	10583.01
601.046	10630.7
601.404	10654.88
601.762	10571.71
602.12	10709.56
602.478	10609.23
602.836	10639.28
603.194	10569.23
603.552	10559.96
603.91	10518.16
604.268	10600.41
604.625	10563.13
604.983	10603.13
605.341	10610.13
605.698	10654.65
606.056	10706.63
606.413	10628.21
606.771	10661.2
607.128	10622.56
607.485	10607.87
607.843	10555.44
608.2	10604.03
608.557	10658.72
608.914	10635.44
609.272	10594.31
609.629	10652.84
609.986	10727.64
610.343	10571.94
610.7	10695.1
611.057	10707.76
611.414	10657.81
611.771	10739.62
612.127	10728.32
612.484	10701.2
612.841	10729.68
613.198	10751.6
613.554	10611.03
613.911	10726.06
614.267	10718.83
614.624	10726.74
614.98	10702.56
615.337	10758.6
615.693	10719.28
616.05	10740.52
616.406	10803.12
616.762	10822.33
617.118	10888.09
617.475	10767.64
617.831	10796.57
618.187	10827.07
618.543	10866.85
618.899	10851.71
619.255	10853.06
619.611	10930.12
619.967	10855.1
620.323	10933.96
620.678	10887.86
621.034	10871.37
621.39	10847.86
621.746	10813.74
622.101	10921.53
622.457	10865.27
622.812	10881.99
623.168	10900.52
623.523	10903.46
623.879	10915.43
624.234	10847.41
624.589	10927.18
624.945	10905.26
625.3	10929.67
625.655	10945.26
626.01	10885.6
626.365	10935.09
626.72	10879.73
627.075	10899.39
627.43	10836.34
627.785	10840.63
628.14	10912.72
628.495	10883.57
628.85	10841.31
629.205	10795.89
629.559	10886.51
629.914	10818.71
630.269	10858.26
630.623	10773.06
630.978	10763.35
631.332	10860.97
631.687	10849.45
632.041	10752.5
632.396	10744.36
632.75	10672.5
633.104	10726.51
633.459	10640.19
633.813	10703.69
634.167	10693.97
634.521	10680.41
634.875	10676.57
635.229	10650.36
635.583	10622.33
635.937	10592.5
636.291	10616.01
636.645	10619.17
636.999	10596.12
637.352	10649.9
637.706	10549.34
638.06	10608.55
638.413	10570.13
638.767	10530.58
639.121	10563.35
639.474	10456.24
639.828	10538.95
640.181	10471.15
640.534	10511.6
640.888	10531.49
641.241	10425.28
641.594	10473.41
641.947	10514.54
642.301	10411.04
642.654	10445.84
643.007	10515.67
643.36	10444.26
643.713	10442.23
644.066	10512.73
644.419	10436.8
644.771	10345.5
645.124	10190.03
645.477	10236.81
645.83	10117.04
646.182	10102.12
646.535	10092.18
646.888	10130.37
647.24	10067.55
647.593	10121.56
647.945	10079.75
648.298	9990.49
648.65	10060.99
649.002	10040.2
649.355	10081.33
649.707	10069.58
650.059	10108.45
650.411	10245.17
650.763	10273.87
651.115	10310.93
651.467	10328.33
651.819	10314.09
652.171	10268.9
652.523	10271.38
652.875	10220.31
653.227	10205.17
653.578	10284.26
653.93	10329.46
654.282	10176.02
654.633	10251.27
654.985	10277.48
655.337	10274.55
655.688	10303.47
656.039	10379.63
656.391	10178.28
656.742	10272.96
657.094	10331.04
657.445	10311.61
657.796	10340.99
658.147	10278.39
658.498	10301.66
658.849	10300.31
659.2	10348.22
659.551	10265.05
659.902	10366.75
660.253	10298.05
660.604	10363.36
660.955	10320.19
661.306	10241.33
661.656	10312.29
662.007	10362.91
662.358	10327.88
662.708	10362.68
663.059	10304.38
663.409	10274.77
663.76	10367.2
664.11	10398.84
664.461	10335.34
664.811	10363.36
665.161	10361.32
665.511	10307.77
665.862	10359.74
666.212	10374.88
666.562	10352.28
666.912	10280.65
667.262	10302.12
667.612	10336.01
667.962	10322.91
668.312	10269.35
668.662	10383.47
669.011	10326.3
669.361	10371.72
669.711	10278.84
670.06	10322.68
670.41	10359.29
670.76	10252.63
671.109	10329.46
671.459	10324.26
671.808	10276.81
672.157	10357.26
672.507	10206.53
672.856	10183.7
673.205	10306.18
673.554	10341.89
673.904	10223.47
674.253	10309.12
674.602	10186.41
674.951	10086.08
675.3	10070.71
675.649	10226.86
675.998	10172.63
676.346	10218.95
676.695	10226.86
677.044	10187.54
677.393	10187.09
677.741	10226.19
678.09	10194.32
678.438	10214.43
678.787	10122.69
679.135	10152.74
679.484	10042.91
679.832	10096.7
680.181	10106.19
680.529	10018.28
680.877	10001.11
681.225	9955.68
681.573	10048.56
681.922	9965.63
682.27	9970.83
682.618	10014.67
682.966	9925.85
683.314	9998.62
683.661	9943.48
684.009	9884.95
684.357	9844.73
684.705	9831.62
685.053	9868.91
685.4	9789.36
685.748	9776.93
686.095	9717.05
686.443	9757.5
686.79	9782.36
687.138	9684.05
687.485	9748.68
687.832	9595.24
688.18	9617.16
688.527	9638.4
688.874	9587.56
689.221	9550.5
689.568	9563.38
689.915	9538.97
690.262	9513.89
690.609	9460.1
690.956	9509.59
691.303	9481.57
691.65	9395.25
691.997	9404.74
692.344	9269.15
692.69	9261.01
693.037	9315.7
693.383	9222.82
693.73	9195.25
694.077	9126.78
694.423	9149.6
694.769	9113.45
695.116	9117.29
695.462	9075.48
695.808	9075.48
696.155	9062.37
696.501	8982.38
696.847	8943.73
697.193	8848.14
697.539	8844.3
697.885	8863.96
698.231	8779.67
698.577	8837.75
698.923	8771.99
699.269	8729.05
699.614	8743.29
699.96	8651.09
700.306	8655.61
700.651	8505.55
700.997	8546
701.342	8549.62
701.688	8558.89
702.033	8516.85
702.379	8480.7
702.724	8412.45
703.069	8507.81
703.415	8387.59
703.76	8350.76
704.105	8398.44
704.45	8358.89
704.795	8311.21
705.14	8225.11
705.485	8212
705.83	8189.86
706.175	8176.75
706.52	8175.84
706.865	8151.21
707.209	8151.66
707.554	8037.09
707.899	8107.15
708.243	8026.02
708.588	8051.55
708.932	8022.18
709.277	8012.46
709.621	7962.97
709.966	7888.39
710.31	7998
710.654	7818.11
710.998	7929.75
711.342	7819.24
711.687	7814.5
712.031	7787.15
712.375	7769.08
712.719	7727.04
713.063	7771.56
713.407	7792.13
713.75	7691.56
714.094	7727.27
714.438	7661.06
714.782	7649.3
715.125	7629.64
715.469	7641.62
715.812	7589.87
716.156	7599.36
716.499	7591.68
716.843	7585.8
717.186	7551.91
717.53	7548.74
717.873	7579.93
718.216	7522.75
718.559	7524.56
718.902	7440.5
719.246	7523.88
719.589	7449.08
719.932	7394.62
720.275	7501.96
720.617	7438.69
720.96	7388.29
721.303	7481.17
721.646	7437.56
721.989	7391.91
722.331	7411.12
722.674	7463.77
723.016	7407.28
723.359	7436.43
723.701	7420.84
724.044	7334.28
724.386	7363.44
724.729	7355.75
725.071	7314.62
725.413	7296.09
725.755	7312.14
726.097	7294.06
726.439	7232.59
726.782	7284.12
727.124	7311.46
727.465	7308.52
727.807	7305.36
728.149	7260.39
728.491	7282.08
728.833	7275.3
729.175	7224.46
729.516	7264.91
729.858	7240.95
730.199	7255.42
730.541	7270.78
730.882	7238.69
731.224	7296.55
731.565	7268.3
731.906	7284.12
732.248	7271.24
732.589	7267.85
732.93	7219.71
733.271	7225.36
733.612	7254.74
733.953	7203.67
734.294	7225.13
734.635	7264.23
734.976	7331.8
735.317	7285.7
735.658	7280.27
735.999	7240.73
736.339	7293.16
736.68	7227.17
737.021	7289.77
737.361	7219.26
737.702	7317.56
738.042	7266.72
738.383	7370.67
738.723	7264.91
739.063	7325.7
739.404	7331.12
739.744	7335.87
740.084	7267.62
740.424	7372.25
740.764	7348.3
741.104	7345.36
741.444	7275.98
741.784	7399.82
742.124	7397.79
742.464	7411.57
742.804	7432.14
743.143	7485.69
743.483	7448.63
743.823	7453.6
744.162	7498.8
744.502	7527.27
744.841	7554.84
745.181	7582.64
745.52	7633.71
745.86	7659.93
746.199	7658.8
746.538	7731.56
746.877	7790.32
747.216	7787.83
747.556	7831.9
747.895	7857.43
748.234	7911.44
748.573	7974.95
748.911	7964.55
749.25	8030.99
749.589	8120.48
749.928	8180.14
750.267	8263.98
750.605	8349.85
750.944	8388.04
751.283	8433.46
751.621	8546.23
751.96	8662.39
752.298	8655.61
752.636	8760.24
752.975	8844.75
753.313	8927.46
753.651	9103.28
753.989	9113.22
754.327	9237.06
754.666	9280.9
755.004	9490.84
755.342	9568.35
755.679	9727.44
756.017	9798.4
756.355	9899.87
756.693	10083.59
757.031	10226.64
757.368	10275
757.706	10484.94
758.044	10586.63
758.381	10678.15
758.719	10844.93
759.056	11009.22
759.394	11076.33
759.731	11127.18
760.068	11401.07
760.405	11527.17
760.743	11712.93
761.08	11881.28
