Data from hue_90_FLMS001491_1.txt Node
Date: Mon Feb 06 15:24:35 GMT 2017
User: dcchb
Spectrometer: FLMS00149
Trigger mode: 0
Integration Time (sec): 2.000000E-2
Scans to average: 10
Electric dark correction enabled: true
Nonlinearity correction enabled: false
Boxcar width: 0
XAxis mode: Wavelengths
Number of Pixels in Spectrum: 2048
>>>>>Begin Spectral Data<<<<<
341.393	-12.05
341.776	-12.05
342.16	-12.05
342.543	-67.64
342.927	-83.01
343.31	-69.22
343.693	-54.98
344.077	-66.28
344.46	-50.69
344.843	-51.82
345.226	-14.53
345.61	-26.96
345.993	-9.11
346.376	-20.41
346.759	0.16
347.142	22.75
347.525	20.95
347.908	70.21
348.291	67.72
348.674	84.9
349.057	97.33
349.44	124.67
349.823	147.5
350.206	168.29
350.588	200.6
350.971	194.05
351.354	226.36
351.737	225.46
352.119	245.12
352.502	251.45
352.884	280.83
353.267	279.47
353.65	313.14
354.032	288.28
354.414	290.54
354.797	313.82
355.179	303.88
355.562	328.96
355.944	342.07
356.326	336.87
356.709	337.1
357.091	332.58
357.473	348.62
357.855	345.91
358.238	347.04
358.62	339.13
359.002	335.51
359.384	349.52
359.766	350.65
360.148	315.63
360.53	343.65
360.912	317.21
361.294	347.04
361.676	308.4
362.057	321.28
362.439	327.6
362.821	312.24
363.203	322.63
363.584	319.02
363.966	318.79
364.348	328.96
364.729	328.73
365.111	323.76
365.493	337.32
365.874	295.29
366.256	317.21
366.637	303.42
367.019	327.83
367.4	333.25
367.781	300.03
368.163	304.1
368.544	325.12
368.925	318.79
369.306	333.25
369.688	304.55
370.069	317.44
370.45	300.71
370.831	301.62
371.212	300.94
371.593	294.84
371.974	297.55
372.355	298.23
372.736	294.84
373.117	320.37
373.498	335.06
373.879	294.61
374.26	314.27
374.641	318.11
375.021	323.76
375.402	301.16
375.783	323.99
376.163	304.55
376.544	316.76
376.925	306.59
377.305	318.57
377.686	322.18
378.066	327.15
378.447	323.76
378.827	316.53
379.208	312.24
379.588	337.1
379.968	339.58
380.349	354.5
380.729	339.13
381.109	351.33
381.489	357.43
381.87	315.85
382.25	328.51
382.63	327.15
383.01	337.1
383.39	329.41
383.77	335.51
384.15	326.93
384.53	345.23
384.91	336.64
385.29	339.36
385.67	334.16
386.049	339.13
386.429	352.46
386.809	351.56
387.189	352.91
387.568	345.91
387.948	351.56
388.328	357.21
388.707	355.17
389.087	351.56
389.466	347.72
389.846	361.5
390.225	359.69
390.605	369.19
390.984	353.59
391.363	357.21
391.743	366.7
392.122	367.38
392.501	371.45
392.881	357.66
393.26	356.08
393.639	375.51
394.018	363.76
394.397	359.24
394.776	362.18
395.155	368.28
395.534	394.95
395.913	398.56
396.292	402.4
396.671	366.93
397.05	382.74
397.429	374.38
397.808	377.09
398.186	379.35
398.565	377.09
398.944	397.21
399.323	395.4
399.701	385.46
400.08	381.84
400.458	382.29
400.837	398.56
401.215	382.52
401.594	388.85
401.972	410.99
402.351	419.35
402.729	408.28
403.107	406.25
403.486	397.89
403.864	419.13
404.242	420.71
404.62	418.45
404.999	425
405.377	425
405.755	396.08
406.133	407.15
406.511	414.38
406.889	439.47
407.267	414.83
407.645	434.72
408.023	407.15
408.401	458
408.779	448.51
409.156	420.48
409.534	453.25
409.912	448.73
410.29	455.51
410.667	464.55
411.045	434.95
411.422	445.57
411.8	448.73
412.178	483.31
412.555	471.56
412.933	466.81
413.31	472.46
413.687	465.91
414.065	458.67
414.442	485.34
414.819	481.72
415.197	477.88
415.574	486.02
415.951	486.02
416.328	489.41
416.705	482.63
417.082	486.7
417.46	490.31
417.837	516.07
418.214	492.12
418.591	515.17
418.967	504.1
419.344	513.81
419.721	495.96
420.098	516.3
420.475	521.27
420.852	512.91
421.228	542.06
421.605	525.34
421.982	535.51
422.358	532.57
422.735	541.38
423.111	556.07
423.488	555.4
423.864	559.01
424.241	581.16
424.617	565.34
424.994	568.05
425.37	551.33
425.746	555.17
426.123	569.18
426.499	559.24
426.875	575.51
427.251	576.19
427.627	587.71
428.003	593.36
428.379	599.46
428.756	607.37
429.132	610.99
429.507	617.09
429.883	608.95
430.259	610.76
430.635	592.68
431.011	626.81
431.387	602.85
431.763	641.27
432.138	638.33
432.514	642.17
432.89	658.22
433.265	692.11
433.641	681.27
434.016	662.06
434.392	661.61
434.767	699.12
435.143	679.91
435.518	688.27
435.894	709.29
436.269	723.07
436.644	709.06
437.02	707.71
437.395	705.22
437.77	739.12
438.145	708.61
438.52	742.51
438.895	749.06
439.271	738.89
439.646	750.64
440.021	747.03
440.395	766.01
440.77	756.75
441.145	770.98
441.52	781.15
441.895	786.35
442.27	774.6
442.645	782.73
443.019	815.73
443.394	802.62
443.769	793.35
444.143	798.55
444.518	806.69
444.892	813.24
445.267	833.81
445.641	846.01
446.016	817.08
446.39	839
446.764	850.98
447.139	817.76
447.513	839.46
447.887	854.37
448.262	852.79
448.636	867.93
449.01	883.07
449.384	885.1
449.758	893.92
450.132	893.92
450.506	907.7
450.88	914.26
451.254	909.96
451.628	903.18
452.002	922.84
452.376	947.48
452.75	954.25
453.123	954.71
453.497	968.72
453.871	965.55
454.244	967.59
454.618	983.86
454.992	984.99
455.365	1001.03
455.739	1022.05
456.112	1016.85
456.486	1019.11
456.859	1050.52
457.232	1057.08
457.606	1054.82
457.979	1095.49
458.352	1073.12
458.725	1085.78
459.099	1111.09
459.472	1129.84
459.845	1139.56
460.218	1150.41
460.591	1140.92
460.964	1162.61
461.337	1193.57
461.71	1182.5
462.083	1203.74
462.456	1216.62
462.829	1219.78
463.201	1249.84
463.574	1274.7
463.947	1282.16
464.32	1316.5
464.692	1319.89
465.065	1328.48
465.438	1372.32
465.81	1393.11
466.183	1403.73
466.555	1386.11
466.928	1436.28
467.3	1398.76
467.672	1451.64
468.045	1473.56
468.417	1537.29
468.789	1519.44
469.161	1549.04
469.534	1581.36
469.906	1645.31
470.278	1637.63
470.65	1626.33
471.022	1677.17
471.394	1725.76
471.766	1741.8
472.138	1797.17
472.51	1828.58
472.882	1825.64
473.253	1881.91
473.625	1913.55
473.997	1937.73
474.369	1975.02
474.74	2048.69
475.112	2080.78
475.484	2098.18
475.855	2217.5
476.227	2201.91
476.598	2266.08
476.97	2310.6
477.341	2346.31
477.713	2417.04
478.084	2460.88
478.455	2537.49
478.827	2594.21
479.198	2632.63
479.569	2727.32
479.94	2795.34
480.311	2890.25
480.682	2959.85
481.053	3008.66
481.424	3098.15
481.795	3164.82
482.166	3249.34
482.537	3318.94
482.908	3437.35
483.279	3514.87
483.65	3552.38
484.021	3701.98
484.391	3744.69
484.762	3860.62
485.133	3915.53
485.503	4015.64
485.874	4156.88
486.244	4235.3
486.615	4335.86
486.985	4461.06
487.356	4568.17
487.726	4659.92
488.097	4781.05
488.467	4834.38
488.837	5014.94
489.207	5132.22
489.578	5248.38
489.948	5341.71
490.318	5490.41
490.688	5517.52
491.058	5690.85
491.428	5812.66
491.798	5917.51
492.168	6090.62
492.538	6130.39
492.908	6256.26
493.278	6418.74
493.648	6493.77
494.017	6624.84
494.387	6712.97
494.757	6837.72
495.126	6981.21
495.496	7007.2
495.866	7141.21
496.235	7232.51
496.605	7385.27
496.974	7550.92
497.344	7569.67
497.713	7656
498.082	7828.65
498.452	7922.43
498.821	8003.79
499.19	8051.24
499.559	8118.81
499.928	8277
500.298	8374.85
500.667	8526.03
501.036	8444
501.405	8631.34
501.774	8714.95
502.143	8823.2
502.512	8873.14
502.88	9008.73
503.249	9043.76
503.618	9139.8
503.987	9189.74
504.356	9247.82
504.724	9306.35
505.093	9376.86
505.462	9405.56
505.83	9518.1
506.199	9629.51
506.567	9761.03
506.936	9734.81
507.304	9897.97
507.672	9891.65
508.041	9977.07
508.409	10078.99
508.777	10142.71
509.145	10155.59
509.514	10160.11
509.882	10253.45
510.25	10313.1
510.618	10394.46
510.986	10379.09
511.354	10511.07
511.722	10619.99
512.09	10636.94
512.458	10671.74
512.826	10699.76
513.193	10775.01
513.561	10804.84
513.929	10768.91
514.297	10918.29
514.664	10923.03
515.032	10895.91
515.4	11058.85
515.767	11084.61
516.135	11120.77
516.502	11055.46
516.869	11180.2
517.237	11231.95
517.604	11216.81
517.972	11339.97
518.339	11417.03
518.706	11313.53
519.073	11303.36
519.44	11429.91
519.808	11482.79
520.175	11470.36
520.542	11594.65
520.909	11617.25
521.276	11534.09
521.643	11663.35
522.009	11678.49
522.376	11672.62
522.743	11767.3
523.11	11828.09
523.477	11808.21
523.843	11860.41
524.21	11951.71
524.577	11963.91
524.943	11985.15
525.31	11998.48
525.676	12117.8
526.043	12051.14
526.409	12096.33
526.776	12192.38
527.142	12166.16
527.508	12141.08
527.874	12205.71
528.241	12228.31
528.607	12233.28
528.973	12303.33
529.339	12182.89
529.705	12290.45
530.071	12368.42
530.437	12378.36
530.803	12351.92
531.169	12320.28
531.535	12232.15
531.901	12346.5
532.267	12220.17
532.632	12396.44
532.998	12302.66
533.364	12290.23
533.73	12307.4
534.095	12321.19
534.461	12362.09
534.826	12379.04
535.192	12283.45
535.557	12376.78
535.923	12311.02
536.288	12295.2
536.653	12281.41
537.019	12188.76
537.384	12184.02
537.749	12203
538.114	12195.54
538.479	12153.28
538.845	12146.28
539.21	12100.4
539.575	12127.07
539.94	12093.4
540.305	12127.97
540.67	12097.69
541.034	12063.12
541.399	12075.77
541.764	12004.81
542.129	12039.61
542.494	11946.06
542.858	11924.14
543.223	11931.82
543.587	11996.45
543.952	11809.79
544.316	11859.73
544.681	11876
545.045	11817.47
545.41	11779.73
545.774	11840.07
546.138	11708.77
546.503	11657.7
546.867	11671.49
547.231	11770.02
547.595	11640.98
547.959	11635.56
548.324	11692.05
548.688	11693.41
549.052	11676.23
549.416	11629
549.779	11522.79
550.143	11551.49
550.507	11559.63
550.871	11544.03
551.235	11435.56
551.599	11480.31
551.962	11471.94
552.326	11457.26
552.689	11502
553.053	11320.54
553.417	11384.26
553.78	11469.91
554.143	11365.51
554.507	11393.75
554.87	11393.3
555.234	11473.07
555.597	11303.36
555.96	11330.25
556.323	11287.77
556.686	11355.34
557.05	11338.61
557.413	11290.93
557.776	11270.59
558.139	11268.11
558.502	11328.9
558.865	11284.83
559.228	11385.39
559.59	11301.78
559.953	11272.85
560.316	11389.69
560.679	11255
561.041	11280.76
561.404	11351.95
561.767	11344.94
562.129	11347.43
562.492	11420.42
562.854	11372.29
563.217	11333.19
563.579	11340.42
563.941	11445.96
564.304	11410.02
564.666	11393.3
565.028	11421.55
565.39	11441.21
565.753	11503.36
566.115	11559.63
566.477	11465.16
566.839	11445.05
567.201	11478.95
567.563	11588.55
567.925	11548.55
568.287	11547.2
568.648	11534.54
569.01	11563.92
569.372	11539.96
569.734	11519.4
570.095	11627.65
570.457	11590.59
570.819	11627.65
571.18	11680.53
571.542	11717.36
571.903	11756.68
572.265	11736.34
572.626	11730.47
572.987	11709.68
573.349	11812.27
573.71	11877.13
574.071	11795.78
574.432	11805.49
574.794	11921.65
575.155	11814.76
575.516	11791.94
575.877	11835.32
576.238	11801.88
576.599	11891.14
576.96	11829.9
577.32	11901.76
577.681	11938.6
578.042	11839.84
578.403	11874.19
578.763	11829.67
579.124	11868.32
579.485	11884.36
579.845	11927.75
580.206	11924.59
580.566	11847.53
580.927	11898.6
581.287	11932.95
581.648	11836.91
582.008	11869
582.368	11895.89
582.728	11945.38
583.089	11866.96
583.449	11888.2
583.809	11880.07
584.169	11861.76
584.529	11821.99
584.889	11967.3
585.249	11836.68
585.609	11837.13
585.969	11902.22
586.329	11784.7
586.688	11824.93
587.048	11874.19
587.408	11764.14
587.768	11794.2
588.127	11781.31
588.487	11807.98
588.846	11833.74
589.206	11694.09
589.565	11729.34
589.925	11781.77
590.284	11731.37
590.643	11751.71
591.003	11671.94
591.362	11795.1
591.721	11763.24
592.08	11712.62
592.44	11790.81
592.799	11679.4
593.158	11720.75
593.517	11695.44
593.876	11744.03
594.235	11735.89
594.593	11704.25
594.952	11670.81
595.311	11668.32
595.67	11730.47
596.029	11765.04
596.387	11747.19
596.746	11726.63
597.104	11631.49
597.463	11718.72
597.822	11683.46
598.18	11626.29
598.538	11617.7
598.897	11765.27
599.255	11602.56
599.613	11724.37
599.972	11700.64
600.33	11798.04
600.688	11684.14
601.046	11713.75
601.404	11800.52
601.762	11607.99
602.12	11722.11
602.478	11677.81
602.836	11701.54
603.194	11671.03
603.552	11739.96
603.91	11687.31
604.268	11685.5
604.625	11661.54
604.983	11724.37
605.341	11617.93
605.698	11691.83
606.056	11620.41
606.413	11707.64
606.771	11741.32
607.128	11751.94
607.485	11744.93
607.843	11726.4
608.2	11726.63
608.557	11826.74
608.914	11696.57
609.272	11721.66
609.629	11807.08
609.986	11751.03
610.343	11809.79
610.7	11852.5
611.057	11835.32
611.414	11746.06
611.771	11855.44
612.127	11810.47
612.484	11862.67
612.841	11878.26
613.198	11862.22
613.554	11764.82
613.911	11914.42
614.267	11911.48
614.624	11926.4
614.98	11920.75
615.337	11911.03
615.693	11870.58
616.05	11927.53
616.406	11987.18
616.762	11934.3
617.118	11935.21
617.475	11945.38
617.831	11958.49
618.187	11972.27
618.543	11985.15
618.899	12107.18
619.255	12072.61
619.611	12009.56
619.967	12053.62
620.323	12075.32
620.678	11971.14
621.034	12033.51
621.39	12005.49
621.746	12017.47
622.101	12129.55
622.457	12029.9
622.812	12062.21
623.168	12056.34
623.523	12027.64
623.879	12105.15
624.234	11937.69
624.589	12127.75
624.945	11994.87
625.3	12084.58
625.655	12048.43
626.01	12085.71
626.365	12039.61
626.72	12079.84
627.075	12061.31
627.43	12027.41
627.785	12048.43
628.14	12042.32
628.495	12074.87
628.85	11997.35
629.205	11954.87
629.559	12033.06
629.914	11960.74
630.269	12010.69
630.623	11939.73
630.978	11921.2
631.332	11962.78
631.687	11976.79
632.041	11885.72
632.396	11948.99
632.75	11907.19
633.104	11852.5
633.459	11835.55
633.813	11812.27
634.167	11863.12
634.521	11841.88
634.875	11823.57
635.229	11828.09
635.583	11741.54
635.937	11763.01
636.291	11719.17
636.645	11709.68
636.999	11725.27
637.352	11787.64
637.706	11744.48
638.06	11713.07
638.413	11616.8
638.767	11644.37
639.121	11687.08
639.474	11633.3
639.828	11643.92
640.181	11613.64
640.534	11670.81
640.888	11608.66
641.241	11567.31
641.594	11587.2
641.947	11596.46
642.301	11582.68
642.654	11601.66
643.007	11594.65
643.36	11557.37
643.713	11485.96
644.066	11519.85
644.419	11533.64
644.771	11398.05
645.124	11411.61
645.477	11313.3
645.83	11248.67
646.182	11171.39
646.535	11164.83
646.888	11144.04
647.24	11086.64
647.593	11080.54
647.945	11131.39
648.298	11091.39
648.65	11066.08
649.002	11065.4
649.355	11041.67
649.707	11143.82
650.059	11137.94
650.411	11239.63
650.763	11253.19
651.115	11367.99
651.467	11392.4
651.819	11375.9
652.171	11342.46
652.523	11273.31
652.875	11306.75
653.227	11264.72
653.578	11384.04
653.93	11387.65
654.282	11348.78
654.633	11289.12
654.985	11225.85
655.337	11261.55
655.688	11366.64
656.039	11342
656.391	11302.91
656.742	11288.45
657.094	11281.67
657.445	11370.7
657.796	11237.6
658.147	11295.23
658.498	11357.6
658.849	11319.63
659.2	11302.01
659.551	11259.29
659.902	11292.29
660.253	11294.55
660.604	11322.8
660.955	11371.16
661.306	11241.44
661.656	11318.28
662.007	11292.06
662.358	11282.12
662.708	11343.13
663.059	11267.66
663.409	11281.44
663.76	11358.05
664.11	11397.6
664.461	11382.45
664.811	11379.07
665.161	11357.6
665.511	11338.84
665.862	11396.92
666.212	11406.86
666.562	11420.19
666.912	11337.71
667.262	11368.22
667.612	11356.92
667.962	11300.42
668.312	11319.86
668.662	11383.13
669.011	11310.37
669.361	11329.12
669.711	11413.64
670.06	11334.09
670.41	11277.15
670.76	11352.63
671.109	11350.14
671.459	11360.31
671.808	11262.91
672.157	11280.08
672.507	11181.56
672.856	11198.73
673.205	11281.89
673.554	11274.21
673.904	11250.03
674.253	11309.69
674.602	11233.31
674.951	11050.94
675.3	11015.91
675.649	11238.96
675.998	11187.66
676.346	11198.05
676.695	11220.2
677.044	11139.98
677.393	11137.26
677.741	11176.13
678.09	11168.68
678.438	11069.24
678.787	11089.81
679.135	11136.13
679.484	11059.07
679.832	11077.83
680.181	11071.28
680.529	11047.1
680.877	10977.04
681.225	11034.89
681.573	11072.63
681.922	10923.94
682.27	10938.85
682.618	10880.1
682.966	10923.26
683.314	10906.31
683.661	10869.7
684.009	10821.57
684.357	10797.39
684.705	10776.6
685.053	10796.48
685.4	10740.44
685.748	10702.92
686.095	10669.48
686.443	10629.48
686.79	10570.72
687.138	10604.85
687.485	10634.23
687.832	10616.6
688.18	10594.45
688.527	10518.75
688.874	10478.75
689.221	10529.82
689.568	10422.71
689.915	10400.56
690.262	10395.36
690.609	10449.37
690.956	10387.68
691.303	10379.09
691.65	10272.88
691.997	10287.34
692.344	10169.38
692.69	10191.3
693.037	10184.29
693.383	10128.25
693.73	10143.62
694.077	10107.69
694.423	10079.21
694.769	10057.74
695.116	9997.41
695.462	9970.74
695.808	9949.72
696.155	9907.92
696.501	9862.04
696.847	9761.71
697.193	9721.26
697.539	9829.95
697.885	9686
698.231	9651.43
698.577	9658.88
698.923	9637.42
699.269	9595.61
699.614	9453.92
699.96	9575.04
700.306	9507.48
700.651	9415.95
700.997	9436.29
701.342	9437.42
701.688	9376.86
702.033	9302.28
702.379	9282.62
702.724	9344.54
703.069	9292.57
703.415	9252.79
703.76	9170.54
704.105	9165.79
704.45	9150.65
704.795	9037.21
705.14	9092.8
705.485	9093.93
705.83	9025.68
706.175	9016.64
706.52	9000.82
706.865	8968.28
707.209	8952.91
707.554	8895.74
707.899	8919.24
708.243	8836.99
708.588	8849.64
708.932	8773.26
709.277	8775.29
709.621	8764.44
709.966	8729.19
710.31	8696.2
710.654	8642.41
710.998	8700.04
711.342	8631.34
711.687	8608.97
712.031	8593.83
712.375	8523.32
712.719	8569.2
713.063	8524.9
713.407	8579.14
713.75	8548.41
714.094	8506.6
714.438	8505.24
714.782	8538.24
715.125	8453.04
715.469	8422.76
715.812	8390.67
716.156	8389.99
716.499	8326.26
716.843	8412.82
717.186	8373.49
717.53	8361.74
717.873	8399.93
718.216	8379.14
718.559	8279.49
718.902	8252.37
719.246	8267.06
719.589	8233.61
719.932	8251.24
720.275	8253.5
720.617	8184.12
720.96	8210.33
721.303	8208.3
721.646	8200.39
721.989	8189.54
722.331	8209.43
722.674	8177.79
723.016	8196.32
723.359	8151.13
723.701	8160.17
724.044	8138.92
724.386	8131.02
724.729	8092.37
725.071	8126.72
725.413	8122.2
725.755	8128.98
726.097	8098.93
726.439	8010.11
726.782	8041.07
727.124	8122.65
727.465	8016.44
727.807	8082.65
728.149	8042.2
728.491	8069.32
728.833	8056.89
729.175	8049.66
729.516	8019.38
729.858	7989.78
730.199	8073.16
730.541	8054.18
730.882	7949.32
731.224	8024.35
731.565	7957.46
731.906	7945.94
732.248	8017.12
732.589	7944.35
732.93	7919.27
733.271	8000.85
733.612	7965.37
733.953	7958.36
734.294	7927.86
734.635	7886.73
734.976	7961.08
735.317	7896.9
735.658	7909.1
735.999	7979.15
736.339	7932.15
736.68	7964.01
737.021	7961.75
737.361	7916.56
737.702	8015.31
738.042	7950.68
738.383	7960.4
738.723	7999.04
739.063	7958.36
739.404	8015.54
739.744	8002.66
740.084	7984.58
740.424	8030.23
740.764	8049.21
741.104	7999.27
741.444	7984.35
741.784	7992.94
742.124	8032.94
742.464	8120.62
742.804	8026.84
743.143	8038.59
743.483	8068.64
743.823	8065.93
744.162	8111.35
744.502	8213.5
744.841	8081.98
745.181	8240.62
745.52	8218.47
745.86	8234.97
746.199	8307.28
746.538	8285.59
746.877	8351.12
747.216	8414.4
747.556	8385.92
747.895	8408.75
748.234	8500.72
748.573	8472.47
748.911	8497.79
749.25	8542.53
749.589	8636.09
749.928	8653.26
750.267	8767.83
750.605	8814.61
750.944	8836.99
751.283	8946.59
751.621	8994.72
751.96	8973.7
752.298	9083.98
752.636	9194.94
752.975	9231.55
753.313	9344.77
753.651	9417.53
753.989	9489.4
754.327	9634.25
754.666	9642.84
755.004	9821.37
755.342	9905.21
755.679	10061.81
756.017	10085.99
756.355	10229.04
756.693	10321.01
757.031	10461.35
757.368	10456.38
757.706	10595.81
758.044	10735.69
758.381	10919.87
758.719	10925.29
759.056	11165.74
759.394	11203.25
759.731	11384.26
760.068	11457.93
760.405	11565.73
