Data from hue_180_FLMS001491_00075.txt Node
Date: Tue Feb 07 16:47:27 GMT 2017
User: dcchb
Spectrometer: FLMS00149
Trigger mode: 0
Integration Time (sec): 2.000000E-2
Scans to average: 10
Electric dark correction enabled: true
Nonlinearity correction enabled: false
Boxcar width: 0
XAxis mode: Wavelengths
Number of Pixels in Spectrum: 2048
>>>>>Begin Spectral Data<<<<<
341.393	-19.89
341.776	-19.89
342.16	-19.89
342.543	-76.38
342.927	-66.44
343.31	-72.99
343.693	-67.12
344.077	-60.11
344.46	-68.25
344.843	-52.2
345.226	-46.33
345.61	-41.58
345.993	-13.56
346.376	-7.68
346.759	12.88
347.142	34.35
347.525	53.56
347.908	71.41
348.291	62.37
348.674	87
349.057	108.25
349.44	115.7
349.823	153.89
350.206	168.36
350.588	220.33
350.971	207.9
351.354	214.91
351.737	236.15
352.119	234.8
352.502	249.03
352.884	261.46
353.267	275.25
353.65	281.35
354.032	284.29
354.414	308.47
354.797	309.82
355.179	306.66
355.562	306.88
355.944	336.94
356.326	320.22
356.709	330.84
357.091	342.59
357.473	336.49
357.855	312.31
358.238	348.01
358.62	343.04
359.002	333.78
359.384	347.34
359.766	353.44
360.148	333.55
360.53	331.52
360.912	349.14
361.294	327.68
361.676	327
362.057	340.56
362.439	348.69
362.821	327.9
363.203	312.31
363.584	312.08
363.966	319.77
364.348	307.34
364.729	319.99
365.111	306.43
365.493	332.42
365.874	319.99
366.256	304.17
366.637	287.9
367.019	313.44
367.4	301.69
367.781	322.03
368.163	291.97
368.544	323.38
368.925	302.36
369.306	317.05
369.688	314.57
370.069	314.57
370.45	284.74
370.831	301.69
371.212	303.27
371.593	305.3
371.974	314.12
372.355	286.09
372.736	324.51
373.117	339.65
373.498	323.83
373.879	327
374.26	306.43
374.641	305.98
375.021	318.86
375.402	312.53
375.783	335.13
376.163	314.34
376.544	322.93
376.925	310.5
377.305	317.51
377.686	309.37
378.066	320.22
378.447	301.91
378.827	326.55
379.208	332.42
379.588	322.7
379.968	331.06
380.349	321.57
380.729	330.84
381.109	303.95
381.489	325.64
381.87	333.78
382.25	327
382.63	330.16
383.01	335.13
383.39	330.39
383.77	341.91
384.15	346.43
384.53	341.69
384.91	326.32
385.29	340.56
385.67	347.11
386.049	343.04
386.429	359.09
386.809	336.49
387.189	345.75
387.568	345.75
387.948	334.91
388.328	353.89
388.707	349.82
389.087	348.47
389.466	358.41
389.846	348.01
390.225	340.1
390.605	363.83
390.984	366.09
391.363	371.52
391.743	358.18
392.122	357.5
392.501	340.33
392.881	367.9
393.26	364.51
393.639	363.38
394.018	371.06
394.397	368.35
394.776	362.48
395.155	378.97
395.534	364.74
395.913	379.43
396.292	374.45
396.671	388.69
397.05	361.57
397.429	389.14
397.808	373.32
398.186	387.33
398.565	396.6
398.944	385.98
399.323	393.66
399.701	373.55
400.08	403.83
400.458	414.45
400.837	422.59
401.215	405.64
401.594	422.81
401.972	406.32
402.351	406.77
402.729	420.1
403.107	423.04
403.486	434.11
403.864	413.55
404.242	420.55
404.62	431.63
404.999	435.24
405.377	443.6
405.755	450.38
406.133	449.25
406.511	454.23
406.889	463.94
407.267	463.72
407.645	451.06
408.023	441.57
408.401	474.34
408.779	454.23
409.156	467.11
409.534	497.16
409.912	471.17
410.29	485.86
410.667	507.78
411.045	506.2
411.422	514.79
411.8	517.27
412.178	528.57
412.555	543.04
412.933	539.42
413.31	561.79
413.687	550.95
414.065	553.88
414.442	550.95
414.819	567.89
415.197	583.49
415.574	577.16
415.951	580.78
416.328	581
416.705	612.64
417.082	601.11
417.46	607.22
417.837	650.6
418.214	631.17
418.591	640.21
418.967	658.74
419.344	635.24
419.721	658.06
420.098	658.97
420.475	662.81
420.852	672.75
421.228	701.45
421.605	705.29
421.982	695.35
422.358	726.76
422.735	712.3
423.111	738.29
423.488	760.88
423.864	751.62
424.241	775.8
424.617	781.22
424.994	784.39
425.37	785.97
425.746	818.51
426.123	832.52
426.499	825.52
426.875	836.59
427.251	856.47
427.627	855.57
428.003	868
428.379	868.9
428.756	870.03
429.132	935.34
429.507	901.22
429.883	909.81
430.259	925.17
430.635	952.74
431.011	940.31
431.387	957.71
431.763	971.05
432.138	982.57
432.514	988.9
432.89	998.84
433.265	1017.15
433.641	1037.03
434.016	1053.31
434.392	1072.74
434.767	1103.93
435.143	1129.01
435.518	1110.48
435.894	1134.21
436.269	1180.31
436.644	1187.09
437.02	1194.54
437.395	1238.84
437.77	1228.22
438.145	1258.27
438.52	1249.46
438.895	1266.41
439.271	1272.96
439.646	1335.11
440.021	1319.97
440.395	1360.19
440.77	1336.91
441.145	1367.87
441.52	1378.72
441.895	1403.58
442.27	1404.48
442.645	1397.03
443.019	1432.73
443.394	1454.2
443.769	1445.61
444.143	1433.18
444.518	1517.47
444.892	1472.28
445.267	1535.1
445.641	1538.26
446.016	1544.82
446.39	1528.55
446.764	1534.2
447.139	1557.7
447.513	1603.35
447.887	1583.01
448.262	1594.31
448.636	1578.26
449.01	1646.51
449.384	1643.35
449.758	1631.6
450.132	1664.36
450.506	1685.83
450.88	1719.95
451.254	1698.26
451.628	1740.52
452.002	1755.21
452.376	1742.78
452.75	1812.83
453.123	1799.27
453.497	1805.83
453.871	1845.83
454.244	1902.55
454.618	1898.93
454.992	1922.21
455.365	1935.99
455.739	1929.67
456.112	1997.24
456.486	1983.22
456.859	2000.17
457.232	2058.48
457.606	2086.5
457.979	2086.27
458.352	2121.75
458.725	2161.75
459.099	2152.94
459.472	2207.4
459.845	2232.71
460.218	2248.08
460.591	2256.44
460.964	2284.69
461.337	2351.35
461.71	2368.53
462.083	2421.63
462.456	2434.51
462.829	2454.17
463.201	2472.7
463.574	2495.75
463.947	2519.71
464.32	2583.89
464.692	2622.08
465.065	2631.34
465.438	2705.69
465.81	2716.09
466.183	2731.91
466.555	2792.69
466.928	2839.93
467.3	2843.54
467.672	2906.36
468.045	2996.98
468.417	2969.19
468.789	3011.67
469.161	3100.94
469.534	3106.58
469.906	3166.47
470.278	3211.67
470.65	3318.78
471.022	3319.91
471.394	3380.25
471.766	3479
472.138	3458.89
472.51	3556.97
472.882	3590.19
473.253	3644.2
473.625	3735.27
473.997	3816.4
474.369	3831.09
474.74	3865.44
475.112	3966.9
475.484	4027.92
475.855	4106.78
476.227	4212.09
476.598	4308.14
476.97	4309.94
477.341	4452.31
477.713	4518.75
478.084	4549.71
478.455	4688.24
478.827	4787.9
479.198	4920.77
479.569	4933.66
479.94	5071.28
480.311	5133.65
480.682	5251.39
481.053	5387.88
481.424	5521.21
481.795	5580.64
482.166	5627.2
482.537	5740.64
482.908	5901.77
483.279	5982.22
483.65	6069.22
484.021	6230.34
484.391	6329.55
484.762	6388.98
485.133	6432.6
485.503	6546.95
485.874	6710.33
486.244	6830.78
486.615	6871.68
486.985	7025.13
487.356	7139.7
487.726	7191.22
488.097	7379.24
488.467	7403.65
488.837	7586.24
489.207	7695.39
489.578	7806.57
489.948	7902.39
490.318	8023.97
490.688	8065.1
491.058	8284.75
491.428	8362.49
491.798	8418.76
492.168	8581.92
492.538	8610.62
492.908	8724.97
493.278	8837.51
493.648	8895.59
494.017	9001.8
494.387	9129.7
494.757	9181.91
495.126	9265.07
495.496	9319.3
495.866	9404.95
496.235	9459.41
496.605	9545.51
496.974	9620.99
497.344	9691.72
497.713	9746.86
498.082	9834.54
498.452	9903.47
498.821	9972.62
499.19	10010.13
499.559	10119.06
499.928	10085.84
500.298	10195.66
500.667	10226.17
501.036	10248.54
501.405	10274.31
501.774	10299.16
502.143	10460.06
502.512	10456
502.88	10611.47
503.249	10552.26
503.618	10651.25
503.987	10688.76
504.356	10698.48
504.724	10794.07
505.093	10830.45
505.462	10777.57
505.83	10887.17
506.199	10968.53
506.567	11131.68
506.936	11041.29
507.304	11140.27
507.672	11058.24
508.041	11152.02
508.409	11250.1
508.777	11324.45
509.145	11336.65
509.514	11273.83
509.882	11322.41
510.25	11315.86
510.618	11431.56
510.986	11483.09
511.354	11446.93
511.722	11504.33
512.09	11581.62
512.458	11562.86
512.826	11679.69
513.193	11597.66
513.561	11692.35
513.929	11749.3
514.297	11845.34
514.664	11813.25
515.032	11792.68
515.4	11852.34
515.767	11905
516.135	11891.66
516.502	11758.33
516.869	11952.23
517.237	11966.92
517.604	11853.93
517.972	11986.35
518.339	12005.56
518.706	11987.93
519.073	12011.21
519.44	12084.65
519.808	12082.85
520.175	12116.74
520.542	12267.93
520.909	12220.24
521.276	12178.89
521.643	12151.32
522.009	12275.84
522.376	12214.37
522.743	12248.04
523.11	12282.16
523.477	12426.57
523.843	12422.27
524.21	12446.23
524.577	12466.56
524.943	12530.52
525.31	12359.22
525.676	12535.94
526.043	12479.45
526.409	12505.21
526.776	12567.13
527.142	12514.47
527.508	12470.63
527.874	12586.34
528.241	12530.07
528.607	12464.53
528.973	12615.26
529.339	12512.89
529.705	12622.94
530.071	12645.54
530.437	12506.56
530.803	12578.2
531.169	12568.26
531.535	12532.33
531.901	12513.34
532.267	12441.71
532.632	12475.83
532.998	12430.63
533.364	12424.31
533.73	12480.8
534.095	12418.2
534.461	12375.72
534.826	12350.41
535.192	12422.05
535.557	12383.63
535.923	12237.64
536.288	12285.1
536.653	12254.37
537.019	12160.13
537.384	12180.02
537.749	12173.92
538.114	12081.49
538.479	12053.47
538.845	12056.63
539.21	11976.18
539.575	11940.03
539.94	11953.81
540.305	11990.65
540.67	11843.3
541.034	11816.64
541.399	11819.58
541.764	11819.35
542.129	11764.89
542.494	11767.6
542.858	11699.35
543.223	11559.7
543.587	11639.24
543.952	11493.26
544.316	11474.5
544.681	11424.78
545.045	11406.48
545.41	11380.27
545.774	11337.1
546.138	11297.33
546.503	11231.34
546.867	11165.13
547.231	11288.29
547.595	11154.96
547.959	11103.66
548.324	11081.29
548.688	11012.14
549.052	10943.67
549.416	10925.59
549.779	10886.95
550.143	10841.07
550.507	10876.55
550.871	10808.98
551.235	10694.86
551.599	10723.33
551.962	10664.58
552.326	10691.02
552.689	10656.22
553.053	10575.99
553.417	10540.51
553.78	10651.02
554.143	10480.4
554.507	10510.68
554.87	10452.83
555.234	10513.62
555.597	10357.69
555.96	10366.73
556.323	10343.23
556.686	10320.63
557.05	10318.82
557.413	10277.47
557.776	10279.96
558.139	10335.55
558.502	10243.57
558.865	10241.76
559.228	10263.91
559.59	10162.44
559.953	10174.87
560.316	10247.19
560.679	10296
561.041	10216.23
561.404	10167.42
561.767	10242.67
562.129	10171.26
562.492	10195.44
562.854	10159.05
563.217	10129.68
563.579	10159.51
563.941	10148.21
564.304	10183.69
564.666	10161.54
565.028	10129.45
565.39	10117.02
565.753	10172.39
566.115	10163.8
566.477	10171.03
566.839	10192.95
567.201	10190.69
567.563	10130.58
567.925	10179.17
568.287	10245.15
568.648	10164.48
569.01	10205.16
569.372	10188.88
569.734	10062.11
570.095	10158.6
570.457	10207.19
570.819	10147.53
571.18	10184.14
571.542	10166.29
571.903	10157.92
572.265	10203.8
572.626	10187.98
572.987	10192.95
573.349	10188.43
573.71	10244.25
574.071	10184.59
574.432	10200.64
574.794	10231.37
575.155	10216
575.516	10164.93
575.877	10184.36
576.238	10209.68
576.599	10264.59
576.96	10201.54
577.32	10126.06
577.681	10231.82
578.042	10207.64
578.403	10290.58
578.763	10241.99
579.124	10176.68
579.485	10263.91
579.845	10280.86
580.206	10211.48
580.566	10194.08
580.927	10179.85
581.287	10224.82
581.648	10159.96
582.008	10171.26
582.368	10170.13
582.728	10116.12
583.089	10114.76
583.449	10212.16
583.809	10091.03
584.169	10165.16
584.529	10093.52
584.889	10155.67
585.249	10056.68
585.609	10015.78
585.969	10123.8
586.329	10095.55
586.688	10132.84
587.048	10074.99
587.408	10017.82
587.768	10027.76
588.127	9976.69
588.487	9992.73
588.846	10053.75
589.206	9994.99
589.565	9994.54
589.925	10011.94
590.284	9990.7
590.643	9967.65
591.003	9987.08
591.362	10003.8
591.721	9923.58
592.08	9969.23
592.44	9937.59
592.799	9942.34
593.158	9940.08
593.517	9878.61
593.876	9889.23
594.235	9925.61
594.593	9889.46
594.952	9805.39
595.311	9896.24
595.67	9875.22
596.029	9855.79
596.387	9895.56
596.746	9856.24
597.104	9802.91
597.463	9815.79
597.822	9863.02
598.18	9808.33
598.538	9802
598.897	9797.71
599.255	9784.15
599.613	9860.31
599.972	9768.1
600.33	9858.5
600.688	9760.42
601.046	9833.19
601.404	9835.45
601.762	9789.8
602.12	9776.01
602.478	9729.46
602.836	9807.43
603.194	9729.46
603.552	9700.31
603.91	9696.69
604.268	9798.39
604.625	9697.82
604.983	9771.04
605.341	9669.12
605.698	9731.27
606.056	9821.66
606.413	9779.4
606.771	9733.76
607.128	9750.93
607.485	9766.07
607.843	9739.63
608.2	9767.2
608.557	9829.35
608.914	9767.88
609.272	9810.82
609.629	9819.85
609.986	9843.58
610.343	9752.29
610.7	9885.84
611.057	9821.66
611.414	9825.96
611.771	9776.01
612.127	9841.32
612.484	9805.62
612.841	9871.15
613.198	9853.3
613.554	9804.49
613.911	9889.91
614.267	9897.14
614.624	9833.19
614.98	9816.92
615.337	9899.63
615.693	9929.68
616.05	9870.02
616.406	10011.04
616.762	9946.18
617.118	9953.86
617.475	9877.71
617.831	9943.92
618.187	9928.1
618.543	9916.58
618.899	9997.25
619.255	9953.64
619.611	9990.7
619.967	9937.14
620.323	9928.78
620.678	9989.57
621.034	9955.67
621.39	9961.55
621.746	9880.19
622.101	10068.44
622.457	9912.73
622.812	9970.59
623.168	9929.46
623.523	9995.44
623.879	9990.92
624.234	9895.56
624.589	9964.26
624.945	10007.19
625.3	9972.62
625.655	9960.87
626.01	9964.94
626.365	9917.03
626.72	9966.74
627.075	9957.03
627.43	9907.99
627.785	9943.24
628.14	9880.42
628.495	9894.2
628.85	9906.63
629.205	9929
629.559	9949.12
629.914	9917.71
630.269	9919.29
630.623	9854.2
630.978	9874.32
631.332	9931.49
631.687	9903.47
632.041	9829.8
632.396	9865.05
632.75	9802.23
633.104	9848.55
633.459	9821.89
633.813	9811.04
634.167	9793.64
634.521	9809.46
634.875	9790.7
635.229	9778.73
635.583	9754.77
635.937	9708.9
636.291	9723.36
636.645	9733.53
636.999	9730.59
637.352	9730.14
637.706	9636.13
638.06	9665.06
638.413	9663.93
638.767	9599.3
639.121	9578.96
639.474	9527.43
639.828	9607.66
640.181	9544.61
640.534	9578.05
640.888	9513.65
641.241	9471.16
641.594	9526.76
641.947	9616.7
642.301	9545.74
642.654	9524.72
643.007	9517.49
643.36	9501.67
643.713	9492.63
644.066	9524.5
644.419	9491.73
644.771	9437.04
645.124	9304.61
645.477	9292.19
645.83	9265.29
646.182	9220.32
646.535	9170.15
646.888	9211.74
647.24	9154.56
647.593	9176.03
647.945	9137.39
648.298	9139.19
648.65	9112.08
649.002	9169.25
649.355	9119.08
649.707	9164.96
650.059	9242.69
650.411	9359.98
650.763	9286.31
651.115	9415.12
651.467	9380.09
651.819	9337.38
652.171	9425.74
652.523	9339.87
652.875	9292.64
653.227	9267.33
653.578	9372.41
653.93	9335.57
654.282	9400.88
654.633	9324.73
654.985	9325.63
655.337	9325.86
655.688	9427.77
656.039	9382.8
656.391	9387.1
656.742	9403.82
657.094	9374.89
657.445	9378.74
657.796	9350.04
658.147	9351.62
658.498	9378.06
658.849	9397.04
659.2	9365.4
659.551	9386.42
659.902	9376.7
660.253	9373.76
660.604	9396.82
660.955	9383.93
661.306	9413.99
661.656	9345.29
662.007	9442.24
662.358	9475.23
662.708	9359.75
663.059	9400.88
663.409	9396.82
663.76	9488.34
664.11	9422.8
664.461	9473.65
664.811	9441.33
665.161	9384.84
665.511	9436.14
665.862	9459.86
666.212	9494.67
666.562	9461.45
666.912	9421.45
667.262	9459.86
667.612	9465.51
667.962	9449.47
668.312	9437.49
668.662	9426.19
669.011	9384.61
669.361	9456.47
669.711	9432.52
670.06	9382.58
670.41	9387.78
670.76	9383.48
671.109	9406.08
671.459	9392.07
671.808	9382.58
672.157	9378.74
672.507	9296.93
672.856	9396.82
673.205	9336.7
673.554	9342.13
673.904	9313.65
674.253	9378.28
674.602	9313.2
674.951	9227.78
675.3	9199.31
675.649	9322.69
675.998	9339.19
676.346	9287.44
676.695	9344.61
677.044	9214.22
677.393	9289.7
677.741	9325.63
678.09	9265.75
678.438	9239.76
678.787	9273.88
679.135	9226.2
679.484	9137.84
679.832	9140.32
680.181	9115.47
680.529	9106.43
680.877	9132.87
681.225	9124.73
681.573	9211.96
681.922	9040.67
682.27	9055.58
682.618	9004.06
682.966	8980.55
683.314	9064.17
683.661	8991.63
684.009	8849.48
684.357	8893.1
684.705	8969.48
685.053	8924.96
685.4	8856.72
685.748	8835.02
686.095	8834.8
686.443	8851.97
686.79	8788.24
687.138	8794.57
687.485	8781.46
687.832	8739.66
688.18	8805.87
688.527	8705.99
688.874	8718.64
689.221	8623.28
689.568	8652.43
689.915	8667.79
690.262	8607.23
690.609	8588.7
690.956	8529.04
691.303	8546.89
691.65	8457.63
691.997	8480.45
692.344	8472.55
692.69	8415.6
693.037	8423.51
693.383	8293.79
693.73	8411.3
694.077	8343.51
694.423	8245.43
694.769	8233
695.116	8231.2
695.462	8178.54
695.808	8159.79
696.155	8175.15
696.501	8138.77
696.847	8102.39
697.193	8013.57
697.539	7981.03
697.885	7953.92
698.231	7922.05
698.577	7929.73
698.923	7957.98
699.269	7899.91
699.614	7799.34
699.96	7799.34
700.306	7809.96
700.651	7763.86
700.997	7679.57
701.342	7691.78
701.688	7718.22
702.033	7650.87
702.379	7605.45
702.724	7555.73
703.069	7631.44
703.415	7504.89
703.76	7505.79
704.105	7502.18
704.45	7484.55
704.795	7410.65
705.14	7384.66
705.485	7374.5
705.83	7353.25
706.175	7350.99
706.52	7303.76
706.865	7289.3
707.209	7254.72
707.554	7205.23
707.899	7307.38
708.243	7202.75
708.588	7177.21
708.932	7114.62
709.277	7106.71
709.621	7118.23
709.966	7099.93
710.31	7119.13
710.654	7011.34
710.998	7044.11
711.342	6980.83
711.687	6948.07
712.031	7020.38
712.375	6931.57
712.719	6970.66
713.063	6950.55
713.407	7039.36
713.75	6899.48
714.094	6930.67
714.438	6865.58
714.782	6859.93
715.125	6911
715.469	6864
715.812	6888.41
716.156	6746.49
716.499	6828.97
716.843	6757.11
717.186	6748.98
717.53	6786.94
717.873	6787.39
718.216	6717.79
718.559	6709.2
718.902	6732.48
719.246	6770.44
719.589	6667.62
719.932	6656.1
720.275	6676.43
720.617	6736.32
720.96	6617.91
721.303	6668.53
721.646	6657.45
721.989	6607.06
722.331	6639.6
722.674	6608.87
723.016	6665.81
723.359	6653.84
723.701	6622.65
724.044	6566.83
724.386	6559.15
724.729	6555.53
725.071	6579.26
725.413	6568.87
725.755	6554.4
726.097	6490.68
726.439	6524.35
726.782	6528.87
727.124	6527.29
727.465	6534.52
727.807	6553.05
728.149	6522.77
728.491	6448.42
728.833	6458.36
729.175	6509.89
729.516	6537.23
729.858	6515.99
730.199	6518.47
730.541	6512.82
730.882	6475.54
731.224	6511.24
731.565	6506.95
731.906	6461.07
732.248	6512.6
732.589	6482.32
732.93	6470.11
733.271	6499.49
733.612	6462.65
733.953	6498.59
734.294	6527.06
734.635	6490.68
734.976	6485.03
735.317	6448.87
735.658	6506.95
735.999	6484.58
736.339	6475.08
736.68	6511.24
737.021	6556.44
737.361	6563.67
737.702	6564.8
738.042	6479.83
738.383	6526.16
738.723	6530.9
739.063	6542.65
739.404	6577.91
739.744	6613.16
740.084	6591.24
740.424	6610.45
740.764	6614.52
741.104	6665.36
741.444	6617.23
741.784	6598.24
742.124	6670.56
742.464	6683.21
742.804	6755.98
743.143	6733.38
743.483	6749.2
743.823	6762.76
744.162	6780.16
744.502	6829.2
744.841	6832.36
745.181	6876.43
745.52	6869.65
745.86	6947.16
746.199	6960.27
746.538	6984.22
746.877	7052.24
747.216	7051.11
747.556	7033.71
747.895	7175.4
748.234	7190.77
748.573	7234.16
748.911	7337.66
749.25	7330.88
749.589	7348.28
749.928	7485
750.267	7574.94
750.605	7625.11
750.944	7680.7
751.283	7753.02
751.621	7886.57
751.96	7872.34
752.298	7983.52
752.636	8120.01
752.975	8208.82
753.313	8258.31
753.651	8447.01
753.989	8491.3
754.327	8576.72
754.666	8670.51
755.004	8745.31
755.342	8887.68
755.679	9071.85
756.017	9184.17
756.355	9305.97
756.693	9424.38
757.031	9650.59
757.368	9667.09
757.706	9899.4
758.044	9956.12
758.381	10125.84
758.719	10325.15
759.056	10433.4
759.394	10578.25
759.731	10679.49
760.068	10848.3
760.405	11011.46
760.743	11162.64
761.08	11347.72
761.417	11511.56
761.754	11596.31
762.091	11777.54
762.428	11990.65
762.765	12072
763.102	12360.8
763.438	12422.27
763.775	12552.21
764.112	12695.26
764.449	12956.95
764.785	13166.21
