Data from hue_80_FLMS001491_19.txt Node
Date: Mon Feb 06 15:22:34 GMT 2017
User: dcchb
Spectrometer: FLMS00149
Trigger mode: 0
Integration Time (sec): 2.000000E-2
Scans to average: 10
Electric dark correction enabled: true
Nonlinearity correction enabled: false
Boxcar width: 0
XAxis mode: Wavelengths
Number of Pixels in Spectrum: 2048
>>>>>Begin Spectral Data<<<<<
341.393	7.19
341.776	7.19
342.16	7.19
342.543	-53.6
342.927	-85.46
343.31	-66.48
343.693	-66.93
344.077	-65.8
344.46	-65.8
344.843	-49.98
345.226	-35.75
345.61	-40.95
345.993	-8.63
346.376	-19.48
346.759	4.7
347.142	23.23
347.525	39.73
347.908	60.07
348.291	89.67
348.674	99.62
349.057	102.78
349.44	133.74
349.823	137.36
350.206	171.93
350.588	183
350.971	207.64
351.354	216
351.737	247.18
352.119	243.34
352.502	271.81
352.884	270.46
353.267	271.81
353.65	274.07
354.032	275.66
354.414	303.9
354.797	307.29
355.179	305.03
355.562	303.9
355.944	311.36
356.326	311.59
356.709	344.81
357.091	336.45
357.473	332.38
357.855	331.93
358.238	345.03
358.62	320.4
359.002	347.07
359.384	337.35
359.766	345.03
360.148	325.82
360.53	344.81
360.912	342.32
361.294	337.8
361.676	337.12
362.057	306.84
362.439	330.57
362.821	325.82
363.203	324.69
363.584	318.14
363.966	329.44
364.348	320.85
364.729	309.33
365.111	321.98
365.493	309.33
365.874	322.66
366.256	327.86
366.637	301.87
367.019	298.03
367.4	314.3
367.781	321.31
368.163	310.23
368.544	309.55
368.925	312.49
369.306	328.08
369.688	288.54
370.069	319.5
370.45	335.54
370.831	319.95
371.212	324.47
371.593	309.78
371.974	305.26
372.355	329.44
372.736	325.15
373.117	304.81
373.498	321.08
373.879	317.01
374.26	317.01
374.641	316.33
375.021	309.78
375.402	331.47
375.783	316.33
376.163	305.49
376.544	336.67
376.925	317.01
377.305	275.88
377.686	327.41
378.066	338.25
378.447	328.31
378.827	334.19
379.208	331.47
379.588	329.89
379.968	324.02
380.349	354.07
380.729	339.38
381.109	344.36
381.489	359.72
381.87	330.57
382.25	324.47
382.63	322.66
383.01	332.38
383.39	331.25
383.77	346.16
384.15	335.77
384.53	325.6
384.91	350.91
385.29	329.67
385.67	332.83
386.049	350
386.429	338.03
386.809	337.58
387.189	342.1
387.568	341.19
387.948	367.18
388.328	340.06
388.707	345.71
389.087	341.64
389.466	347.07
389.846	354.98
390.225	364.47
390.605	349.78
390.984	380.96
391.363	366.5
391.743	356.56
392.122	352.94
392.501	367.18
392.881	345.49
393.26	356.33
393.639	362.66
394.018	366.05
394.397	358.82
394.776	358.59
395.155	373.51
395.534	377.57
395.913	364.69
396.292	373.96
396.671	358.14
397.05	374.19
397.429	388.87
397.808	365.37
398.186	383.9
398.565	385.71
398.944	385.94
399.323	383.9
399.701	377.12
400.08	386.84
400.458	384.58
400.837	376.22
401.215	388.42
401.594	388.87
401.972	403.56
402.351	381.64
402.729	396.56
403.107	411.25
403.486	407.86
403.864	403.34
404.242	393.85
404.62	399.5
404.999	385.03
405.377	399.95
405.755	394.98
406.133	415.77
406.511	404.69
406.889	398.59
407.267	406.95
407.645	414.86
408.023	418.03
408.401	426.61
408.779	409.21
409.156	443.79
409.534	448.53
409.912	420.51
410.29	416.9
410.667	433.39
411.045	443.79
411.422	433.39
411.8	436.56
412.178	447.86
412.555	431.81
412.933	456.22
413.31	460.28
413.687	464.35
414.065	482.66
414.442	460.06
414.819	460.74
415.197	462.77
415.574	465.26
415.951	495.99
416.328	465.93
416.705	469.32
417.082	468.87
417.46	492.15
417.837	485.59
418.214	497.57
418.591	485.59
418.967	524.01
419.344	516.33
419.721	501.41
420.098	487.63
420.475	521.98
420.852	505.48
421.228	503.22
421.605	510
421.982	518.81
422.358	527.18
422.735	515.42
423.111	541.41
423.488	546.38
423.864	529.44
424.241	537.34
424.617	514.75
424.994	545.03
425.37	527.4
425.746	543.22
426.123	548.19
426.499	531.24
426.875	539.38
427.251	583.9
427.627	556.55
428.003	565.37
428.379	585.93
428.756	582.32
429.132	593.84
429.507	552.94
429.883	591.81
430.259	601.75
430.635	574.86
431.011	607.4
431.387	596.1
431.763	619.83
432.138	589.77
432.514	626.38
432.89	612.82
433.265	627.06
433.641	635.42
434.016	625.03
434.392	647.17
434.767	660.96
435.143	613.95
435.518	696.44
435.894	689.66
436.269	666.38
436.644	716.1
437.02	671.13
437.395	675.19
437.77	679.26
438.145	688.75
438.52	713.39
438.895	688.98
439.271	686.27
439.646	710.67
440.021	727.4
440.395	726.72
440.77	728.07
441.145	729.2
441.52	745.02
441.895	718.58
442.27	730.79
442.645	726.49
443.019	770.33
443.394	727.85
443.769	732.59
444.143	755.42
444.518	772.82
444.892	768.07
445.267	789.54
445.641	768.07
446.016	790.67
446.39	784.57
446.764	802.87
447.139	805.13
447.513	800.61
447.887	820.73
448.262	824.79
448.636	804.23
449.01	802.42
449.384	833.83
449.758	841.29
450.132	834.74
450.506	842.65
450.88	838.35
451.254	840.84
451.628	870.67
452.002	864.34
452.376	869.09
452.75	883.78
453.123	865.25
453.497	886.04
453.871	892.82
454.244	915.64
454.618	910.67
454.992	934.62
455.365	944.11
455.739	924
456.112	944.79
456.486	947.5
456.859	973.49
457.232	1004.45
457.606	992.93
457.979	987.95
458.352	1040.16
458.725	1013.04
459.099	1008.07
459.472	1036.54
459.845	1062.08
460.218	1057.78
460.591	1070.44
460.964	1078.8
461.337	1068.86
461.71	1102.08
462.083	1118.57
462.456	1159.93
462.829	1168.51
463.201	1149.08
463.574	1192.69
463.947	1165.8
464.32	1200.15
464.692	1207.38
465.065	1238.57
465.438	1250.09
465.81	1258
466.183	1281.28
466.555	1286.25
466.928	1334.84
467.3	1277.44
467.672	1364.44
468.045	1372.35
468.417	1360.37
468.789	1419.58
469.161	1436.76
469.534	1443.31
469.906	1459.81
470.278	1490.99
470.65	1536.87
471.022	1533.48
471.394	1604.66
471.766	1609.18
472.138	1666.81
472.51	1667.26
472.882	1673.36
473.253	1728.73
473.625	1801.27
473.997	1825.45
474.369	1852.79
474.74	1872
475.112	1922.17
475.484	1954.93
475.855	2012.11
476.227	2052.79
476.598	2089.62
476.97	2128.72
477.341	2192.22
477.713	2250.97
478.084	2287.36
478.455	2336.62
478.827	2432.44
479.198	2502.04
479.569	2502.72
479.94	2632.66
480.311	2670.62
480.682	2769.83
481.053	2863.16
481.424	2924.63
481.795	2998.07
482.166	3078.97
482.537	3149.93
482.908	3257.95
483.279	3304.28
483.65	3400.55
484.021	3521.22
484.391	3646.87
484.762	3648.22
485.133	3763.93
485.503	3884.83
485.874	4025.61
486.244	4093.86
486.615	4273.52
486.985	4340.41
487.356	4490.24
487.726	4536.11
488.097	4650.23
488.467	4746.05
488.837	4930.9
489.207	5030.33
489.578	5160.5
489.948	5273.04
490.318	5393.04
490.688	5481.62
491.058	5646.36
491.428	5778.56
491.798	5922.29
492.168	6101.72
492.538	6182.39
492.908	6299.9
493.278	6461.71
493.648	6512.1
494.017	6652.44
494.387	6803.39
494.757	6959.32
495.126	7024.63
495.496	7169.03
495.866	7329.03
496.235	7424.17
496.605	7564.96
496.974	7734.67
497.344	7835.68
497.713	7939.18
498.082	8133.98
498.452	8258.05
498.821	8362
499.19	8412.39
499.559	8591.82
499.928	8651.03
500.298	8736.68
500.667	8907.97
501.036	8972.6
501.405	9073.39
501.774	9180.96
502.143	9298.7
502.512	9420.27
502.88	9579.14
503.249	9656.88
503.618	9748.85
503.987	9788.17
504.356	9978.45
504.724	10025.46
505.093	10118.34
505.462	10186.13
505.83	10266.81
506.199	10329.4
506.567	10546.8
506.936	10535.5
507.304	10751.31
507.672	10811.65
508.041	10911.54
508.409	10959.9
508.777	11135.71
509.145	11132.55
509.514	11198.76
509.882	11363.73
510.25	11434.91
510.618	11476.04
510.986	11570.27
511.354	11720.1
511.722	11784.51
512.09	11832.19
512.458	11819.08
512.826	12003.26
513.193	12011.62
513.561	12059.08
513.929	12202.12
514.297	12384.26
514.664	12371.61
515.032	12456.81
515.4	12504.26
515.767	12640.08
516.135	12691.6
516.502	12597.37
516.869	12913.97
517.237	12873.29
517.604	12882.56
517.972	12931.37
518.339	13051.37
518.706	13080.97
519.073	13125.04
519.44	13175.2
519.808	13312.83
520.175	13285.71
520.542	13449.1
520.909	13531.35
521.276	13520.51
521.643	13597.34
522.009	13606.38
522.376	13817.67
522.743	13843.44
523.11	13946.48
523.477	13989.42
523.843	14085.91
524.21	14174.73
524.577	14221.96
524.943	14258.11
525.31	14392.35
525.676	14360.26
526.043	14427.37
526.409	14468.28
526.776	14698.78
527.142	14609.97
527.508	14667.59
527.874	14724.09
528.241	14746.46
528.607	14766.58
528.973	14877.53
529.339	14928.6
529.705	14990.75
530.071	14968.6
530.437	15147.36
530.803	15062.39
531.169	15187.58
531.535	15146.23
531.901	15117.98
532.267	15135.83
532.632	15238.2
532.998	15293.57
533.364	15264.42
533.73	15361.36
534.095	15392.77
534.461	15364.07
534.826	15404.75
535.192	15461.25
535.557	15506.89
535.923	15449.04
536.288	15482.49
536.653	15494.69
537.019	15408.59
537.384	15507.8
537.749	15469.83
538.114	15504.41
538.479	15460.79
538.845	15565.88
539.21	15482.26
539.575	15456.95
539.94	15407.46
540.305	15599.32
540.67	15518.42
541.034	15471.87
541.399	15513.9
541.764	15450.62
542.129	15536.95
542.494	15550.51
542.858	15505.54
543.223	15521.58
543.587	15484.75
543.952	15439.55
544.316	15484.3
544.681	15442.72
545.045	15450.62
545.41	15614.46
545.774	15552.54
546.138	15504.63
546.503	15521.81
546.867	15446.56
547.231	15520.45
547.595	15512.54
547.959	15579.89
548.324	15462.6
548.688	15464.86
549.052	15492.21
549.416	15504.18
549.779	15498.76
550.143	15470.29
550.507	15522.71
550.871	15458.31
551.235	15379.44
551.599	15568.14
551.962	15539.44
552.326	15536.95
552.689	15542.15
553.053	15448.36
553.417	15461.25
553.78	15674.12
554.143	15476.39
554.507	15495.14
554.87	15608.81
555.234	15631.64
555.597	15527.01
555.96	15462.6
556.323	15621.69
556.686	15557.29
557.05	15600.9
557.413	15607.68
557.776	15609.04
558.139	15642.71
558.502	15687.68
558.865	15694.23
559.228	15652.43
559.59	15779.66
559.953	15677.06
560.316	15839.32
560.679	15782.82
561.041	15856.49
561.404	15842.48
561.767	15993.21
562.129	15821.46
562.492	15971.52
562.854	15950.05
563.217	15927.45
563.579	15952.76
563.941	15988.46
564.304	16023.49
564.666	16127.44
565.028	16050.16
565.39	16149.14
565.753	16176.93
566.115	16190.04
566.477	16340.32
566.839	16191.4
567.201	16306.65
567.563	16282.24
567.925	16358.85
568.287	16358.17
568.648	16423.03
569.01	16407.66
569.372	16534.66
569.734	16457.6
570.095	16574.66
570.457	16564.72
570.819	16659.18
571.18	16637.94
571.542	16626.19
571.903	16654.89
572.265	16616.7
572.626	16773.08
572.987	16706.19
573.349	16734.43
573.71	16938.95
574.071	16809.69
574.432	16884.94
574.794	17026.4
575.155	16909.34
575.516	16947.53
575.877	16884.26
576.238	16986.18
576.599	17046.06
576.96	17016.46
577.32	16906.86
577.681	16982.79
578.042	17012.62
578.403	17023.01
578.763	17035.89
579.124	17057.14
579.485	17087.42
579.845	17109.79
580.206	17067.53
580.566	17006.97
580.927	17071.37
581.287	17156.79
581.648	17077.47
582.008	17099.17
582.368	17023.69
582.728	17114.31
583.089	17033.86
583.449	17034.31
583.809	16992.73
584.169	17061.2
584.529	17007.42
584.889	17187.53
585.249	17033.86
585.609	17054.42
585.969	17058.72
586.329	17053.52
586.688	16995.44
587.048	17027.08
587.408	17026.18
587.768	17005.39
588.127	17027.31
588.487	16984.37
588.846	17105.5
589.206	16886.97
589.565	16935.11
589.925	16990.47
590.284	16917.7
590.643	16941.66
591.003	17016.23
591.362	16967.42
591.721	16952.28
592.08	16986.86
592.44	17022.56
592.799	17005.16
593.158	16929.46
593.517	16987.08
593.876	17016.01
594.235	16856.24
594.593	16940.76
594.952	17020.98
595.311	16867.99
595.67	16889.01
596.029	16950.7
596.387	16959.29
596.746	16992.28
597.104	16892.85
597.463	16936.46
597.822	16977.36
598.18	16854.66
598.538	16878.38
598.897	16978.95
599.255	16846.52
599.613	17028.44
599.972	16885.84
600.33	17011.04
600.688	16888.1
601.046	16932.85
601.404	17077.25
601.762	17004.26
602.12	17005.16
602.478	17008.55
602.836	16979.85
603.194	16911.6
603.552	16988.66
603.91	16868.44
604.268	16949.57
604.625	17042.9
604.983	16985.73
605.341	16948.89
605.698	17011.04
606.056	16995.89
606.413	17001.77
606.771	17092.16
607.128	17101.88
607.485	17036.8
607.843	17027.76
608.2	17073.86
608.557	17198.38
608.914	17123.12
609.272	17216
609.629	17181.43
609.986	17279.05
610.343	17097.36
610.7	17315.21
611.057	17323.34
611.414	17168.32
611.771	17214.65
612.127	17340.07
612.484	17326.51
612.841	17271.59
613.198	17310.01
613.554	17298.26
613.911	17394.98
614.267	17377.13
614.624	17394.08
614.98	17416.67
615.337	17476.33
615.693	17405.83
616.05	17469.78
616.406	17561.3
616.762	17495.09
617.118	17512.49
617.475	17502.1
617.831	17500.51
618.187	17533.28
618.543	17519.5
618.899	17647.4
619.255	17639.27
619.611	17611.92
619.967	17618.48
620.323	17705.25
620.678	17679.94
621.034	17575.77
621.39	17603.34
621.746	17625.71
622.101	17771.47
622.457	17644.24
622.812	17672.71
623.168	17692.83
623.523	17626.16
623.879	17768.3
624.234	17644.69
624.589	17708.19
624.945	17824.35
625.3	17812.37
625.655	17801.98
626.01	17705.25
626.365	17841.97
626.72	17778.02
627.075	17686.5
627.43	17710
627.785	17668.65
628.14	17839.94
628.495	17771.47
628.85	17625.03
629.205	17545.48
629.559	17784.35
629.914	17628.42
630.269	17722.66
630.623	17608.08
630.978	17641.08
631.332	17691.7
631.687	17567.63
632.041	17606.5
632.396	17559.5
632.75	17525.82
633.104	17512.72
633.459	17428.43
633.813	17497.12
634.167	17463.68
634.521	17497.35
634.875	17362.89
635.229	17427.3
635.583	17363.12
635.937	17413.06
636.291	17386.62
636.645	17339.39
636.999	17342.1
637.352	17346.62
637.706	17290.12
638.06	17346.39
638.413	17213.52
638.767	17250.13
639.121	17231.82
639.474	17178.94
639.828	17227.75
640.181	17160.86
640.534	17206.06
640.888	17196.12
641.241	16980.75
641.594	17133.29
641.947	17263.46
642.301	17013.07
642.654	17126.74
643.007	17162.67
643.36	17047.19
643.713	17116.8
644.066	17160.18
644.419	16989.57
644.771	16943.69
645.124	16656.47
645.477	16688.78
645.83	16575.57
646.182	16578.73
646.535	16462.58
646.888	16571.05
647.24	16439.53
647.593	16562.01
647.945	16499.41
648.298	16447.89
648.65	16360.21
649.002	16373.54
649.355	16451.5
649.707	16457.38
650.059	16493.31
650.411	16698.05
650.763	16653.53
651.115	16914.09
651.467	16890.36
651.819	16836.35
652.171	16898.72
652.523	16759.29
652.875	16849.91
653.227	16720.2
653.578	16867.99
653.93	16835.22
654.282	16868.44
654.633	16692.85
654.985	16700.99
655.337	16785.96
655.688	16768.56
656.039	16848.55
656.391	16751.83
656.742	16697.6
657.094	16851.04
657.445	16799.52
657.796	16707.77
658.147	16738.73
658.498	16647.2
658.849	16752.06
659.2	16700.31
659.551	16667.32
659.902	16827.09
660.253	16714.09
660.604	16764.26
660.955	16705.51
661.306	16776.24
661.656	16733.3
662.007	16822.11
662.358	16879.74
662.708	16743.47
663.059	16836.35
663.409	16755
663.76	16864.37
664.11	16849.01
664.461	16903.92
664.811	16878.38
665.161	16739.63
665.511	16852.62
665.862	16762.23
666.212	16988.89
666.562	16945.5
666.912	16934.65
667.262	16816.46
667.612	16858.72
667.962	16857.14
668.312	16885.16
668.662	16860.53
669.011	16881.55
669.361	16838.61
669.711	16743.92
670.06	16783.25
670.41	16788.89
670.76	16751.83
671.109	16928.33
671.459	16813.75
671.808	16750.7
672.157	16760.87
672.507	16583.02
672.856	16694.21
673.205	16634.77
673.554	16812.62
673.904	16646.98
674.253	16731.04
674.602	16704.83
674.951	16413.31
675.3	16423.93
675.649	16632.97
675.998	16611.5
676.346	16564.49
676.695	16650.82
677.044	16571.27
677.393	16601.1
677.741	16622.57
678.09	16559.52
678.438	16505.96
678.787	16594.78
679.135	16516.13
679.484	16389.81
679.832	16496.47
680.181	16341
680.529	16445.17
680.877	16352.52
681.225	16364.73
681.573	16413.76
681.922	16241.79
682.27	16264.61
682.618	16255.35
682.966	16259.19
683.314	16217.38
683.661	16138.97
684.009	16099.87
684.357	16044.51
684.705	16027.11
685.053	16029.37
685.4	16034.56
685.748	15852.2
686.095	15962.7
686.443	15807.68
686.79	15807
687.138	15764.51
687.485	15781.46
687.832	15703.73
688.18	15699.21
688.527	15671.18
688.874	15649.94
689.221	15536.95
689.568	15513.67
689.915	15505.31
690.262	15510.28
690.609	15439.78
690.956	15393.23
691.303	15359.33
691.65	15259.9
691.997	15314.13
692.344	15165.43
692.69	15197.3
693.037	15136.73
693.383	15077.98
693.73	15119.33
694.077	14952.33
694.423	14957.3
694.769	14991.88
695.116	14799.57
695.462	14864.88
695.808	14786.69
696.155	14793.24
696.501	14695.16
696.847	14571.33
697.193	14484.77
697.539	14538.33
697.885	14492.23
698.231	14417.43
698.577	14380.14
698.923	14344.44
699.269	14349.41
699.614	14237.32
699.96	14179.47
700.306	14161.17
700.651	14057.22
700.997	14086.59
701.342	14003.43
701.688	13962.53
702.033	13934.05
702.379	13942.64
702.724	13863.1
703.069	13843.89
703.415	13677.34
703.76	13732.48
704.105	13696.55
704.45	13632.82
704.795	13532.03
705.14	13522.77
705.485	13492.94
705.83	13374.07
706.175	13447.29
706.52	13407.97
706.865	13391.02
707.209	13278.25
707.554	13266.5
707.899	13335.43
708.243	13198.93
708.588	13121.19
708.932	13112.38
709.277	13047.98
709.621	13104.92
709.966	12993.74
710.31	13003.91
710.654	12915.1
710.998	12920.75
711.342	12943.35
711.687	12763.92
712.031	12753.29
712.375	12669.68
712.719	12742.45
713.063	12678.72
713.407	12742.45
713.75	12748.55
714.094	12645.05
714.438	12671.94
714.782	12631.94
715.125	12493.19
715.469	12623.81
715.812	12494.32
716.156	12512.4
716.499	12512.4
716.843	12493.19
717.186	12483.25
717.53	12434.66
717.873	12455.45
718.216	12365.28
718.559	12389.91
718.902	12218.85
719.246	12276.92
719.589	12224.04
719.932	12200.54
720.275	12234.89
720.617	12233.76
720.96	12261.78
721.303	12175.23
721.646	12224.04
721.989	12116.25
722.331	12159.19
722.674	12101.33
723.016	12137.27
723.359	12063.14
723.701	12074.89
724.044	12022.01
724.386	11999.87
724.729	12007.55
725.071	11956.71
725.413	11940.66
725.755	11891.62
726.097	11959.42
726.439	11945.18
726.782	11834
727.124	11973.43
727.465	11845.3
727.807	11919.19
728.149	11866.99
728.491	11866.09
728.833	11831.06
729.175	11859.76
729.516	11797.16
729.858	11893.2
730.199	11868.8
730.541	11704.28
730.882	11781.57
731.224	11788.35
731.565	11734.79
731.906	11724.4
732.248	11780.44
732.589	11757.16
732.93	11722.59
733.271	11732.76
733.612	11742.02
733.953	11725.75
734.294	11650.95
734.635	11678.75
734.976	11716.71
735.317	11635.13
735.658	11714.68
735.999	11696.83
736.339	11706.77
736.68	11722.59
737.021	11685.75
737.361	11689.82
737.702	11785.41
738.042	11758.97
738.383	11754.68
738.723	11803.94
739.063	11827.22
739.404	11774.79
739.744	11835.35
740.084	11785.64
740.424	11808.46
740.764	11744.06
741.104	11825.86
741.444	11840.55
741.784	11706.77
742.124	11928.23
742.464	11808.46
742.804	11842.81
743.143	11836.26
743.483	11910.6
743.823	11866.09
744.162	11934.33
744.502	11973.2
744.841	11922.58
745.181	11984.28
745.52	12014.11
745.86	11976.37
746.199	12050.26
746.538	12086.42
746.877	12197.38
747.216	12243.03
747.556	12231.5
747.895	12297.71
748.234	12255
748.573	12294.32
748.911	12393.76
749.25	12489.8
749.589	12440.08
749.928	12574.09
750.267	12743.58
750.605	12661.09
750.944	12693.41
751.283	12699.51
751.621	12880.07
751.96	12908.32
752.298	12991.25
752.636	13130.23
752.975	13124.81
753.313	13156.67
753.651	13332.49
753.989	13417.91
754.327	13505.14
754.666	13517.57
755.004	13684.57
755.342	13811.57
755.679	13792.36
756.017	13866.26
756.355	14024.22
756.693	14059.93
757.031	14235.29
