Data from hue_40_FLMS001491_10.txt Node
Date: Mon Feb 06 15:07:22 GMT 2017
User: dcchb
Spectrometer: FLMS00149
Trigger mode: 0
Integration Time (sec): 2.000000E-2
Scans to average: 10
Electric dark correction enabled: true
Nonlinearity correction enabled: false
Boxcar width: 0
XAxis mode: Wavelengths
Number of Pixels in Spectrum: 2048
>>>>>Begin Spectral Data<<<<<
341.393	-16.58
341.776	-16.58
342.16	-16.58
342.543	-72.4
342.927	-84.83
343.31	-56.35
343.693	-71.04
344.077	-53.42
344.46	-66.98
344.843	-60.42
345.226	-44.83
345.61	-42.12
345.993	-12.74
346.376	4.66
346.759	-17.26
347.142	24.77
347.525	50.99
347.908	52.57
348.291	89.4
348.674	98.9
349.057	103.87
349.44	133.7
349.823	135.96
350.206	153.81
350.588	196.97
350.971	224.09
351.354	211.44
351.737	236.07
352.119	259.12
352.502	257.99
352.884	280.59
353.267	293.24
353.65	300.7
354.032	309.74
354.414	297.76
354.797	298.21
355.179	301.6
355.562	332.34
355.944	337.08
356.326	342.05
356.709	332.34
357.091	329.17
357.473	333.92
357.855	351.32
358.238	366.23
358.62	347.93
359.002	335.05
359.384	353.58
359.766	339.79
360.148	342.96
360.53	347.02
360.912	341.83
361.294	342.51
361.676	318.55
362.057	328.95
362.439	339.79
362.821	326.91
363.203	349.74
363.584	319.68
363.966	304.99
364.348	330.53
364.729	334.82
365.111	316.52
365.493	329.4
365.874	302.51
366.256	316.52
366.637	312.45
367.019	311.55
367.4	308.83
367.781	302.05
368.163	289.85
368.544	317.2
368.925	310.42
369.306	302.73
369.688	330.53
370.069	318.78
370.45	306.35
370.831	313.35
371.212	330.75
371.593	296.18
371.974	306.35
372.355	316.29
372.736	322.17
373.117	310.42
373.498	310.42
373.879	319.91
374.26	318.1
374.641	323.75
375.021	311.32
375.402	333.24
375.783	335.5
376.163	344.09
376.544	319.23
376.925	334.37
377.305	333.92
377.686	336.18
378.066	331.66
378.447	348.83
378.827	326.01
379.208	329.17
379.588	326.69
379.968	323.07
380.349	321.71
380.729	345.44
381.109	337.53
381.489	348.61
381.87	343.64
382.25	317.87
382.63	345.89
383.01	327.59
383.39	337.76
383.77	355.16
384.15	363.07
384.53	347.93
384.91	354.48
385.29	371.88
385.67	365.56
386.049	358.78
386.429	359
386.809	355.84
387.189	343.86
387.568	336.18
387.948	359.45
388.328	352.9
388.707	372.79
389.087	359.23
389.466	359.45
389.846	377.31
390.225	352.22
390.605	367.36
390.984	385.67
391.363	342.51
391.743	353.13
392.122	374.14
392.501	385.89
392.881	379.57
393.26	363.3
393.639	383.18
394.018	392.45
394.397	374.59
394.776	393.58
395.155	389.51
395.534	386.57
395.913	383.18
396.292	391.54
396.671	398.77
397.05	386.12
397.429	384.54
397.808	360.58
398.186	386.12
398.565	393.58
398.944	386.35
399.323	415.72
399.701	401.26
400.08	397.64
400.458	394.93
400.837	384.76
401.215	397.64
401.594	390.19
401.972	397.87
402.351	401.71
402.729	396.51
403.107	415.95
403.486	423.86
403.864	421.15
404.242	402.39
404.62	403.07
404.999	440.36
405.377	437.87
405.755	417.08
406.133	425.67
406.511	415.5
406.889	437.19
407.267	431.77
407.645	437.87
408.023	420.02
408.401	456.17
408.779	456.17
409.156	428.38
409.534	443.52
409.912	413.46
410.29	428.6
410.667	460.69
411.045	448.49
411.422	479.22
411.8	470.64
412.178	457.76
412.555	460.24
412.933	454.37
413.31	448.27
413.687	481.71
414.065	492.78
414.442	468.15
414.819	474.03
415.197	491.2
415.574	486.68
415.951	482.61
416.328	513.12
416.705	482.84
417.082	518.77
417.46	497.98
417.837	524.42
418.214	511.09
418.591	539.56
418.967	507.25
419.344	511.99
419.721	520.35
420.098	512.67
420.475	537.75
420.852	528.49
421.228	535.27
421.605	538.43
421.982	537.3
422.358	535.72
422.735	560.13
423.111	572.33
423.488	550.86
423.864	551.09
424.241	573.23
424.617	553.57
424.994	559.45
425.37	579.56
425.746	563.06
426.123	565.55
426.499	610.29
426.875	599.9
427.251	608.94
427.627	606.23
428.003	601.48
428.379	608.94
428.756	606.68
429.132	626.57
429.507	609.84
429.883	603.74
430.259	612.78
430.635	646.45
431.011	625.21
431.387	655.27
431.763	653.01
432.138	643.74
432.514	636.06
432.89	652.78
433.265	660.24
433.641	689.84
434.016	671.76
434.392	660.24
434.767	681.25
435.143	680.12
435.518	708.37
435.894	718.31
436.269	709.05
436.644	719.22
437.02	710.63
437.395	726.68
437.77	733.23
438.145	725.32
438.52	760.12
438.895	756.28
439.271	745.21
439.646	746.79
440.021	766.9
440.395	772.1
440.77	764.19
441.145	771.42
441.52	794.47
441.895	792.44
442.27	771.19
442.645	789.27
443.019	788.37
443.394	814.36
443.769	786.34
444.143	801.02
444.518	806.45
444.892	824.98
445.267	845.32
445.641	820.01
446.016	818.2
446.39	840.12
446.764	832.66
447.139	843.51
447.513	843.06
447.887	860.46
448.262	842.38
448.636	875.82
449.01	868.59
449.384	892.32
449.758	881.7
450.132	920.12
450.506	898.87
450.88	891.64
451.254	901.36
451.628	921.47
452.002	934.58
452.376	932.55
452.75	919.21
453.123	918.31
453.497	934.35
453.871	966.44
454.244	981.81
454.618	974.8
454.992	961.92
455.365	950.62
455.739	1010.51
456.112	1043.96
456.486	1031.75
456.859	1043.5
457.232	1046.89
457.606	1048.93
457.979	1036.95
458.352	1080.79
458.725	1072.43
459.099	1082.6
459.472	1125.31
459.845	1116.95
460.218	1131.86
460.591	1126.89
460.964	1157.17
461.337	1168.02
461.71	1149.49
462.083	1208.02
462.456	1210.28
462.829	1211.63
463.201	1219.54
463.574	1269.26
463.947	1262.93
464.32	1288.92
464.692	1292.99
465.065	1299.99
465.438	1302.93
465.81	1321.69
466.183	1353.1
466.555	1365.98
466.928	1397.62
467.3	1391.29
467.672	1419.54
468.045	1459.31
468.417	1465.87
468.789	1481.46
469.161	1489.37
469.534	1528.69
469.906	1544.06
470.278	1561
470.65	1549.25
471.022	1617.05
471.394	1636.03
471.766	1683.94
472.138	1708.34
472.51	1706.09
472.882	1752.64
473.253	1774.56
473.625	1808.91
473.997	1862.01
474.369	1887.32
474.74	1914.44
475.112	1930.49
475.484	2006.19
475.855	2049.13
476.227	2088
476.598	2152.4
476.97	2187.65
477.341	2210.03
477.713	2242.79
478.084	2292.28
478.455	2370.47
478.827	2459.96
479.198	2487.08
479.569	2502.67
479.94	2594.42
480.311	2691.6
480.682	2740.41
481.053	2838.94
481.424	2884.81
481.795	2958.03
482.166	3019.27
482.537	3101.75
482.908	3173.17
483.279	3217.46
483.65	3318.47
484.021	3401.18
484.391	3528.41
484.762	3526.15
485.133	3647.28
485.503	3675.52
485.874	3822.41
486.244	3853.37
486.615	3972.47
486.985	4082.07
487.356	4148.28
487.726	4261.5
488.097	4364.09
488.467	4450.42
488.837	4579.91
489.207	4637.76
489.578	4750.98
489.948	4841.82
490.318	4951.88
490.688	5003.85
491.058	5159.33
491.428	5216.5
491.798	5392.32
492.168	5481.35
492.538	5612.65
492.908	5647.68
493.278	5794.57
493.648	5831.17
494.017	6002.02
494.387	6084.95
494.757	6152.3
495.126	6246.08
495.496	6341.9
495.866	6391.61
496.235	6518.39
496.605	6663.24
496.974	6711.6
497.344	6851.26
497.713	6922.45
498.082	7049.67
498.452	7092.84
498.821	7193.85
499.19	7267.52
499.559	7391.36
499.928	7470.45
500.298	7510.68
500.667	7625.48
501.036	7692.59
501.405	7807.39
501.774	7848.3
502.143	7988.18
502.512	8020.5
502.88	8178.68
503.249	8199.25
503.618	8255.97
503.987	8315.18
504.356	8423.65
504.724	8513.36
505.093	8654.38
505.462	8653.7
505.83	8831.32
506.199	8879.91
506.567	9010.75
506.936	9000.81
507.304	9148.83
507.672	9149.96
508.041	9268.15
508.409	9324.64
508.777	9468.82
509.145	9542.72
509.514	9554.92
509.882	9715.59
510.25	9730.96
510.618	9848.7
510.986	9828.13
511.354	9899.54
511.722	10046.88
512.09	10209.14
512.458	10138.86
512.826	10267.22
513.193	10329.14
513.561	10363.71
513.929	10444.84
514.297	10596.02
514.664	10573.87
515.032	10757.82
515.4	10784.94
515.767	10881.21
516.135	10867.88
516.502	10910.14
516.869	11079.4
517.237	11110.13
517.604	11072.17
517.972	11299.73
518.339	11278.26
518.706	11310.58
519.073	11458.82
519.44	11442.55
519.808	11577.46
520.175	11590.8
520.542	11772.71
520.909	11816.55
521.276	11826.95
521.643	11929.55
522.009	11985.36
522.376	12088.64
522.743	12182.87
523.11	12212.93
523.477	12407.5
523.843	12421.96
524.21	12571.34
524.577	12618.11
524.943	12780.6
525.31	12839.58
525.676	12835.74
526.043	12951.89
526.409	12974.26
526.776	13130.87
527.142	13194.82
527.508	13279.11
527.874	13390.75
528.241	13436.62
528.607	13585.55
528.973	13566.79
529.339	13573.34
529.705	13749.84
530.071	13882.49
530.437	13914.35
530.803	14098.08
531.169	14075.03
531.535	14146.44
531.901	14153.89
532.267	14284.51
532.632	14327.9
532.998	14458.74
533.364	14476.82
533.73	14505.75
534.095	14645.63
534.461	14651.51
534.826	14736.02
535.192	14807.66
535.557	14891.73
535.923	14959.3
536.288	14958.84
536.653	15054.66
537.019	15025.51
537.384	15150.7
537.749	15216.69
538.114	15333.75
538.479	15275.9
538.845	15391.15
539.21	15372.84
539.575	15452.62
539.94	15528.55
540.305	15606.28
540.67	15619.84
541.034	15754.53
541.399	15788.88
541.764	15835.43
542.129	15870.23
542.494	15960.63
542.858	15933.96
543.223	16035.65
543.587	16215.08
543.952	16169.21
544.316	16211.01
544.681	16293.72
545.045	16333.05
545.41	16379.15
545.774	16479.93
546.138	16551.57
546.503	16597.67
546.867	16600.38
547.231	16756.54
547.595	16771.68
547.959	16931.22
548.324	16849.64
548.688	16970.09
549.052	16985.46
549.416	16976.87
549.779	17057.32
550.143	17121.95
550.507	17228.16
550.871	17262.51
551.235	17310.87
551.599	17434.71
551.962	17441.72
552.326	17487.59
552.689	17621.37
553.053	17528.04
553.417	17614.59
553.78	17794.93
554.143	17801.48
554.507	17809.62
554.87	17845.32
555.234	18090.74
555.597	17930.97
555.96	18074.24
556.323	18108.59
556.686	18144.3
557.05	18354.01
557.413	18264.75
557.776	18422.71
558.139	18603.04
558.502	18524.85
558.865	18577.28
559.228	18696.15
559.59	18791.51
559.953	18756.03
560.316	19009.36
560.679	18965.07
561.041	19045.06
561.404	19246.64
561.767	19280.54
562.129	19295
562.492	19471.49
562.854	19426.3
563.217	19453.19
563.579	19532.06
563.941	19598.95
564.304	19671.71
564.666	19822.44
565.028	19864.03
565.39	19899.51
565.753	20066.05
566.115	20033.96
566.477	20047.75
566.839	20105.83
567.201	20258.14
567.563	20342.66
567.925	20563.89
568.287	20423.11
568.648	20503.1
569.01	20734.29
569.372	20749.88
569.734	20721.86
570.095	20840.27
570.457	21074.16
570.819	21023.09
571.18	21137.66
571.542	21261.5
571.903	21384.44
572.265	21347.6
572.626	21589.4
572.987	21585.34
573.349	21706.24
573.71	21763.64
574.071	21887.93
574.432	21903.29
574.794	22142.84
575.155	22206.11
575.516	22137.64
575.877	22324.75
576.238	22329.05
576.599	22550.96
576.96	22591.64
577.32	22657.17
577.681	22794.57
578.042	22947.11
578.403	23048.35
578.763	23086.77
579.124	23162.02
579.485	23417.15
579.845	23483.59
580.206	23690.14
580.566	23750.25
580.927	23915.67
581.287	24155.21
581.648	24037.25
582.008	24366.28
582.368	24471.36
582.728	24646.27
583.089	24747.97
583.449	24933.95
583.809	25074.06
584.169	25272.25
584.529	25413.03
584.889	25696.87
585.249	25816.41
585.609	25776.64
585.969	26258.66
586.329	26371.2
586.688	26508.6
587.048	26642.83
587.408	26733.45
587.768	27003.27
588.127	27100.22
588.487	27272.19
588.846	27665.85
589.206	27556.03
589.565	27836.25
589.925	28098.84
590.284	28286.63
590.643	28538.37
591.003	28677.58
591.362	28928.87
591.721	29050.45
592.08	29219.26
592.44	29445.24
592.799	29616.54
593.158	29747.61
593.517	29911.9
593.876	30082.06
594.235	30324.54
594.593	30434.37
594.952	30660.13
595.311	30686.57
595.67	31015.14
596.029	31398.19
596.387	31597.5
596.746	31685.64
597.104	31625.75
597.463	31890.83
597.822	32115.45
598.18	32202.01
598.538	32419.85
598.897	32605.61
599.255	32532.62
599.613	33186.61
599.972	33046.28
600.33	33346.38
600.688	33425.93
601.046	33621.4
601.404	33916.31
601.762	33949.98
602.12	34220.94
602.478	34339.58
602.836	34475.17
603.194	34375.28
603.552	34609.85
603.91	34674.94
604.268	35034.93
604.625	34863.18
604.983	35302.49
605.341	35027.02
605.698	35494.35
606.056	35751.07
606.413	35769.37
606.771	35961
607.128	36004.39
607.485	35935.69
607.843	36179.08
608.2	36485.74
608.557	36711.27
608.914	36518.73
609.272	36859.74
609.629	36970.24
609.986	37212.04
610.343	37138.37
610.7	37480.74
611.057	37467.4
611.414	37445.03
611.771	37717.57
612.127	37784.68
612.484	37808.64
612.841	38052.25
613.198	37926.6
613.554	38192.81
613.911	38355.97
614.267	38506.93
614.624	38549.41
614.98	38615.85
615.337	38766.13
615.693	38769.97
616.05	38713.25
616.406	39026.91
616.762	38917.31
617.118	39066.01
617.475	39278.2
617.831	39266.45
618.187	39403.62
618.543	39418.09
618.899	39795.71
619.255	39659.44
619.611	39859.88
619.967	39815.59
620.323	39992.08
620.678	39979.43
621.034	39867.12
621.39	39973.33
621.746	39846.33
622.101	40420.32
622.457	40150.95
622.812	40152.31
623.168	40364.5
623.523	40344.84
623.879	40499.19
624.234	40365.18
624.589	40464.61
624.945	40439.08
625.3	40669.81
625.655	40482.92
626.01	40741.22
626.365	40658.73
626.72	40602.01
627.075	40934.66
627.43	40682.24
627.785	40771.95
628.14	40965.84
628.495	40885.17
628.85	40838.84
629.205	40859.41
629.559	41069.12
629.914	40826.19
630.269	40965.84
630.623	40899.86
630.978	40736.47
631.332	41107.76
631.687	41041.1
632.041	40947.54
632.396	40906.18
632.75	40874.55
633.104	41022.79
633.459	40717.04
633.813	40804.72
634.167	40849.01
634.521	40828.22
634.875	40956.35
635.229	40953.64
635.583	40679.75
635.937	40787.32
636.291	40823.47
636.645	40825.73
636.999	40659.64
637.352	40729.47
637.706	40635
638.06	40706.64
638.413	40612.63
638.767	40613.54
639.121	40608.79
639.474	40399.76
639.828	40343.94
640.181	40409.02
640.534	40507.32
640.888	40305.3
641.241	40293.09
641.594	40368.12
641.947	40286.31
642.301	40365.18
642.654	40408.34
643.007	40364.05
643.36	40408.34
643.713	40223.26
644.066	40417.61
644.419	40192.53
644.771	39941.01
645.124	39668.25
645.477	39600.91
645.83	39420.12
646.182	39209.28
646.535	39065.55
646.888	39219.67
647.24	38951.89
647.593	39127.93
647.945	39051.32
648.298	38895.39
648.65	38887.03
649.002	38748.27
649.355	39009.74
649.707	38869.18
650.059	38992.34
650.411	39605.43
650.763	39423.74
651.115	39944.63
651.467	39765.65
651.819	39739.89
652.171	39628.7
652.523	39625.54
652.875	39677.29
653.227	39479.78
653.578	39698.31
653.93	39513.45
654.282	39419.44
654.633	39346.23
654.985	39392.33
655.337	39448.6
655.688	39346.68
656.039	39551.19
656.391	39185.55
656.742	39269.39
657.094	39271.43
657.445	39428.03
657.796	39336.06
658.147	39241.6
658.498	39205.89
658.849	39260.13
659.2	39163.63
659.551	39172.22
659.902	39348.26
660.253	39166.57
660.604	39372.44
660.955	39085.89
661.306	39193.69
661.656	39056.97
662.007	39157.76
662.358	39103.29
662.708	39226.23
663.059	39138.32
663.409	39046.8
663.76	39186.23
664.11	39193.69
664.461	39252.44
664.811	39056.74
665.161	39240.01
665.511	38998.66
665.862	39163.41
666.212	39333.12
666.562	39191.43
666.912	39172.67
667.262	39061.94
667.612	39076.63
667.962	39225.55
668.312	39127.25
668.662	39106.68
669.011	38903.53
669.361	38907.14
669.711	38931.55
670.06	38927.03
670.41	38933.58
670.76	38676.19
671.109	38977.65
671.459	38868.05
671.808	38741.04
672.157	38867.37
672.507	38632.57
672.856	38713.47
673.205	38768.16
673.554	38865.56
673.904	38666.7
674.253	38870.76
674.602	38722.51
674.951	38408.62
675.3	37945.36
675.649	38631.89
675.998	38528.62
676.346	38644.77
676.695	38688.62
677.044	38405.46
677.393	38532.69
677.741	38571.78
678.09	38417.89
678.438	38372.47
678.787	38597.54
679.135	38462.86
679.484	38210.89
679.832	38346.7
680.181	38102.19
680.529	38329.08
680.877	38102.87
681.225	38118.24
681.573	38255.63
681.922	38026.26
682.27	37907.17
682.618	38054.73
682.966	37849.32
683.314	37888.18
683.661	37995.75
684.009	37655.87
684.357	37617.46
684.705	37513.96
685.053	37553.05
685.4	37477.8
685.748	37382.89
686.095	37455.2
686.443	37302.66
686.79	37214.76
687.138	37267.64
687.485	37236.68
687.832	37043.69
688.18	37188.09
688.527	36886.63
688.874	36944.48
689.221	36910.58
689.568	36751.04
689.915	36765.73
690.262	36577.94
690.609	36572.96
690.956	36455.68
691.303	36463.59
691.65	36171.39
691.997	36198.96
692.344	35981.57
692.69	36121.9
693.037	35967.56
693.383	35798.52
693.73	35859.76
694.077	35562.82
694.423	35677.85
694.769	35470.85
695.116	35464.52
695.462	35461.13
695.808	35338.87
696.155	35390.62
696.501	35122.16
696.847	35088.94
697.193	34873.8
697.539	34972.56
697.885	34637.87
698.231	34510.42
698.577	34678.55
698.923	34518.56
699.269	34434.72
699.614	34253.7
699.96	34240.82
700.306	34295.51
700.651	34108.17
700.997	33998.34
701.342	33876.31
701.688	33893.26
702.033	33726.26
702.379	33768.52
702.724	33652.82
703.069	33693.94
703.415	33231.81
703.76	33342.77
704.105	33340.28
704.45	33253.05
704.795	33031.82
705.14	33087.18
705.485	33037.46
705.83	32924.02
706.175	32909.33
706.52	32771.71
706.865	32611.49
707.209	32608.55
707.554	32545.95
707.899	32574.65
708.243	32269.12
708.588	32297.82
708.932	32249.91
709.277	32259.86
709.621	32063.93
709.966	31939.41
710.31	32153.87
710.654	31727.44
710.998	31858.06
711.342	31898.96
711.687	31722.92
712.031	31632.76
712.375	31519.76
712.719	31476.83
713.063	31551.85
713.407	31539.88
713.75	31223.95
714.094	31276.61
714.438	31296.27
714.782	31296.72
715.125	31068.93
715.469	31154.35
715.812	31058.31
716.156	30851.31
716.499	30821.7
716.843	30909.84
717.186	30743.97
717.53	30757.75
717.873	30715.94
718.216	30661.26
718.559	30470.3
718.902	30271.89
719.246	30387.59
719.589	30224.66
719.932	30284.09
720.275	30213.81
720.617	30092.46
720.96	30077.32
721.303	29980.6
721.646	29981.27
721.989	29926.13
722.331	29942.4
722.674	29873.93
723.016	29874.61
723.359	29910.54
723.701	29756.87
724.044	29656.76
724.386	29466.26
724.729	29610.44
725.071	29599.14
725.413	29541.06
725.755	29554.17
726.097	29377.9
726.439	29278.69
726.782	29191.92
727.124	29304.91
727.465	29203.44
727.807	29130.45
728.149	29084.35
728.491	29033.73
728.833	29008.64
729.175	28883.9
729.516	28844.81
729.858	28934.75
730.199	28955.99
730.541	28701.31
730.882	28713.28
731.224	28827.41
731.565	28660.63
731.906	28604.59
732.248	28608.2
732.589	28534.76
732.93	28386.06
733.271	28320.07
733.612	28548.77
733.953	28483.69
734.294	28381.09
734.635	28234.2
734.976	28408.21
735.317	28155.33
735.658	28100.65
735.999	28143.81
736.339	28074.66
736.68	28192.17
737.021	27970.48
737.361	27875.34
737.702	28064.26
738.042	27885.28
738.383	27833.53
738.723	28034.88
739.063	27713.76
739.404	27845.06
739.744	27784.27
740.084	27628.57
740.424	27662.92
740.764	27532.75
741.104	27639.19
741.444	27414.11
741.784	27299.76
742.124	27578.63
742.464	27427.67
742.804	27293.21
743.143	27274.23
743.483	27344.96
743.823	27198.3
744.162	27280.55
744.502	27107
744.841	27117.62
745.181	27269.48
745.52	27023.84
745.86	27053.67
746.199	26872.65
746.538	27014.8
746.877	27078.98
747.216	26938.87
747.556	26772.54
747.895	26958.08
748.234	26796.05
748.573	26653.23
748.911	26627.92
749.25	26698.42
749.589	26453.23
749.928	26502.95
750.267	26593.11
750.605	26536.17
750.944	26473.12
751.283	26389.05
751.621	26360.13
751.96	26140.24
752.298	26099.57
752.636	26228.38
752.975	26078.1
753.313	25959.01
753.651	26065.44
753.989	25962.85
754.327	25812.34
754.666	25729.41
755.004	25824.55
755.342	25806.24
755.679	25635.63
756.017	25566.47
756.355	25562.63
