Data from hue_38_FLMS001491_00003.txt Node
Date: Tue Feb 07 17:30:57 GMT 2017
User: dcchb
Spectrometer: FLMS00149
Trigger mode: 0
Integration Time (sec): 2.000000E-2
Scans to average: 10
Electric dark correction enabled: true
Nonlinearity correction enabled: false
Boxcar width: 0
XAxis mode: Wavelengths
Number of Pixels in Spectrum: 2048
>>>>>Begin Spectral Data<<<<<
341.393	-23.52
341.776	-23.52
342.16	-23.52
342.543	-72.1
342.927	-61.48
343.31	-69.84
343.693	-72.33
344.077	-78.2
344.46	-59.22
344.843	-57.64
345.226	-29.84
345.61	-18.09
345.993	-17.41
346.376	4.05
346.759	-3.86
347.142	26.65
347.525	36.37
347.908	63.49
348.291	82.47
348.674	87.67
349.057	105.75
349.44	124.73
349.823	123.6
350.206	158.85
350.588	200.88
350.971	207.21
351.354	224.61
351.737	237.95
352.119	276.36
352.502	274.33
352.884	281.33
353.267	273.65
353.65	302.8
354.032	300.99
354.414	304.61
354.797	314.1
355.179	322.46
355.562	322.92
355.944	331.5
356.326	348.9
356.709	339.19
357.091	336.47
357.473	351.84
357.855	334.67
358.238	332.41
358.62	356.36
359.002	318.4
359.384	336.25
359.766	344.61
360.148	337.15
360.53	337.15
360.912	325.85
361.294	316.36
361.676	341.22
362.057	347.1
362.439	337.83
362.821	314.78
363.203	339.41
363.584	331.5
363.966	325.63
364.348	333.76
364.729	329.69
365.111	331.28
365.493	318.17
365.874	319.3
366.256	333.08
366.637	308.23
367.019	319.07
367.4	303.25
367.781	315.68
368.163	315.91
368.544	313.88
368.925	310.03
369.306	329.24
369.688	305.06
370.069	306.87
370.45	327.66
370.831	309.81
371.212	308
371.593	301.45
371.974	311.39
372.355	304.61
372.736	312.52
373.117	287.44
373.498	311.16
373.879	312.07
374.26	319.53
374.641	320.43
375.021	307.32
375.402	326.53
375.783	338.51
376.163	331.5
376.544	341.22
376.925	327.43
377.305	317.94
377.686	312.52
378.066	316.14
378.447	336.7
378.827	312.52
379.208	321.56
379.588	349.13
379.968	352.52
380.349	334.21
380.729	330.6
381.109	352.74
381.489	338.06
381.87	326.08
382.25	332.18
382.63	356.59
383.01	317.49
383.39	334.21
383.77	336.02
384.15	355.68
384.53	335.57
384.91	364.04
385.29	358.17
385.67	368.34
386.049	364.95
386.429	354.33
386.809	359.52
387.189	350.26
387.568	372.41
387.948	332.41
388.328	354.55
388.707	353.87
389.087	368.34
389.466	361.78
389.846	353.2
390.225	362.91
390.605	345.51
390.984	400.43
391.363	361.56
391.743	361.78
392.122	373.08
392.501	369.02
392.881	364.72
393.26	369.69
393.639	400.2
394.018	370.37
394.397	384.61
394.776	402.01
395.155	401.56
395.534	386.19
395.913	389.13
396.292	385.51
396.671	376.25
397.05	382.8
397.429	388.9
397.808	385.51
398.186	373.08
398.565	390.94
398.944	396.81
399.323	405.62
399.701	401.33
400.08	396.36
400.458	402.91
400.837	411.95
401.215	392.52
401.594	406.98
401.972	425.74
402.351	416.47
402.729	416.25
403.107	423.48
403.486	409.92
403.864	415.57
404.242	410.6
404.62	418.28
404.999	415.79
405.377	416.25
405.755	437.71
406.133	416.47
406.511	447.66
406.889	418.28
407.267	424.83
407.645	423.48
408.023	440.65
408.401	439.3
408.779	448.79
409.156	441.33
409.534	438.17
409.912	444.27
410.29	453.99
410.667	472.74
411.045	444.95
411.422	440.2
411.8	468.9
412.178	455.34
412.555	490.59
412.933	491.05
413.31	490.14
413.687	486.98
414.065	490.37
414.442	511.84
414.819	489.24
415.197	522.01
415.574	512.29
415.951	491.5
416.328	529.46
416.705	499.86
417.082	510.25
417.46	496.92
417.837	510.03
418.214	523.81
418.591	542.8
418.967	507.32
419.344	540.31
419.721	538.95
420.098	543.47
420.475	541.89
420.852	539.86
421.228	545.51
421.605	545.06
421.982	564.04
422.358	546.64
422.735	569.46
423.111	540.54
423.488	575.34
423.864	552.29
424.241	564.94
424.617	582.8
424.994	592.74
425.37	595
425.746	565.85
426.123	601.33
426.499	618.27
426.875	636.13
427.251	595.68
427.627	611.72
428.003	618.05
428.379	612.4
428.756	607.2
429.132	618.27
429.507	624.83
429.883	643.13
430.259	642.45
430.635	611.72
431.011	663.92
431.387	657.14
431.763	666.86
432.138	663.47
432.514	675.22
432.89	676.8
433.265	695.33
433.641	707.09
434.016	692.62
434.392	714.54
434.767	703.47
435.143	722.9
435.518	716.58
435.894	723.36
436.269	732.62
436.644	717.26
437.02	752.96
437.395	744.15
437.77	751.83
438.145	778.95
438.52	783.02
438.895	758.84
439.271	786.41
439.646	766.29
440.021	802.68
440.395	780.08
440.77	791.83
441.145	802.68
441.52	794.32
441.895	794.32
442.27	813.07
442.645	808.78
443.019	817.14
443.394	804.48
443.769	823.69
444.143	822.56
444.518	821.43
444.892	828.21
445.267	823.24
445.641	827.76
446.016	850.36
446.39	845.84
446.764	861.88
447.139	864.82
447.513	874.31
447.887	869.57
448.262	865.05
448.636	864.6
449.01	889.68
449.384	897.14
449.758	920.87
450.132	886.97
450.506	914.76
450.88	941.88
451.254	952.96
451.628	964.03
452.002	952.28
452.376	942.79
452.75	972.39
453.123	966.74
453.497	976.01
453.871	999.73
454.244	1003.8
454.618	973.52
454.992	998.15
455.365	998.83
455.739	1015.55
456.112	1042.22
456.486	1038.83
456.859	1071.37
457.232	1081.31
457.606	1060.3
457.979	1100.75
458.352	1076.12
458.725	1110.47
459.099	1127.87
459.472	1144.81
459.845	1178.71
460.218	1174.19
460.591	1153.63
460.964	1155.44
461.337	1194.53
461.71	1228.65
462.083	1225.49
462.456	1235.66
462.829	1254.87
463.201	1249.9
463.574	1267.75
463.947	1289.44
464.32	1307.75
464.692	1324.92
465.065	1323.57
465.438	1347.97
465.81	1374.19
466.183	1389.33
466.555	1426.62
466.928	1434.98
467.3	1423.68
467.672	1441.3
468.045	1524.47
468.417	1519.27
468.789	1498.48
469.161	1563.11
469.534	1551.13
469.906	1604.01
470.278	1597.68
470.65	1617.57
471.022	1684.46
471.394	1685.82
471.766	1737.34
472.138	1750.67
472.51	1806.94
472.882	1830.67
473.253	1844.23
473.625	1881.52
473.997	1933.95
474.369	1946.83
474.74	1999.48
475.112	2030.44
475.484	2051.91
475.855	2095.52
476.227	2113.38
476.598	2234.73
476.97	2224.33
477.341	2272.69
477.713	2334.16
478.084	2398.79
478.455	2433.14
478.827	2476.76
479.198	2599.69
479.569	2579.81
479.94	2678.79
480.311	2724.21
480.682	2813.47
481.053	2879.23
481.424	2953.13
481.795	3020.92
482.166	3104.31
482.537	3122.62
482.908	3238.32
483.279	3304.53
483.65	3409.39
484.021	3468.6
484.391	3529.16
484.762	3623.62
485.133	3678.53
485.503	3777.74
485.874	3877.85
486.244	3950.62
486.615	4046.43
486.985	4111.74
487.356	4269.03
487.726	4346.31
488.097	4428.34
488.467	4507.66
488.837	4602.8
489.207	4714.66
489.578	4829.46
489.948	4981.55
490.318	5040.76
490.688	5152.39
491.058	5230.13
491.428	5287.08
491.798	5426.96
492.168	5569.78
492.538	5611.59
492.908	5749.44
493.278	5872.15
493.648	5871.02
494.017	6032.6
494.387	6120.5
494.757	6231.46
495.126	6347.16
495.496	6390.1
495.866	6518.91
496.235	6568.63
496.605	6671
496.974	6761.16
497.344	6887.26
497.713	6942.18
498.082	7084.55
498.452	7157.99
498.821	7281.38
499.19	7289.74
499.559	7367.48
499.928	7429.17
500.298	7581.03
500.667	7691.08
501.036	7788.48
501.405	7784.64
501.774	7917.52
502.143	7991.41
502.512	8008.59
502.88	8174.46
503.249	8282.71
503.618	8301.46
503.987	8395.25
504.356	8411.97
504.724	8550.04
505.093	8566.54
505.462	8646.99
505.83	8671.4
506.199	8808.57
506.567	8983.7
506.936	8996.13
507.304	9046.08
507.672	9178.73
508.041	9149.58
508.409	9326.07
508.777	9336.24
509.145	9439.29
509.514	9501.43
509.882	9597.02
510.25	9614.65
510.618	9697.13
510.986	9732.84
511.354	9884.25
511.722	9951.36
512.09	9999.5
512.458	10007.86
512.826	10147.52
513.193	10199.49
513.561	10260.51
513.929	10408.07
514.297	10414.85
514.664	10582.76
515.032	10579.82
515.4	10639.48
515.767	10662.08
516.135	10766.03
516.502	10743.43
516.869	10968.06
517.237	11069.07
517.604	10929.42
517.972	11071.33
518.339	11162.18
518.706	11229.52
519.073	11243.76
519.44	11341.38
519.808	11460.7
520.175	11482.17
520.542	11547.48
520.909	11648.95
521.276	11608.04
521.643	11777.3
522.009	11830.86
522.376	11947.02
522.743	12009.16
523.11	12110.85
523.477	12198.99
523.843	12189.72
524.21	12394.24
524.577	12480.56
524.943	12513.56
525.31	12529.6
525.676	12676.04
526.043	12721.69
526.409	12750.39
526.776	12939.31
527.142	13016.37
527.508	12986.09
527.874	13118.96
528.241	13198.96
528.607	13212.29
528.973	13479.18
529.339	13332.29
529.705	13518.95
530.071	13593.53
530.437	13728.44
530.803	13785.39
531.169	13825.39
531.535	13832.16
531.901	13960.52
532.267	13941.31
532.632	14124.36
532.998	14128.65
533.364	14207.3
533.73	14263.79
534.095	14391.7
534.461	14433.73
534.826	14499.27
535.192	14504.46
535.557	14639.83
535.923	14660.62
536.288	14665.81
536.653	14807.96
537.019	14818.58
537.384	14965.92
537.749	14893.38
538.114	14884.57
538.479	14998.69
538.845	15029.87
539.21	15020.16
539.575	15180.38
539.94	15268.96
540.305	15241.84
540.67	15311
541.034	15352.8
541.399	15433.93
541.764	15543.31
542.129	15584.66
542.494	15656.07
542.858	15647.48
543.223	15712.34
543.587	15846.8
543.952	15824.65
544.316	15894.71
544.681	15886.12
545.045	16045.44
545.41	16024.42
545.774	16134.25
546.138	16172.22
546.503	16188.71
546.867	16264.87
547.231	16488.59
547.595	16430.29
547.959	16511.19
548.324	16416.96
548.688	16493.11
549.052	16609.49
549.416	16706.89
549.779	16745.76
550.143	16750.73
550.507	16813.33
550.871	16943.04
551.235	16868.92
551.599	17072.98
551.962	17156.14
552.326	17192.98
552.689	17257.84
553.053	17183.04
553.417	17332.86
553.78	17529.02
554.143	17466.42
554.507	17415.8
554.87	17557.04
555.234	17742.8
555.597	17694.66
555.96	17672.29
556.323	17867.76
556.686	17734.21
557.05	17988.44
557.413	17893.53
557.776	17968.33
558.139	18094.65
558.502	18116.35
558.865	18267.75
559.228	18275.89
559.59	18396.56
559.953	18480.63
560.316	18688.31
560.679	18578.93
561.041	18755.42
561.404	18715.2
561.767	18908.87
562.129	18852.37
562.492	19018.47
562.854	19048.07
563.217	19049.2
563.579	19054.85
563.941	19163.78
564.304	19277.45
564.666	19358.35
565.028	19468.63
565.39	19440.38
565.753	19516.76
566.115	19674.04
566.477	19757.21
566.839	19700.94
567.201	19910.87
567.563	19937.54
567.925	20091.66
568.287	20069.29
568.648	20144.31
569.01	20246.69
569.372	20418.21
569.734	20317.64
570.095	20507.24
570.457	20576.62
570.819	20703.17
571.18	20599.44
571.542	20763.96
571.903	20958.98
572.265	21036.72
572.626	21050.51
572.987	21102.48
573.349	21170.28
573.71	21364.62
574.071	21318.97
574.432	21482.81
574.794	21632.64
575.155	21666.76
575.516	21672.64
575.877	21839.64
576.238	21981.1
576.599	22088.67
576.96	22182
577.32	22286.86
577.681	22534.76
578.042	22621.54
578.403	22596.23
578.763	22824.7
579.124	22955.77
579.485	23121.41
579.845	23315.98
580.206	23366.38
580.566	23527.5
580.927	23630.78
581.287	23815.63
581.648	24013.37
582.008	24176.07
582.368	24265.34
582.728	24372.68
583.089	24563.63
583.449	24664.2
583.809	25045.2
584.169	25162.94
584.529	25299.89
584.889	25661.91
585.249	25657.39
585.609	25687.9
585.969	26135.57
586.329	26183.48
586.688	26539.63
587.048	26663.47
587.408	26720.64
587.768	26975.55
588.127	27268.2
588.487	27321.98
588.846	27832.25
589.206	27742.99
589.565	27998.35
589.925	28314.95
590.284	28345.91
590.643	28712.9
591.003	28964.87
591.362	29217.52
591.721	29290.52
592.08	29568.47
592.44	29792.87
592.799	30043.72
593.158	30194.9
593.517	30393.54
593.876	30593.98
594.235	30814.09
594.593	31004.14
594.952	31439.61
595.311	31373.85
595.67	31723.22
596.029	32084.57
596.387	32260.61
596.746	32569.3
597.104	32531.79
597.463	32657.88
597.822	33034.15
598.18	33081.6
598.538	33185.55
598.897	33604.53
599.255	33475.94
599.613	34174
599.972	34014.68
600.33	34268.01
600.688	34383.94
601.046	34721.78
601.404	34857.37
601.762	34965.62
602.12	35340.98
602.478	35517.24
602.836	35571.03
603.194	35479.96
603.552	35740.06
603.91	35833.62
604.268	36117.91
604.625	36126.95
604.983	36425.92
605.341	36399.93
605.698	36862.07
606.056	37037.88
606.413	37126.02
606.771	37282.17
607.128	37426.57
607.485	37250.53
607.843	37605.55
608.2	37774.13
608.557	38019.55
608.914	38013.22
609.272	38412.54
609.629	38304.06
609.986	38582.93
610.343	38472.65
610.7	38906.31
611.057	39080.77
611.414	39101.78
611.771	39225.62
612.127	39439.63
612.484	39452.51
612.841	39597.36
613.198	39543.8
613.554	39836.9
613.911	40111.93
614.267	40012.27
614.624	40099.5
614.98	40257.46
615.337	40477.34
615.693	40502.2
616.05	40488.41
616.406	40793.72
616.762	40860.38
617.118	40833.49
617.475	40836.2
617.831	41101.96
618.187	41164.55
618.543	41190.09
618.899	41564.32
619.255	41364.77
619.611	41332.46
619.967	41536.97
620.323	41834.82
620.678	41622.62
621.034	41608.16
621.39	41790.75
621.746	41760.02
622.101	42229.61
622.457	42039.56
622.812	42053.12
623.168	42289.95
623.523	42277.29
623.879	42457.17
624.234	42191.87
624.589	42362.94
624.945	42473.22
625.3	42566.1
625.655	42553.22
626.01	42563.16
626.365	42599.09
626.72	42679.54
627.075	42612.65
627.43	42653.78
627.785	42788.24
628.14	42775.36
628.495	42837.28
628.85	42818.07
629.205	42743.95
629.559	43022.13
629.914	42743.27
630.269	42824.85
630.623	42760.22
630.978	42666.21
631.332	42930.38
631.687	43103.49
632.041	42877.05
632.396	42870.05
632.75	42789.6
633.104	42938.97
633.459	42686.77
633.813	42876.15
634.167	42794.34
634.521	42869.14
634.875	42950.04
635.229	42841.35
635.583	42716.38
635.937	42691.74
636.291	42570.17
636.645	42660.56
636.999	42676.15
637.352	42788.01
637.706	42561.35
638.06	42787.11
638.413	42657.62
638.767	42433.9
639.121	42627.34
639.474	42487.23
639.828	42282.94
640.181	42616.49
640.534	42463.28
640.888	42284.52
641.241	42243.62
641.594	42365.2
641.947	42546.21
642.301	42327.23
642.654	42417.18
643.007	42278.2
643.36	42361.81
643.713	42343.96
644.066	42458.98
644.419	42197.07
644.771	41994.14
645.124	41595.28
645.477	41564.77
645.83	41240.71
646.182	41207.72
646.535	40979.25
646.888	41092.92
647.24	41026.7
647.593	41140.6
647.945	41151.45
648.298	40958.91
648.65	40933.37
649.002	40768.63
649.355	40990.09
649.707	40883.88
650.059	41089.98
650.411	41367.94
650.763	41515.73
651.115	41895.61
651.467	41841.15
651.819	41921.14
652.171	41728.83
652.523	41610.19
652.875	41692
653.227	41497.65
653.578	41786.01
653.93	41638.89
654.282	41549.4
654.633	41439.35
654.985	41636.18
655.337	41632.34
655.688	41599.12
656.039	41699.23
656.391	41360.93
656.742	41504.88
657.094	41357.99
657.445	41595.95
657.796	41466.01
658.147	41498.56
658.498	41328.62
658.849	41502.85
659.2	41428.05
659.551	41387.82
659.902	41551.44
660.253	41403.64
660.604	41446.58
660.955	41211.78
661.306	41415.39
661.656	41158.9
662.007	41335.17
662.358	41452.46
662.708	41351.67
663.059	41292.69
663.409	41049.08
663.76	41362.74
664.11	41322.06
664.461	41298.11
664.811	41084.56
665.161	41225.12
665.511	41088.62
665.862	41206.59
666.212	41204.55
666.562	41304.89
666.912	41173.14
667.262	41188.96
667.612	41142.63
667.962	41114.39
668.312	41151.45
668.662	41255.17
669.011	41081.39
669.361	41146.7
669.711	41082.75
670.06	41080.94
670.41	41029.19
670.76	40907.84
671.109	41181.05
671.459	40938.8
671.808	40870.32
672.157	41044.78
672.507	40925.24
672.856	40785.13
673.205	40852.92
673.554	40860.38
673.904	40816.31
674.253	41051.34
674.602	40851.34
674.951	40346.27
675.3	40223.56
675.649	40803.88
675.998	40785.81
676.346	40733.38
676.695	40798.01
677.044	40660.84
677.393	40704.23
677.741	40629.43
678.09	40648.41
678.438	40535.42
678.787	40561.41
679.135	40619.03
679.484	40410.22
679.832	40527.51
680.181	40257.91
680.529	40384.23
680.877	40162.77
681.225	40209.32
681.573	40431.47
681.922	40077.58
682.27	39946.51
682.618	40019.72
682.966	39957.13
683.314	40004.81
683.661	39906.51
684.009	39749
684.357	39748.55
684.705	39718.04
685.053	39845.49
685.4	39729.11
685.748	39453.64
686.095	39502.9
686.443	39333.41
686.79	39322.79
687.138	39425.84
687.485	39454.77
687.832	39191.72
688.18	39240.31
688.527	39136.58
688.874	38994.44
689.221	38862.01
689.568	38772.07
689.915	38828.12
690.262	38759.64
690.609	38626.09
690.956	38572.53
691.303	38484.17
691.65	38350.39
691.997	38391.29
692.344	38063.62
692.69	38231.52
693.037	38046.44
693.383	37818.65
693.73	37954.24
694.077	37590.64
694.423	37656.17
694.769	37436.97
695.116	37542.28
695.462	37411.43
695.808	37255.73
696.155	37432.67
696.501	37105.22
696.847	37118.56
697.193	36926.7
697.539	37010.99
697.885	36713.82
698.231	36672.02
698.577	36574.17
698.923	36482.42
699.269	36436.54
699.614	36237.68
699.96	36264.12
700.306	36266.15
700.651	36046.5
700.997	36013.5
701.342	35897.12
701.688	35790.46
702.033	35623.68
702.379	35740.29
702.724	35650.12
703.069	35715.88
703.415	35290.81
703.76	35350.69
704.105	35335.78
704.45	35310.92
704.795	35109.35
705.14	35029.35
705.485	35040.65
705.83	34750.94
706.175	34934.89
706.52	34816.7
706.865	34663.03
707.209	34638.85
707.554	34473.2
707.899	34638.17
708.243	34366.09
708.588	34230.27
708.932	34041.8
709.277	34042.71
709.621	34095.13
709.966	33955.25
710.31	34029.6
710.654	33609.95
710.998	33700.12
711.342	33497.18
711.687	33491.99
712.031	33434.81
712.375	33311.65
712.719	33453.12
713.063	33323.4
713.407	33412.89
713.75	33153.01
714.094	33072.34
714.438	32990.98
714.782	33090.64
715.125	32936.52
715.469	32969.97
715.812	32824.66
716.156	32612.69
716.499	32689.97
716.843	32703.98
717.186	32612.01
717.53	32551.22
717.873	32652.69
718.216	32539.92
718.559	32371.79
718.902	32321.4
719.246	32299.7
719.589	32151.91
719.932	32003.89
720.275	32000.05
720.617	31889.09
720.96	31910.56
721.303	31844.12
721.646	31891.35
721.989	31635.09
722.331	31911.92
722.674	31727.74
723.016	31615.65
723.359	31673.5
723.701	31628.76
724.044	31457.92
724.386	31371.82
724.729	31447.97
725.071	31505.15
725.413	31144.25
725.755	31308.32
726.097	31188.77
726.439	31118.72
726.782	31099.51
727.124	31151.03
727.465	30986.97
727.807	30899.51
728.149	30888.44
728.491	30869.46
728.833	30876.91
729.175	30744.94
729.516	30644.83
729.858	30705.62
730.199	30669.46
730.541	30612.97
730.882	30455
731.224	30705.17
731.565	30365.74
731.906	30415.68
732.248	30485.51
732.589	30222.24
732.93	30191.96
733.271	30241.9
733.612	30227.44
733.953	30191.06
734.294	30046.2
734.635	29967.33
734.976	30201
735.317	29946.09
735.658	29980.67
735.999	29915.58
736.339	29781.35
736.68	29890.95
737.021	29788.13
737.361	29727.11
737.702	29820.22
738.042	29785.64
738.383	29552.43
738.723	29638.08
739.063	29510.62
739.404	29575.25
739.744	29526.89
740.084	29305.2
740.424	29358.76
740.764	29297.75
741.104	29420
741.444	29240.35
741.784	29177.98
742.124	29238.31
742.464	29203.74
742.804	29076.06
743.143	29049.39
743.483	28987.47
743.823	28972.11
744.162	29002.39
744.502	28774.37
744.841	28820.02
745.181	28914.71
745.52	28689.63
745.86	28769.62
746.199	28815.05
746.538	28610.98
746.877	28705.9
747.216	28697.08
747.556	28695.05
747.895	28599.91
748.234	28396.53
748.573	28440.37
748.911	28366.25
749.25	28367.15
749.589	28207.61
749.928	28182.75
750.267	28216.42
750.605	28181.39
750.944	28104.78
751.283	28073.82
751.621	27979.36
751.96	27854.39
752.298	27758.13
752.636	27816.2
752.975	27661.86
753.313	27637.9
753.651	27806.03
753.989	27636.32
754.327	27583.44
754.666	27390.45
755.004	27468.19
755.342	27508.19
755.679	27441.07
756.017	27269.55
756.355	27256.67
756.693	27196.11
757.031	27260.74
