Data from hue_50_FLMS001491_21.txt Node
Date: Mon Feb 06 15:09:48 GMT 2017
User: dcchb
Spectrometer: FLMS00149
Trigger mode: 0
Integration Time (sec): 2.000000E-2
Scans to average: 10
Electric dark correction enabled: true
Nonlinearity correction enabled: false
Boxcar width: 0
XAxis mode: Wavelengths
Number of Pixels in Spectrum: 2048
>>>>>Begin Spectral Data<<<<<
341.393	1.72
341.776	1.72
342.16	1.72
342.543	-55.68
342.927	-64.04
343.31	-60.65
343.693	-62
344.077	-71.95
344.46	-46.19
344.843	-48.9
345.226	-62
345.61	-41.44
345.993	-6.64
346.376	13.47
346.759	-6.41
347.142	28.84
347.525	48.28
347.908	49.18
348.291	79.91
348.674	67.48
349.057	119.01
349.44	128.05
349.823	140.25
350.206	167.59
350.588	188.61
350.971	213.92
351.354	236.97
351.737	243.98
352.119	245.11
352.502	265.22
352.884	246.91
353.267	280.36
353.65	284.43
354.032	311.32
354.414	305.9
354.797	296.18
355.179	303.64
355.562	315.39
355.944	308.38
356.326	324.65
356.709	335.5
357.091	326.23
357.473	321.26
357.855	351.54
358.238	345.44
358.62	334.37
359.002	358.55
359.384	339.12
359.766	332.56
360.148	331.21
360.53	341.38
360.912	353.35
361.294	333.01
361.676	342.73
362.057	337.99
362.439	336.63
362.821	337.99
363.203	326.91
363.584	319.68
363.966	319.68
364.348	317.42
364.729	310.42
365.111	336.18
365.493	307.7
365.874	309.51
366.256	315.84
366.637	330.3
367.019	307.03
367.4	341.15
367.781	312.45
368.163	301.6
368.544	304.99
368.925	324.65
369.306	298.89
369.688	323.75
370.069	316.52
370.45	323.75
370.831	308.83
371.212	301.38
371.593	309.96
371.974	331.21
372.355	323.52
372.736	325.1
373.117	299.12
373.498	314.03
373.879	309.06
374.26	327.82
374.641	302.96
375.021	326.91
375.402	323.97
375.783	326.01
376.163	335.27
376.544	319.68
376.925	312
377.305	303.41
377.686	330.08
378.066	322.17
378.447	303.86
378.827	320.58
379.208	334.14
379.588	315.84
379.968	310.42
380.349	329.85
380.729	319.23
381.109	331.66
381.489	337.31
381.87	358.1
382.25	339.34
382.63	327.14
383.01	309.96
383.39	326.69
383.77	335.73
384.15	330.53
384.53	357.87
384.91	347.02
385.29	323.3
385.67	325.78
386.049	349.06
386.429	350.19
386.809	336.86
387.189	361.71
387.568	333.92
387.948	340.25
388.328	356.52
388.707	372.79
389.087	354.71
389.466	361.26
389.846	366.01
390.225	332.79
390.605	350.87
390.984	361.94
391.363	373.24
391.743	358.1
392.122	372.56
392.501	343.86
392.881	378.44
393.26	347.25
393.639	355.39
394.018	349.06
394.397	365.1
394.776	341.15
395.155	370.53
395.534	385.22
395.913	387.02
396.292	384.99
396.671	386.35
397.05	401.94
397.429	376.18
397.808	342.51
398.186	381.6
398.565	380.47
398.944	373.01
399.323	400.58
399.701	380.47
400.08	392.9
400.458	372.33
400.837	381.6
401.215	394.71
401.594	393.8
401.972	394.93
402.351	403.75
402.729	407.14
403.107	396.74
403.486	399.9
403.864	402.62
404.242	389.06
404.62	394.71
404.999	379.57
405.377	400.58
405.755	411.2
406.133	400.13
406.511	403.29
406.889	415.72
407.267	400.36
407.645	395.61
408.023	418.66
408.401	414.14
408.779	431.54
409.156	436.06
409.534	429.51
409.912	422.05
410.29	441.49
410.667	426.8
411.045	427.47
411.422	405.1
411.8	439.68
412.178	430.41
412.555	452.11
412.933	445.55
413.31	469.73
413.687	438.77
414.065	449.17
414.442	464.99
414.819	467.47
415.197	456.17
415.574	448.72
415.951	462.95
416.328	463.18
416.705	469.51
417.082	464.08
417.46	487.59
417.837	472.45
418.214	451.2
418.591	486.46
418.967	490.98
419.344	496.4
419.721	486.68
420.098	487.13
420.475	469.06
420.852	481.48
421.228	490.07
421.605	485.1
421.982	492.11
422.358	514.03
422.735	504.76
423.111	510.18
423.488	550.41
423.864	510.41
424.241	527.58
424.617	539.11
424.994	522.16
425.37	532.78
425.746	522.16
426.123	523.74
426.499	525.55
426.875	541.37
427.251	546.57
427.627	564.65
428.003	537.3
428.379	540.92
428.756	558.54
429.132	542.27
429.507	601.48
429.883	568.04
430.259	570.75
430.635	553.35
431.011	574.82
431.387	589.96
431.763	561.26
432.138	596.06
432.514	607.81
432.89	611.65
433.265	614.36
433.641	620.46
434.016	615.04
434.392	643.97
434.767	630.63
435.143	617.3
435.518	620.46
435.894	623.18
436.269	652.78
436.644	646.23
437.02	633.12
437.395	663.17
437.77	668.6
438.145	669.95
438.52	699.33
438.895	670.63
439.271	689.39
439.646	652.1
440.021	695.94
440.395	684.42
440.77	685.09
441.145	686.45
441.52	708.15
441.895	697.98
442.27	712.21
442.645	690.97
443.019	705.43
443.394	720.57
443.769	722.83
444.143	711.76
444.518	744.3
444.892	713.34
445.267	717.86
445.641	732.78
446.016	742.95
446.39	745.21
446.764	759.9
447.139	742.49
447.513	756.28
447.887	765.54
448.262	754.47
448.636	769.84
449.01	781.59
449.384	782.49
449.758	785.88
450.132	786.79
450.506	792.44
450.88	806
451.254	806.67
451.628	820.68
452.002	819.33
452.376	826.79
452.75	809.39
453.123	856.62
453.497	845.54
453.871	827.01
454.244	861.81
454.618	861.36
454.992	857.52
455.365	874.24
455.739	894.36
456.112	889.38
456.486	883.51
456.859	942.94
457.232	936.84
457.606	937.07
457.979	921.92
458.352	973.45
458.725	954.69
459.099	976.61
459.472	986.78
459.845	1001.92
460.218	1003.73
460.591	1002.83
460.964	1024.3
461.337	1027.23
461.71	1039.44
462.083	1061.81
462.456	1068.36
462.829	1076.27
463.201	1062.03
463.574	1075.14
463.947	1090.28
464.32	1104.52
464.692	1123.95
465.065	1137.51
465.438	1166.66
465.81	1179.09
466.183	1210.28
466.555	1224.06
466.928	1221.8
467.3	1239.88
467.672	1271.75
468.045	1283.5
468.417	1292.76
468.789	1293.44
469.161	1344.96
469.534	1338.86
469.906	1373.66
470.278	1416.15
470.65	1429.26
471.022	1438.52
471.394	1478.75
471.766	1479.42
472.138	1524.62
472.51	1551.29
472.882	1579.76
473.253	1621.12
473.625	1658.18
473.997	1679.65
474.369	1713.99
474.74	1746.08
475.112	1777.95
475.484	1807.33
475.855	1865.18
476.227	1886.42
476.598	1971.16
476.97	1991.05
477.341	2072.4
477.713	2105.85
478.084	2149.92
478.455	2219.97
478.827	2269.91
479.198	2339.29
479.569	2355.56
479.94	2449.79
480.311	2531.83
480.682	2578.38
481.053	2691.6
481.424	2751.93
481.795	2797.58
482.166	2904.02
482.537	2988.31
482.908	3052.94
483.279	3143.79
483.65	3206.16
484.021	3325.93
484.391	3435.53
484.762	3497.22
485.133	3532.03
485.503	3646.83
485.874	3793.49
486.244	3850.66
486.615	4018.34
486.985	4130.2
487.356	4217.43
487.726	4280.25
488.097	4472.79
488.467	4517.99
488.837	4724.08
489.207	4813.12
489.578	4889.05
489.948	5012.89
490.318	5173.79
490.688	5240.23
491.058	5385.76
491.428	5479.09
491.798	5661.01
492.168	5775.36
492.538	5851.96
492.908	6041.11
493.278	6158.62
493.648	6237.04
494.017	6400.2
494.387	6513.42
494.757	6648.1
495.126	6801.32
495.496	6828.21
495.866	6980.07
496.235	7109.11
496.605	7280.4
496.974	7397.01
497.344	7556.1
497.713	7647.85
498.082	7822.76
498.452	7888.75
498.821	7968.29
499.19	8072.25
499.559	8234.73
499.928	8315.4
500.298	8465.91
500.667	8601.05
501.036	8672.46
501.405	8852.34
501.774	8890.75
502.143	9054.59
502.512	9093.69
502.88	9215.49
503.249	9275.15
503.618	9430.63
503.987	9535.03
504.356	9650.51
504.724	9758.3
505.093	9933.21
505.462	9928.47
505.83	10048.24
506.199	10205.97
506.567	10369.59
506.936	10328.91
507.304	10507.44
507.672	10558.28
508.041	10685.51
508.409	10868.56
508.777	10853.42
509.145	11028.55
509.514	11072.84
509.882	11246.4
510.25	11307.64
510.618	11402.78
510.986	11454.53
511.354	11650
511.722	11686.84
512.09	11887.29
512.458	11862.65
512.826	12014.74
513.193	12076.21
513.561	12151.23
513.929	12381.96
514.297	12411.79
514.664	12479.36
515.032	12557.1
515.4	12774.04
515.767	12785.57
516.135	12888.84
516.502	12819.24
516.869	13055.17
517.237	13206.12
517.604	13160.47
517.972	13344.65
518.339	13438.66
518.706	13424.87
519.073	13587.35
519.44	13700.35
519.808	13821.47
520.175	13915.48
520.542	14131.07
520.909	14097.62
521.276	14144.85
521.643	14342.14
522.009	14372.87
522.376	14477.73
522.743	14637.95
523.11	14786.42
523.477	14844.27
523.843	14993.87
524.21	15153.64
524.577	15229.57
524.943	15308.89
525.31	15419.85
525.676	15503.46
526.043	15571.94
526.409	15688.09
526.776	15869.55
527.142	15879.5
527.508	16015.09
527.874	16176.67
528.241	16249.66
528.607	16200.39
528.973	16495.07
529.339	16386.38
529.705	16608.52
530.071	16744.11
530.437	16744.33
530.803	17033.59
531.169	17080.37
531.535	17003.99
531.901	17083.76
532.267	17175.06
532.632	17364.43
532.998	17388.61
533.364	17533.24
533.73	17525.56
534.095	17697.3
534.461	17759.9
534.826	17862.72
535.192	17946.11
535.557	18035.6
535.923	18031.08
536.288	18076.95
536.653	18221.58
537.019	18170.28
537.384	18300
537.749	18403.73
538.114	18420
538.479	18476.94
538.845	18636.26
539.21	18567.34
539.575	18710.84
539.94	18815.01
540.305	18838.74
540.67	18827.89
541.034	18914.67
541.399	19082.35
541.764	19112.18
542.129	19144.04
542.494	19223.36
542.858	19298.16
543.223	19346.3
543.587	19506.52
543.952	19407.31
544.316	19499.52
544.681	19503.13
545.045	19716.68
545.41	19801.88
545.774	19828.77
546.138	19863.35
546.503	19931.14
546.867	19922.56
547.231	20149.22
547.595	20121.42
547.959	20213.17
548.324	20216.78
548.688	20285.26
549.052	20389.89
549.416	20513.5
549.779	20368.87
550.143	20526.38
550.507	20599.83
550.871	20629.88
551.235	20818.35
551.599	20902.87
551.962	20913.26
552.326	20989.87
552.689	21155.07
553.053	21104.9
553.417	21160.71
553.78	21274.84
554.143	21312.8
554.507	21405.68
554.87	21577.65
555.234	21746.24
555.597	21527.71
555.96	21665.56
556.323	21878.21
556.686	21853.8
557.05	22078.66
557.413	22017.87
557.776	22107.13
558.139	22358.88
558.502	22306.45
558.865	22404.75
559.228	22506.22
559.59	22562.49
559.953	22610.62
560.316	22885.19
560.679	22782.37
561.041	22931.06
561.404	23192.75
561.767	23154.33
562.129	23170.15
562.492	23492.86
562.854	23387.1
563.217	23407.44
563.579	23504.61
563.941	23800.42
564.304	23739.63
564.666	23984.37
565.028	23979.17
565.39	24013.07
565.753	24031.37
566.115	24159.51
566.477	24376.22
566.839	24457.13
567.201	24455.54
567.563	24572.83
567.925	24651.92
568.287	24729.21
568.648	24727.4
569.01	25042.19
569.372	25100.72
569.734	25037.22
570.095	25267.73
570.457	25344.11
570.819	25369.87
571.18	25403.77
571.542	25691.67
571.903	25806.24
572.265	25869.29
572.626	25928.27
572.987	25942.28
573.349	26052.79
573.71	26124.2
574.071	26316.74
574.432	26434.47
574.794	26577.52
575.155	26613.23
575.516	26547.69
575.877	26636.73
576.238	26796.05
576.599	26947.23
576.96	26890.06
577.32	26991.97
577.681	27146.77
578.042	27270.84
578.403	27319.42
578.763	27269.93
579.124	27347.67
579.485	27513.54
579.845	27690.94
580.206	27608
580.566	27831.05
580.927	27873.31
581.287	27950.14
581.648	27827.43
582.008	28255.44
582.368	28144.26
582.728	28251.15
583.089	28410.69
583.449	28574.08
583.809	28585.6
584.169	28739.05
584.529	28853.17
584.889	29083.44
585.249	29045.93
585.609	29055.87
585.969	29289.09
586.329	29232.59
586.688	29448.63
587.048	29572.7
587.408	29525.01
587.768	29660.6
588.127	29677.55
588.487	29709.42
588.846	30127.03
589.206	30047.26
589.565	30049.07
589.925	30305.56
590.284	30396.86
590.643	30426.23
591.003	30526.57
591.362	30776.28
591.721	30800.24
592.08	30870.52
592.44	31024.18
592.799	31024.64
593.158	31186.67
593.517	31123.62
593.876	31276.61
594.235	31295.14
594.593	31501.69
594.952	31556.15
595.311	31593.89
595.67	31900.77
596.029	32048.11
596.387	32100.99
596.746	32157.04
597.104	32057.6
597.463	32216.47
597.822	32486.52
598.18	32342.12
598.538	32494.43
598.897	32661.88
599.255	32473.19
599.613	33047.18
599.972	32789.34
600.33	33046.28
600.688	32912.04
601.046	33090.57
601.404	33340.73
601.762	33225.71
602.12	33415.31
602.478	33517.23
602.836	33521.75
603.194	33549.09
603.552	33643.55
603.91	33607.62
604.268	33851
604.625	33770.55
604.983	34026.37
605.341	33853.94
605.698	34093.71
606.056	34267.94
606.413	34146.59
606.771	34409.63
607.128	34432.68
607.485	34274.49
607.843	34446.69
608.2	34723.3
608.557	34734.6
608.914	34684.65
609.272	34959.9
609.629	35047.81
609.986	35159.22
610.343	35023.63
610.7	35358.31
611.057	35320.79
611.414	35304.75
611.771	35526.44
612.127	35535.03
612.484	35586.55
612.841	35707.45
613.198	35568.7
613.554	35600.56
613.911	35905.41
614.267	35907.67
614.624	35916.48
614.98	36119.19
615.337	36260.43
615.693	36224.27
616.05	36011.85
616.406	36427.21
616.762	36391.73
617.118	36376.81
617.475	36381.11
617.831	36344.5
618.187	36512.63
618.543	36621.1
618.899	36750.14
619.255	36781.1
619.611	36771.15
619.967	36911.71
620.323	37066.51
620.678	36913.75
621.034	36938.15
621.39	37003.91
621.746	37056.79
622.101	37329.78
622.457	37073.52
622.812	37105.15
623.168	37231.93
623.523	37234.42
623.879	37528.42
624.234	37288.2
624.589	37438.03
624.945	37448.87
625.3	37495.2
625.655	37516.67
626.01	37683.9
626.365	37519.61
626.72	37605.25
627.075	37560.74
627.43	37556.22
627.785	37457.91
628.14	37602.09
628.495	37643.22
628.85	37607.97
629.205	37571.81
629.559	37809.54
629.914	37513.96
630.269	37501.98
630.623	37602.32
630.978	37538.82
631.332	37667.85
631.687	37737.23
632.041	37552.83
632.396	37578.14
632.75	37418.82
633.104	37699.94
633.459	37481.64
633.813	37494.75
634.167	37540.4
634.521	37427.41
634.875	37533.39
635.229	37447.74
635.583	37278.71
635.937	37264.02
636.291	37356.67
636.645	37210.01
636.999	37150.35
637.352	37364.13
637.706	36960.53
638.06	37311.48
638.413	37115.32
638.767	37116
639.121	37198.26
639.474	36930.47
639.828	37085.27
640.181	37016.34
640.534	37054.31
640.888	36934.99
641.241	36850.47
641.594	36910.81
641.947	36990.81
642.301	36911.71
642.654	36989.23
643.007	36915.33
643.36	36965.5
643.713	36860.19
644.066	37006.4
644.419	36776.12
644.771	36527.77
645.124	36115.58
645.477	36198.96
645.83	36025.18
646.182	35937.05
646.535	35649.83
646.888	35772.53
647.24	35571.18
647.593	35818.41
647.945	35796.94
648.298	35567.12
648.65	35478.76
649.002	35371.41
649.355	35635.14
649.707	35529.83
650.059	35676.72
650.411	36055.92
650.763	36037.16
651.115	36402.35
651.467	36370.03
651.819	36371.39
652.171	36195.35
652.523	36149.47
652.875	36217.49
653.227	36005.07
653.578	36339.52
653.93	36286.64
654.282	36005.52
654.633	35840.1
654.985	36069.02
655.337	35984.28
655.688	36075.12
656.039	36114.9
656.391	35883.72
656.742	35990.83
657.094	35794.68
657.445	36042.58
657.796	36013.43
658.147	35888.46
658.498	36025.18
658.849	35861.12
659.2	35898.86
659.551	35772.53
659.902	36172.75
660.253	35902.93
660.604	35714.23
660.955	35828.8
661.306	35909.03
661.656	35808.47
662.007	35772.76
662.358	35759.2
662.708	35815.47
663.059	35730.73
663.409	35595.59
663.76	35770.27
664.11	35837.62
664.461	35823.61
664.811	35835.36
665.161	35754.91
665.511	35652.09
665.862	35705.19
666.212	35820.44
666.562	35803.49
666.912	35668.36
667.262	35696.38
667.612	35674.01
667.962	35667.45
668.312	35673.33
668.662	35769.6
669.011	35679.43
669.361	35749.03
669.711	35656.15
670.06	35524.4
670.41	35568.7
670.76	35576.61
671.109	35626.32
671.459	35537.74
671.808	35534.8
672.157	35579.09
672.507	35475.82
672.856	35402.6
673.205	35475.14
673.554	35537.74
673.904	35369.15
674.253	35661.12
674.602	35512.65
674.951	34955.38
675.3	34695.95
675.649	35420.68
675.998	35422.94
676.346	35320.12
676.695	35437.18
677.044	35158.76
677.393	35380.91
677.741	35432.43
678.09	35263.85
678.438	35129.61
678.787	35150.63
679.135	35113.57
679.484	34993.8
679.832	35132.55
680.181	34748.61
680.529	34957.64
680.877	34824.08
681.225	34946.12
681.573	35180.23
681.922	34734.37
682.27	34688.27
682.618	34675.61
682.966	34544.09
683.314	34541.83
683.661	34587.93
684.009	34481.49
684.357	34413.93
684.705	34246.25
685.053	34293.7
685.4	34228.17
685.748	34112.46
686.095	34105.46
686.443	33983.65
686.79	34071.34
687.138	34151.79
687.485	34015.07
687.832	33873.37
688.18	33947.72
688.527	33749.08
688.874	33690.55
689.221	33725.58
689.568	33669.09
689.915	33420.05
690.262	33628.41
690.609	33322.65
690.956	33393.16
691.303	33333.95
691.65	33160.63
691.997	33192.49
692.344	32981.87
692.69	32960.86
693.037	33063.23
693.383	32638.38
693.73	32729.45
694.077	32508.21
694.423	32566.97
694.769	32478.16
695.116	32464.6
695.462	32385.28
695.808	32351.61
696.155	32402.23
696.501	32050.15
696.847	32155.91
697.193	31842.02
697.539	31981.9
697.885	31719.08
698.231	31690.38
698.577	31733.32
698.923	31659.65
699.269	31543.94
699.614	31303.72
699.96	31234.57
700.306	31258.08
700.651	31103.05
700.997	30875.26
701.342	31015.37
701.688	30867.58
702.033	30812.89
702.379	30726.11
702.724	30608.38
703.069	30815.6
703.415	30542.61
703.76	30367.25
704.105	30323.19
704.45	30378.55
704.795	30230.08
705.14	30127.71
705.485	30117.09
705.83	30022.18
706.175	30007.04
706.52	29853.59
706.865	29867.83
707.209	29816.08
707.554	29810.66
707.899	29783.54
708.243	29648.18
708.588	29602.98
708.932	29336.77
709.277	29373.83
709.621	29335.87
709.966	29146.04
710.31	29281.86
710.654	28924.13
710.998	29022.2
711.342	28971.36
711.687	28985.82
712.031	28859.95
712.375	28720.52
712.719	28839.83
713.063	28702.44
713.407	28843.22
713.75	28696.79
714.094	28619.05
714.438	28474.19
714.782	28534.76
715.125	28362.79
715.469	28498.15
715.812	28244.6
716.156	28153.3
716.499	28283.92
716.843	28121.89
717.186	28082.11
717.53	28106.97
717.873	28115.33
718.216	28043.25
718.559	27871.05
718.902	27794.66
719.246	27896.58
719.589	27747.21
719.932	27605.74
720.275	27649.13
720.617	27513.77
720.96	27474.9
721.303	27528.68
721.646	27446.43
721.989	27389.93
722.331	27370.95
722.674	27274
723.016	27311.97
723.359	27246.43
723.701	27213.66
724.044	27042.59
724.386	26932.09
724.729	26936.61
725.071	26878.3
725.413	26877.85
725.755	26863.62
726.097	26827.91
726.439	26748.59
726.782	26628.37
727.124	26766.44
727.465	26620.46
727.807	26593.57
728.149	26553.79
728.491	26478.77
728.833	26597.63
729.175	26483.51
729.516	26332.56
729.858	26285.1
730.199	26427.24
730.541	26316.06
730.882	26334.14
731.224	26375.27
731.565	26139.57
731.906	26161.04
732.248	26159
732.589	26030.42
732.93	25933.47
733.271	25999.68
733.612	26082.85
733.953	26005.33
734.294	25833.36
734.635	25760.37
734.976	25907.48
735.317	25665.46
735.658	25681.95
735.999	25647.15
736.339	25596.3
736.68	25641.73
737.021	25544.55
737.361	25399.47
737.702	25622.74
738.042	25511.56
738.383	25455.97
738.723	25504.1
739.063	25371
739.404	25423.65
739.744	25267.5
740.084	25176.2
740.424	25319.02
740.764	25182.98
741.104	25321.06
741.444	24973.95
741.784	25047.62
742.124	25172.59
742.464	25005.81
742.804	24877.91
743.143	25026.6
743.483	24925.59
743.823	24757.46
744.162	24882.2
744.502	24928.75
744.841	24772.15
745.181	24817.12
745.52	24641.75
745.86	24689.21
746.199	24613.96
746.538	24632.71
746.877	24633.84
747.216	24505.94
747.556	24610.57
747.895	24579.16
748.234	24364.7
748.573	24332.38
748.911	24374.87
749.25	24323.34
749.589	24152.05
749.928	24303.01
750.267	24239.28
750.605	24110.24
750.944	24120.86
751.283	24058.04
751.621	24016.01
751.96	23962.9
752.298	23885.39
752.636	23906.86
752.975	23846.75
753.313	23694.21
753.651	23909.8
753.989	23736.01
754.327	23726.3
754.666	23543.48
755.004	23605.85
755.342	23565.62
755.679	23422.12
756.017	23399.98
756.355	23378.06
756.693	23320.88
757.031	23389.36
