Data from hue_36_FLMS001491_00062.txt Node
Date: Tue Feb 07 17:30:07 GMT 2017
User: dcchb
Spectrometer: FLMS00149
Trigger mode: 0
Integration Time (sec): 2.000000E-2
Scans to average: 10
Electric dark correction enabled: true
Nonlinearity correction enabled: false
Boxcar width: 0
XAxis mode: Wavelengths
Number of Pixels in Spectrum: 2048
>>>>>Begin Spectral Data<<<<<
341.393	-23.43
341.776	-23.43
342.16	-23.43
342.543	-65.24
342.927	-64.56
343.31	-58.91
343.693	-70.44
344.077	-73.15
344.46	-54.39
344.843	-32.02
345.226	-34.28
345.61	-46.03
345.993	-17.56
346.376	-3.55
346.759	4.82
347.142	12.27
347.525	29.67
347.908	55.21
348.291	80.29
348.674	99.05
349.057	108.99
349.44	126.85
349.823	156
350.206	180.18
350.588	188.09
350.971	209.33
351.354	209.33
351.737	231.7
352.119	250.01
352.502	277.35
352.884	277.35
353.267	288.65
353.65	301.76
354.032	297.92
354.414	320.74
354.797	311.7
355.179	321.87
355.562	324.81
355.944	318.71
356.326	331.36
356.709	329.55
357.091	334.98
357.473	351.02
357.855	357.35
358.238	335.66
358.62	339.95
359.002	332.27
359.384	325.71
359.766	339.04
360.148	335.43
360.53	348.31
360.912	344.47
361.294	330.68
361.676	337.24
362.057	314.86
362.439	321.42
362.821	318.48
363.203	334.3
363.584	332.49
363.966	320.74
364.348	331.36
364.729	323
365.111	294.3
365.493	319.38
365.874	320.51
366.256	331.36
366.637	319.61
367.019	308.76
367.4	316.45
367.781	316.22
368.163	322.1
368.544	306.73
368.925	315.77
369.306	303.57
369.688	302.89
370.069	325.49
370.45	324.13
370.831	316.45
371.212	330.46
371.593	318.03
371.974	325.03
372.355	318.48
372.736	318.71
373.117	324.36
373.498	303.79
373.879	300.18
374.26	311.02
374.641	308.54
375.021	317.8
375.402	313.96
375.783	324.81
376.163	329.55
376.544	323.23
376.925	312.83
377.305	356.45
377.686	320.74
378.066	338.59
378.447	325.03
378.827	326.39
379.208	335.66
379.588	309.89
379.968	334.98
380.349	337.01
380.729	342.66
381.109	328.65
381.489	348.99
381.87	348.08
382.25	350.12
382.63	342.66
383.01	357.58
383.39	329.78
383.77	328.2
384.15	357.8
384.53	325.71
384.91	350.8
385.29	351.25
385.67	358.93
386.049	365.26
386.429	340.63
386.809	357.12
387.189	351.25
387.568	357.58
387.948	345.37
388.328	325.71
388.707	365.94
389.087	352.6
389.466	339.27
389.846	365.26
390.225	370.46
390.605	358.03
390.984	358.71
391.363	355.54
391.743	351.47
392.122	354.19
392.501	354.41
392.881	373.17
393.26	360.06
393.639	375.2
394.018	365.71
394.397	366.39
394.776	385.6
395.155	340.17
395.534	375.88
395.913	379.72
396.292	395.77
396.671	377.46
397.05	369.78
397.429	387.63
397.808	384.47
398.186	386.95
398.565	398.7
398.944	363
399.323	366.16
399.701	394.41
400.08	369.78
400.458	368.65
400.837	380.17
401.215	373.62
401.594	382.21
401.972	395.77
402.351	391.02
402.729	421.53
403.107	380.85
403.486	395.99
403.864	399.38
404.242	395.77
404.62	411.59
404.999	420.85
405.377	431.02
405.755	398.48
406.133	414.97
406.511	421.08
406.889	392.38
407.267	423.56
407.645	426.05
408.023	400.96
408.401	412.04
408.779	425.82
409.156	431.7
409.534	419.49
409.912	419.72
410.29	433.96
410.667	430.79
411.045	435.09
411.422	452.71
411.8	441.87
412.178	453.62
412.555	426.5
412.933	451.13
413.31	442.54
413.687	445.03
414.065	481.19
414.442	474.86
414.819	472.6
415.197	478.7
415.574	482.54
415.951	488.87
416.328	473.05
416.705	482.77
417.082	498.14
417.46	483
417.837	482.77
418.214	494.07
418.591	492.49
418.967	482.09
419.344	460.85
419.721	467.85
420.098	481.87
420.475	513.73
420.852	515.09
421.228	512.6
421.605	495.88
421.982	515.99
422.358	542.88
422.735	528.42
423.111	509.21
423.488	508.98
423.864	525.03
424.241	534.52
424.617	530.23
424.994	549.66
425.37	534.29
425.746	551.24
426.123	532.26
426.499	543.11
426.875	545.37
427.251	546.5
427.627	537.46
428.003	558.25
428.379	565.03
428.756	552.15
429.132	579.49
429.507	583.33
429.883	575.87
430.259	599.6
430.635	590.56
431.011	592.82
431.387	563.9
431.763	588.3
432.138	612.03
432.514	585.59
432.89	603.67
433.265	650.9
433.641	624.23
434.016	638.25
434.392	642.31
434.767	629.21
435.143	642.54
435.518	640.05
435.894	642.77
436.269	658.58
436.644	664.69
437.02	644.12
437.395	671.01
437.77	674.4
438.145	671.69
438.52	683.89
438.895	691.8
439.271	697.91
439.646	699.04
440.021	703.1
440.395	678.92
440.77	713.05
441.145	710.33
441.52	717.11
441.895	708.75
442.27	711.46
442.645	717.11
443.019	723.44
443.394	718.24
443.769	719.37
444.143	738.36
444.518	745.81
444.892	732.25
445.267	732.93
445.641	770.22
446.016	753.5
446.39	787.17
446.764	753.95
447.139	774.29
447.513	764.12
447.887	787.39
448.262	774.06
448.636	807.51
449.01	794.4
449.384	809.31
449.758	792.82
450.132	794.17
450.506	797.79
450.88	793.5
451.254	794.63
451.628	819.71
452.002	825.59
452.376	846.83
452.75	831.46
453.123	831.24
453.497	852.7
453.871	867.62
454.244	882.53
454.618	894.74
454.992	860.84
455.365	889.76
455.739	891.57
456.112	872.59
456.486	932.48
456.859	918.24
457.232	938.8
457.606	931.8
457.979	946.03
458.352	953.27
458.725	963.66
459.099	969.54
459.472	983.32
459.845	985.81
460.218	1008.63
460.591	1005.24
460.964	1035.3
461.337	1054.51
461.71	1035.3
462.083	1071.91
462.456	1084.79
462.829	1062.87
463.201	1096.76
463.574	1100.38
463.947	1103.54
464.32	1096.31
464.692	1139.93
465.065	1150.1
465.438	1146.26
465.81	1179.7
466.183	1166.14
466.555	1222.86
466.928	1223.09
467.3	1234.61
467.672	1248.85
468.045	1281.62
468.417	1289.53
468.789	1315.29
469.161	1321.17
469.534	1342.41
469.906	1365.91
470.278	1370.2
470.65	1374.72
471.022	1412.69
471.394	1452.46
471.766	1437.77
472.138	1488.17
472.51	1500.37
472.882	1570.65
473.253	1549.63
473.625	1601.84
473.997	1652.23
474.369	1666.02
474.74	1710.76
475.112	1727.71
475.484	1736.52
475.855	1797.54
476.227	1852.23
476.598	1922.73
476.97	1912.56
477.341	1963.41
477.713	1989.4
478.084	2050.86
478.455	2117.98
478.827	2142.39
479.198	2217.87
479.569	2217.19
479.94	2333.57
480.311	2372.21
480.682	2424.64
481.053	2534.47
481.424	2564.3
481.795	2621.02
482.166	2666.67
482.537	2765.65
482.908	2836.38
483.279	2885.64
483.65	2991.4
484.021	3034.79
484.391	3083.38
484.762	3147.78
485.133	3221.23
485.503	3323.6
485.874	3411.96
486.244	3495.35
486.615	3554.1
486.985	3690.37
487.356	3764.04
487.726	3843.59
488.097	3907.99
488.467	3940.76
488.837	4110.92
489.207	4188.44
489.578	4294.87
489.948	4392.27
490.318	4465.04
490.688	4521.08
491.058	4627.75
491.428	4762.88
491.798	4841.07
492.168	4917.23
492.538	5062.08
492.908	5119.26
493.278	5261.4
493.648	5297.56
494.017	5445.35
494.387	5491
494.757	5552.69
495.126	5684.21
495.496	5758.11
495.866	5862.06
496.235	5956.07
496.605	5983.42
496.974	6111.55
497.344	6234.48
497.713	6287.81
498.082	6367.36
498.452	6410.98
498.821	6558.54
499.19	6545.66
499.559	6728.26
499.928	6772.55
500.298	6817.52
500.667	6901.81
501.036	6965.31
501.405	7029.94
501.774	7053.22
502.143	7175.02
502.512	7248.02
502.88	7292.99
503.249	7331.4
503.618	7498.86
503.987	7527.56
504.356	7551.06
504.724	7687.1
505.093	7790.83
505.462	7784.5
505.83	7862.01
506.199	7944.04
506.567	8115.56
506.936	8107.65
507.304	8186.52
507.672	8259.06
508.041	8303.58
508.409	8420.64
508.777	8473.75
509.145	8480.3
509.514	8540.64
509.882	8564.59
510.25	8683.01
510.618	8770.91
510.986	8773.17
511.354	8858.37
511.722	8973.17
512.09	9053.17
512.458	8998.93
512.826	9090.91
513.193	9128.87
513.561	9140.17
513.929	9223.56
514.297	9330.22
514.664	9427.17
515.032	9432.14
515.4	9561.85
515.767	9564.11
516.135	9598.91
516.502	9625.81
516.869	9723.88
517.237	9793.03
517.604	9830.32
517.972	9870.32
518.339	9951.45
518.706	9965.46
519.073	10026.93
519.44	10121.16
519.808	10213.59
520.175	10147.15
520.542	10314.6
520.909	10382.62
521.276	10365
521.643	10502.39
522.009	10494.26
522.376	10562.96
522.743	10629.17
523.11	10699
523.477	10809.28
523.843	10924.3
524.21	10928.37
524.577	11102.15
524.943	11141.92
525.31	11161.81
525.676	11344.86
526.043	11306.21
526.409	11368.36
526.776	11481.58
527.142	11497.17
527.508	11537.39
527.874	11676.37
528.241	11722.93
528.607	11720.21
528.973	11895.58
529.339	11846.31
529.705	11972.64
530.071	12079.08
530.437	12084.05
530.803	12174.67
531.169	12222.35
531.535	12260.31
531.901	12324.49
532.267	12392.06
532.632	12437.94
532.998	12499.63
533.364	12468.44
533.73	12638.16
534.095	12705.73
534.461	12705.5
534.826	12839.51
535.192	12862.11
535.557	12902.56
535.923	12978.49
536.288	12981.88
536.653	13076.34
537.019	12982.55
537.384	13174.64
537.749	13179.84
538.114	13248.31
538.479	13267.29
538.845	13301.19
539.21	13285.37
539.575	13381.19
539.94	13464.58
540.305	13562.2
540.67	13507.74
541.034	13590.22
541.399	13665.47
541.764	13730.11
542.129	13766.71
542.494	13851.91
542.858	13973.49
543.223	13929.87
543.587	14036.99
543.952	13992.92
544.316	14082.19
544.681	14082.41
545.045	14175.74
545.41	14266.81
545.774	14314.5
546.138	14321.73
546.503	14485.34
546.867	14364.44
547.231	14447.37
547.595	14566.69
547.959	14601.72
548.324	14684.43
548.688	14643.08
549.052	14765.11
549.416	14848.04
549.779	14784.09
550.143	14887.36
550.507	14968.72
550.871	15063.63
551.235	14940.47
551.599	15184.76
551.962	15066.12
552.326	15197.19
552.689	15251.65
553.053	15265.21
553.417	15298.2
553.78	15538.65
554.143	15347.24
554.507	15464.52
554.87	15605.99
555.234	15719.66
555.597	15571.86
555.96	15778.86
556.323	15773.22
556.686	15757.62
557.05	15803.04
557.413	15971.85
557.776	15950.61
558.139	16093.66
558.502	16082.13
558.865	16168.69
559.228	16285.74
559.59	16273.77
559.953	16325.07
560.316	16560.31
560.679	16480.77
561.041	16603.48
561.404	16649.58
561.767	16707.65
562.129	16687.09
562.492	16952.17
562.854	16830.14
563.217	16927.31
563.579	16917.59
563.941	16970.47
564.304	17005.73
564.666	17135.67
565.028	17219.5
565.39	17260.63
565.753	17341.76
566.115	17363.46
566.477	17452.95
566.839	17534.07
567.201	17680.74
567.563	17676.22
567.925	17791.02
568.287	17835.99
568.648	17886.38
569.01	18036.88
569.372	18115.3
569.734	18084.79
570.095	18192.36
570.457	18263.09
570.819	18277.33
571.18	18306.03
571.542	18412.24
571.903	18459.25
572.265	18587.6
572.626	18598
572.987	18684.55
573.349	18800.25
573.71	18818.33
574.071	18917.54
574.432	19134.48
574.794	19314.82
575.155	19271.2
575.516	19271.2
575.877	19473
576.238	19550.74
576.599	19649.05
576.96	19779.21
577.32	19850.62
577.681	20031.86
578.042	20055.36
578.403	20173.33
578.763	20271.4
579.124	20426.2
579.485	20593.2
579.845	20776.47
580.206	20758.17
580.566	21018.5
580.927	21096.92
581.287	21302.56
581.648	21335.1
582.008	21649.22
582.368	21668.65
582.728	21907.74
583.089	22126.04
583.449	22160.84
583.809	22396.09
584.169	22533.26
584.529	22827.72
584.889	23080.59
585.249	23173.7
585.609	23215.51
585.969	23578.89
586.329	23787.24
586.688	24005.09
587.048	24138.19
587.408	24324.18
587.768	24460.9
588.127	24779.98
588.487	24938.85
588.846	25216.36
589.206	25306.52
589.565	25451.6
589.925	25857.7
590.284	26064.24
590.643	26230.57
591.003	26608.86
591.362	26820.83
591.721	27009.08
592.08	27105.57
592.44	27494.04
592.799	27642.28
593.158	27886.57
593.517	28016.74
593.876	28371.75
594.235	28453.56
594.593	28814
594.952	29016.26
595.311	29202.69
595.67	29357.04
596.029	29833.18
596.387	30023.91
596.746	30163.8
597.104	30242.21
597.463	30526.73
597.822	30875.87
598.18	30854.4
598.538	31075.41
598.897	31559.24
599.255	31361.28
599.613	31969.85
599.972	32064.09
600.33	32337.3
600.688	32336.17
601.046	32602.83
601.404	32913.56
601.762	33021.8
602.12	33304.05
602.478	33532.07
602.836	33655.46
603.194	33664.27
603.552	33912.4
603.91	33972.51
604.268	34402.56
604.625	34315.33
604.983	34624.02
605.341	34637.8
605.698	34758.93
606.056	35059.04
606.413	35115.76
606.771	35477.33
607.128	35668.29
607.485	35415.86
607.843	35719.58
608.2	36021.72
608.557	36193.47
608.914	36049.07
609.272	36439.56
609.629	36565.21
609.986	36891.3
610.343	36713.23
610.7	37154.12
611.057	37212.88
611.414	37335.13
611.771	37419.2
612.127	37748.23
612.484	37792.07
612.841	37892.86
613.198	37939.41
613.554	38102.12
613.911	38356.58
614.267	38375.56
614.624	38320.42
614.98	38654.2
615.337	38778.49
615.693	38706.17
616.05	38738.71
616.406	39009.67
616.762	39027.07
617.118	39099.16
617.475	39200.85
617.831	39383.89
618.187	39549.77
618.543	39507.96
618.899	39821.85
619.255	39799.93
619.611	39755.86
619.967	39828.18
620.323	40138
620.678	40007.38
621.034	40084.67
621.39	40029.98
621.746	40158.79
622.101	40594.03
622.457	40345.9
622.812	40450.08
623.168	40649.4
623.523	40610.53
623.879	40835.38
624.234	40576.18
624.589	40801.94
624.945	40945.89
625.3	40922.61
625.655	40909.28
626.01	40934.36
626.365	41046.67
626.72	41045.09
627.075	41149.27
627.43	40993.34
627.785	40942.95
628.14	41174.36
628.495	41136.62
628.85	41015.94
629.205	41080.8
629.559	41343.84
629.914	40964.19
630.269	41162.15
630.623	41113.11
630.978	41186.78
631.332	41364.41
631.687	41351.75
632.041	41260.68
632.396	41349.04
632.75	41172.77
633.104	41382.03
633.459	41078.76
633.813	41171.87
634.167	41261.36
634.521	41084.64
634.875	41142.04
635.229	41214.13
635.583	41088.93
635.937	41120.35
636.291	41109.72
636.645	41115.83
636.999	40924.42
637.352	41235.6
637.706	40921.03
638.06	41120.57
638.413	41028.14
638.767	40878.54
639.121	41050.74
639.474	40802.39
639.828	40831.54
640.181	40988.6
640.534	40916.28
640.888	40879
641.241	40674.03
641.594	40767.59
641.947	40797.42
642.301	40811.88
642.654	40719.23
643.007	40877.64
643.36	40906.57
643.713	40881.48
644.066	40889.16
644.419	40623.64
644.771	40474.94
645.124	40043.31
645.477	40037.21
645.83	39725.35
646.182	39604.68
646.535	39652.59
646.888	39474.29
647.24	39374.4
647.593	39611.46
647.945	39567.84
648.298	39453.72
648.65	39407.17
649.002	39239.94
649.355	39472.25
649.707	39295.76
650.059	39432.03
650.411	39870.89
650.763	40000.37
651.115	40390.42
651.467	40318.33
651.819	40357.88
652.171	40211.67
652.523	40145.46
652.875	40116.08
653.227	39891
653.578	40142.74
653.93	40060.94
654.282	39978
654.633	39860.72
654.985	40009.41
655.337	39886.25
655.688	40060.71
656.039	40004.89
656.391	39809.42
656.742	39909.08
657.094	39803.54
657.445	39960.6
657.796	39898.46
658.147	39903.88
658.498	39798.12
658.849	39984.56
659.2	39728.97
659.551	39726.26
659.902	39899.13
660.253	39820.04
660.604	39848.74
660.955	39615.75
661.306	39825.24
661.656	39626.37
662.007	39758.57
662.358	39794.05
662.708	39742.08
663.059	39820.72
663.409	39523.55
663.76	39823.88
664.11	39764.67
664.461	39709.76
664.811	39788.85
665.161	39815.52
665.511	39654.17
665.862	39635.41
666.212	39800.15
666.562	39807.39
666.912	39644.9
667.262	39541.86
667.612	39692.36
667.962	39699.82
668.312	39510.22
668.662	39832.92
669.011	39639.71
669.361	39503.44
669.711	39657.11
670.06	39454.63
670.41	39493.5
670.76	39322.88
671.109	39459.82
671.459	39445.59
671.808	39433.38
672.157	39590.67
672.507	39247.4
672.856	39370.79
673.205	39281.52
673.554	39413.27
673.904	39334.4
674.253	39330.34
674.602	39319.49
674.951	38769.22
675.3	38570.81
675.649	39282.65
675.998	39379.15
676.346	39356.1
676.695	39383.67
677.044	39051.47
677.393	39215.54
677.741	39201.3
678.09	39175.76
678.438	38997.92
678.787	39161.98
679.135	39055.09
679.484	38888.54
679.832	38945.49
680.181	38817.58
680.529	38962.21
680.877	38800.18
681.225	38720.18
681.573	39001.53
681.922	38651.48
682.27	38681.99
682.618	38708.66
682.966	38376.91
683.314	38566.29
683.661	38548.66
684.009	38227.31
684.357	38268.44
684.705	38147.09
685.053	38255.11
685.4	38112.51
685.748	37996.59
686.095	37992.74
686.443	37850.15
686.79	37669.81
687.138	37980.77
687.485	37847.44
687.832	37704.84
688.18	37723.15
688.527	37477.5
688.874	37657.84
689.221	37415.81
689.568	37372.42
689.915	37203.16
690.262	37295.59
690.609	37185.53
690.956	37106.21
691.303	37090.39
691.65	36807.01
691.997	36982.38
692.344	36665.32
692.69	36620.12
693.037	36749.16
693.383	36350.98
693.73	36392.79
694.077	36224.65
694.423	36295.84
694.769	36169.97
695.116	36090.2
695.462	36125.67
695.808	35955.96
696.155	35990.54
696.501	35649.98
696.847	35719.13
697.193	35474.84
697.539	35639.59
697.885	35380.16
698.231	35423.77
698.577	35286.37
698.923	35200.73
699.269	35067.17
699.614	34894.75
699.96	34840.74
700.306	35083.44
700.651	34704.02
700.997	34610.23
701.342	34573.4
701.688	34514.87
702.033	34396.68
702.379	34389.45
702.724	34367.53
703.069	34425.83
703.415	33921.44
703.76	34050.25
704.105	34086.41
704.45	33969.57
704.795	33859.75
705.14	33706.98
705.485	33754.89
705.83	33509.02
706.175	33576.59
706.52	33446.65
706.865	33320.55
707.209	33285.07
707.554	33179.76
707.899	33377.05
708.243	33057.05
708.588	32953.1
708.932	32787.46
709.277	32784.75
709.621	32849.38
709.966	32612.32
710.31	32643.05
710.654	32377.07
710.998	32525.32
711.342	32448.71
711.687	32319.9
712.031	32161.48
712.375	32134.37
712.719	32190.41
713.063	32040.13
713.407	32189.28
713.75	31872.23
714.094	31863.41
714.438	31771.21
714.782	31908.61
715.125	31722.17
715.469	31760.82
715.812	31573.03
716.156	31421.17
716.499	31428.85
716.843	31418.45
717.186	31192.92
717.53	31387.72
717.873	31427.04
718.216	31328.29
718.559	31000.84
718.902	30868.19
719.246	31049.65
719.589	30866.38
719.932	30746.83
720.275	30875.19
720.617	30716.1
720.96	30683.11
721.303	30723.56
721.646	30631.81
721.989	30561.75
722.331	30595.42
722.674	30419.61
723.016	30379.16
723.359	30419.16
723.701	30482.66
724.044	30337.35
724.386	30178.03
724.729	30249.44
725.071	30186.17
725.413	30198.37
725.755	30060.75
726.097	29977.81
726.439	29920.19
726.782	29942.33
727.124	30094.65
727.465	29845.16
727.807	29831.83
728.149	29780.08
728.491	29732.85
728.833	29719.06
729.175	29520.2
729.516	29535.11
729.858	29483.59
730.199	29555.9
730.541	29449.47
730.882	29304.84
731.224	29494.44
731.565	29237.72
731.906	29338.51
732.248	29370.37
732.589	29213.77
732.93	29089.7
733.271	28951.63
733.612	29071.62
733.953	29089.48
734.294	28841.12
734.635	29012.19
734.976	29009.7
735.317	28760.44
735.658	28719.54
735.999	28741.91
736.339	28828.24
736.68	28749.37
737.021	28677.28
737.361	28443.84
737.702	28691.52
738.042	28596.38
738.383	28570.17
738.723	28533.78
739.063	28376.27
739.404	28518.19
739.744	28338.76
740.084	28261.25
740.424	28239.33
740.764	28227.58
741.104	28356.39
741.444	28177.41
741.784	28073.91
742.124	28043.18
742.464	28047.69
742.804	28049.5
743.143	27932.9
743.483	27977.19
743.823	27805.22
744.162	27788.04
744.502	27803.41
744.841	27591.21
745.181	27804.76
745.52	27623.07
745.86	27679.79
746.199	27582.4
746.538	27557.99
746.877	27548.5
747.216	27539.69
747.556	27457.43
747.895	27366.81
748.234	27321.61
748.573	27271.67
748.911	27243.42
749.25	27227.6
749.589	27094.27
749.928	27195.97
750.267	27223.99
750.605	27024.22
750.944	27133.14
751.283	26939.02
751.621	26942.64
751.96	26893.83
752.298	26992.36
752.636	26872.36
752.975	26701.97
753.313	26614.74
753.651	26820.38
753.989	26519.37
754.327	26562.54
754.666	26393.05
755.004	26492.93
755.342	26568.64
755.679	26307.18
756.017	26192.15
756.355	26254.07
756.693	26205.71
757.031	26167.07
757.368	26083.68
757.706	26046.17
