Data from hue_24_FLMS001491_00028.txt Node
Date: Tue Feb 07 17:12:02 GMT 2017
User: dcchb
Spectrometer: FLMS00149
Trigger mode: 0
Integration Time (sec): 2.000000E-2
Scans to average: 10
Electric dark correction enabled: true
Nonlinearity correction enabled: false
Boxcar width: 0
XAxis mode: Wavelengths
Number of Pixels in Spectrum: 2048
>>>>>Begin Spectral Data<<<<<
341.393	-16.82
341.776	-16.82
342.16	-16.82
342.543	-69.02
342.927	-73.32
343.31	-47.56
343.693	-82.58
344.077	-62.02
344.46	-59.76
344.843	-68.35
345.226	-48.01
345.61	-20.44
345.993	-22.47
346.376	1.93
346.759	-3.04
347.142	29.73
347.525	52.1
347.908	64.53
348.291	62.05
348.674	84.19
349.057	119.67
349.44	131.65
349.823	131.88
350.206	169.61
350.588	202.83
350.971	211.87
351.354	229.05
351.737	244.87
352.119	262.27
352.502	256.84
352.884	259.56
353.267	278.76
353.65	273.57
354.032	293
354.414	326.67
354.797	307.69
355.179	332.1
355.562	333.45
355.944	321.93
356.326	341.14
356.709	332.55
357.091	330.97
357.473	333.23
357.855	349.95
358.238	346.56
358.62	340.23
359.002	339.78
359.384	334.58
359.766	328.03
360.148	345.43
360.53	353.34
360.912	346.11
361.294	351.53
361.676	348.82
362.057	311.08
362.439	329.61
362.821	325.54
363.203	332.55
363.584	323.06
363.966	341.81
364.348	321.25
364.729	307.01
365.111	319.67
365.493	309.72
365.874	302.27
366.256	307.24
366.637	314.47
367.019	314.47
367.4	337.07
367.781	321.25
368.163	291.19
368.544	328.93
368.925	323.51
369.306	333.23
369.688	316.28
370.069	328.25
370.45	327.12
370.831	309.05
371.212	302.72
371.593	305.43
371.974	305.88
372.355	318.31
372.736	326.9
373.117	314.92
373.498	307.46
373.879	302.72
374.26	321.25
374.641	327.58
375.021	317.18
375.402	321.02
375.783	320.57
376.163	323.73
376.544	317.63
376.925	322.83
377.305	318.31
377.686	325.09
378.066	339.55
378.447	336.16
378.827	338.88
379.208	335.03
379.588	337.52
379.968	325.54
380.349	311.53
380.729	329.84
381.109	344.75
381.489	342.27
381.87	328.71
382.25	335.71
382.63	336.84
383.01	361.02
383.39	354.47
383.77	343.39
384.15	353.34
384.53	347.91
384.91	356.05
385.29	321.93
385.67	349.04
386.049	376.39
386.429	354.47
386.809	333.9
387.189	354.24
387.568	358.08
387.948	369.38
388.328	353.34
388.707	361.25
389.087	372.55
389.466	369.16
389.846	368.48
390.225	389.5
390.605	387.91
390.984	377.52
391.363	369.61
391.743	368.25
392.122	382.26
392.501	381.59
392.881	362.83
393.26	377.52
393.639	362.83
394.018	404.41
394.397	386.56
394.776	387.91
395.155	401.25
395.534	371.64
395.913	380.68
396.292	380.91
396.671	403.73
397.05	416.84
397.429	404.18
397.808	415.48
398.186	393.79
398.565	379.55
398.944	389.95
399.323	394.69
399.701	383.85
400.08	373.68
400.458	403.51
400.837	398.53
401.215	405.54
401.594	403.96
401.972	403.05
402.351	412.32
402.729	405.99
403.107	420.23
403.486	420.46
403.864	420
404.242	440.34
404.62	427.69
404.999	419.55
405.377	443.96
405.755	430.17
406.133	438.99
406.511	425.88
406.889	443.28
407.267	436.05
407.645	447.57
408.023	435.14
408.401	455.71
408.779	427.01
409.156	426.56
409.534	452.77
409.912	462.49
410.29	460.68
410.667	467.46
411.045	455.03
411.422	475.14
411.8	471.08
412.178	457.52
412.555	474.01
412.933	488.7
413.31	470.17
413.687	495.03
414.065	493.45
414.442	495.93
414.819	486.89
415.197	485.99
415.574	501.13
415.951	506.33
416.328	515.82
416.705	492.54
417.082	480.34
417.46	495.03
417.837	533.22
418.214	512.43
418.591	517.4
418.967	526.89
419.344	533.67
419.721	520.79
420.098	494.58
420.475	541.81
420.852	539.55
421.228	557.4
421.605	521.7
421.982	536.84
422.358	571.19
422.735	556.5
423.111	564.18
423.488	543.62
423.864	577.97
424.241	569.6
424.617	577.29
424.994	589.04
425.37	561.69
425.746	582.71
426.123	593.56
426.499	574.12
426.875	585.65
427.251	603.05
427.627	613.9
428.003	595.14
428.379	598.3
428.756	631.97
429.132	616.83
429.507	608.92
429.883	638.53
430.259	629.72
430.635	619.55
431.011	632.43
431.387	646.21
431.763	666.78
432.138	667.91
432.514	648.25
432.89	655.7
433.265	689.15
433.641	687.79
434.016	678.08
434.392	670.39
434.767	705.87
435.143	696.38
435.518	691.18
435.894	707.45
436.269	712.88
436.644	724.4
437.02	740.45
437.395	718.3
437.77	723.95
438.145	735.7
438.52	730.28
438.895	747.45
439.271	771.86
439.646	777.28
440.021	775.47
440.395	762.82
440.77	773.67
441.145	798.52
441.52	802.37
441.895	781.8
442.27	793.55
442.645	796.26
443.019	791.07
443.394	795.36
443.769	805.08
444.143	799.88
444.518	809.37
444.892	830.16
445.267	827.68
445.641	821.35
446.016	829.48
446.39	838.75
446.764	867.22
447.139	842.14
447.513	858.86
447.887	863.83
448.262	865.64
448.636	894.11
449.01	893.66
449.384	881.46
449.758	856.38
450.132	891.4
450.506	882.82
450.88	895.7
451.254	908.8
451.628	909.48
452.002	930.05
452.376	919.65
452.75	920.33
453.123	945.86
453.497	960.33
453.871	961.23
454.244	963.04
454.618	991.06
454.992	985.19
455.365	997.16
455.739	1004.62
456.112	1016.37
456.486	995.36
456.859	1026.54
457.232	1058.18
457.606	1055.92
457.979	1030.38
458.352	1084.39
458.725	1079.87
459.099	1093.88
459.472	1073.77
459.845	1111.96
460.218	1124.17
460.591	1169.36
460.964	1151.28
461.337	1163.49
461.71	1166.2
462.083	1187.21
462.456	1193.77
462.829	1198.74
463.201	1225.86
463.574	1230.6
463.947	1228.57
464.32	1277.38
464.692	1270.15
465.065	1260.43
465.438	1304.27
465.81	1330.71
466.183	1338.17
466.555	1363.71
466.928	1371.84
467.3	1365.74
467.672	1375.68
468.045	1413.42
468.417	1411.16
468.789	1434.44
469.161	1422.91
469.534	1488.45
469.906	1495.23
470.278	1516.25
470.65	1524.61
471.022	1561.22
471.394	1588.11
471.766	1606.19
472.138	1634.89
472.51	1661.55
472.882	1663.59
473.253	1706.52
473.625	1713.3
473.997	1738.39
474.369	1771.38
474.74	1804.6
475.112	1828.33
475.484	1875.33
475.855	1839.4
476.227	1903.81
476.598	1956.46
476.97	1984.71
477.341	2046.63
477.713	2055.67
478.084	2087.98
478.455	2111.48
478.827	2168.21
479.198	2207.07
479.569	2235.1
479.94	2327.98
480.311	2323.68
480.682	2360.52
481.053	2448.42
481.424	2481.19
481.795	2500.63
482.166	2558.93
482.537	2588.31
482.908	2616.1
483.279	2672.6
483.65	2705.59
484.021	2761.18
484.391	2824.46
484.762	2866.72
485.133	2909.2
485.503	2946.49
485.874	3008.64
486.244	3080.05
486.615	3127.5
486.985	3151.68
487.356	3241.4
487.726	3257.22
488.097	3364.33
488.467	3367.72
488.837	3506.7
489.207	3458.34
489.578	3512.13
489.948	3581.05
490.318	3607.04
490.688	3652.46
491.058	3761.61
491.428	3776.98
491.798	3808.61
492.168	3861.27
492.538	3930.87
492.908	3956.86
493.278	4038.66
493.648	4041.6
494.017	4156.85
494.387	4154.59
494.757	4204.99
495.126	4251.54
495.496	4276.62
495.866	4313.23
496.235	4389.84
496.605	4407.02
496.974	4427.58
497.344	4470.52
497.713	4564.3
498.082	4547.58
498.452	4616.95
498.821	4634.36
499.19	4631.19
499.559	4703.28
499.928	4718.42
500.298	4743.73
500.667	4825.99
501.036	4841.58
501.405	4846.78
501.774	4853.33
502.143	4905.53
502.512	4907.79
502.88	4963.39
503.249	4920.45
503.618	5003.84
503.987	5065.08
504.356	5095.13
504.724	5112.08
505.093	5149.37
505.462	5172.65
505.83	5177.84
506.199	5213.78
506.567	5309.37
506.936	5238.41
507.304	5317.95
507.672	5362.25
508.041	5387.56
508.409	5478.4
508.777	5465.97
509.145	5482.69
509.514	5524.5
509.882	5534.22
510.25	5602.47
510.618	5568.34
510.986	5652.18
511.354	5627.55
511.722	5695.12
512.09	5696.25
512.458	5739.41
512.826	5724.5
513.193	5783.7
513.561	5804.49
513.929	5843.82
514.297	5911.16
514.664	5917.03
515.032	5876.13
515.4	5973.53
515.767	5982.79
516.135	6004.49
516.502	5996.81
516.869	6078.84
517.237	6122.23
517.604	6045.62
517.972	6090.81
518.339	6128.78
518.706	6136.46
519.073	6155.9
519.44	6227.08
519.808	6301.2
520.175	6224.37
520.542	6298.94
520.909	6320.86
521.276	6351.37
521.643	6441.09
522.009	6454.65
522.376	6479.5
522.743	6533.29
523.11	6544.81
523.477	6594.76
523.843	6629.33
524.21	6697.35
524.577	6702.1
524.943	6762.21
525.31	6783.45
525.676	6837.01
526.043	6820.96
526.409	6853.96
526.776	7017.34
527.142	7007.85
527.508	7051.92
527.874	7100.73
528.241	7126.49
528.607	7173.27
528.973	7226.38
529.339	7163.78
529.705	7271.12
530.071	7315.19
530.437	7328.52
530.803	7326.94
531.169	7408.52
531.535	7394.73
531.901	7415.75
532.267	7443.77
532.632	7542.3
532.998	7531.23
533.364	7633.15
533.73	7690.09
534.095	7702.52
534.461	7742.75
534.826	7729.19
535.192	7810.77
535.557	7882.41
535.923	7836.98
536.288	7803.99
536.653	7940.03
537.019	7839.02
537.384	7957.21
537.749	7990.2
538.114	7975.74
538.479	7973.02
538.845	8036.75
539.21	8010.99
539.575	8073.81
539.94	8135.28
540.305	8191.1
540.67	8242.4
541.034	8225.67
541.399	8253.92
541.764	8325.78
542.129	8295.5
542.494	8444.42
542.858	8392
543.223	8418.21
543.587	8452.33
543.952	8544.76
544.316	8526.46
544.681	8505.89
545.045	8587.7
545.41	8661.14
545.774	8629.96
546.138	8696.62
546.503	8709.95
546.867	8711.31
547.231	8750.63
547.595	8856.39
547.959	8855.94
548.324	8867.01
548.688	8897.97
549.052	8968.93
549.416	8963.06
549.779	8972.77
550.143	9019.78
550.507	9076.72
550.871	9086.22
551.235	9057.29
551.599	9139.1
551.962	9132.54
552.326	9168.93
552.689	9211.86
553.053	9239.66
553.417	9248.7
553.78	9427.9
554.143	9248.25
554.507	9343.61
554.87	9392.87
555.234	9496.6
555.597	9399.2
555.96	9479.2
556.323	9509.26
556.686	9526.66
557.05	9614.79
557.413	9647.56
557.776	9643.04
558.139	9662.92
558.502	9698.18
558.865	9755.35
559.228	9831.28
559.59	9924.39
559.953	9893.88
560.316	9978.17
560.679	9919.87
561.041	10023.37
561.404	10095
561.767	10116.92
562.129	10090.71
562.492	10144.49
562.854	10151.95
563.217	10159.63
563.579	10251.16
563.941	10237.15
564.304	10275.11
564.666	10351.49
565.028	10304.94
565.39	10355.11
565.753	10454.32
566.115	10524.37
566.477	10554.43
566.839	10553.3
567.201	10622.45
567.563	10591.26
567.925	10758.04
568.287	10734.76
568.648	10745.61
569.01	10838.03
569.372	10860.63
569.734	10902.89
570.095	10928.2
570.457	11042.32
570.819	11013.4
571.18	11022.44
571.542	11089.55
571.903	11117.35
572.265	11227.63
572.626	11251.36
572.987	11297.46
573.349	11331.35
573.71	11421.07
574.071	11401.64
574.432	11541.97
574.794	11638.24
575.155	11675.3
575.516	11648.86
575.877	11795.07
576.238	11754.17
576.599	11944.9
576.96	11982.18
577.32	12066.48
577.681	12116.42
578.042	12271.22
578.403	12270.99
578.763	12460.59
579.124	12508.05
579.485	12637.76
579.845	12736.97
580.206	12785.33
580.566	12995.94
580.927	13052.67
581.287	13297.63
581.648	13278.2
582.008	13524.97
582.368	13597.96
582.728	13707.56
583.089	13823.27
583.449	14014.9
583.809	14241.56
584.169	14386.87
584.529	14499.63
584.889	14842.22
585.249	14833.18
585.609	15028.21
585.969	15284.47
586.329	15498.7
586.688	15722.43
587.048	15895.75
587.408	16184.79
587.768	16250.77
588.127	16486.25
588.487	16840.59
588.846	17260.92
589.206	17319.22
589.565	17549.27
589.925	17763.28
590.284	18002.14
590.643	18362.58
591.003	18592.18
591.362	19018.61
591.721	19139.28
592.08	19424.7
592.44	19766.61
592.799	20117.11
593.158	20329.76
593.517	20566.14
593.876	21030.76
594.235	21198.89
594.593	21520.47
594.952	21830.29
595.311	22160.9
595.67	22434.34
596.029	22766.31
596.387	23121.78
596.746	23444.93
597.104	23754.53
597.463	23918.59
597.822	24382.08
598.18	24470.44
598.538	24918.12
598.897	25442.17
599.255	25494.6
599.613	26091.87
599.972	26150.85
600.33	26511.97
600.688	26779.76
601.046	27116.93
601.404	27542.91
601.762	27756.91
602.12	28178.82
602.478	28403.22
602.836	28783.1
603.194	28931.57
603.552	29122.07
603.91	29381.95
604.268	29783.3
604.625	29937.87
604.983	30381.48
605.341	30490.62
605.698	30909.82
606.056	31121.57
606.413	31402.01
606.771	31754.55
607.128	32048.1
607.485	32217.59
607.843	32382.1
608.2	32737.8
608.557	33077.22
608.914	33083.33
609.272	33498
609.629	33750.2
609.986	34229.51
610.343	34229.06
610.7	34598.31
611.057	34702.72
611.414	34949.04
611.771	35210.5
612.127	35540.21
612.484	35602.35
612.841	35990.82
613.198	35976.58
613.554	36146.75
613.911	36499.73
614.267	36837.35
614.624	36764.36
614.98	37033.28
615.337	37398.24
615.693	37453.38
616.05	37693.15
616.406	37925.01
616.762	37841.62
617.118	37961.61
617.475	38155.96
617.831	38416.29
618.187	38611.32
618.543	38805.66
618.899	38996.16
619.255	39069.83
619.611	39122.49
619.967	39378.98
620.323	39695.13
620.678	39493.55
621.034	39609.26
621.39	39736.26
621.746	39849.02
622.101	40326.07
622.457	40123.59
622.812	40247.88
623.168	40557.7
623.523	40570.59
623.879	40775.1
624.234	40655.1
624.589	40832.05
624.945	41032.27
625.3	41134.86
625.655	41003.12
626.01	41158.59
626.365	41371.47
626.72	41213.05
627.075	41406.27
627.43	41475.65
627.785	41356.33
628.14	41566.27
628.495	41731.46
628.85	41780.95
629.205	41547.96
629.559	42015.52
629.914	41782.98
630.269	41812.36
630.623	41719.93
630.978	41773.72
631.332	41947.05
631.687	42175.52
632.041	41976.65
632.396	42150.66
632.75	41968.74
633.104	42198.11
633.459	41952.24
633.813	42007.84
634.167	42115.86
634.521	42055.29
634.875	42211.9
635.229	42205.8
635.583	42183.42
635.937	42110.21
636.291	42097.55
636.645	42006.93
636.999	42123.54
637.352	42192.69
637.706	41866.82
638.06	42286.02
638.413	42070.89
638.767	41982.53
639.121	42242.18
639.474	41920.38
639.828	42022.53
640.181	42136.65
640.534	41985.24
640.888	41999.47
641.241	41846.71
641.594	41886.71
641.947	42240.82
642.301	41986.82
642.654	41983.43
643.007	42029.3
643.36	41994.73
643.713	41915.41
644.066	42091.45
644.419	41888.97
644.771	41726.71
645.124	41323.11
645.477	41241.98
645.83	40971.03
646.182	40892.39
646.535	40919.73
646.888	40844.7
647.24	40679.74
647.593	40868.43
647.945	40853.06
648.298	40597.7
648.65	40647.65
649.002	40566.97
649.355	40738.04
649.707	40616.46
650.059	40820.3
650.411	41356.33
650.763	41317.46
651.115	41798.12
651.467	41613.72
651.819	41566.72
652.171	41511.8
652.523	41510.67
652.875	41467.06
653.227	41291.47
653.578	41664.57
653.93	41549.32
654.282	41410.56
654.633	41236.78
654.985	41403.56
655.337	41321.75
655.688	41407.17
656.039	41606.04
656.391	41201.08
656.742	41206.28
657.094	41375.08
657.445	41392.94
657.796	41384.12
658.147	41277.69
658.498	41230.68
658.849	41234.52
659.2	41173.96
659.551	41201.53
659.902	41411.69
660.253	41207.63
660.604	41186.16
660.955	41193.39
661.306	41265.26
661.656	41241.53
662.007	41174.86
662.358	41269.78
662.708	41233.17
663.059	41172.6
663.409	40962.67
663.76	41296.67
664.11	41272.26
664.461	41295.09
664.811	41298.02
665.161	40985.04
665.511	41261.64
665.862	41094.87
666.212	41288.53
666.562	41304.35
666.912	41048.31
667.262	41038.37
667.612	41138.93
667.962	41168.99
668.312	41077.47
668.662	41259.16
669.011	41162.66
669.361	41045.6
669.711	41106.84
670.06	41045.83
670.41	40987.75
670.76	41050.8
671.109	41153.62
671.459	40885.15
671.808	40890.13
672.157	40938.49
672.507	40794.99
672.856	40827.3
673.205	40874.53
673.554	41053.74
673.904	40860.3
674.253	40982.33
674.602	40842.44
674.951	40306.19
675.3	40144.16
675.649	40876.34
675.998	40613.97
676.346	40783.24
676.695	40774.65
677.044	40488.78
677.393	40628.66
677.741	40748.66
678.09	40641.32
678.438	40530.13
678.787	40503.24
679.135	40675.22
679.484	40373.53
679.832	40437.48
680.181	40302.12
680.529	40362.46
680.877	40309.35
681.225	40246.07
681.573	40383.7
681.922	40211.73
682.27	40170.6
682.618	40230.03
682.966	40049.92
683.314	40019.87
683.661	40008.57
684.009	39797.05
684.357	39795.69
684.705	39788.01
685.053	39596.37
685.4	39647.67
685.748	39456.49
686.095	39517.73
686.443	39420.11
686.79	39343.73
687.138	39385.08
687.485	39410.84
687.832	39136.05
688.18	39221.47
688.527	39007.69
688.874	39102.38
689.221	38880.46
689.568	38908.48
689.915	38730.86
690.262	38784.19
690.609	38637.3
690.956	38473.92
691.303	38414.48
691.65	38299.46
691.997	38297.43
692.344	38110.31
692.69	38036.19
693.037	38145.79
693.383	37824.44
693.73	37889.75
694.077	37738.12
694.423	37664
694.769	37680.72
695.116	37505.36
695.462	37442.98
695.808	37345.59
696.155	37330.22
696.501	37055.65
696.847	37229.2
697.193	36869.44
697.539	37142.2
697.885	36861.98
698.231	36588.09
698.577	36585.15
698.923	36749.9
699.269	36536.79
699.614	36351.04
699.96	36165.96
700.306	36232.62
700.651	36179.74
700.997	35886.87
701.342	36076.92
701.688	35886.19
702.033	35815.23
702.379	35747.66
702.724	35576.14
703.069	35668.79
703.415	35282.14
703.76	35332.31
704.105	35320.33
704.45	35131.63
704.795	35023.61
705.14	34850.51
705.485	35064.74
705.83	34787.69
706.175	34925.08
706.52	34715.6
706.865	34662.04
707.209	34604.87
707.554	34480.12
707.899	34512.21
708.243	34324.2
708.588	34210.98
708.932	34069.51
709.277	34055.5
709.621	34002.17
709.966	33882.4
710.31	33939.57
710.654	33621.39
710.998	33788.62
711.342	33642.41
711.687	33461.39
712.031	33619.13
712.375	33427.5
712.719	33407.38
713.063	33338.46
713.407	33500.72
713.75	33258.46
714.094	33194.96
714.438	33138.24
714.782	33096.88
715.125	33001.29
715.469	33091.46
715.812	32867.51
716.156	32635.88
716.499	32693.73
716.843	32728.08
717.186	32537.58
717.53	32684.92
717.873	32700.51
718.216	32541.42
718.559	32412.16
718.902	32151.37
719.246	32296.23
719.589	32102.33
719.932	32075.44
720.275	32095.78
720.617	32077.48
720.96	31907.08
721.303	31905.5
721.646	31830.48
721.989	31736.69
722.331	31914.09
722.674	31764.94
723.016	31815.11
723.359	31655.11
723.701	31733.76
724.044	31561.33
724.386	31450.37
724.729	31466.64
725.071	31406.08
725.413	31377.83
725.755	31347.33
726.097	31133.55
726.439	31037.5
726.782	31074.34
727.124	31200.44
727.465	30776.72
727.807	30848.36
728.149	30791.63
728.491	30821.69
728.833	30796.61
729.175	30792.76
729.516	30669.15
729.858	30677.29
730.199	30648.81
730.541	30660.79
730.882	30672.77
731.224	30765.87
731.565	30383.28
731.906	30452.66
732.248	30444.07
732.589	30269.39
732.93	30246.34
733.271	30223.97
733.612	30296.73
733.953	30345.09
734.294	30066.68
734.635	30063.07
734.976	30084.76
735.317	30003.41
735.658	29871.66
735.999	29906.91
736.339	29792.56
736.68	30044.31
737.021	29907.36
737.361	29746.69
737.702	29936.29
738.042	29773.13
738.383	29632.34
738.723	29800.47
739.063	29636.86
739.404	29561.38
739.744	29565
740.084	29452.91
740.424	29530.42
740.764	29363.42
741.104	29595.51
741.444	29435.06
741.784	29394.16
742.124	29316.87
742.464	29317.77
742.804	29158.23
743.143	29102.41
743.483	29148.06
743.823	29049.08
744.162	29003.21
744.502	29100.83
744.841	28916.2
745.181	29082.3
745.52	28926.37
745.86	28841.4
746.199	28792.36
746.538	28826.71
746.877	28892.93
747.216	28956.65
747.556	28798.92
747.895	28745.36
748.234	28613.16
748.573	28537.46
748.911	28528.64
749.25	28547.17
749.589	28365.71
749.928	28414.97
750.267	28446.84
750.605	28336.33
750.944	28320.51
751.283	28242.77
751.621	28181.76
751.96	27970.69
752.298	28081.65
752.636	28158.03
752.975	27924.36
753.313	27942.67
753.651	27960.75
753.989	27938.6
754.327	27849.79
754.666	27627.2
755.004	27693.64
755.342	27726.63
755.679	27706.07
756.017	27576.58
756.355	27655.67
756.693	27412.29
757.031	27538.84
757.368	27306.75
757.706	27273.53
758.044	27327.77
758.381	27204.38
758.719	27204.16
759.056	27240.54
759.394	26948.12
