Data from hue_70_FLMS001491_87.txt Node
Date: Mon Feb 06 15:21:34 GMT 2017
User: dcchb
Spectrometer: FLMS00149
Trigger mode: 0
Integration Time (sec): 2.000000E-2
Scans to average: 10
Electric dark correction enabled: true
Nonlinearity correction enabled: false
Boxcar width: 0
XAxis mode: Wavelengths
Number of Pixels in Spectrum: 2048
>>>>>Begin Spectral Data<<<<<
341.393	1.58
341.776	1.58
342.16	1.58
342.543	-59.89
342.927	-59.66
343.31	-64.63
343.693	-47.91
344.077	-80.9
344.46	-77.51
344.843	-46.33
345.226	-32.09
345.61	-30.06
345.993	-29.6
346.376	6.1
346.759	11.75
347.142	16.04
347.525	54.24
347.908	61.02
348.291	63.73
348.674	88.81
349.057	107.34
349.44	107.57
349.823	139.43
350.206	143.27
350.588	191.86
350.971	193.89
351.354	229.37
351.737	225.98
352.119	232.54
352.502	270.28
352.884	279.99
353.267	285.42
353.65	274.34
354.032	310.95
354.414	295.59
354.797	312.53
355.179	319.31
355.562	312.76
355.944	324.29
356.326	310.5
356.709	335.58
357.091	337.84
357.473	336.49
357.855	336.71
358.238	356.6
358.62	326.09
359.002	342.82
359.384	349.14
359.766	347.34
360.148	333.32
360.53	340.56
360.912	343.27
361.294	337.84
361.676	341.69
362.057	344.4
362.439	318.41
362.821	324.74
363.203	302.14
363.584	331.06
363.966	328.13
364.348	321.8
364.729	335.13
365.111	329.26
365.493	308.24
365.874	311.18
366.256	317.05
366.637	321.57
367.019	325.87
367.4	309.82
367.781	316.15
368.163	303.27
368.544	333.1
368.925	320.9
369.306	340.33
369.688	297.85
370.069	288.13
370.45	308.92
370.831	313.21
371.212	322.48
371.593	318.86
371.974	310.05
372.355	329.26
372.736	312.08
373.117	306.43
373.498	304.4
373.879	322.25
374.26	324.06
374.641	311.86
375.021	302.59
375.402	297.17
375.783	310.5
376.163	303.72
376.544	307.34
376.925	356.83
377.305	322.93
377.686	321.35
378.066	325.42
378.447	333.32
378.827	332.42
379.208	310.05
379.588	306.43
379.968	333.1
380.349	329.93
380.729	315.92
381.109	334
381.489	337.17
381.87	330.39
382.25	341.46
382.63	338.07
383.01	318.41
383.39	333.32
383.77	329.71
384.15	329.03
384.53	338.3
384.91	355.02
385.29	350.95
385.67	324.74
386.049	331.74
386.429	327.9
386.809	345.3
387.189	346.43
387.568	347.11
387.948	349.6
388.328	372.65
388.707	354.34
389.087	363.38
389.466	361.57
389.846	354.34
390.225	367.9
390.605	367.22
390.984	348.01
391.363	385.3
391.743	343.49
392.122	361.35
392.501	352.76
392.881	366.54
393.26	377.84
393.639	367.22
394.018	393.66
394.397	366.32
394.776	366.09
395.155	371.74
395.534	351.86
395.913	379.88
396.292	387.56
396.671	394.57
397.05	361.57
397.429	376.71
397.808	368.13
398.186	379.2
398.565	383.27
398.944	369.48
399.323	396.83
399.701	379.43
400.08	389.82
400.458	392.98
400.837	398.18
401.215	392.76
401.594	391.63
401.972	398.18
402.351	376.49
402.729	392.53
403.107	390.72
403.486	402.02
403.864	386.43
404.242	386.2
404.62	393.21
404.999	393.89
405.377	404.28
405.755	413.55
406.133	392.08
406.511	412.19
406.889	397.96
407.267	419.88
407.645	428.92
408.023	416.49
408.401	412.19
408.779	434.11
409.156	423.72
409.534	421.46
409.912	412.64
410.29	438.41
410.667	446.09
411.045	441.57
411.422	426.88
411.8	463.49
412.178	446.32
412.555	471.4
412.933	453.55
413.31	463.49
413.687	477.28
414.065	456.49
414.442	453.32
414.819	466.2
415.197	454
415.574	486.54
415.951	491.74
416.328	480.44
416.705	488.57
417.082	470.27
417.46	471.85
417.837	493.77
418.214	486.54
418.591	500.55
418.967	491.51
419.344	479.54
419.721	505.07
420.098	507.33
420.475	505.98
420.852	515.47
421.228	511.62
421.605	496.26
421.982	503.04
422.358	515.47
422.735	497.84
423.111	524.51
423.488	517.73
423.864	548.91
424.241	526.77
424.617	517.73
424.994	550.27
425.37	528.57
425.746	556.37
426.123	552.08
426.499	537.39
426.875	548.46
427.251	559.08
427.627	567.44
428.003	556.37
428.379	563.15
428.756	562.47
429.132	559.99
429.507	589.14
429.883	599.53
430.259	606.76
430.635	590.49
431.011	609.48
431.387	608.57
431.763	619.19
432.138	621.45
432.514	623.26
432.89	624.16
433.265	633.66
433.641	653.09
434.016	626.2
434.392	639.08
434.767	667.33
435.143	638.85
435.518	665.97
435.894	670.04
436.269	675.91
436.644	671.17
437.02	688.8
437.395	679.3
437.77	682.24
438.145	668.91
438.52	681.79
438.895	698.29
439.271	708.23
439.646	677.04
440.021	710.72
440.395	715.24
440.77	701.22
441.145	732.64
441.52	706.42
441.895	724.5
442.27	757.27
442.645	736.7
443.019	750.04
443.394	729.02
443.769	767.21
444.143	765.63
444.518	761.56
444.892	753.65
445.267	731.51
445.641	752.75
446.016	783.93
446.39	812.18
446.764	783.93
447.139	787.55
447.513	811.73
447.887	805.18
448.262	810.6
448.636	813.31
449.01	814.22
449.384	807.89
449.758	824.61
450.132	821.45
450.506	821.9
450.88	841.56
451.254	839.98
451.628	837.72
452.002	844.5
452.376	886.08
452.75	871.39
453.123	883.59
453.497	856.25
453.871	872.52
454.244	916.13
454.618	907.77
454.992	931.5
455.365	919.75
455.739	936.47
456.112	933.31
456.486	945.96
456.859	960.65
457.232	955.91
457.606	957.26
457.979	977.15
458.352	1006.98
458.725	1004.72
459.099	989.58
459.472	1030.03
459.845	1064.83
460.218	1045.62
460.591	1046.3
460.964	1084.94
461.337	1093.08
461.71	1109.12
462.083	1114.77
462.456	1125.85
462.829	1115.9
463.201	1150.03
463.574	1138.5
463.947	1172.17
464.32	1199.52
464.692	1204.04
465.065	1238.16
465.438	1213.98
465.81	1270.48
466.183	1293.75
466.555	1322.9
466.928	1331.49
467.3	1332.17
467.672	1320.64
468.045	1369.91
468.417	1371.26
468.789	1429.57
469.161	1430.7
469.534	1460.75
469.906	1471.6
470.278	1495.1
470.65	1540.98
471.022	1560.18
471.394	1610.81
471.766	1612.16
472.138	1639.5
472.51	1683.8
472.882	1702.1
473.253	1754.53
473.625	1803.79
473.997	1825.04
474.369	1857.13
474.74	1893.74
475.112	1950.68
475.484	1990.91
475.855	2032.49
476.227	2088.98
476.598	2124.01
476.97	2191.13
477.341	2254.18
477.713	2300.05
478.084	2315.87
478.455	2399.26
478.827	2505.02
479.198	2574.85
479.569	2621.85
479.94	2674.51
480.311	2765.35
480.682	2882.86
481.053	2945.46
481.424	3057.77
481.795	3092.12
482.166	3181.84
482.537	3285.34
482.908	3393.36
483.279	3476.52
483.65	3566.01
484.021	3707.47
484.391	3785.66
484.762	3875.83
485.133	3961.03
485.503	4055.26
485.874	4256.39
486.244	4319.89
486.615	4420.67
486.985	4563.72
487.356	4713.1
487.726	4829.93
488.097	4982.47
488.467	5025.18
488.837	5248.45
489.207	5369.58
489.578	5467.43
489.948	5639.63
490.318	5756.68
490.688	5892.05
491.058	6033.06
491.428	6185.15
491.798	6390.34
492.168	6620.39
492.538	6652.03
492.908	6778.8
493.278	6975.18
493.648	7046.82
494.017	7243.65
494.387	7382.4
494.757	7564.32
495.126	7687.93
495.496	7786.46
495.866	7909.17
496.235	8080.92
496.605	8299.67
496.974	8399.78
497.344	8570.85
497.713	8637.29
498.082	8906.21
498.452	9096.48
498.821	9154.79
499.19	9237.5
499.559	9438.4
499.928	9543.03
500.298	9761.78
500.667	9862.34
501.036	9921.77
501.405	10126.74
501.774	10204.7
502.143	10279.28
502.512	10487.86
502.88	10606.27
503.249	10716.55
503.618	10797.46
503.987	10963.33
504.356	11123.55
504.724	11222.08
505.093	11302.98
505.462	11418.91
505.83	11519.7
506.199	11682.18
506.567	11965.34
506.936	11943.64
507.304	12111.32
507.672	12178.44
508.041	12336.85
508.409	12540.24
508.777	12580.46
509.145	12769.38
509.514	12814.8
509.882	12916.95
510.25	13012.99
510.618	13121.91
510.986	13180.9
511.354	13391.06
511.722	13517.38
512.09	13652.52
512.458	13709.24
512.826	13890.93
513.193	13932.06
513.561	14078.95
513.929	14230.81
514.297	14280.3
514.664	14443.91
515.032	14443.01
515.4	14584.7
515.767	14703.57
516.135	14699.27
516.502	14756.67
516.869	14980.17
517.237	15056.78
517.604	15058.81
517.972	15237.34
518.339	15347.85
518.706	15309.65
519.073	15454.06
519.44	15510.78
519.808	15775.86
520.175	15707.84
520.542	15891.56
520.909	16027.38
521.276	16093.81
521.643	16231.44
522.009	16365.22
522.376	16442.73
522.743	16522.28
523.11	16664.65
523.477	16823.29
523.843	16881.59
524.21	17097.4
524.577	17176.72
524.943	17157.06
525.31	17270.51
525.676	17527.9
526.043	17508.69
526.409	17578.29
526.776	17791.62
527.142	17718.18
527.508	17885.41
527.874	18015.12
528.241	18050.37
528.607	18126.3
528.973	18212.63
529.339	18191.16
529.705	18460.98
530.071	18527.2
530.437	18548.66
530.803	18626.18
531.169	18597.7
531.535	18662.56
531.901	18771.94
532.267	18844.48
532.632	18942.78
532.998	18975.09
533.364	19070.69
533.73	19062.55
534.095	19247.86
534.461	19201.75
534.826	19260.74
535.192	19318.59
535.557	19547.73
535.923	19434.74
536.288	19465.7
536.653	19505.48
537.019	19407.85
537.384	19543.67
537.749	19635.42
538.114	19580.95
538.479	19604
538.845	19633.16
539.21	19646.49
539.575	19641.97
539.94	19732.14
540.305	19804.68
540.67	19741.85
541.034	19949.53
541.399	19881.29
541.764	19878.8
542.129	19876.31
542.494	19901.4
542.858	19949.53
543.223	19953.15
543.587	20119.92
543.952	20083.09
544.316	20048.06
544.681	20027.72
545.045	20090.55
545.41	20159.24
545.774	20183.2
546.138	20204.67
546.503	20117.21
546.867	20276.53
547.231	20352.91
547.595	20269.3
547.959	20314.04
548.324	20333.93
548.688	20227.72
549.052	20345.68
549.416	20345.45
549.779	20378.67
550.143	20276.53
550.507	20504.55
550.871	20536.18
551.235	20499.8
551.599	20616.18
551.962	20640.59
552.326	20624.54
552.689	20672
553.053	20591.77
553.417	20667.48
553.78	20796.29
554.143	20679.91
554.507	20822.5
554.87	20842.62
555.234	20965.78
555.597	20871.99
555.96	20984.76
556.323	21025.89
556.686	21010.07
557.05	21162.38
557.413	21023.85
557.776	21139.78
558.139	21216.62
558.502	21245.54
558.865	21202.38
559.228	21452.09
559.59	21435.37
559.953	21337.29
560.316	21687.57
560.679	21791.29
561.041	21660.9
561.404	21817.73
561.767	21784.29
562.129	21715.14
562.492	21968.69
562.854	21885.75
563.217	21946.77
563.579	21942.25
563.941	22120.77
564.304	22180.66
564.666	22178.17
565.028	22191.05
565.39	22339.98
565.753	22398.96
566.115	22449.13
566.477	22452.52
566.839	22409.58
567.201	22712.62
567.563	22610.48
567.925	22794.2
568.287	22744.71
568.648	22813.64
569.01	22910.58
569.372	23216.11
569.734	23039.17
570.095	23203.46
570.457	23200.75
570.819	23229.45
571.18	23243.46
571.542	23396.67
571.903	23336.79
572.265	23424.69
572.626	23494.52
572.987	23540.85
573.349	23631.24
573.71	23701.75
574.071	23581.3
574.432	23738.13
574.794	23949.88
575.155	23884.12
575.516	23811.58
575.877	23828.98
576.238	23948.75
576.599	23945.36
576.96	24159.14
577.32	23977.67
577.681	24083.43
578.042	24154.85
578.403	24013.38
578.763	24258.8
579.124	24143.77
579.485	24249.98
579.845	24294.73
580.206	24109.2
580.566	24216.54
580.927	24199.36
581.287	24348.29
581.648	24206.6
582.008	24377.89
582.368	24320.94
582.728	24322.52
583.089	24221.28
583.449	24340.83
583.809	24378.79
584.169	24377.21
584.529	24258.8
584.889	24462.86
585.249	24237.1
585.609	24229.19
585.969	24361.62
586.329	24328.4
586.688	24457.21
587.048	24362.52
587.408	24266.71
587.768	24271.68
588.127	24312.36
588.487	24237.1
588.846	24447.72
589.206	24209.53
589.565	24277.78
589.925	24351
590.284	24285.24
590.643	24292.02
591.003	24412.24
591.362	24404.78
591.721	24208.4
592.08	24392.58
592.44	24526.13
592.799	24361.85
593.158	24285.01
593.517	24338.57
593.876	24495.18
594.235	24510.09
594.593	24418.12
594.952	24455.4
595.311	24282.53
595.67	24431.22
596.029	24551.22
596.387	24486.81
596.746	24526.13
597.104	24402.75
597.463	24424.67
597.822	24472.12
598.18	24450.2
598.538	24459.24
598.897	24478.68
599.255	24340.38
599.613	24691.33
599.972	24493.14
600.33	24493.14
600.688	24545.57
601.046	24518.68
601.404	24818.33
601.762	24600.94
602.12	24722.06
602.478	24825.56
602.836	24701.72
603.194	24557.32
603.552	24725.23
603.91	24562.52
604.268	24684.1
604.625	24642.97
604.983	24753.47
605.341	24583.99
605.698	24829.86
606.056	24882.96
606.413	24705.11
606.771	24950.98
607.128	24839.12
607.485	24744.43
607.843	24802.51
608.2	24877.99
608.557	24903.53
608.914	24953.24
609.272	24953.69
609.629	25161.15
609.986	25232.33
610.343	25022.17
610.7	25320.46
611.057	25212.22
611.414	25218.77
611.771	25227.81
612.127	25292.67
612.484	25276.62
612.841	25339.22
613.198	25310.29
613.554	25276.4
613.911	25425.09
614.267	25583.06
614.624	25399.11
614.98	25481.82
615.337	25677.97
615.693	25631.19
616.05	25595.71
616.406	25683.39
616.762	25585.54
617.118	25644.3
617.475	25600.68
617.831	25645.2
618.187	25790.73
618.543	25876.61
618.899	26008.13
619.255	25925.65
619.611	25814.46
619.967	25854.69
620.323	26078.86
620.678	25937.17
621.034	25834.35
621.39	25903.27
621.746	25860.56
622.101	26197.05
622.457	26005.42
622.812	26012.65
623.168	26063.5
623.523	26155.47
623.879	26203.6
624.234	25972.2
624.589	26111.86
624.945	26163.15
625.3	26157.5
625.655	26156.6
626.01	26156.15
626.365	26085.42
626.72	26240.67
627.075	26255.35
627.43	26080.9
627.785	26183.49
628.14	26174.23
628.495	26174.9
628.85	26211.29
629.205	26030.28
629.559	26222.36
629.914	26089.03
630.269	26048.58
630.623	26076.83
630.978	25955.25
631.332	26207.67
631.687	26114.34
632.041	25912.99
632.396	26187.11
632.75	26119.31
633.104	26019.2
633.459	25814.01
633.813	26014.01
634.167	25885.65
634.521	26035.93
634.875	25959.77
635.229	25899.43
635.583	25721.13
635.937	25825.99
636.291	25768.36
636.645	25679.1
636.999	25803.39
637.352	25743.5
637.706	25609.95
638.06	25775.82
638.413	25646.33
638.767	25633.22
639.121	25551.87
639.474	25463.74
639.828	25581.93
640.181	25572.43
640.534	25550.51
640.888	25328.6
641.241	25385.77
641.594	25376.06
641.947	25446.34
642.301	25495.83
642.654	25514.81
643.007	25443.62
643.36	25421.03
643.713	25292.44
644.066	25443.4
644.419	25289.28
644.771	25065.1
645.124	24855.84
645.477	24870.76
645.83	24769.52
646.182	24622.63
646.535	24550.54
646.888	24546.47
647.24	24458.57
647.593	24731.33
647.945	24584.44
648.298	24462.63
648.65	24331.34
649.002	24348.74
649.355	24484.33
649.707	24454.27
650.059	24509.86
650.411	24769.97
650.763	24737.88
651.115	25091.09
651.467	25029.4
651.819	24946.91
652.171	24859.69
652.523	24927.71
652.875	24935.84
653.227	24743.76
653.578	25002.73
653.93	24889.74
654.282	24779.69
654.633	24777.88
654.985	24832.34
655.337	24893.81
655.688	24886.58
656.039	25036.18
656.391	24778.11
656.742	24873.24
657.094	24884.32
657.445	24925.45
657.796	24896.29
658.147	24870.31
658.498	24828.05
658.849	24871.66
659.2	24912.34
659.551	24846.13
659.902	24854.94
660.253	24943.52
660.604	24947.82
660.955	24797.77
661.306	24895.16
661.656	24809.74
662.007	24800.93
662.358	24860.59
662.708	24921.38
663.059	24861.49
663.409	24747.6
663.76	24833.7
664.11	24899.23
664.461	24981.72
664.811	24892.9
665.161	24991.89
665.511	24812.91
665.862	24973.35
666.212	24905.33
666.562	24945.56
666.912	24777.65
667.262	24780.37
667.612	24717.09
667.962	24908.72
668.312	24844.09
668.662	24935.16
669.011	24834.15
669.361	24842.51
669.711	24910.08
670.06	24783.3
670.41	24689.07
670.76	24611.33
671.109	24777.65
671.459	24724.77
671.808	24605.68
672.157	24784.89
672.507	24506.02
672.856	24653.82
673.205	24652.69
673.554	24637.54
673.904	24654.49
674.253	24768.39
674.602	24679.13
674.951	24337.67
675.3	23994.17
675.649	24549.86
675.998	24495.63
676.346	24502.18
676.695	24569.3
677.044	24371.11
677.393	24372.47
677.741	24491.33
678.09	24355.29
678.438	24387.61
678.787	24373.37
679.135	24416.08
679.484	24151
679.832	24266.03
680.181	24214.05
680.529	24267.61
680.877	24225.13
681.225	24096.54
681.573	24288.85
681.922	24024.23
682.27	23984.91
682.618	24029.2
682.966	23887.73
683.314	24048.18
683.661	23925.92
684.009	23803.22
684.357	23716.89
684.705	23615.42
685.053	23748.98
685.4	23781.3
685.748	23645.03
686.095	23591.92
686.443	23508.53
686.79	23525.94
687.138	23549.89
687.485	23417.92
687.832	23428.08
688.18	23436.22
688.527	23241.65
688.874	23228.77
689.221	23145.15
689.568	23198.26
689.915	23127.98
690.262	23138.6
690.609	23068.77
690.956	22846.4
691.303	22951.94
691.65	22784.03
691.997	22857.25
692.344	22646.18
692.69	22668.33
693.037	22594.89
693.383	22401.9
693.73	22533.87
694.077	22253.2
694.423	22296.14
694.769	22339.75
695.116	22244.61
695.462	22105.41
695.808	22033.54
696.155	22104.28
696.501	21984.05
696.847	21949.25
697.193	21723.72
697.539	21795.59
697.885	21644.4
698.231	21502.03
698.577	21573.67
698.923	21485.54
699.269	21360.34
699.614	21224.75
699.96	21159.44
700.306	21203.51
700.651	21075.83
700.997	21101.59
701.342	21010.3
701.688	20954.48
702.033	20853.24
702.379	20908.15
702.724	20733.01
703.069	20801.71
703.415	20537.99
703.76	20533.92
704.105	20537.09
704.45	20489.63
704.795	20469.97
705.14	20279.69
705.485	20350.43
705.83	20237.43
706.175	20130.54
706.52	20149.3
706.865	20022.3
707.209	19988.63
707.554	20027.72
707.899	19964.22
708.243	19900.72
708.588	19859.82
708.932	19669.77
709.277	19856.43
709.621	19758.8
709.966	19696.66
710.31	19677.22
710.654	19406.95
710.998	19538.02
711.342	19501.18
711.687	19447.4
712.031	19340.06
712.375	19251.7
712.719	19242.21
713.063	19270
713.407	19344.8
713.75	19178.25
714.094	19140.29
714.438	19087.41
714.782	19067.07
715.125	18969.9
715.469	19041.53
715.812	18844.48
716.156	18778.04
716.499	18820.97
716.843	18795.44
717.186	18726.06
717.53	18731.94
717.873	18773.52
718.216	18726.97
718.559	18657.14
718.902	18611.26
719.246	18586.4
719.589	18605.61
719.932	18452.85
720.275	18503.47
720.617	18404.94
720.96	18311.38
721.303	18471.15
721.646	18370.59
721.989	18258.73
722.331	18303.25
722.674	18329.01
723.016	18274.55
723.359	18291.27
723.701	18309.35
724.044	18117.49
724.386	18087.43
724.729	18162.69
725.071	18138.28
725.413	18129.47
725.755	18055.57
726.097	18112.29
726.439	17928.57
726.782	17921.34
727.124	18034.78
727.465	17861.45
727.807	17912.52
728.149	17932.18
728.491	17814.67
728.833	17900.32
729.175	17877.5
729.516	17806.76
729.858	17721.34
730.199	17835.46
730.541	17750.49
730.882	17708.69
731.224	17685.64
731.565	17706.43
731.906	17698.07
732.248	17664.85
732.589	17543.49
732.93	17614
733.271	17632.98
733.612	17723.15
733.953	17579.42
734.294	17477.96
734.635	17584.85
734.976	17552.31
735.317	17481.8
735.658	17520.9
735.999	17655.81
736.339	17490.16
736.68	17559.31
737.021	17396.38
737.361	17451.74
737.702	17529.48
738.042	17449.26
738.383	17495.59
738.723	17476.83
739.063	17394.57
739.404	17426.66
739.744	17449.03
740.084	17449.26
740.424	17468.02
740.764	17364.74
741.104	17461.46
741.444	17418.98
741.784	17472.99
742.124	17361.8
742.464	17516.38
742.804	17410.39
743.143	17493.55
743.483	17411.07
743.823	17403.16
744.162	17397.96
744.502	17510.05
744.841	17507.79
745.181	17586.88
745.52	17452.65
745.86	17562.02
746.199	17574.45
746.538	17568.35
746.877	17674.34
747.216	17636.37
747.556	17722.02
747.895	17719.08
748.234	17739.42
748.573	17696.71
748.911	17856.48
749.25	17744.39
749.589	17763.83
749.928	17889.02
750.267	17903.94
750.605	17918.4
750.944	17979.19
751.283	18040.66
751.621	18111.39
751.96	18163.59
752.298	18206.3
752.636	18219.18
752.975	18229.58
753.313	18339.86
753.651	18456.24
753.989	18433.41
754.327	18359.97
754.666	18416.24
755.004	18555.9
755.342	18623.69
755.679	18704.14
756.017	18631.37
756.355	18860.97
756.693	18803.57
757.031	18997.69
