Data from hue_70_FLMS001491_45.txt Node
Date: Mon Feb 06 15:20:58 GMT 2017
User: dcchb
Spectrometer: FLMS00149
Trigger mode: 0
Integration Time (sec): 2.000000E-2
Scans to average: 10
Electric dark correction enabled: true
Nonlinearity correction enabled: false
Boxcar width: 0
XAxis mode: Wavelengths
Number of Pixels in Spectrum: 2048
>>>>>Begin Spectral Data<<<<<
341.393	-2.18
341.776	-2.18
342.16	-2.18
342.543	-66.58
342.927	-78.11
343.31	-72
343.693	-74.94
344.077	-51.89
344.46	-55.06
344.843	-62.96
345.226	-35.17
345.61	-14.6
345.993	-14.15
346.376	-7.6
346.759	-4.89
347.142	16.58
347.525	55
347.908	47.09
348.291	58.61
348.674	97.94
349.057	118.05
349.44	123.25
349.823	147.2
350.206	173.19
350.588	173.19
350.971	201.44
351.354	230.14
351.737	224.03
352.119	244.82
352.502	264.03
352.884	274.2
353.267	281.89
353.65	280.76
354.032	285.95
354.414	298.38
354.797	306.97
355.179	318.04
355.562	320.98
355.944	338.38
356.326	344.03
356.709	344.03
357.091	336.35
357.473	351.26
357.855	321.43
358.238	344.93
358.62	335.9
359.002	334.31
359.384	337.25
359.766	351.26
360.148	337.48
360.53	332.73
360.912	329.12
361.294	336.8
361.676	325.5
362.057	306.97
362.439	330.47
362.821	319.85
363.203	319.17
363.584	327.76
363.966	313.75
364.348	306.74
364.729	308.55
365.111	316.46
365.493	315.78
365.874	314.2
366.256	285.73
366.637	301.09
367.019	310.59
367.4	348.32
367.781	315.1
368.163	323.24
368.544	310.13
368.925	312.39
369.306	331.38
369.688	316.23
370.069	311.94
370.45	288.44
370.831	303.81
371.212	294.54
371.593	314.65
371.974	292.51
372.355	289.12
372.736	304.94
373.117	290.02
373.498	325.05
373.879	326.86
374.26	309.46
374.641	318.27
375.021	283.24
375.402	308.33
375.783	330.25
376.163	333.18
376.544	326.86
376.925	316.23
377.305	339.06
377.686	302.9
378.066	306.29
378.447	312.39
378.827	327.31
379.208	320.75
379.588	316.69
379.968	338.15
380.349	314.65
380.729	341.77
381.109	305.39
381.489	324.37
381.87	324.82
382.25	352.84
382.63	347.65
383.01	339.51
383.39	348.32
383.77	334.31
384.15	332.96
384.53	332.51
384.91	325.05
385.29	350.81
385.67	345.39
386.049	361.66
386.429	316.91
386.809	334.09
387.189	344.93
387.568	337.7
387.948	350.13
388.328	358.49
388.707	360.53
389.087	354.65
389.466	362.79
389.846	341.54
390.225	362.79
390.605	352.62
390.984	360.53
391.363	357.36
391.743	362.11
392.122	373.18
392.501	379.06
392.881	363.01
393.26	367.76
393.639	348.32
394.018	369.11
394.397	357.59
394.776	386.52
395.155	371.15
395.534	352.62
395.913	386.06
396.292	389.45
396.671	374.31
397.05	370.47
397.429	365.72
397.808	382.22
398.186	391.03
398.565	400.98
398.944	382.22
399.323	366.63
399.701	372.96
400.08	391.94
400.458	387.87
400.837	390.58
401.215	403.24
401.594	385.61
401.972	394.2
402.351	404.82
402.729	398.04
403.107	391.71
403.486	394.88
403.864	388.78
404.242	394.65
404.62	388.1
404.999	391.94
405.377	412.5
405.755	394.42
406.133	389.45
406.511	400.3
406.889	423.58
407.267	419.96
407.645	422.67
408.023	405.05
408.401	434.65
408.779	416.8
409.156	425.38
409.534	431.71
409.912	417.7
410.29	410.47
410.667	413.41
411.045	445.95
411.422	424.71
411.8	437.59
412.178	473.07
412.555	451.37
412.933	446.17
413.31	426.74
413.687	448.21
414.065	455.67
414.442	464.93
414.819	465.61
415.197	457.25
415.574	483.46
415.951	451.82
416.328	486.4
416.705	466.29
417.082	480.98
417.46	475.1
417.837	483.91
418.214	482.78
418.591	499.96
418.967	464.93
419.344	491.15
419.721	495.21
420.098	481.2
420.475	489.11
420.852	493.63
421.228	513.07
421.605	506.06
421.982	486.85
422.358	498.6
422.735	524.14
423.111	500.18
423.488	537.25
423.864	516.68
424.241	514.2
424.617	526.85
424.994	525.27
425.37	542.67
425.746	532.5
426.123	539.73
426.499	546.96
426.875	540.64
427.251	549.67
427.627	520.98
428.003	542.22
428.379	564.14
428.756	575.66
429.132	562.56
429.507	548.09
429.883	561.2
430.259	582.22
430.635	583.12
431.011	578.6
431.387	591.93
431.763	605.04
432.138	606.85
432.514	591.71
432.89	603.46
433.265	621.99
433.641	603.46
434.016	624.93
434.392	622.89
434.767	632.16
435.143	636
435.518	653.63
435.894	644.81
436.269	632.61
436.644	661.76
437.02	655.43
437.395	626.96
437.77	666.06
438.145	666.73
438.52	681.87
438.895	694.98
439.271	687.75
439.646	707.64
440.021	703.12
440.395	718.94
440.77	683.68
441.145	699.95
441.52	709.9
441.895	718.71
442.27	731.59
442.645	729.56
443.019	740.63
443.394	739.27
443.769	727.75
444.143	731.82
444.518	725.26
444.892	759.84
445.267	740.18
445.641	759.16
446.016	760.52
446.39	752.16
446.764	767.75
447.139	760.74
447.513	763.68
447.887	768.88
448.262	773.85
448.636	779.27
449.01	771.59
449.384	819.95
449.758	778.82
450.132	810.68
450.506	809.1
450.88	830.12
451.254	823.79
451.628	837.58
452.002	837.12
452.376	851.36
452.75	846.16
453.123	842.55
453.497	881.64
453.871	852.49
454.244	879.38
454.618	886.62
454.992	887.29
455.365	893.39
455.739	920.06
456.112	918.25
456.486	926.16
456.859	942.21
457.232	957.35
457.606	957.35
457.979	960.06
458.352	975.65
458.725	970
459.099	1005.48
459.472	1014.3
459.845	1024.24
460.218	1006.84
460.591	1033.28
460.964	1029.21
461.337	1043.67
461.71	1062.2
462.083	1103.33
462.456	1103.11
462.829	1096.1
463.201	1122.77
463.574	1121.41
463.947	1182.43
464.32	1193.95
464.692	1184.91
465.065	1179.26
465.438	1207.06
465.81	1206.83
466.183	1246.38
466.555	1258.13
466.928	1281.86
467.3	1276.21
467.672	1323.67
468.045	1316.66
468.417	1347.39
468.789	1369.54
469.161	1371.35
469.534	1420.84
469.906	1436.43
470.278	1470.33
470.65	1502.19
471.022	1540.38
471.394	1541.74
471.766	1564.11
472.138	1585.58
472.51	1647.27
472.882	1665.8
473.253	1685.46
473.625	1703.09
473.997	1780.15
474.369	1809.08
474.74	1857.66
475.112	1868.96
475.484	1934.05
475.855	1974.72
476.227	2029.86
476.598	2053.14
476.97	2085.68
477.341	2164.1
477.713	2228.5
478.084	2246.35
478.455	2342.17
478.827	2393.24
479.198	2478.21
479.569	2516.18
479.94	2615.16
480.311	2662.61
480.682	2742.39
481.053	2808.6
481.424	2906.67
481.795	2994.58
482.166	3075.26
482.537	3130.62
482.908	3252.88
483.279	3318.64
483.65	3438.86
484.021	3566.54
484.391	3631.18
484.762	3746.2
485.133	3820.32
485.503	3899.19
485.874	4055.12
486.244	4099.19
486.615	4215.12
486.985	4363.13
487.356	4496.24
487.726	4545.5
488.097	4702.33
488.467	4848.32
488.837	5005.38
489.207	5091.93
489.578	5306.61
489.948	5299.83
490.318	5507.28
490.688	5579.37
491.058	5738.01
491.428	5882.19
491.798	6058.68
492.168	6154.5
492.538	6275.4
492.908	6481.72
493.278	6543.87
493.648	6711.77
494.017	6823.63
494.387	7020.01
494.757	7195.83
495.126	7254.36
495.496	7341.13
495.866	7487.35
496.235	7697.28
496.605	7867
496.974	7969.37
497.344	8093.43
497.713	8245.29
498.082	8314.67
498.452	8537.71
498.821	8641.89
499.19	8761.21
499.559	8833.07
499.928	8989.45
500.298	9153.52
500.667	9222.44
501.036	9231.93
501.405	9497.01
501.774	9539.95
502.143	9771.81
502.512	9778.13
502.88	9996.66
503.249	10114.62
503.618	10242.3
503.987	10278.23
504.356	10313.94
504.724	10559.13
505.093	10646.36
505.462	10723.19
505.83	10868.95
506.199	11027.59
506.567	11135.16
506.936	11234.82
507.304	11371.09
507.672	11460.8
508.041	11574.47
508.409	11705.99
508.777	11725.65
509.145	11927.23
509.514	12001.13
509.882	12087.22
510.25	12173.1
510.618	12267.33
510.986	12434.79
511.354	12569.02
511.722	12671.39
512.09	12794.32
512.458	12867.54
512.826	12904.6
513.193	13001.1
513.561	13052.17
513.929	13203.13
514.297	13351.37
514.664	13459.39
515.032	13467.08
515.4	13667.97
515.767	13703
516.135	13836.78
516.502	13766.95
516.869	14036.78
517.237	14053.73
517.604	13947.29
517.972	14184.12
518.339	14285.36
518.706	14386.6
519.073	14445.35
519.44	14513.15
519.808	14684.9
520.175	14688.74
520.542	14851.45
520.909	14895.06
521.276	14935.96
521.643	15157.43
522.009	15283.52
522.376	15225.9
522.743	15368.72
523.11	15415.72
523.477	15658.66
523.843	15681.93
524.21	15925.54
524.577	15955.82
524.943	16009.83
525.31	16112.66
525.676	16208.47
526.043	16272.65
526.409	16377.28
526.776	16502.7
527.142	16578.18
527.508	16627.44
527.874	16702.47
528.241	16759.64
528.607	16841
528.973	16987.66
529.339	16957.38
529.705	17095.23
530.071	17197.6
530.437	17318.27
530.803	17313.3
531.169	17404.6
531.535	17374.32
531.901	17434.2
532.267	17476.24
532.632	17563.24
532.998	17585.39
533.364	17646.63
533.73	17686.85
534.095	17841.2
534.461	17833.51
534.826	17899.73
535.192	17872.16
535.557	18011.59
535.923	18036.67
536.288	18000.74
536.653	18040.06
537.019	17990.57
537.384	18023.34
537.749	18102.89
538.114	18134.98
538.479	18182.43
538.845	18321.18
539.21	18181.3
539.575	18273.95
539.94	18330.22
540.305	18403.89
540.67	18343.56
541.034	18359.15
541.399	18362.09
541.764	18381.3
542.129	18483.67
542.494	18394.4
542.858	18574.51
543.223	18456.77
543.587	18638.24
543.952	18539.26
544.316	18583.32
544.681	18459.26
545.045	18529.77
545.41	18579.94
545.774	18595.75
546.138	18692.25
546.503	18811.34
546.867	18690.67
547.231	18760.04
547.595	18803.88
547.959	18752.59
548.324	18774.05
548.688	18887.27
549.052	18842.98
549.416	18849.53
549.779	18808.86
550.143	18870.32
550.507	18953.48
550.871	19039.36
551.235	19006.36
551.599	19032.58
551.962	19095.18
552.326	19014.73
552.689	19101.96
553.053	19033.71
553.417	19086.36
553.78	19316.19
554.143	19116.19
554.507	19210.43
554.87	19205.91
555.234	19385.79
555.597	19305.11
555.96	19283.65
556.323	19344.21
556.686	19335.4
557.05	19505.56
557.413	19454.94
557.776	19581.72
558.139	19640.92
558.502	19608.61
558.865	19640.7
559.228	19767.25
559.59	19699.45
559.953	19884.08
560.316	19883.63
560.679	19874.14
561.041	19982.38
561.404	19902.61
561.767	20124.75
562.129	20009.28
562.492	20188.71
562.854	20171.76
563.217	20243.39
563.579	20299.89
563.941	20379.66
564.304	20437.06
564.666	20539.21
565.028	20498.53
565.39	20522.93
565.753	20555.93
566.115	20699.43
566.477	20728.13
566.839	20723.83
567.201	20859.88
567.563	20911.17
567.925	20939.42
568.287	21015.8
568.648	21039.76
569.01	21108
569.372	21092.86
569.734	21159.53
570.095	21256.25
570.457	21369.47
570.819	21385.74
571.18	21280.88
571.542	21479.29
571.903	21419.63
572.265	21638.61
572.626	21521.1
572.987	21534.43
573.349	21613.08
573.71	21619.4
574.071	21844.71
574.432	21783.47
574.794	21934.65
575.155	21788.89
575.516	21810.13
575.877	21877.93
576.238	21912.73
576.599	22032.27
576.96	22024.36
577.32	22060.3
577.681	22129.22
578.042	22120.63
578.403	22174.42
578.763	22117.7
579.124	22158.82
579.485	22281.53
579.845	22305.94
580.206	22217.13
580.566	22255.54
580.927	22213.29
581.287	22352.72
581.648	22283.57
582.008	22450.79
582.368	22381.42
582.728	22306.62
583.089	22353.62
583.449	22306.84
583.809	22286.73
584.169	22352.49
584.529	22322.44
584.889	22488.08
585.249	22371.25
585.609	22266.39
585.969	22366.95
586.329	22252.38
586.688	22252.38
587.048	22317.01
587.408	22345.71
587.768	22341.87
588.127	22336.67
588.487	22311.14
588.846	22395.43
589.206	22247.18
589.565	22354.3
589.925	22437.69
590.284	22280.4
590.643	22276.11
591.003	22329.89
591.362	22468.65
591.721	22292.38
592.08	22445.82
592.44	22391.13
592.799	22442.66
593.158	22358.14
593.517	22410.34
593.876	22287.86
594.235	22253.96
594.593	22394.07
594.952	22398.82
595.311	22232.95
595.67	22362.43
596.029	22540.74
596.387	22408.76
596.746	22528.98
597.104	22437.01
597.463	22394.3
597.822	22590.9
598.18	22451.25
598.538	22380.06
598.897	22561.53
599.255	22377.12
599.613	22611.02
599.972	22454.41
600.33	22514.07
600.688	22463.45
601.046	22497.57
601.404	22559.27
601.762	22596.78
602.12	22623.44
602.478	22671.13
602.836	22554.29
603.194	22560.17
603.552	22600.62
603.91	22463.22
604.268	22623.67
604.625	22423.22
604.983	22576.44
605.341	22485.82
605.698	22660.28
606.056	22735.53
606.413	22653.27
606.771	22806.72
607.128	22799.49
607.485	22664.8
607.843	22748.41
608.2	22827.51
608.557	22961.06
608.914	22836.77
609.272	23049.87
609.629	22924.23
609.986	23033.38
610.343	22930.78
610.7	23118.12
611.057	23082.87
611.414	23058.91
611.771	23178.91
612.127	23232.69
612.484	23159.93
612.841	23275.18
613.198	23163.32
613.554	23325.8
613.911	23321.05
614.267	23363.76
614.624	23168.74
614.98	23326.25
615.337	23469.52
615.693	23493.25
616.05	23312.47
616.406	23634.94
616.762	23481.73
617.118	23603.98
617.475	23488.51
617.831	23665.9
618.187	23642.17
618.543	23640.14
618.899	23728.5
619.255	23683.3
619.611	23681.95
619.967	23789.06
620.323	23780.93
620.678	23676.75
621.034	23634.49
621.39	23664.55
621.746	23681.04
622.101	23835.16
622.457	23748.84
622.812	23708.16
623.168	23867.03
623.523	23967.82
623.879	23843.75
624.234	23745
624.589	23945.44
624.945	23871.55
625.3	23933.92
625.655	23947.25
626.01	23875.39
626.365	23883.98
626.72	23880.36
627.075	23957.87
627.43	23961.26
627.785	23801.04
628.14	23839.46
628.495	23960.36
628.85	23855.73
629.205	23829.29
629.559	23944.99
629.914	23851.21
630.269	23812.57
630.623	23787.48
630.978	23826.12
631.332	23824.77
631.687	23890.53
632.041	23877.87
632.396	23804.43
632.75	23818.44
633.104	23773.92
633.459	23714.26
633.813	23739.8
634.167	23639.46
634.521	23744.55
634.875	23756.07
635.229	23671.78
635.583	23570.31
635.937	23504.55
636.291	23513.59
636.645	23524.89
636.999	23445.12
637.352	23580.03
637.706	23395.18
638.06	23489.18
638.413	23453.71
638.767	23394.05
639.121	23398.34
639.474	23274.05
639.828	23338
640.181	23288.06
640.534	23347.49
640.888	23231.56
641.241	23143.21
641.594	23228.4
641.947	23217.78
642.301	23192.7
642.654	23214.39
643.007	23314.05
643.36	23227.27
643.713	23093.94
644.066	23161.06
644.419	23139.59
644.771	22901.86
645.124	22749.77
645.477	22674.74
645.83	22666.38
646.182	22505.48
646.535	22423.22
646.888	22517.01
647.24	22360.4
647.593	22367.41
647.945	22398.14
648.298	22382.55
648.65	22313.4
649.002	22265.49
649.355	22414.18
649.707	22311.14
650.059	22421.42
650.411	22752.93
650.763	22669.32
651.115	23034.28
651.467	22863.89
651.819	22846.72
652.171	22842.87
652.523	22801.75
652.875	22753.84
653.227	22638.36
653.578	22918.8
653.93	22757.68
654.282	22755.87
654.633	22664.57
654.985	22842.42
655.337	22785.7
655.688	22722.65
656.039	22843.33
656.391	22641.98
656.742	22674.52
657.094	22823.44
657.445	22717.68
657.796	22745.7
658.147	22709.32
658.498	22714.29
658.849	22820.73
659.2	22739.6
659.551	22734.18
659.902	22777.11
660.253	22656.44
660.604	22755.87
660.955	22637
661.306	22777.34
661.656	22660.51
662.007	22659.83
662.358	22702.09
662.708	22661.86
663.059	22686.04
663.409	22497.8
663.76	22827.96
664.11	22816.66
664.461	22641.98
664.811	22713.16
665.161	22707.06
665.511	22650.56
665.862	22743.67
666.212	22699.37
666.562	22733.05
666.912	22692.37
667.262	22732.14
667.612	22739.15
667.962	22754.29
668.312	22742.99
668.662	22851.46
669.011	22774.4
669.361	22784.57
669.711	22742.76
670.06	22679.49
670.41	22576.21
670.76	22586.16
671.109	22672.03
671.459	22660.05
671.808	22704.12
672.157	22653.95
672.507	22576.21
672.856	22531.7
673.205	22527.4
673.554	22599.04
673.904	22560.4
674.253	22645.59
674.602	22515.88
674.951	22251.48
675.3	21979.39
675.649	22414.41
675.998	22366.5
676.346	22389.33
676.695	22510
677.044	22319.05
677.393	22377.58
677.741	22373.73
678.09	22385.94
678.438	22312.49
678.787	22256.45
679.135	22348.65
679.484	22131.93
679.832	22227.3
680.181	22175.55
680.529	22157.47
680.877	22123.8
681.225	21981.65
681.573	22198.15
681.922	21966.74
682.27	21936.23
682.618	21929.23
682.966	21877.48
683.314	21952.28
683.661	21859.62
684.009	21866.63
684.357	21765.16
684.705	21714.32
685.053	21697.14
685.4	21677.93
685.748	21486.98
686.095	21544.83
686.443	21427.54
686.79	21456.47
687.138	21439.3
687.485	21517.03
687.832	21348.68
688.18	21361.56
688.527	21195.01
688.874	21198.17
689.221	21170.6
689.568	21097.61
689.915	21070.94
690.262	21091.51
690.609	20997.72
690.956	20921.79
691.303	20826.2
691.65	20776.04
691.997	20738.07
692.344	20725.19
692.69	20665.76
693.037	20541.92
693.383	20468.7
693.73	20514.8
694.077	20398.19
694.423	20332.88
694.769	20301.25
695.116	20225.54
695.462	20214.92
695.808	20133.34
696.155	20187.8
696.501	20047.47
696.847	19978.99
697.193	19919.34
697.539	19954.14
697.885	19749.17
698.231	19609.06
698.577	19726.57
698.923	19629.4
699.269	19510.76
699.614	19477.31
699.96	19482.74
700.306	19342.4
700.651	19238
700.997	19087.72
701.342	19192.8
701.688	19157.55
702.033	19061.05
702.379	19010.43
702.724	19035.06
703.069	19013.37
703.415	18668.29
703.76	18834.62
704.105	18716.2
704.45	18666.94
704.795	18532.93
705.14	18528.64
705.485	18453.16
705.83	18456.32
706.175	18468.98
706.52	18403.67
706.865	18330.68
707.209	18305.37
707.554	18181.98
707.899	18163.45
708.243	18085.26
708.588	18089.1
708.932	17968.88
709.277	17989.22
709.621	17920.07
709.966	17810.01
710.31	17808.43
710.654	17758.49
710.998	17748.77
711.342	17768.88
711.687	17727.75
712.031	17682.78
712.375	17574.09
712.719	17607.76
713.063	17477.14
713.407	17549.23
713.75	17447.31
714.094	17389.68
714.438	17368.67
714.782	17394.43
715.125	17356.24
715.469	17328.89
715.812	17244.38
716.156	17055.68
716.499	17125.74
716.843	17193.98
717.186	17187.88
717.53	17193.98
717.873	17115.11
718.216	16975.23
718.559	16983.37
718.902	16825.63
719.246	16916.7
719.589	16848
719.932	16811.85
720.275	16820.66
720.617	16822.69
720.96	16799.64
721.303	16773.88
721.646	16751.51
721.989	16671.06
722.331	16692.53
722.674	16681.23
723.016	16689.36
723.359	16669.93
723.701	16703.83
724.044	16530.05
724.386	16518.75
724.729	16565.3
725.071	16520.78
725.413	16582.02
725.755	16422.48
726.097	16402.82
726.439	16323.95
726.782	16311.75
727.124	16413.44
727.465	16346.55
727.807	16329.82
728.149	16329.15
728.491	16297.51
728.833	16290.96
729.175	16234.01
729.516	16182.03
729.858	16170.51
730.199	16246.66
730.541	16225.87
730.882	16127.12
731.224	16286.66
731.565	16114.69
731.906	16128.25
732.248	16155.37
732.589	16091.64
732.93	16021.81
733.271	16068.36
733.612	16076.5
733.953	16098.19
734.294	16011.42
734.635	15976.39
734.976	16002.83
735.317	15988.36
735.658	16027.91
735.999	15984.52
736.339	15901.59
736.68	16021.58
737.021	15961.92
737.361	15909.95
737.702	16009.61
738.042	16004.64
738.383	15965.77
738.723	16028.36
739.063	16001.92
739.404	15950.17
739.744	15938.42
740.084	15836.05
740.424	15984.07
740.764	15991.75
741.104	16020.23
741.444	15891.64
741.784	15913.79
742.124	16008.93
742.464	15969.83
742.804	15894.36
743.143	15988.36
743.483	16038.31
743.823	15964.41
744.162	16006.9
744.502	16023.62
744.841	15940.23
745.181	16113.33
745.52	16105.65
745.86	16074.46
746.199	16052.77
746.538	16134.8
746.877	16145.87
747.216	16239.21
747.556	16132.99
747.895	16173.22
748.234	16196.72
748.573	16239.43
748.911	16282.37
749.25	16387.22
749.589	16285.76
749.928	16398.3
750.267	16493.66
750.605	16425.19
750.944	16577.95
751.283	16563.72
751.621	16693.88
751.96	16540.89
752.298	16714.9
752.636	16798.51
752.975	16681.45
753.313	16794.22
753.651	16979.53
753.989	16920.54
754.327	17078.96
754.666	17071.95
755.004	17166.19
755.342	17204.83
755.679	17251.61
756.017	17310.14
756.355	17522.11
756.693	17479.17
757.031	17617.93
