Data from hue_310_FLMS001491_49.txt Node
Date: Mon Feb 06 15:49:45 GMT 2017
User: dcchb
Spectrometer: FLMS00149
Trigger mode: 0
Integration Time (sec): 2.000000E-2
Scans to average: 10
Electric dark correction enabled: true
Nonlinearity correction enabled: false
Boxcar width: 0
XAxis mode: Wavelengths
Number of Pixels in Spectrum: 2048
>>>>>Begin Spectral Data<<<<<
341.393	-8.28
341.776	-8.28
342.16	-8.28
342.543	-60.48
342.927	-66.13
343.31	-56.18
343.693	-81.27
344.077	-78.33
344.46	-75.17
344.843	-67.48
345.226	-46.69
345.61	-21.38
345.993	-10.31
346.376	-9.41
346.759	20.2
347.142	36.69
347.525	51.61
347.908	57.71
348.291	84.83
348.674	88.9
349.057	106.3
349.44	129.35
349.823	127.31
350.206	149.91
350.588	193.98
350.971	189.01
351.354	217.48
351.737	240.08
352.119	227.65
352.502	259.74
352.884	261.55
353.267	273.98
353.65	290.47
354.032	299.96
354.414	313.75
354.797	325.95
355.179	327.08
355.562	309.46
355.944	319.85
356.326	323.92
356.709	341.77
357.091	317.82
357.473	346.29
357.855	332.28
358.238	318.04
358.62	339.96
359.002	332.05
359.384	324.14
359.766	334.09
360.148	327.99
360.53	330.92
360.912	341.77
361.294	319.17
361.676	340.87
362.057	315.78
362.439	309.91
362.821	334.77
363.203	310.13
363.584	339.28
363.966	318.27
364.348	309.23
364.729	302.22
365.111	315.56
365.493	328.21
365.874	302.9
366.256	326.18
366.637	309.23
367.019	312.17
367.4	317.36
367.781	321.43
368.163	297.7
368.544	316.69
368.925	308.1
369.306	314.43
369.688	314.2
370.069	315.33
370.45	309.23
370.831	274.43
371.212	315.1
371.593	315.56
371.974	297.25
372.355	302
372.736	323.47
373.117	307.2
373.498	302.22
373.879	319.85
374.26	309.68
374.641	318.27
375.021	305.84
375.402	324.6
375.783	331.83
376.163	310.81
376.544	325.27
376.925	325.05
377.305	306.52
377.686	338.38
378.066	332.28
378.447	328.89
378.827	317.36
379.208	318.49
379.588	319.62
379.968	347.42
380.349	320.98
380.729	353.3
381.109	321.43
381.489	335.67
381.87	315.1
382.25	338.83
382.63	313.3
383.01	333.64
383.39	334.31
383.77	334.31
384.15	358.72
384.53	352.84
384.91	329.12
385.29	344.71
385.67	356.23
386.049	354.2
386.429	334.31
386.809	348.55
387.189	349
387.568	340.87
387.948	342.22
388.328	352.62
388.707	378.83
389.087	336.8
389.466	357.59
389.846	342.67
390.225	372.5
390.605	372.05
390.984	348.1
391.363	356.46
391.743	381.77
392.122	348.55
392.501	351.71
392.881	350.58
393.26	378.83
393.639	355.1
394.018	370.24
394.397	358.49
394.776	367.31
395.155	388.55
395.534	393.75
395.913	374.31
396.292	366.4
396.671	378.15
397.05	374.54
397.429	387.19
397.808	404.37
398.186	398.49
398.565	389
398.944	374.54
399.323	380.41
399.701	393.29
400.08	400.98
400.458	379.06
400.837	406.85
401.215	398.94
401.594	389
401.972	424.03
402.351	405.05
402.729	405.27
403.107	385.39
403.486	415.89
403.864	389
404.242	409.11
404.62	426.97
404.999	437.59
405.377	431.71
405.755	439.62
406.133	431.03
406.511	429.23
406.889	420.19
407.267	455.44
407.645	448.21
408.023	447.53
408.401	463.8
408.779	456.34
409.156	467.64
409.534	480.07
409.912	470.35
410.29	487.08
410.667	517.13
411.045	492.95
411.422	479.62
411.8	490.24
412.178	503.35
412.555	490.02
412.933	534.31
413.31	526.62
413.687	531.82
414.065	557.13
414.442	542.44
414.819	578.6
415.197	547.19
415.574	600.52
415.951	562.56
416.328	579.96
416.705	610.24
417.082	592.84
417.46	601.65
417.837	618.15
418.214	631.71
418.591	623.57
418.967	633.97
419.344	645.27
419.721	650.92
420.098	659.05
420.475	670.12
420.852	666.51
421.228	687.98
421.605	699.28
421.982	670.35
422.358	700.18
422.735	705.83
423.111	715.09
423.488	715.77
423.864	731.36
424.241	723.23
424.617	763
424.994	773.85
425.37	735.66
425.746	744.25
426.123	790.12
426.499	765.94
426.875	816.79
427.251	804.81
427.627	811.14
428.003	824.92
428.379	802.32
428.756	850.91
429.132	860.63
429.507	837.35
429.883	880.97
430.259	876.9
430.635	893.85
431.011	869.21
431.387	906.05
431.763	916.67
432.138	914.86
432.514	936.78
432.89	940.62
433.265	981.98
433.641	979.04
434.016	984.01
434.392	997.35
434.767	1013.62
435.143	995.31
435.518	1010.23
435.894	1024.92
436.269	1033.96
436.644	1037.35
437.02	1048.87
437.395	1089.1
437.77	1072.15
438.145	1101.98
438.52	1090
438.895	1104.91
439.271	1116.67
439.646	1150.34
440.021	1132.71
440.395	1139.72
440.77	1119.38
441.145	1158.25
441.52	1176.1
441.895	1168.87
442.27	1166.38
442.645	1185.36
443.019	1186.04
443.394	1206.15
443.769	1181.07
444.143	1179.04
444.518	1193.27
444.892	1215.65
445.267	1211.13
445.641	1219.26
446.016	1189.43
446.39	1219.04
446.764	1238.24
447.139	1234.85
447.513	1271.92
447.887	1247.06
448.262	1250.22
448.636	1223.78
449.01	1265.59
449.384	1293.61
449.758	1298.13
450.132	1295.42
450.506	1269.43
450.88	1296.77
451.254	1300.16
451.628	1308.3
452.002	1321.63
452.376	1312.59
452.75	1316.21
453.123	1343.33
453.497	1348.52
453.871	1327.51
454.244	1359.37
454.618	1379.94
454.992	1378.81
455.365	1371.8
455.739	1418.13
456.112	1414.74
456.486	1419.03
456.859	1424.23
457.232	1448.86
457.606	1444.34
457.979	1412.03
458.352	1473.72
458.725	1476.66
459.099	1480.05
459.472	1511.46
459.845	1524.79
460.218	1491.8
460.591	1506.94
460.964	1511.46
461.337	1559.14
461.71	1567.05
462.083	1607.95
462.456	1581.06
462.829	1603.21
463.201	1603.66
463.574	1607.27
463.947	1607.73
464.32	1657.44
464.692	1654.28
465.065	1656.54
465.438	1675.52
465.81	1700.15
466.183	1701.06
466.555	1706.03
466.928	1773.15
467.3	1723.88
467.672	1727.5
468.045	1797.1
468.417	1785.57
468.789	1785.12
469.161	1818.34
469.534	1818.57
469.906	1882.75
470.278	1878.91
470.65	1851.79
471.022	1907.15
471.394	1901.05
471.766	1960.49
472.138	1934.72
472.51	1982.63
472.882	1999.81
473.253	1998.45
473.625	2044.55
473.997	2049.3
474.369	2067.83
474.74	2070.09
475.112	2092.23
475.484	2125.23
475.855	2147.37
476.227	2168.39
476.598	2203.87
476.97	2223.76
477.341	2256.52
477.713	2243.42
478.084	2257.43
478.455	2307.14
478.827	2331.32
479.198	2375.84
479.569	2392.56
479.94	2436.18
480.311	2422.85
480.682	2470.98
481.053	2506.01
481.424	2520.02
481.795	2543.07
482.166	2541.49
482.537	2547.81
482.908	2609.73
483.279	2647.02
483.65	2681.82
484.021	2719.34
484.391	2713.69
484.762	2734.25
485.133	2763.63
485.503	2794.81
485.874	2863.74
486.244	2860.57
486.615	2907.35
486.985	2909.84
487.356	2932.21
487.726	2937.18
488.097	3043.85
488.467	3013.11
488.837	3054.47
489.207	3110.96
489.578	3130.62
489.948	3129.49
490.318	3138.53
490.688	3226.67
491.058	3217.18
491.428	3245.2
491.798	3242.94
492.168	3346.44
492.538	3326.55
492.908	3329.94
493.278	3348.47
493.648	3388.92
494.017	3394.35
494.387	3470.28
494.757	3436.15
495.126	3488.58
495.496	3482.93
495.866	3506.66
496.235	3525.87
496.605	3549.14
496.974	3565.19
497.344	3578.75
497.713	3625.98
498.082	3611.52
498.452	3643.15
498.821	3687.67
499.19	3656.71
499.559	3700.1
499.928	3718.18
500.298	3743.94
500.667	3741.68
501.036	3710.72
501.405	3751.4
501.774	3750.27
502.143	3798.4
502.512	3814.67
502.88	3806.09
503.249	3829.14
503.618	3814.9
503.987	3870.94
504.356	3866.2
504.724	3859.87
505.093	3876.59
505.462	3867.33
505.83	3963.14
506.199	3974.22
506.567	3983.71
506.936	3988.68
507.304	4046.31
507.672	4028.68
508.041	3971.51
508.409	4012.41
508.777	4054.89
509.145	4058.28
509.514	4022.58
509.882	4096.02
510.25	4054.89
510.618	4066.19
510.986	4100.77
511.354	4115.46
511.722	4139.64
512.09	4178.51
512.458	4129.02
512.826	4239.07
513.193	4213.76
513.561	4223.25
513.929	4259.86
514.297	4279.52
514.664	4238.17
515.032	4263.48
515.4	4302.34
515.767	4315.45
516.135	4308.45
516.502	4284.94
516.869	4367.2
517.237	4313.87
517.604	4293.31
517.972	4351.83
518.339	4390.93
518.706	4380.53
519.073	4370.59
519.44	4386.64
519.808	4401.78
520.175	4430.02
520.542	4418.73
520.909	4448.56
521.276	4463.02
521.643	4507.99
522.009	4477.48
522.376	4539.17
522.743	4525.39
523.11	4543.02
523.477	4604.71
523.843	4582.34
524.21	4601.09
524.577	4661.66
524.943	4655.78
525.31	4653.3
525.676	4667.98
526.043	4682.22
526.409	4739.85
526.776	4759.96
527.142	4797.25
527.508	4777.36
527.874	4841.31
528.241	4840.64
528.607	4854.87
528.973	4934.64
529.339	4882.89
529.705	4943.23
530.071	4966.06
530.437	4991.59
530.803	5029.11
531.169	5023.46
531.535	5037.92
531.901	5000.41
532.267	5068.43
532.632	5071.36
532.998	5098.26
533.364	5116.79
533.73	5148.65
534.095	5194.07
534.461	5190
534.826	5241.08
535.192	5206.73
535.557	5291.02
535.923	5314.07
536.288	5250.34
536.653	5334.63
537.019	5365.37
537.384	5331.92
537.749	5386.16
538.114	5376.21
538.479	5421.86
538.845	5412.6
539.21	5399.49
539.575	5442.2
539.94	5497.79
540.305	5481.07
540.67	5535.53
541.034	5549.32
541.399	5545.93
541.764	5564.01
542.129	5600.62
542.494	5644
542.858	5667.28
543.223	5658.47
543.587	5725.58
543.952	5715.64
544.316	5735.53
544.681	5796.09
545.045	5825.92
545.41	5778.92
545.774	5854.62
546.138	5892.13
546.503	5866.37
546.867	5859.82
547.231	5986.82
547.595	5935.07
547.959	5994.5
548.324	5964.67
548.688	5986.37
549.052	6041.73
549.416	6042.41
549.779	6037.21
550.143	6066.82
550.507	6136.65
550.871	6182.07
551.235	6127.61
551.599	6166.25
551.962	6181.39
552.326	6216.42
552.689	6250.54
553.053	6215.74
553.417	6240.6
553.78	6328.96
554.143	6323.08
554.507	6269.75
554.87	6360.14
555.234	6393.14
555.597	6347.71
555.96	6415.96
556.323	6415.06
556.686	6407.6
557.05	6462.74
557.413	6476.98
557.776	6487.15
558.139	6497.99
558.502	6504.32
558.865	6520.59
559.228	6564.43
559.59	6592.45
559.953	6608.72
560.316	6602.85
560.679	6626.8
561.041	6699.34
561.404	6706.35
561.767	6709.51
562.129	6665.22
562.492	6782.28
562.854	6758.1
563.217	6827.7
563.579	6789.51
563.941	6870.41
564.304	6832
564.666	6911.54
565.028	6916.06
565.39	6874.25
565.753	6983.18
566.115	6960.58
566.477	6932.33
566.839	7000.35
567.201	7017.08
567.563	7048.26
567.925	7125.55
568.287	7085.77
568.648	7148.6
569.01	7138.43
569.372	7241.25
569.734	7201.48
570.095	7289.38
570.457	7246.67
570.819	7330.06
571.18	7344.07
571.542	7378.2
571.903	7393.34
572.265	7454.35
572.626	7451.87
572.987	7520.11
573.349	7575.03
573.71	7636.95
574.071	7654.57
574.432	7660
574.794	7786.77
575.155	7841.01
575.516	7838.97
575.877	7870.84
576.238	7924.17
576.599	8015.47
576.96	8112.41
577.32	8161.45
577.681	8283.03
578.042	8331.84
578.403	8463.37
578.763	8514.21
579.124	8607.09
579.485	8674.43
579.845	8812.28
580.206	8879.17
580.566	8955.56
580.927	9099.51
581.287	9315.32
581.648	9330.91
582.008	9511.7
582.368	9626.72
582.728	9764.35
583.089	9996.21
583.449	10122.53
583.809	10301.51
584.169	10420.83
584.529	10591.9
584.889	10842.74
585.249	10982.17
585.609	11179.23
585.969	11459.67
586.329	11596.39
586.688	11828.02
587.048	12029.37
587.408	12249.93
587.768	12478.4
588.127	12687.43
588.487	12849.69
588.846	13219.62
589.206	13354.08
589.565	13639.05
589.925	14001.3
590.284	14167.17
590.643	14443.77
591.003	14760.15
591.362	15048.5
591.721	15211.89
592.08	15614.14
592.44	15832.44
592.799	16110.4
593.158	16407.11
593.517	16583.15
593.876	16991.95
594.235	17253.19
594.593	17559.85
594.952	17835.55
595.311	18005.26
595.67	18394.86
596.029	18748.74
596.387	19070.54
596.746	19523.41
597.104	19644.54
597.463	19930.86
597.822	20222.83
598.18	20480.22
598.538	20706.88
598.897	21082.24
599.255	21205.63
599.613	21827.31
599.972	21887.42
600.33	22318.14
600.688	22381.19
601.046	22824.8
601.404	23086.26
601.762	23279.92
602.12	23757.88
602.478	23943.18
602.836	24193.35
603.194	24345.89
603.552	24664.75
603.91	24767.8
604.268	25191.51
604.625	25290.04
604.983	25682.8
605.341	25775.68
605.698	26182.45
606.056	26479.16
606.413	26601.65
606.771	26967.06
607.128	27198.69
607.485	27332.47
607.843	27613.82
608.2	27969.07
608.557	28206.8
608.914	28278.44
609.272	28586
609.629	28880.68
609.986	29110.28
610.343	29124.97
610.7	29510.04
611.057	29698.51
611.414	29943.7
611.771	30026.64
612.127	30291.49
612.484	30505.05
612.841	30654.19
613.198	30736
613.554	30870.69
613.911	31240.17
614.267	31305.48
614.624	31484.68
614.98	31791.57
615.337	31978.23
615.693	32076.76
616.05	32226.58
616.406	32448.95
616.762	32488.27
617.118	32590.19
617.475	32718.55
617.831	33064.07
618.187	33045.09
618.543	33376.38
618.899	33495.7
619.255	33635.36
619.611	33663.15
619.967	33905.86
620.323	34044.16
620.678	34013.2
621.034	33999.64
621.39	34125.97
621.746	34250.94
622.101	34665.16
622.457	34519.86
622.812	34681.43
623.168	34852.95
623.523	34898.83
623.879	35070.35
624.234	35013.85
624.589	35213.62
624.945	35255.65
625.3	35434.18
625.655	35567.29
626.01	35541.75
626.365	35657.9
626.72	35605.25
627.075	35732.7
627.43	35763.66
627.785	35780.84
628.14	35798.47
628.495	35927.73
628.85	35911
629.205	36019.7
629.559	36138.12
629.914	35995.97
630.269	36088.18
630.623	36092.7
630.978	36134.73
631.332	36295.18
631.687	36358
632.041	36295.4
632.396	36419.47
632.75	36281.84
633.104	36430.09
633.459	36290.66
633.813	36262.41
634.167	36376.3
634.521	36403.42
634.875	36467.83
635.229	36465.79
635.583	36410.43
635.937	36325.46
636.291	36399.81
636.645	36367.72
636.999	36328.17
637.352	36563.19
637.706	36332.01
638.06	36440.71
638.413	36461.5
638.767	36383.08
639.121	36362.29
639.474	36298.11
639.828	36363.42
640.181	36383.53
640.534	36403.2
640.888	36397.09
641.241	36181.51
641.594	36326.59
641.947	36399.35
642.301	36232.35
642.654	36284.78
643.007	36433.25
643.36	36327.27
643.713	36262.41
644.066	36439.58
644.419	36235.06
644.771	35870.55
645.124	35709.43
645.477	35607.51
645.83	35369.78
646.182	35219.27
646.535	35173.62
646.888	35445.48
647.24	35059.5
647.593	35243.9
647.945	35217.46
648.298	35210.91
648.65	35102.89
649.002	35084.59
649.355	35169.78
649.707	35124.36
650.059	35221.76
650.411	35580.17
650.763	35733.61
651.115	36035.97
651.467	35997.33
651.819	35970.44
652.171	35941.96
652.523	35904
652.875	36041.62
653.227	35865.36
653.578	35968.18
653.93	35937.67
654.282	35692.03
654.633	35710.78
654.985	35737
655.337	35810.67
655.688	35804.34
656.039	35904.9
656.391	35651.35
656.742	35744
657.094	35693.84
657.445	35849.99
657.796	35771.8
658.147	35756.66
658.498	35660.39
658.849	35753.27
659.2	35751.69
659.551	35608.41
659.902	35795.53
660.253	35643.44
660.604	35667.85
660.955	35504.69
661.306	35711.91
661.656	35645.93
662.007	35620.84
662.358	35614.06
662.708	35627.85
663.059	35545.82
663.409	35398.7
663.76	35619.49
664.11	35529.09
664.461	35608.64
664.811	35618.36
665.161	35421.98
665.511	35497
665.862	35581.75
666.212	35564.8
666.562	35649.09
666.912	35553.27
667.262	35535.2
667.612	35514.63
667.962	35592.37
668.312	35465.82
668.662	35633.05
669.011	35680.5
669.361	35573.84
669.711	35509.89
670.06	35427.85
670.41	35393.28
670.76	35380.62
671.109	35604.12
671.459	35323
671.808	35407.74
672.157	35386.27
672.507	35205.49
672.856	35125.71
673.205	35269.44
673.554	35265.37
673.904	35188.99
674.253	35476.21
674.602	35349.89
674.951	34787.87
675.3	34635.56
675.649	35257.46
675.998	35137.69
676.346	35260.4
676.695	35266.28
677.044	35148.77
677.393	35077.58
677.741	35284.81
678.09	35033.29
678.438	35038.03
678.787	35164.58
679.135	35116.9
679.484	34852.73
679.832	34883.91
680.181	34977.47
680.529	34890.69
680.877	34839.39
681.225	34813.18
681.573	34939.05
681.922	34693.41
682.27	34680.98
682.618	34631.04
682.966	34516.47
683.314	34720.08
683.661	34571.15
684.009	34316.92
684.357	34285.74
684.705	34349.46
685.053	34293.87
685.4	34255.68
685.748	34054.78
686.095	34027.66
686.443	33966.88
686.79	33973.2
687.138	33973.2
687.485	34090.71
687.832	33825.64
688.18	33885.52
688.527	33725.3
688.874	33798.97
689.221	33578.64
689.568	33597.17
689.915	33418.87
690.262	33323.5
690.609	33469.94
690.956	33218.19
691.303	33302.71
691.65	33034.7
691.997	33170.06
692.344	32889.62
692.69	32934.13
693.037	32954.7
693.383	32789.05
693.73	32762.84
694.077	32614.14
694.423	32583.18
694.769	32446.24
695.116	32342.51
695.462	32404.66
695.808	32366.01
696.155	32428.61
696.501	32070.88
696.847	32155.85
697.193	31933.71
697.539	31923.09
697.885	31849.64
698.231	31728.06
698.577	31674.05
698.923	31481.52
699.269	31505.47
699.614	31338.02
699.96	31280.39
700.306	31380.95
700.651	31113.84
700.997	31136.44
701.342	31071.13
701.688	30996.33
702.033	30836.34
702.379	30975.99
702.724	30811.7
703.069	30881.76
703.415	30392.96
703.76	30488.32
704.105	30414.65
704.45	30430.25
704.795	30330.36
705.14	30168.56
705.485	30237.93
705.83	29999.97
706.175	30040.2
706.52	29971.27
706.865	29873.2
707.209	29851.05
707.554	29684.5
707.899	29828.45
708.243	29628.91
708.588	29649.93
708.932	29389.59
709.277	29397.5
709.621	29495.58
709.966	29143.27
710.31	29307.34
710.654	29141.92
710.998	29087
711.342	29105.31
711.687	28931.75
712.031	28892.43
712.375	28802.94
712.719	28823.28
713.063	28806.56
713.407	28854.69
713.75	28753.9
714.094	28720.91
714.438	28546.23
714.782	28656.05
715.125	28520.92
715.469	28331.77
715.812	28341.49
716.156	28172.45
716.499	28182.62
716.843	28259
717.186	28084.77
717.53	28190.76
717.873	28188.27
718.216	28148.5
718.559	27945.11
718.902	27814.27
719.246	27909.18
719.589	27747.15
719.932	27718
720.275	27707.6
720.617	27750.54
720.96	27611.56
721.303	27588.96
721.646	27596.65
721.989	27490.89
722.331	27468.74
722.674	27392.36
723.016	27473.26
723.359	27357.78
723.701	27330.67
724.044	27209.54
724.386	27040.28
724.729	27152.14
725.071	27108.75
725.413	27152.82
725.755	27005.25
726.097	26952.6
726.439	26789.44
726.782	26846.38
727.124	26950.11
727.465	26739.49
727.807	26747.63
728.149	26702.21
728.491	26604.58
728.833	26696.33
729.175	26577.47
729.516	26496.34
729.858	26425.83
730.199	26409.11
730.541	26292.5
730.882	26355.55
731.224	26431.03
731.565	26202.33
731.906	26271.48
732.248	26276.68
732.589	26115.78
732.93	26078.72
733.271	26141.54
733.612	26007.54
733.953	26165.05
734.294	26051.83
734.635	25942.91
734.976	25993.98
735.317	25822.68
735.658	25780.2
735.999	25920.76
736.339	25811.38
736.68	25873.08
737.021	25864.26
737.361	25449.81
737.702	25744.04
738.042	25597.83
738.383	25595.8
738.723	25560.09
739.063	25550.6
739.404	25497.95
739.744	25339.53
740.084	25478.28
740.424	25288.91
740.764	25351.51
741.104	25511.28
741.444	25200.1
741.784	25191.74
742.124	25182.93
742.464	25026.77
742.804	25149.93
743.143	25172.08
743.483	25058.18
743.823	25003.95
744.162	24949.03
744.502	24990.39
744.841	24852.99
745.181	24961.24
745.52	24856.83
745.86	24918.07
746.199	24902.71
746.538	24731.19
746.877	24771.86
747.216	24800.11
747.556	24626.56
747.895	24760.11
748.234	24493.9
748.573	24504.07
748.911	24582.04
749.25	24464.53
749.589	24320.35
749.928	24388.6
750.267	24345.66
750.605	24342.27
750.944	24173.01
751.283	24090.07
751.621	24294.59
751.96	24095.04
752.298	24090.98
752.636	23972.11
752.975	23905.9
753.313	23872.23
753.651	23941.6
753.989	23750.19
754.327	23819.57
754.666	23673.81
755.004	23658.22
755.342	23650.76
755.679	23509.07
756.017	23495.74
756.355	23529.64
756.693	23339.81
757.031	23415.97
757.368	23331.67
757.706	23175.29
758.044	23199.02
758.381	23247.16
758.719	23156.99
759.056	23048.07
759.394	22994.28
759.731	22853.5
760.068	22855.08
760.405	22624.12
