Data from hue_350_FLMS001491_30.txt Node
Date: Mon Feb 06 15:37:49 GMT 2017
User: dcchb
Spectrometer: FLMS00149
Trigger mode: 0
Integration Time (sec): 2.000000E-2
Scans to average: 10
Electric dark correction enabled: true
Nonlinearity correction enabled: false
Boxcar width: 0
XAxis mode: Wavelengths
Number of Pixels in Spectrum: 2048
>>>>>Begin Spectral Data<<<<<
341.393	-17.8
341.776	-17.8
342.16	-17.8
342.543	-58.25
342.927	-68.42
343.31	-72.48
343.693	-77
344.077	-52.6
344.46	-41.07
344.843	-59.15
345.226	-56.89
345.61	-39.94
345.993	-23.22
346.376	-8.76
346.759	16.78
347.142	37.57
347.525	35.99
347.908	64.69
348.291	77.79
348.674	89.32
349.057	108.98
349.44	143.33
349.823	128.19
350.206	161.41
350.588	203.67
350.971	205.93
351.354	222.2
351.737	224.91
352.119	241.18
352.502	258.13
352.884	254.74
353.267	257
353.65	273.72
354.032	289.54
354.414	295.87
354.797	302.65
355.179	310.33
355.562	329.31
355.944	341.29
356.326	321.86
356.709	328.64
357.091	339.93
357.473	347.62
357.855	351.69
358.238	354.85
358.62	337.22
359.002	356.43
359.384	330.9
359.766	334.74
360.148	342.65
360.53	322.31
360.912	363.66
361.294	325.02
361.676	334.06
362.057	326.15
362.439	332.7
362.821	344
363.203	341.29
363.584	314.62
363.966	332.25
364.348	334.74
364.729	299.48
365.111	304
365.493	297.45
365.874	310.56
366.256	304.68
366.637	310.56
367.019	303.33
367.4	306.26
367.781	300.61
368.163	323.89
368.544	301.29
368.925	321.4
369.306	324.12
369.688	299.71
370.069	317.34
370.45	296.55
370.831	317.79
371.212	305.59
371.593	309.43
371.974	320.95
372.355	335.41
372.736	296.77
373.117	328.41
373.498	316.21
373.879	309.43
374.26	332.03
374.641	303.55
375.021	307.85
375.402	325.02
375.783	326.15
376.163	314.62
376.544	306.72
376.925	324.57
377.305	333.61
377.686	313.95
378.066	329.77
378.447	329.09
378.827	320.05
379.208	324.12
379.588	322.31
379.968	324.34
380.349	324.57
380.729	325.02
381.109	335.41
381.489	327.51
381.87	315.75
382.25	332.25
382.63	342.65
383.01	325.02
383.39	347.39
383.77	327.51
384.15	329.99
384.53	342.19
384.91	331.57
385.29	349.65
385.67	329.54
386.049	358.01
386.429	363.21
386.809	337.67
387.189	327.51
387.568	349.65
387.948	358.92
388.328	344.68
388.707	359.37
389.087	351.23
389.466	364.11
389.846	360.05
390.225	355.98
390.605	369.76
390.984	379.93
391.363	343.78
391.743	365.47
392.122	380.84
392.501	357.56
392.881	347.39
393.26	351.23
393.639	366.83
394.018	367.5
394.397	377.67
394.776	355.75
395.155	351.23
395.534	344.68
395.913	362.98
396.292	384.23
396.671	374.28
397.05	367.73
397.429	370.67
397.808	360.72
398.186	354.17
398.565	376.77
398.944	380.39
399.323	387.84
399.701	379.71
400.08	389.42
400.458	376.09
400.837	385.81
401.215	401.4
401.594	393.94
401.972	392.14
402.351	390.78
402.729	384
403.107	407.05
403.486	415.41
403.864	390.1
404.242	412.7
404.62	418.12
404.999	398.46
405.377	441.85
405.755	407.73
406.133	428.07
406.511	416.32
406.889	413.38
407.267	412.93
407.645	423.32
408.023	429.2
408.401	408.63
408.779	423.55
409.156	435.07
409.534	444.11
409.912	437.33
410.29	447.05
410.667	452.7
411.045	440.27
411.422	431.23
411.8	456.32
412.178	450.44
412.555	457.22
412.933	461.97
413.31	469.42
413.687	465.35
414.065	478.24
414.442	474.39
414.819	472.13
415.197	488.86
415.574	479.37
415.951	489.31
416.328	492.7
416.705	472.13
417.082	491.12
417.46	471.91
417.837	485.69
418.214	497.44
418.591	484.79
418.967	511.68
419.344	502.42
419.721	534.28
420.098	527.05
420.475	524.11
420.852	521.85
421.228	546.26
421.605	541.51
421.982	548.29
422.358	528.4
422.735	525.69
423.111	548.74
423.488	546.26
423.864	545.13
424.241	549.19
424.617	562.98
424.994	574.5
425.37	549.19
425.746	580.38
426.123	565.47
426.499	555.52
426.875	567.5
427.251	570.21
427.627	612.02
428.003	581.96
428.379	599.36
428.756	616.54
429.132	612.7
429.507	607.72
429.883	625.35
430.259	630.32
430.635	645.24
431.011	627.84
431.387	649.53
431.763	649.76
432.138	657.21
432.514	657.21
432.89	650.89
433.265	682.52
433.641	669.42
434.016	682.75
434.392	672.13
434.767	682.07
435.143	693.6
435.518	701.73
435.894	709.64
436.269	709.64
436.644	726.14
437.02	703.31
437.395	718.68
437.77	746.48
438.145	728.4
438.52	729.53
438.895	738.57
439.271	746.03
439.646	746.03
440.021	749.42
440.395	762.07
440.77	759.36
441.145	779.92
441.52	766.59
441.895	781.96
442.27	777.21
442.645	760.26
443.019	804.1
443.394	799.58
443.769	790.77
444.143	792.8
444.518	801.62
444.892	800.94
445.267	817.21
445.641	824.44
446.016	808.17
446.39	853.14
446.764	855.63
447.139	831
447.513	847.94
447.887	845.01
448.262	838.9
448.636	848.62
449.01	853.14
449.384	875.74
449.758	858.79
450.132	893.59
450.506	838.9
450.88	888.62
451.254	869.19
451.628	899.69
452.002	886.59
452.376	910.77
452.75	885.23
453.123	912.8
453.497	924.33
453.871	930.88
454.244	952.35
454.618	937.21
454.992	970.88
455.365	948.96
455.739	962.52
456.112	964.32
456.486	974.27
456.859	1015.85
457.232	1015.17
457.606	1024.89
457.979	1031.22
458.352	1023.08
458.725	1041.61
459.099	1014.27
459.472	1068.95
459.845	1060.59
460.218	1069.63
460.591	1092.46
460.964	1061.27
461.337	1124.09
461.71	1096.07
462.083	1138.56
462.456	1151.44
462.829	1132.91
463.201	1117.99
463.574	1144.21
463.947	1176.07
464.32	1178.1
464.692	1186.92
465.065	1200.48
465.438	1200.7
465.81	1235.28
466.183	1242.51
466.555	1253.58
466.928	1239.35
467.3	1256.75
467.672	1277.54
468.045	1279.12
468.417	1313.69
468.789	1314.37
469.161	1344.88
469.534	1341.72
469.906	1393.47
470.278	1407.93
470.65	1407.25
471.022	1429.85
471.394	1460.13
471.766	1479.34
472.138	1475.5
472.51	1504.65
472.882	1520.24
473.253	1537.19
473.625	1523.63
473.997	1562.05
474.369	1587.36
474.74	1634.36
475.112	1658.32
475.484	1652.22
475.855	1702.16
476.227	1729.73
476.598	1772.67
476.97	1735.38
477.341	1793.23
477.713	1845.88
478.084	1842.72
478.455	1904.41
478.827	1930.4
479.198	1980.34
479.569	1963.17
479.94	2049.04
480.311	2045.65
480.682	2065.76
481.053	2112.77
481.424	2151.19
481.795	2177.17
482.166	2229.83
482.537	2228.25
482.908	2282.93
483.279	2329.03
483.65	2358.64
484.021	2374.68
484.391	2457.84
484.762	2437.28
485.133	2472.53
485.503	2521.8
485.874	2586.66
486.244	2585.07
486.615	2622.36
486.985	2687.44
487.356	2723.83
487.726	2707.78
488.097	2798.85
488.467	2777.16
488.837	2863.71
489.207	2899.42
489.578	2951.17
489.948	2965.63
490.318	3052.63
490.688	3053.76
491.058	3089.69
491.428	3121.56
491.798	3181.67
492.168	3171.5
492.538	3217.15
492.908	3286.75
493.278	3319.07
493.648	3326.75
494.017	3404.49
494.387	3411.94
494.757	3440.64
495.126	3475.67
495.496	3460.76
495.866	3486.97
496.235	3519.74
496.605	3561.09
496.974	3619.4
497.344	3630.47
497.713	3667.76
498.082	3685.16
498.452	3700.3
498.821	3732.84
499.19	3731.26
499.559	3771.93
499.928	3763.57
500.298	3824.14
500.667	3847.41
501.036	3817.13
501.405	3907.52
501.774	3909.33
502.143	3904.81
502.512	3922.89
502.88	4004.47
503.249	4009.67
503.618	4016.67
503.987	4038.14
504.356	4035.88
504.724	4070.01
505.093	4060.06
505.462	4101.19
505.83	4098.48
506.199	4157.46
506.567	4216.22
506.936	4183.45
507.304	4243.11
507.672	4213.96
508.041	4236.78
508.409	4275.42
508.777	4283.33
509.145	4362.2
509.514	4318.36
509.882	4357.46
510.25	4330.79
510.618	4395.87
510.986	4411.47
511.354	4412.14
511.722	4485.14
512.09	4510.45
512.458	4436.1
512.826	4520.16
513.193	4535.76
513.561	4550.67
513.929	4556.32
514.297	4604.91
514.664	4625.7
515.032	4590.22
515.4	4636.09
515.767	4719.48
516.135	4694.62
516.502	4650.1
516.869	4747.73
517.237	4724.68
517.604	4690.1
517.972	4794.51
518.339	4781.63
518.706	4827.27
519.073	4815.98
519.44	4832.47
519.808	4837.22
520.175	4856.43
520.542	4938.23
520.909	4902.75
521.276	4958.12
521.643	5014.84
522.009	4997.44
522.376	5012.35
522.743	5022.3
523.11	5039.47
523.477	5081.96
523.843	5145.46
524.21	5169.64
524.577	5173.71
524.943	5204.67
525.31	5223.65
525.676	5288.28
526.043	5266.58
526.409	5269.07
526.776	5355.17
527.142	5344.77
527.508	5407.15
527.874	5426.81
528.241	5399.91
528.607	5460.7
528.973	5448.05
529.339	5486.92
529.705	5543.64
530.071	5574.37
530.437	5573.24
530.803	5607.37
531.169	5654.6
531.535	5646.46
531.901	5655.73
532.267	5682.17
532.632	5728.27
532.998	5762.62
533.364	5761.49
533.73	5733.47
534.095	5860.24
534.461	5813.91
534.826	5933.01
535.192	5904.53
535.557	5968.04
535.923	5977.53
536.288	6010.75
536.653	6009.62
537.019	6007.58
537.384	6024.98
537.749	6093.23
538.114	6117.64
538.479	6119.67
538.845	6155.83
539.21	6170.52
539.575	6175.71
539.94	6207.8
540.305	6215.49
540.67	6221.81
541.034	6236.95
541.399	6282.6
541.764	6310.17
542.129	6373.22
542.494	6389.04
542.858	6391.53
543.223	6430.17
543.587	6491.64
543.952	6417.74
544.316	6462.26
544.681	6471.75
545.045	6606.21
545.41	6580
545.774	6578.41
546.138	6608.92
546.503	6645.98
546.867	6630.16
547.231	6685.98
547.595	6668.81
547.959	6753.33
548.324	6723.27
548.688	6808.47
549.052	6872.87
549.416	6805.98
549.779	6818.63
550.143	6836.26
550.507	6931.63
550.871	6941.34
551.235	6906.54
551.599	6944.51
551.962	6987.44
552.326	7000.1
552.689	7015.47
553.053	7056.59
553.417	7074.9
553.78	7130.26
554.143	7170.49
554.507	7142.92
554.87	7127.78
555.234	7196.48
555.597	7146.76
555.96	7207.32
556.323	7275.12
556.686	7289.36
557.05	7296.81
557.413	7319.64
557.776	7355.12
558.139	7421.33
558.502	7415.91
558.865	7395.34
559.228	7452.29
559.59	7441.44
559.953	7478.73
560.316	7601.21
560.679	7527.09
561.041	7585.39
561.404	7623.13
561.767	7672.17
562.129	7567.32
562.492	7699.52
562.854	7726.18
563.217	7781.32
563.579	7700.87
563.941	7843.92
564.304	7788.33
564.666	7867.19
565.028	7832.62
565.39	7866.74
565.753	7936.34
566.115	7968.89
566.477	7986.29
566.839	8083.01
567.201	8061.54
567.563	8094.98
567.925	8090.01
568.287	8140.18
568.648	8103.57
569.01	8219.95
569.372	8250.01
569.734	8223.57
570.095	8265.15
570.457	8332.04
570.819	8353.51
571.18	8305.15
571.542	8432.83
571.903	8474.64
572.265	8483.22
572.626	8570.68
572.987	8567.97
573.349	8650.9
573.71	8663.33
574.071	8761.18
574.432	8769.32
574.794	8898.58
575.155	8895.64
575.516	8875.53
575.877	9035.98
576.238	9012.7
576.599	9135.64
576.96	9132.25
577.32	9260.83
577.681	9323.43
578.042	9376.08
578.403	9439.13
578.763	9500.15
579.124	9567.04
579.485	9753.92
579.845	9802.28
580.206	9935.16
580.566	10066.68
580.927	10053.35
581.287	10242.95
581.648	10271.42
582.008	10468.71
582.368	10661.47
582.728	10746.21
583.089	10837.96
583.449	11037.96
583.809	11212.42
584.169	11352.07
584.529	11450.83
584.889	11733.08
585.249	11815.34
585.609	11938.95
585.969	12211.03
586.329	12402.22
586.688	12497.36
587.048	12722.66
587.408	12815.76
587.768	13094.63
588.127	13374.85
588.487	13462.75
588.846	13791.56
589.206	14035.85
589.565	14273.13
589.925	14504.53
590.284	14732.78
590.643	15009.61
591.003	15192.88
591.362	15524.17
591.721	15807.32
592.08	16035.57
592.44	16299.06
592.799	16552.39
593.158	16783.34
593.517	17053.62
593.876	17454.74
594.235	17615.64
594.593	18045.46
594.952	18236.87
595.311	18479.12
595.67	18745.55
596.029	19270.51
596.387	19416.72
596.746	19698.97
597.104	19950.04
597.463	20204.72
597.822	20585.5
598.18	20785.95
598.538	21020.75
598.897	21474.29
599.255	21443.56
599.613	22092.13
599.972	22197.21
600.33	22493.25
600.688	22726.01
601.046	23053.69
601.404	23306.34
601.762	23502.49
602.12	23829.71
602.478	24258.18
602.836	24440.32
603.194	24683.02
603.552	24935.45
603.91	25047.99
604.268	25383.57
604.625	25584.24
604.983	25969.77
605.341	26034.4
605.698	26346.26
606.056	26652.24
606.413	26865.56
606.771	27114.15
607.128	27466
607.485	27584.64
607.843	27795.71
608.2	28027.12
608.557	28409.93
608.914	28439.08
609.272	28799.75
609.629	29065.96
609.986	29338.49
610.343	29321.77
610.7	29793.62
611.057	30004.24
611.414	30037.46
611.771	30319.03
612.127	30512.25
612.484	30629.08
612.841	30866.82
613.198	31130.99
613.554	31349.74
613.911	31463.64
614.267	31614.14
614.624	31830.63
614.98	31887.81
615.337	32135.71
615.693	32266.33
616.05	32498.41
616.406	32752.64
616.762	32634
617.118	32947.66
617.475	33031.28
617.831	33260.2
618.187	33500.19
618.543	33557.59
618.899	33900.63
619.255	33939.73
619.611	33962.33
619.967	34255.88
620.323	34340.85
620.678	34400.51
621.034	34387.85
621.39	34481.64
621.746	34563.44
622.101	35073.48
622.457	34750.33
622.812	34952.13
623.168	35189.19
623.523	35392.12
623.879	35488.84
624.234	35306.7
624.589	35591.21
624.945	35516.41
625.3	35685.22
625.655	35848.38
626.01	35861.03
626.365	36029.62
626.72	35986
627.075	36045.44
627.43	36149.39
627.785	36074.59
628.14	36249.27
628.495	36216.28
628.85	36291.98
629.205	36207.69
629.559	36476.61
629.914	36287.46
630.269	36443.62
630.623	36362.49
630.978	36434.35
631.332	36584.41
631.687	36597.29
632.041	36451.53
632.396	36644.29
632.75	36528.36
633.104	36657.4
633.459	36582.6
633.813	36544.41
634.167	36631.86
634.521	36689.94
634.875	36679.77
635.229	36663.5
635.583	36586.21
635.937	36775.13
636.291	36574.01
636.645	36681.13
636.999	36660.34
637.352	36754.34
637.706	36642.71
638.06	36881.8
638.413	36674.12
638.767	36732.65
639.121	36755.47
639.474	36533.56
639.828	36632.77
640.181	36828.24
640.534	36631.18
640.888	36535.82
641.241	36619.43
641.594	36674.57
641.947	36697.62
642.301	36568.36
642.654	36649.71
643.007	36703.27
643.36	36597.29
643.713	36536.95
644.066	36810.39
644.419	36453.79
644.771	36279.78
645.124	35942.61
645.477	35830.98
645.83	35766.35
646.182	35628.72
646.535	35489.29
646.888	35536.52
647.24	35353.25
647.593	35637.09
647.945	35559.8
648.298	35293.59
648.65	35308.28
649.002	35209.53
649.355	35431.44
649.707	35256.98
650.059	35632.11
650.411	35932.22
650.763	35957.3
651.115	36251.31
651.467	36145.77
651.819	36197.52
652.171	36246.11
652.523	36077.75
652.875	36119.78
653.227	35797.08
653.578	36202.04
653.93	36085.21
654.282	36029.39
654.633	35856.97
654.985	35946.91
655.337	35947.13
655.688	35953.69
656.039	36146.9
656.391	35805.89
656.742	35805.67
657.094	35849.06
657.445	36093.34
657.796	35827.36
658.147	35976.06
658.498	35834.82
658.849	35973.35
659.2	35870.98
659.551	35838.89
659.902	35978.55
660.253	35946.46
660.604	35927.25
660.955	35762.51
661.306	35920.47
661.656	35855.16
662.007	35906.91
662.358	35761.15
662.708	35776.29
663.059	35808.38
663.409	35473.47
663.76	35869.62
664.11	35786.91
664.461	35842.5
664.811	35779.91
665.161	35774.03
665.511	35676.86
665.862	35856.29
666.212	35906.46
666.562	35912.78
666.912	35790.08
667.262	35696.75
667.612	35827.14
667.962	35771.77
668.312	35773.35
668.662	36014.02
669.011	35848.83
669.361	35748.5
669.711	35737.2
670.06	35663.98
670.41	35650.42
670.76	35551.21
671.109	35688.38
671.459	35710.08
671.808	35505.34
672.157	35613.36
672.507	35423.53
672.856	35447.94
673.205	35436.64
673.554	35656.07
673.904	35354.61
674.253	35513.7
674.602	35490.87
674.951	35042.75
675.3	35040.72
675.649	35374.27
675.998	35264.44
676.346	35477.77
676.695	35450.65
677.044	35135.86
677.393	35331.33
677.741	35322.97
678.09	35211.79
678.438	35209.75
678.787	35314.38
679.135	35304.44
679.484	35106.25
679.832	35134.5
680.181	34954.62
680.529	35079.36
680.877	35010.66
681.225	34792.14
681.573	35052.92
681.922	34914.62
682.27	34787.16
682.618	34900.38
682.966	34612.71
683.314	34909.87
683.661	34786.71
684.009	34523.89
684.357	34419.04
684.705	34469.88
685.053	34379.72
685.4	34386.72
685.748	34141.08
686.095	34240.96
686.443	34147.41
686.79	34080.52
687.138	34046.62
687.485	34150.57
687.832	34016.34
688.18	34133.17
688.527	33815.21
688.874	33876.91
689.221	33795.1
689.568	33669.45
689.915	33599.63
690.262	33685.27
690.609	33529.12
690.956	33284.38
691.303	33405.96
691.65	33182.23
691.997	33308.56
692.344	33027.89
692.69	32975.91
693.037	33049.81
693.383	32783.15
693.73	32947.44
694.077	32757.84
694.423	32678.52
694.769	32643.72
695.116	32594.45
695.462	32525.3
695.808	32363.27
696.155	32453.44
696.501	32265.2
696.847	32231.07
697.193	31948.82
697.539	32078.54
697.885	31871.76
698.231	31651.43
698.577	31838.09
698.923	31604.2
699.269	31535.27
699.614	31438.55
699.96	31443.07
700.306	31354.03
700.651	31283.98
700.997	31253.7
701.342	31104.78
701.688	31081.27
702.033	30960.82
702.379	30956.98
702.724	30737.55
703.069	30818.23
703.415	30359.26
703.76	30416.43
704.105	30623.66
704.45	30449.65
704.795	30280.62
705.14	30277.68
705.485	30128.98
705.83	30084.24
706.175	30183.22
706.52	30045.37
706.865	29972.15
707.209	29933.28
707.554	29792.49
707.899	29885.82
708.243	29695.09
708.588	29697.81
708.932	29533.97
709.277	29319.74
709.621	29448.32
709.966	29228.21
710.31	29383.01
710.654	29187.76
710.998	29144.37
711.342	29257.37
711.687	29091.04
712.031	28958.39
712.375	28819.86
712.719	28945.06
713.063	28792.29
713.407	28922.46
713.75	28752.29
714.094	28846.76
714.438	28750.49
714.782	28673.2
715.125	28496.71
715.469	28454.9
715.812	28399.76
716.156	28247.22
716.499	28206.55
716.843	28323.61
717.186	28037.74
717.53	28157.28
717.873	28146.21
718.216	28181.69
718.559	27928.14
718.902	27766.56
719.246	27923.84
719.589	27821.47
719.932	27740.34
720.275	27590.29
720.617	27634.81
720.96	27540.12
721.303	27557.07
721.646	27674.58
721.989	27311.2
722.331	27452.89
722.674	27433.69
723.016	27489.96
723.359	27294.71
723.701	27398.21
724.044	27168.38
724.386	26936.52
724.729	27130.87
725.071	27071.89
725.413	26973.58
725.755	27040.48
726.097	26874.38
726.439	26762.74
726.782	26903.08
727.124	27086.35
727.465	26793.93
727.807	26773.14
728.149	26716.64
728.491	26601.39
728.833	26649.07
729.175	26591.9
729.516	26415.86
729.858	26513.94
730.199	26479.36
730.541	26428.06
730.882	26414.28
731.224	26536.08
731.565	26281.17
731.906	26275.3
732.248	26258.58
732.589	26122.08
732.93	26050.44
733.271	26146.26
733.612	26114.17
733.953	26010.45
734.294	26012.93
734.635	26045.93
734.976	26021.07
735.317	25809.77
735.658	25904.01
735.999	25742.2
736.339	25807.06
736.68	25870.56
737.021	25669.21
737.361	25610.23
737.702	25772.49
738.042	25610.23
738.383	25603.68
738.723	25704.47
739.063	25476.9
739.404	25630.34
739.744	25574.53
740.084	25435.32
740.424	25420.63
740.764	25441.87
741.104	25473.06
741.444	25250.24
741.784	25160.52
742.124	25287.53
742.464	25310.35
742.804	25134.54
743.143	25112.62
743.483	25103.13
743.823	24980.19
744.162	24986.52
744.502	25109.68
744.841	24932.06
745.181	25046.18
745.52	24824.49
745.86	25056.8
746.199	24823.13
746.538	24812.06
746.877	24796.69
747.216	24763.47
747.556	24744.72
747.895	24742
748.234	24596.7
748.573	24612.97
748.911	24599.18
749.25	24544.27
749.589	24379.75
749.928	24420.66
750.267	24430.83
750.605	24445.97
750.944	24360.77
751.283	24195.8
751.621	24222.24
751.96	24137.95
752.298	24192.19
752.636	24148.12
752.975	24018.86
753.313	23969.14
753.651	24004.17
753.989	23851.41
754.327	23808.47
754.666	23894.12
755.004	23715.14
755.342	23731.41
755.679	23643.73
756.017	23561.7
756.355	23699.32
756.693	23523.96
757.031	23552.88
757.368	23555.6
757.706	23387.92
758.044	23253.91
758.381	23316.28
758.719	23191.76
759.056	23170.52
759.394	23146.57
759.731	23063.86
760.068	23084.65
