Data from hue_36_FLMS001491_00067.txt Node
Date: Tue Feb 07 17:30:08 GMT 2017
User: dcchb
Spectrometer: FLMS00149
Trigger mode: 0
Integration Time (sec): 2.000000E-2
Scans to average: 10
Electric dark correction enabled: true
Nonlinearity correction enabled: false
Boxcar width: 0
XAxis mode: Wavelengths
Number of Pixels in Spectrum: 2048
>>>>>Begin Spectral Data<<<<<
341.393	-24.38
341.776	-24.38
342.16	-24.38
342.543	-75.9
342.927	-73.19
343.31	-56.69
343.693	-85.17
344.077	-73.19
344.46	-55.34
344.843	-49.01
345.226	-55.11
345.61	-43.81
345.993	-24.83
346.376	3.42
346.759	17.88
347.142	30.76
347.525	52.91
347.908	49.74
348.291	86.81
348.674	103.53
349.057	98.1
349.44	111.21
349.823	138.1
350.206	177.2
350.588	200.7
350.971	206.35
351.354	238.89
351.737	245.9
352.119	239.12
352.502	267.37
352.884	299.91
353.267	280.02
353.65	285.9
354.032	292.45
354.414	295.61
354.797	301.04
355.179	326.8
355.562	311.66
355.944	344.88
356.326	347.59
356.709	322.96
357.091	317.99
357.473	327.48
357.855	331.54
358.238	355.27
358.62	335.61
359.002	345.1
359.384	339.23
359.766	344.88
360.148	341.49
360.53	311.88
360.912	325.67
361.294	327.7
361.676	339.45
362.057	305.33
362.439	317.31
362.821	329.51
363.203	317.76
363.584	317.08
363.966	315.95
364.348	319.79
364.729	306.69
365.111	305.78
365.493	318.66
365.874	309.17
366.256	308.04
366.637	325.44
367.019	312.56
367.4	312.56
367.781	310.98
368.163	310.08
368.544	322.51
368.925	290.64
369.306	300.13
369.688	288.83
370.069	329.29
370.45	320.25
370.831	294.48
371.212	316.18
371.593	301.94
371.974	305.1
372.355	309.85
372.736	286.57
373.117	311.21
373.498	309.62
373.879	312.79
374.26	318.21
374.641	322.51
375.021	319.34
375.402	318.21
375.783	316.18
376.163	303.07
376.544	333.58
376.925	346.46
377.305	326.12
377.686	335.16
378.066	324.99
378.447	348.49
378.827	325.44
379.208	318.21
379.588	339.23
379.968	323.64
380.349	353.01
380.729	336.52
381.109	324.77
381.489	337.65
381.87	334.93
382.25	328.83
382.63	327.25
383.01	329.06
383.39	324.54
383.77	327.03
384.15	338.78
384.53	351.43
384.91	347.82
385.29	330.19
385.67	335.61
386.049	327.25
386.429	329.06
386.809	326.35
387.189	353.01
387.568	327.48
387.948	330.42
388.328	358.21
388.707	338.78
389.087	358.66
389.466	347.14
389.846	352.34
390.225	362.5
390.605	354.6
390.984	349.17
391.363	369.06
391.743	357.53
392.122	368.38
392.501	351.21
392.881	390.07
393.26	364.54
393.639	362.73
394.018	376.29
394.397	362.5
394.776	353.92
395.155	367.48
395.534	359.57
395.913	368.83
396.292	369.06
396.671	372.9
397.05	396.63
397.429	372
397.808	373.8
398.186	364.54
398.565	394.14
398.944	383.3
399.323	380.81
399.701	386.91
400.08	373.8
400.458	362.96
400.837	384.2
401.215	383.07
401.594	396.4
401.972	389.17
402.351	381.94
402.729	397.76
403.107	390.07
403.486	395.95
403.864	392.33
404.242	390.75
404.62	396.85
404.999	409.51
405.377	395.05
405.755	395.95
406.133	401.6
406.511	413.35
406.889	413.8
407.267	412.45
407.645	432.79
408.023	406.57
408.401	413.35
408.779	423.97
409.156	421.03
409.534	423.07
409.912	414.71
410.29	440.02
410.667	429.85
411.045	430.53
411.422	435.5
411.8	423.75
412.178	443.18
412.555	453.35
412.933	450.41
413.31	459
413.687	445.21
414.065	489.28
414.442	451.99
414.819	445.67
415.197	460.58
415.574	457.64
415.951	476.17
416.328	459
416.705	462.16
417.082	495.83
417.46	463.97
417.837	503.07
418.214	491.31
418.591	486.12
418.967	484.31
419.344	490.64
419.721	483.41
420.098	495.38
420.475	506.46
420.852	498.55
421.228	490.64
421.605	501.48
421.982	517.3
422.358	501.48
422.735	510.75
423.111	505.55
423.488	527.02
423.864	525.21
424.241	539.68
424.617	517.98
424.994	544.42
425.37	540.58
425.746	555.72
426.123	536.06
426.499	529.96
426.875	550.3
427.251	548.26
427.627	568.15
428.003	560.24
428.379	564.99
428.756	558.43
429.132	564.08
429.507	566.79
429.883	579.22
430.259	588.49
430.635	582.84
431.011	571.76
431.387	606.79
431.763	596.17
432.138	622.16
432.514	590.75
432.89	605.44
433.265	601.59
433.641	614.93
434.016	628.71
434.392	633.68
434.767	621.03
435.143	642.05
435.518	625.32
435.894	652.21
436.269	656.51
436.644	659.22
437.02	624.64
437.395	652.67
437.77	673.68
438.145	667.36
438.52	689.05
438.895	669.39
439.271	691.99
439.646	690.18
440.021	697.86
440.395	700.57
440.77	678.88
441.145	695.6
441.52	704.19
441.895	688.37
442.27	719.56
442.645	706.22
443.019	725.43
443.394	741.25
443.769	708.26
444.143	740.12
444.518	732.44
444.892	749.61
445.267	732.89
445.641	738.99
446.016	733.79
446.39	776.05
446.764	775.15
447.139	779.22
447.513	774.7
447.887	760.23
448.262	779.89
448.636	762.27
449.01	762.72
449.384	770.4
449.758	771.76
450.132	786.67
450.506	805.2
450.88	817.18
451.254	804.3
451.628	857.63
452.002	834.36
452.376	840.68
452.75	842.04
453.123	832.55
453.497	866.22
453.871	853.34
454.244	840.91
454.618	875.49
454.992	876.62
455.365	863.28
455.739	877.97
456.112	875.26
456.486	927.91
456.859	912.09
457.232	931.53
457.606	956.61
457.979	964.75
458.352	941.7
458.725	991.41
459.099	972.21
459.472	997.29
459.845	1000
460.218	1000.45
460.591	1005.2
460.964	1021.92
461.337	1034.8
461.71	1052.2
462.083	1059.21
462.456	1050.85
462.829	1066.21
463.201	1084.29
463.574	1095.14
463.947	1114.58
464.32	1139.21
464.692	1109.38
465.065	1136.27
465.438	1153.9
465.81	1173.33
466.183	1217.62
466.555	1176.95
466.928	1202.48
467.3	1195.48
467.672	1253.55
468.045	1271.18
468.417	1283.16
468.789	1300.79
469.161	1297.17
469.534	1336.26
469.906	1343.5
470.278	1351.41
470.65	1425.53
471.022	1421.23
471.394	1460.78
471.766	1457.84
472.138	1475.02
472.51	1519.54
472.882	1524.06
473.253	1558.18
473.625	1579.2
473.997	1639.76
474.369	1664.84
474.74	1674.33
475.112	1730.6
475.484	1739.42
475.855	1782.13
476.227	1864.16
476.598	1865.52
476.97	1909.58
477.341	1947.1
477.713	1967.89
478.084	2018.51
478.455	2105.51
478.827	2151.38
479.198	2212.63
479.569	2226.18
479.94	2309.57
480.311	2364.03
480.682	2427.31
481.053	2515.67
481.424	2513.18
481.795	2614.87
482.166	2661.88
482.537	2737.81
482.908	2829.78
483.279	2848.99
483.65	2941.19
484.021	3044.92
484.391	3099.61
484.762	3141.41
485.133	3210.57
485.503	3307.96
485.874	3365.82
486.244	3466.83
486.615	3551.57
486.985	3655.3
487.356	3745.47
487.726	3827.5
488.097	3962.64
488.467	4008.74
488.837	4097.32
489.207	4154.72
489.578	4274.94
489.948	4340.03
490.318	4483.07
490.688	4510.87
491.058	4602.85
491.428	4737.3
491.798	4806.46
492.168	4972.78
492.538	5002.83
492.908	5111.53
493.278	5210.29
493.648	5229.5
494.017	5405.99
494.387	5477.62
494.757	5581.12
495.126	5669.03
495.496	5653.21
495.866	5760.33
496.235	5911.06
496.605	6035.58
496.974	6038.06
497.344	6134.33
497.713	6258.17
498.082	6365.74
498.452	6462.68
498.821	6448.45
499.19	6495.68
499.559	6644.37
499.928	6718.72
500.298	6766.4
500.667	6879.4
501.036	6974.53
501.405	7044.36
501.774	7104.47
502.143	7106.73
502.512	7182.66
502.88	7323.45
503.249	7361.87
503.618	7394.18
503.987	7488.64
504.356	7591.24
504.724	7635.76
505.093	7726.38
505.462	7757.79
505.83	7799.6
506.199	7954.85
506.567	8086.14
506.936	8086.82
507.304	8239.81
507.672	8221.06
508.041	8285.23
508.409	8325.01
508.777	8478.68
509.145	8497.21
509.514	8525.68
509.882	8552.35
510.25	8590.08
510.618	8673.02
510.986	8694.49
511.354	8865.78
511.722	8886.35
512.09	8930.87
512.458	8971.09
512.826	9074.14
513.193	9099.22
513.561	9176.74
513.929	9291.54
514.297	9353.91
514.664	9353
515.032	9470.06
515.4	9513.9
515.767	9566.78
516.135	9593.67
516.502	9581.25
516.869	9771.75
517.237	9789.83
517.604	9788.02
517.972	9879.32
518.339	9964.96
518.706	9998.18
519.073	10030.5
519.44	10109.82
519.808	10193.43
520.175	10174
520.542	10324.05
520.909	10375.8
521.276	10361.34
521.643	10453.76
522.009	10474.56
522.376	10543.48
522.743	10695.11
523.11	10788.22
523.477	10822.12
523.843	10854.66
524.21	10958.84
524.577	11094.65
524.943	11114.31
525.31	11178.27
525.676	11277.02
526.043	11324.25
526.409	11327.19
526.776	11500.52
527.142	11572.15
527.508	11559.05
527.874	11689.89
528.241	11730.34
528.607	11756.33
528.973	11824.8
529.339	11859.6
529.705	11955.65
530.071	12085.59
530.437	12098.47
530.803	12228.63
531.169	12196.54
531.535	12249.65
531.901	12314.05
532.267	12458.91
532.632	12432.47
532.998	12482.41
533.364	12587.72
533.73	12616.65
534.095	12736.42
534.461	12784.78
534.826	12795.62
535.192	12850.31
535.557	12959.91
535.923	12988.39
536.288	12993.36
536.653	13051.44
537.019	13030.19
537.384	13168.72
537.749	13144.77
538.114	13228.83
538.479	13265.22
538.845	13344.54
539.21	13366
539.575	13447.36
539.94	13467.47
540.305	13572.55
540.67	13498.43
541.034	13614.13
541.399	13721.02
541.764	13713.57
542.129	13781.13
542.494	13870.62
542.858	13838.99
543.223	13913.56
543.587	14074.23
543.952	13989.72
544.316	14148.36
544.681	14092.77
545.045	14230.16
545.41	14227.68
545.774	14284.4
546.138	14359.88
546.503	14390.61
546.867	14394.45
547.231	14457.5
547.595	14564.39
547.959	14605.07
548.324	14681.45
548.688	14653.43
549.052	14758.06
549.416	14849.36
549.779	14865.85
550.143	14919.86
550.507	14955.79
550.871	15002.57
551.235	14997.83
551.599	15205.96
551.962	15231.27
552.326	15172.96
552.689	15232.4
553.053	15208.89
553.417	15290.47
553.78	15591.26
554.143	15466.51
554.507	15562.56
554.87	15618.15
555.234	15745.83
555.597	15530.92
555.96	15669.9
556.323	15682.78
556.686	15830.8
557.05	15841.87
557.413	15903.34
557.776	15932.04
558.139	16046.39
558.502	16063.79
558.865	16122.99
559.228	16249.09
559.59	16313.27
559.953	16348.75
560.316	16525.7
560.679	16472.82
561.041	16639.59
561.404	16657.9
561.767	16698.12
562.129	16721.17
562.492	16872.58
562.854	16802.3
563.217	16863.54
563.579	16860.38
563.941	17060.37
564.304	17068.51
564.666	17193.7
565.028	17239.8
565.39	17215.17
565.753	17405.45
566.115	17323.87
566.477	17404.54
566.839	17610.41
567.201	17604.99
567.563	17709.62
567.925	17809.73
568.287	17741.71
568.648	17896.28
569.01	17959.33
569.372	18109.38
569.734	18089.5
570.095	18200.23
570.457	18219.44
570.819	18367.91
571.18	18275.93
571.542	18430.5
571.903	18490.16
572.265	18560.44
572.626	18683.38
572.987	18638.86
573.349	18764.28
573.71	18904.39
574.071	18984.16
574.432	19140.99
574.794	19289.92
575.155	19239.52
575.516	19312.29
575.877	19398.61
576.238	19546.18
576.599	19713.18
576.96	19803.58
577.32	19898.71
577.681	20021.2
578.042	20068.43
578.403	20112.95
578.763	20324.24
579.124	20453.28
579.485	20588.19
579.845	20806.26
580.206	20876.32
580.566	20936.88
580.927	21130.55
581.287	21373.25
581.648	21348.39
582.008	21598.78
582.368	21836.74
582.728	21928.72
583.089	22072.44
583.449	22285.77
583.809	22391.76
584.169	22572.99
584.529	22622.94
584.889	23095.69
585.249	23137.27
585.609	23195.8
585.969	23584.72
586.329	23698.61
586.688	23921.66
587.048	24225.83
587.408	24283.68
587.768	24515.54
588.127	24753.5
588.487	25017.68
588.846	25311
589.206	25297.89
589.565	25518
589.925	26045.22
590.284	26110.08
590.643	26350.3
591.003	26630.97
591.362	26809.27
591.721	27034.8
592.08	27220.1
592.44	27545.29
592.799	27651.28
593.158	27916.58
593.517	28074.32
593.876	28418.49
594.235	28601.54
594.593	28743
594.952	29101.18
595.311	29110.22
595.67	29380.72
596.029	29826.59
596.387	30052.35
596.746	30123.76
597.104	30316.52
597.463	30477.64
597.822	30848.03
598.18	30919.67
598.538	31031.08
598.897	31488.24
599.255	31444.85
599.613	32054.33
599.972	32091.39
600.33	32310.14
600.688	32334.32
601.046	32620.87
601.404	32970.91
601.762	32974.08
602.12	33354.18
602.478	33534.06
602.836	33587.39
603.194	33578.81
603.552	33930.21
603.91	34087.49
604.268	34332.23
604.625	34373.59
604.983	34552.11
605.341	34566.58
605.698	34821.26
606.056	35171.08
606.413	35096.05
606.771	35470.28
607.128	35620.11
607.485	35497.17
607.843	35677.28
608.2	35973.77
608.557	36201.56
608.914	36177.61
609.272	36444.49
609.629	36684.26
609.986	36786.41
610.343	36919.96
610.7	37194.76
611.057	37287.86
611.414	37289.44
611.771	37472.04
612.127	37841.07
612.484	37808.98
612.841	38029.08
613.198	37946.15
613.554	38004
613.911	38361.51
614.267	38318.12
614.624	38425.46
614.98	38590.65
615.337	38846.01
615.693	38777.09
616.05	38759.24
616.406	39120.36
616.762	39087.59
617.118	39059.79
617.475	39291.42
617.831	39350.18
618.187	39419.33
618.543	39610.74
618.899	39936.15
619.255	39841.69
619.611	39756.72
619.967	40039.88
620.323	40132.31
620.678	40068.13
621.034	40212.76
621.39	40258.86
621.746	40145.41
622.101	40720.54
622.457	40417.5
622.812	40592.63
623.168	40679.86
623.523	40667.66
623.879	40875.11
624.234	40606.19
624.589	40699.75
624.945	40985.84
625.3	40950.36
625.655	40983.58
626.01	41062.45
626.365	41063.81
626.72	41146.52
627.075	41085.95
627.43	41177.02
627.785	41064.71
628.14	41135.44
628.495	41222.67
628.85	41214.31
629.205	41023.81
629.559	41257.47
629.914	41208.44
630.269	41321.65
630.623	41254.54
630.978	41060.42
631.332	41377.02
631.687	41431.03
632.041	41275.55
632.396	41298.6
632.75	41163.01
633.104	41282.11
633.459	41235.78
633.813	41254.99
634.167	41134.99
634.521	41202.11
634.875	41291.37
635.229	41263.12
635.583	41064.94
635.937	41278.49
636.291	41154.88
636.645	41127.31
636.999	41045.05
637.352	41224.48
637.706	40977.71
638.06	41103.81
638.413	40884.38
638.767	41108.1
639.121	41141.09
639.474	40934.55
639.828	40775.68
640.181	41047.99
640.534	40951.04
640.888	40887.99
641.241	40721.9
641.594	40828.33
641.947	41049.8
642.301	40814.77
642.654	41019.06
643.007	40946.75
643.36	40936.35
643.713	40911.04
644.066	40953.53
644.419	40658.62
644.771	40431.06
645.124	40155.58
645.477	39958.07
645.83	39842.82
646.182	39802.82
646.535	39766.67
646.888	39789.26
647.24	39607.8
647.593	39699.32
647.945	39516.05
648.298	39489.16
648.65	39536.62
649.002	39289.39
649.355	39572.77
649.707	39351.54
650.059	39508.59
650.411	39953.55
650.763	40099.99
651.115	40483.71
651.467	40287.56
651.819	40308.8
652.171	40126.43
652.523	40138.41
652.875	40164.85
653.227	39900.22
653.578	40398.51
653.93	40130.5
654.282	40012.99
654.633	39989.94
654.985	39950.62
655.337	40046.66
655.688	40170.27
656.039	40209.59
656.391	39843.27
656.742	39896.83
657.094	39888.02
657.445	40141.35
657.796	39994.23
658.147	39928.02
658.498	39989.26
658.849	39929.83
659.2	39900.67
659.551	39759.21
659.902	39849.83
660.253	39752.88
660.604	39854.8
660.955	39744.07
661.306	39841.24
661.656	39751.07
662.007	39815.03
662.358	39679.66
662.708	39713.56
663.059	39729.15
663.409	39457.75
663.76	39836.95
664.11	39819.32
664.461	39819.77
664.811	39775.71
665.161	39681.24
665.511	39582.72
665.862	39789.72
666.212	39869.71
666.562	39887.34
666.912	39604.86
667.262	39625.88
667.612	39721.24
667.962	39621.81
668.312	39557.41
668.662	39880.79
669.011	39736.84
669.361	39655.03
669.711	39591.53
670.06	39706.55
670.41	39502.49
670.76	39441.03
671.109	39650.74
671.459	39648.48
671.808	39356.28
672.157	39653.45
672.507	39374.36
672.856	39487.35
673.205	39382.95
673.554	39558.54
673.904	39370.97
674.253	39633.11
674.602	39357.41
674.951	38852.34
675.3	38778.67
675.649	39366.22
675.998	39147.47
676.346	39307.24
676.695	39511.76
677.044	39079.9
677.393	39234.02
677.741	39365.55
678.09	39269.96
678.438	39096.18
678.787	39075.61
679.135	39140.47
679.484	38974.82
679.832	39084.42
680.181	39021.38
680.529	38892.79
680.877	38820.7
681.225	38825.67
681.573	38988.83
681.922	38767.82
682.27	38649.18
682.618	38648.05
682.966	38434.27
683.314	38603.31
683.661	38530.77
684.009	38240.38
684.357	38292.13
684.705	38192.47
685.053	38331.9
685.4	38191.57
685.748	38019.82
686.095	38038.12
686.443	37939.37
686.79	37866.15
687.138	37862.54
687.485	37852.59
687.832	37813.27
688.18	37848.52
688.527	37599.49
688.874	37422.1
689.221	37531.7
689.568	37398.59
689.915	37356.79
690.262	37292.83
690.609	37348.88
690.956	37100.07
691.303	37065.72
691.65	36971.49
691.997	36876.8
692.344	36781.43
692.69	36741.21
693.037	36766.52
693.383	36418.73
693.73	36517.26
694.077	36424.61
694.423	36290.83
694.769	36264.39
695.116	36159.76
695.462	36097.38
695.808	35946.88
696.155	36038.18
696.501	35942.13
696.847	35814.91
697.193	35558.87
697.539	35779.88
697.885	35515.48
698.231	35264.41
698.577	35423.5
698.923	35270.51
699.269	35216.5
699.614	34908.71
699.96	34834.14
700.306	35018.32
700.651	34901.48
700.997	34553.7
701.342	34711.88
701.688	34583.53
702.033	34436.86
702.379	34514.37
702.724	34383.08
703.069	34391.21
703.415	33954.84
703.76	34111
704.105	34131.56
704.45	33999.81
704.795	33758.69
705.14	33719.59
705.485	33715.3
705.83	33578.35
706.175	33499.71
706.52	33452.03
706.865	33312.37
707.209	33405.03
707.554	33167.97
707.899	33322.54
708.243	33079.61
708.588	33094.3
708.932	32911.48
709.277	32937.02
709.621	32860.63
709.966	32691.37
710.31	32763.46
710.654	32364.15
710.998	32658.38
711.342	32559.85
711.687	32378.39
712.031	32183.59
712.375	32154.66
712.719	32233.31
713.063	32142.46
713.407	32161.22
713.75	32009.58
714.094	31987.44
714.438	31892.07
714.782	31806.2
715.125	31632.19
715.469	31728.46
715.812	31561.01
716.156	31520.78
716.499	31516.49
716.843	31497.05
717.186	31246.44
717.53	31462.93
717.873	31283.5
718.216	31266.1
718.559	31048.03
718.902	31015.26
719.246	30961.02
719.589	30952.43
719.932	30763.06
720.275	30802.16
720.617	30727.58
720.96	30662.27
721.303	30751.08
721.646	30672.89
721.989	30509.96
722.331	30754.25
722.674	30443.75
723.016	30513.8
723.359	30413.69
723.701	30447.14
724.044	30163.53
724.386	30185.45
724.729	30267.48
725.071	30181.38
725.413	30142.96
725.755	30197.65
726.097	30011.22
726.439	29978.9
726.782	29961.05
727.124	29919.69
727.465	29699.36
727.807	29703.65
728.149	29798.11
728.491	29811
728.833	29754.05
729.175	29705.24
729.516	29565.13
729.858	29528.97
730.199	29466.6
730.541	29374.17
730.882	29411.23
731.224	29481.29
731.565	29321.52
731.906	29367.17
732.248	29281.07
732.589	29124.23
732.93	29083.33
733.271	29087.17
733.612	29059.15
733.953	29033.62
734.294	29007.63
734.635	29047.4
734.976	28972.83
735.317	28679.05
735.658	28868.65
735.999	28827.07
736.339	28783.9
736.68	28796.11
737.021	28679.73
737.361	28584.36
737.702	28733.06
738.042	28629.33
738.383	28580.52
738.723	28585.04
739.063	28401.99
739.404	28444.93
739.744	28348.44
740.084	28251.94
740.424	28354.31
740.764	28344.82
741.104	28266.18
741.444	28219.17
741.784	28197.03
742.124	28143.7
742.464	28085.17
742.804	28049.69
743.143	28064.83
743.483	27967.2
743.823	27763.59
744.162	27809.92
744.502	27937.6
744.841	27723.14
745.181	27898.05
745.52	27665.29
745.86	27805.85
746.199	27653.54
746.538	27539.87
746.877	27590.49
747.216	27558.63
747.556	27494.22
747.895	27583.48
748.234	27298.07
748.573	27334.9
748.911	27376.26
749.25	27325.64
749.589	27253.32
749.928	27314.11
750.267	27209.03
750.605	27053.78
750.944	27094.23
751.283	26939.21
751.621	26943.27
751.96	26868.47
752.298	26951.18
752.636	26898.08
752.975	26748.25
753.313	26572.21
753.651	26728.14
753.989	26538.54
754.327	26615.37
754.666	26507.13
755.004	26539.22
755.342	26443.63
755.679	26391.2
756.017	26307.13
756.355	26309.39
756.693	26252.67
757.031	26189.17
757.368	26072.11
757.706	26030.3
