Data from hue_150_FLMS001491_00031.txt Node
Date: Tue Feb 07 16:53:56 GMT 2017
User: dcchb
Spectrometer: FLMS00149
Trigger mode: 0
Integration Time (sec): 2.000000E-2
Scans to average: 10
Electric dark correction enabled: true
Nonlinearity correction enabled: false
Boxcar width: 0
XAxis mode: Wavelengths
Number of Pixels in Spectrum: 2048
>>>>>Begin Spectral Data<<<<<
341.393	-6.36
341.776	-6.36
342.16	-6.36
342.543	-50.42
342.927	-41.38
343.31	-68.5
343.693	-65.34
344.077	-65.79
344.46	-51.55
344.843	-53.81
345.226	-31.44
345.61	-22.85
345.993	-36.19
346.376	-9.52
346.759	20.31
347.142	14.43
347.525	46.07
347.908	44.49
348.291	77.03
348.674	80.65
349.057	122
349.44	126.3
349.823	158.61
350.206	191.61
350.588	196.35
350.971	210.14
351.354	229.34
351.737	243.36
352.119	260.08
352.502	280.42
352.884	286.07
353.267	293.75
353.65	292.62
354.032	307.31
354.414	284.03
354.797	312.28
355.179	319.06
355.562	326.97
355.944	328.32
356.326	332.17
356.709	340.75
357.091	357.93
357.473	365.16
357.855	332.39
358.238	333.07
358.62	344.14
359.002	324.26
359.384	350.47
359.766	354.31
360.148	334.2
360.53	310.47
360.912	344.6
361.294	342.56
361.676	326.74
362.057	335.1
362.439	341.43
362.821	321.32
363.203	306.86
363.584	343.69
363.966	328.32
364.348	316.35
364.729	321.09
365.111	324.48
365.493	300.98
365.874	317.03
366.256	297.37
366.637	310.7
367.019	320.87
367.4	317.93
367.781	328.55
368.163	306.4
368.544	315.22
368.925	321.32
369.306	331.26
369.688	303.69
370.069	328.78
370.45	321.09
370.831	305.5
371.212	305.27
371.593	332.62
371.974	298.95
372.355	321.32
372.736	339.62
373.117	331.04
373.498	319.96
373.879	329.68
374.26	306.18
374.641	325.16
375.021	299.62
375.402	312.28
375.783	328.55
376.163	317.7
376.544	329.23
376.925	303.47
377.305	312.05
377.686	293.52
378.066	324.48
378.447	339.85
378.827	324.93
379.208	342.34
379.588	320.64
379.968	333.97
380.349	333.52
380.729	351.6
381.109	341.21
381.489	342.34
381.87	326.97
382.25	351.37
382.63	358.61
383.01	338.49
383.39	332.17
383.77	356.57
384.15	324.48
384.53	362.22
384.91	350.25
385.29	364.71
385.67	357.48
386.049	356.35
386.429	349.79
386.809	377.36
387.189	362.9
387.568	350.7
387.948	354.31
388.328	359.51
388.707	355.67
389.087	373.3
389.466	354.54
389.846	362.45
390.225	357.93
390.605	369.68
390.984	372.17
391.363	379.62
391.743	357.02
392.122	371.49
392.501	376.69
392.881	375.1
393.26	391.15
393.639	377.59
394.018	393.18
394.397	380.07
394.776	383.92
395.155	402.45
395.534	391.83
395.913	383.01
396.292	369
396.671	390.47
397.05	387.53
397.429	402.45
397.808	386.18
398.186	405.16
398.565	396.57
398.944	400.87
399.323	399.51
399.701	395.67
400.08	397.48
400.458	399.96
400.837	410.36
401.215	423.24
401.594	406.29
401.972	419.62
402.351	407.42
402.729	402.22
403.107	422.79
403.486	431.6
403.864	423.24
404.242	409.23
404.62	416.46
404.999	416.46
405.377	420.07
405.755	429.11
406.133	423.92
406.511	449
406.889	425.05
407.267	439.28
407.645	444.71
408.023	436.8
408.401	448.77
408.779	432.28
409.156	467.76
409.534	466.63
409.912	470.69
410.29	465.04
410.667	472.05
411.045	471.6
411.422	479.73
411.8	480.41
412.178	459.62
412.555	493.29
412.933	480.41
413.31	472.5
413.687	495.55
414.065	515.89
414.442	491.71
414.819	499.62
415.197	508.21
415.574	492.39
415.951	532.39
416.328	524.03
416.705	511.37
417.082	517.47
417.46	526.96
417.837	515.66
418.214	528.55
418.591	545.27
418.967	533.07
419.344	537.58
419.721	566.74
420.098	557.7
420.475	580.75
420.852	567.87
421.228	562.89
421.605	561.31
421.982	561.09
422.358	569.9
422.735	571.26
423.111	570.58
423.488	592.27
423.864	586.17
424.241	589.79
424.617	581.43
424.994	578.71
425.37	608.09
425.746	611.93
426.123	610.58
426.499	605.61
426.875	645.83
427.251	628.66
427.627	630.24
428.003	638.6
428.379	648.54
428.756	627.3
429.132	644.93
429.507	661.2
429.883	643.8
430.259	655.1
430.635	676.11
431.011	683.12
431.387	682.67
431.763	708.65
432.138	702.55
432.514	699.61
432.89	720.63
433.265	700.52
433.641	733.51
434.016	714.53
434.392	725.83
434.767	736.68
435.143	749.56
435.518	767.64
435.894	746.17
436.269	747.75
436.644	767.18
437.02	758.82
437.395	768.99
437.77	762.66
438.145	804.47
438.52	797.69
438.895	815.54
439.271	805.6
439.646	822.77
440.021	816
440.395	841.76
440.77	856.9
441.145	835.2
441.52	849.67
441.895	850.34
442.27	854.19
442.645	842.66
443.019	865.71
443.394	867.75
443.769	874.07
444.143	891.93
444.518	881.98
444.892	894.64
445.267	918.14
445.641	924.92
446.016	933.96
446.39	934.41
446.764	947.74
447.139	919.04
447.513	932.38
447.887	947.29
448.262	935.31
448.636	938.93
449.01	972.6
449.384	985.71
449.758	975.77
450.132	982.09
450.506	1000.4
450.88	1036.78
451.254	1005.82
451.628	1013.5
452.002	1024.58
452.376	1041.53
452.75	1033.62
453.123	1043.11
453.497	1068.64
453.871	1064.12
454.244	1061.86
454.618	1100.73
454.992	1081.53
455.365	1117
455.739	1132.6
456.112	1156.78
456.486	1123.33
456.859	1148.87
457.232	1205.14
457.606	1178.7
457.979	1188.19
458.352	1234.06
458.725	1238.36
459.099	1256.66
459.472	1288.07
459.845	1273.84
460.218	1293.27
460.591	1281.97
460.964	1309.77
461.337	1360.61
461.71	1347.05
462.083	1373.95
462.456	1380.27
462.829	1402.19
463.201	1401.97
463.574	1444.23
463.947	1453.04
464.32	1499.14
464.692	1482.64
465.065	1525.58
465.438	1564.45
465.81	1542.08
466.183	1602.87
466.555	1614.62
466.928	1644.45
467.3	1652.36
467.672	1674.5
468.045	1710.66
468.417	1707.72
468.789	1739.14
469.161	1745.46
469.534	1815.29
469.906	1835.63
470.278	1865.91
470.65	1898.68
471.022	1945.01
471.394	1992.01
471.766	2008.51
472.138	2039.69
472.51	2104.55
472.882	2122.18
473.253	2191.55
473.625	2224.55
473.997	2249.4
474.369	2269.97
474.74	2326.01
475.112	2416.18
475.484	2431.55
475.855	2477.65
476.227	2565.78
476.598	2634.03
476.97	2707.47
477.341	2745.89
477.713	2846.68
478.084	2870.4
478.455	3037.63
478.827	3029.95
479.198	3164.86
479.569	3219.1
479.94	3282.82
480.311	3350.39
480.682	3452.76
481.053	3585.41
481.424	3658.41
481.795	3764.39
482.166	3824.96
482.537	3923.94
482.908	4041.45
483.279	4169.13
483.65	4243.02
484.021	4376.81
484.391	4435.34
484.762	4548.78
485.133	4642.11
485.503	4764.14
485.874	4913.74
486.244	4999.61
486.615	5122.1
486.985	5283.9
487.356	5471.01
487.726	5520.73
488.097	5710.1
488.467	5780.16
488.837	5953.04
489.207	6111
489.578	6197.32
489.948	6306.7
490.318	6436.64
490.688	6582.85
491.058	6725.44
491.428	6926.34
491.798	7028.71
492.168	7240.23
492.538	7248.37
492.908	7424.86
493.278	7580.11
493.648	7729.94
494.017	7836.6
494.387	8011.29
494.757	8141.45
495.126	8254.9
495.496	8311.39
495.866	8445.17
496.235	8560.88
496.605	8709.57
496.974	8824.15
497.344	8980.75
497.713	8993.86
498.082	9193.4
498.452	9265.26
498.821	9352.72
499.19	9459.61
499.559	9594.75
499.928	9700.06
500.298	9836.32
500.667	9926.04
501.036	9945.02
501.405	10108.86
501.774	10110.44
502.143	10248.97
502.512	10314.05
502.88	10400.6
503.249	10450.32
503.618	10601.05
503.987	10655.28
504.356	10814.38
504.724	10775.06
505.093	10887.37
505.462	10891.66
505.83	11074.71
506.199	11137.98
506.567	11321.71
506.936	11305.21
507.304	11448.03
507.672	11427.69
508.041	11471.31
508.409	11643.51
508.777	11670.85
509.145	11740.45
509.514	11769.83
509.882	11854.35
510.25	11890.28
510.618	11910.85
510.986	12035.59
511.354	12139.31
511.722	12141.8
512.09	12323.26
512.458	12325.07
512.826	12391.74
513.193	12455.69
513.561	12426.99
513.929	12557.61
514.297	12579.53
514.664	12645.97
515.032	12660.2
515.4	12710.37
515.767	12868.79
516.135	12823.59
516.502	12701.11
516.869	12956.69
517.237	12885.51
517.604	12871.95
517.972	12991.95
518.339	13055
518.706	13020.87
519.073	13085.05
519.44	13082.79
519.808	13160.53
520.175	13124.6
520.542	13369.34
520.909	13364.37
521.276	13238.72
521.643	13397.59
522.009	13432.16
522.376	13466.06
522.743	13485.72
523.11	13538.37
523.477	13629.9
523.843	13648.2
524.21	13790.8
524.577	13735.66
524.943	13785.37
525.31	13755.32
525.676	13873.73
526.043	13916.22
526.409	13887.74
526.776	14021.75
527.142	13921.64
527.508	13965.25
527.874	14022.88
528.241	14115.76
528.607	14045.93
528.973	14049.55
529.339	13983.33
529.705	14090.45
530.071	14217.23
530.437	14160.73
530.803	14215.42
531.169	14123.67
531.535	14080.05
531.901	14062.88
532.267	14147.4
532.632	14119.15
532.998	14149.2
533.364	14108.08
533.73	14057.46
534.095	14161.86
534.461	14177.9
534.826	14179.94
535.192	14082.99
535.557	14132.48
535.923	14080.96
536.288	14165.02
536.653	14169.09
537.019	14039.15
537.384	13969.1
537.749	14047.06
538.114	13991.24
538.479	13907.85
538.845	13907.85
539.21	13861.98
539.575	13904.24
539.94	13766.39
540.305	13901.98
540.67	13808.42
541.034	13841.19
541.399	13786.05
541.764	13753.28
542.129	13740.4
542.494	13751.02
542.858	13626.51
543.223	13685.04
543.587	13622.21
543.952	13620.63
544.316	13567.07
544.681	13582.67
545.045	13553.97
545.41	13459.5
545.774	13472.39
546.138	13412.27
546.503	13433.29
546.867	13359.39
547.231	13334.99
547.595	13367.98
547.959	13321.88
548.324	13251.6
548.688	13194.88
549.052	13149.91
549.416	13236.23
549.779	13148.33
550.143	13064.26
550.507	13045.5
550.871	13093.86
551.235	12950.59
551.599	13070.14
551.962	13095.9
552.326	12977.48
552.689	13017.48
553.053	12939.74
553.417	12909.24
553.78	13025.39
554.143	12964.6
554.507	12927.77
554.87	12916.47
555.234	12969.35
555.597	12800.09
555.96	12837.37
556.323	12885.96
556.686	12825.17
557.05	12807.77
557.413	12794.89
557.776	12788.11
558.139	12789.69
558.502	12880.31
558.865	12773.42
559.228	12847.09
559.59	12768
559.953	12775.68
560.316	12958.73
560.679	12828.56
561.041	12866.98
561.404	12767.77
561.767	12887.32
562.129	12814.32
562.492	12914.66
562.854	12854.55
563.217	12891.38
563.579	12843.48
563.941	12844.15
564.304	12858.84
564.666	12927.99
565.028	12962.34
565.39	12923.47
565.753	12853.19
566.115	12966.64
566.477	13016.35
566.839	12992.17
567.201	13022.23
567.563	13033.3
567.925	13097.71
568.287	12954.89
568.648	13048.89
569.01	13036.69
569.372	13087.99
569.734	13100.87
570.095	13102
570.457	13109.91
570.819	13095.67
571.18	13178.83
571.542	13156.24
571.903	13189
572.265	13288.89
572.626	13296.12
572.987	13266.97
573.349	13244.14
573.71	13255.22
574.071	13240.75
574.432	13313.52
574.794	13308.55
575.155	13297.02
575.516	13285.5
575.877	13352.39
576.238	13277.59
576.599	13300.86
576.96	13287.53
577.32	13318.04
577.681	13388.77
578.042	13409.34
578.403	13318.94
578.763	13312.16
579.124	13378.38
579.485	13369.11
579.845	13417.92
580.206	13388.55
580.566	13321.2
580.927	13281.88
581.287	13448.43
581.648	13283.24
582.008	13380.64
582.368	13280.53
582.728	13344.03
583.089	13346.51
583.449	13334.08
583.809	13341.77
584.169	13347.64
584.529	13217.48
584.889	13443.23
585.249	13340.19
585.609	13304.03
585.969	13360.98
586.329	13274.42
586.688	13255.67
587.048	13230.36
587.408	13218.38
587.768	13248.66
588.127	13197.36
588.487	13267.19
588.846	13261.77
589.206	13160.3
589.565	13220.19
589.925	13248.44
590.284	13223.13
590.643	13196.91
591.003	13184.71
591.362	13285.5
591.721	13168.67
592.08	13175.67
592.44	13190.36
592.799	13177.03
593.158	13210.47
593.517	13189.68
593.876	13224.71
594.235	13150.81
594.593	13244.6
594.952	13109.91
595.311	13097.71
595.67	13093.86
596.029	13165.05
596.387	13178.61
596.746	13196.69
597.104	13049.8
597.463	13075.56
597.822	13109.68
598.18	13109.01
598.538	13065.39
598.897	13145.16
599.255	13052.51
599.613	13192.39
599.972	13139.74
600.33	13040.98
600.688	13068.1
601.046	13131.6
601.404	13160.76
601.762	13142.23
602.12	13210.7
602.478	13137.71
602.836	13172.73
603.194	13011.61
603.552	13101.1
603.91	13011.38
604.268	13090.48
604.625	13176.57
604.983	13178.16
605.341	13103.58
605.698	13109.68
606.056	13142.45
606.413	13085.73
606.771	13119.63
607.128	13154.2
607.485	13129.34
607.843	13131.6
608.2	13166.18
608.557	13200.75
608.914	13171.83
609.272	13182.22
609.629	13233.75
609.986	13304.25
610.343	13265.39
610.7	13351.49
611.057	13264.71
611.414	13281.2
611.771	13250.02
612.127	13308.55
612.484	13345.84
612.841	13259.51
613.198	13301.09
613.554	13272.17
613.911	13337.7
614.267	13356.91
614.624	13311.49
614.98	13421.77
615.337	13438.71
615.693	13455.89
616.05	13451.82
616.406	13489.11
616.762	13411.37
617.118	13443.69
617.475	13398.26
617.831	13407.3
618.187	13494.53
618.543	13521.88
618.899	13480.75
619.255	13449.79
619.611	13514.19
619.967	13550.12
620.323	13527.07
620.678	13495.44
621.034	13550.35
621.39	13421.31
621.746	13424.03
622.101	13625.83
622.457	13487.75
622.812	13542.89
623.168	13558.26
623.523	13501.99
623.879	13562.1
624.234	13520.07
624.589	13473.06
624.945	13470.58
625.3	13529.33
625.655	13433.06
626.01	13525.49
626.365	13477.58
626.72	13516.9
627.075	13441.2
627.43	13476
627.785	13421.99
628.14	13429.45
628.495	13530.46
628.85	13462.67
629.205	13443.46
629.559	13442.56
629.914	13413.18
630.269	13529.33
630.623	13378.83
630.978	13351.03
631.332	13497.92
631.687	13435.55
632.041	13355.1
632.396	13401.43
632.75	13370.02
633.104	13340.19
633.459	13292.28
633.813	13275.55
634.167	13302.67
634.521	13262.45
634.875	13300.86
635.229	13282.79
635.583	13189.91
635.937	13273.52
636.291	13249.79
636.645	13183.13
636.999	13169.12
637.352	13256.57
637.706	13133.19
638.06	13163.69
638.413	13104.03
638.767	13149.46
639.121	13091.15
639.474	13044.15
639.828	13057.93
640.181	13076.69
640.534	13131.6
640.888	13020.42
641.241	12970.03
641.594	12996.47
641.947	12963.47
642.301	13001.44
642.654	12913.3
643.007	13010.48
643.36	12980.87
643.713	12915.34
644.066	13028.1
644.419	12943.59
644.771	12771.84
645.124	12740.2
645.477	12716.02
645.83	12709.92
646.182	12623.82
646.535	12538.17
646.888	12529.36
647.24	12436.25
647.593	12532.07
647.945	12500.21
648.298	12433.09
648.65	12426.09
649.002	12384.5
649.355	12577.95
649.707	12482.58
650.059	12485.97
650.411	12684.16
650.763	12703.59
651.115	12830.82
651.467	12724.61
651.819	12782.23
652.171	12828.11
652.523	12770.71
652.875	12772.74
653.227	12683.48
653.578	12769.13
653.93	12795.12
654.282	12710.15
654.633	12655.91
654.985	12760.99
655.337	12738.62
655.688	12749.47
656.039	12756.92
656.391	12676.7
656.742	12708.56
657.094	12711.5
657.445	12806.19
657.796	12729.13
658.147	12675.57
658.498	12648.9
658.849	12757.83
659.2	12685.74
659.551	12756.92
659.902	12766.42
660.253	12740.65
660.604	12783.14
660.955	12746.98
661.306	12703.82
661.656	12757.15
662.007	12723.93
662.358	12801.44
662.708	12791.95
663.059	12745.17
663.409	12698.17
663.76	12793.08
664.11	12841.89
664.461	12784.72
664.811	12796.47
665.161	12752.63
665.511	12712.86
665.862	12814.1
666.212	12780.43
666.562	12780.2
666.912	12716.47
667.262	12784.95
667.612	12780.43
667.962	12791.5
668.312	12778.62
668.662	12829.69
669.011	12742.69
669.361	12744.5
669.711	12819.3
670.06	12777.71
670.41	12631.73
670.76	12718.51
671.109	12719.19
671.459	12749.92
671.808	12752.86
672.157	12722.8
672.507	12654.55
672.856	12611.17
673.205	12725.74
673.554	12684.16
673.904	12677.6
674.253	12676.93
674.602	12726.19
674.951	12503.82
675.3	12482.81
675.649	12654.33
675.998	12633.09
676.346	12635.8
676.695	12635.35
677.044	12598.96
677.393	12542.24
677.741	12597.61
678.09	12458.85
678.438	12506.99
678.787	12500.43
679.135	12547.44
679.484	12464.05
679.832	12414.79
680.181	12425.18
680.529	12411.85
680.877	12348.57
681.225	12349.93
681.573	12377.73
681.922	12388.57
682.27	12345.18
682.618	12289.37
682.966	12232.87
683.314	12311.29
683.661	12290.5
684.009	12206.2
684.357	12043.27
684.705	12156.94
685.053	12100.67
685.4	12175.92
685.748	12013.44
686.095	12035.59
686.443	12082.14
686.79	12004.85
687.138	11978.64
687.485	11993.78
687.832	11904.29
688.18	11920.11
688.527	11964.4
688.874	11790.85
689.221	11852.32
689.568	11814.35
689.915	11773.22
690.262	11757.4
690.609	11720.34
690.956	11749.04
691.303	11562.61
691.65	11540.69
691.997	11557.86
692.344	11439.22
692.69	11432.44
693.037	11528.71
693.383	11309.96
693.73	11340.92
694.077	11260.69
694.423	11294.82
694.769	11269.05
695.116	11173.46
695.462	11211.43
695.808	11194.25
696.155	11255.5
696.501	11047.14
696.847	11049.4
697.193	11019.12
697.539	11026.8
697.885	10964.88
698.231	10883.08
698.577	10919.46
698.923	10869.52
699.269	10747.26
699.614	10755.17
699.96	10658.9
700.306	10676.3
700.651	10590.88
700.997	10601.5
701.342	10535.74
701.688	10502.52
702.033	10512.69
702.379	10484.89
702.724	10455.52
703.069	10432.24
703.415	10372.58
703.76	10388.85
704.105	10374.84
704.45	10241.96
704.795	10240.83
705.14	10196.99
705.485	10133.26
705.83	10143.21
706.175	10076.09
706.52	10032.02
706.865	10011.01
707.209	9988.86
707.554	9958.81
707.899	10065.47
708.243	9900.28
708.588	9877.9
708.932	9865.25
709.277	9822.09
709.621	9809.43
709.966	9755.65
710.31	9760.85
710.654	9678.14
710.998	9791.8
711.342	9695.54
711.687	9697.57
712.031	9582.77
712.375	9640.4
712.719	9605.14
713.063	9613.73
713.407	9575.54
713.75	9480.85
714.094	9420.06
714.438	9507.07
714.782	9469.33
715.125	9499.61
715.469	9496.22
715.812	9409.67
716.156	9382.1
716.499	9345.94
716.843	9366.28
717.186	9317.24
717.53	9418.93
717.873	9386.39
718.216	9319.05
718.559	9340.52
718.902	9249.9
719.246	9223.46
719.589	9260.29
719.932	9183.23
720.275	9235.44
720.617	9187.07
720.96	9226.85
721.303	9209
721.646	9190.24
721.989	9132.84
722.331	9174.87
722.674	9128.09
723.016	9110.47
723.359	9107.3
723.701	9089.68
724.044	9147.75
724.386	9147.08
724.729	9148.66
725.071	9125.61
725.413	9037.93
725.755	9049
726.097	9010.81
726.439	9002.45
726.782	9067.3
727.124	9012.62
727.465	9013.52
727.807	9016.23
728.149	8987.98
728.491	8915.44
728.833	8966.06
729.175	8982.11
729.516	8929.23
729.858	9005.84
730.199	9006.29
730.541	8866.63
730.882	8970.58
731.224	8951.37
731.565	8911.38
731.906	8889
732.248	8943.47
732.589	8896.24
732.93	8878.83
733.271	8887.42
733.612	8959.96
733.953	8905.5
734.294	8922.22
734.635	8882.22
734.976	8899.62
735.317	8852.85
735.658	8901.43
735.999	8918.83
736.339	8901.21
736.68	8931.94
737.021	8878.83
737.361	8889.46
737.702	8914.99
738.042	8908.21
738.383	8877.25
738.723	8949.79
739.063	8919.74
739.404	8997.25
739.744	8949.34
740.084	8949.34
740.424	8919.06
740.764	8989.79
741.104	8997.93
741.444	9025.95
741.784	9001.99
742.124	9021.43
742.464	9006.97
742.804	9044.71
743.143	9059.62
743.483	9150.92
743.823	9100.98
744.162	9142.78
744.502	9099.39
744.841	9147.98
745.181	9223.68
745.52	9224.36
745.86	9290.35
746.199	9266.85
746.538	9338.03
746.877	9407.63
747.216	9463
747.556	9440.63
747.895	9514.07
748.234	9535.54
748.573	9558.14
748.911	9627.29
749.25	9661.41
749.589	9695.76
749.928	9842.2
750.267	9898.47
750.605	9888.53
750.944	9992.03
751.283	10026.37
751.621	10120.16
751.96	10206.94
752.298	10250.78
752.636	10456.42
752.975	10438.12
753.313	10491.22
753.651	10704.32
753.989	10703.42
754.327	10860.25
754.666	10954.49
755.004	11033.58
755.342	11181.15
755.679	11326.68
756.017	11302.5
756.355	11537.3
756.693	11662.04
757.031	11826.55
757.368	11870.39
757.706	12124.4
758.044	12203.94
758.381	12401.45
758.719	12511.06
759.056	12670.83
