Data from hue_200_FLMS001491_00069.txt Node
Date: Tue Feb 07 16:43:47 GMT 2017
User: dcchb
Spectrometer: FLMS00149
Trigger mode: 0
Integration Time (sec): 2.000000E-2
Scans to average: 10
Electric dark correction enabled: true
Nonlinearity correction enabled: false
Boxcar width: 0
XAxis mode: Wavelengths
Number of Pixels in Spectrum: 2048
>>>>>Begin Spectral Data<<<<<
341.393	-0.4
341.776	-0.4
342.16	-0.4
342.543	-59.83
342.927	-56.89
343.31	-84.91
343.693	-56.44
344.077	-47.63
344.46	-69.32
344.843	-41.3
345.226	-39.49
345.61	-41.75
345.993	-31.13
346.376	7.51
346.759	18.14
347.142	26.95
347.525	44.8
347.908	33.05
348.291	78.47
348.674	93.39
349.057	109.66
349.44	144.01
349.823	166.61
350.206	156.89
350.588	189.66
350.971	195.76
351.354	239.82
351.737	237.34
352.119	249.99
352.502	276.66
352.884	291.12
353.267	254.51
353.65	324.79
354.032	288.64
354.414	305.59
354.797	315.75
355.179	328.18
355.562	306.04
355.944	340.39
356.326	357.34
356.709	338.35
357.091	345.81
357.473	334.96
357.855	329.77
358.238	337.9
358.62	322.76
359.002	333.83
359.384	355.3
359.766	337.22
360.148	344
360.53	330.22
360.912	335.41
361.294	325.7
361.676	357.34
362.057	347.17
362.439	334.51
362.821	336.54
363.203	330.67
363.584	358.47
363.966	326.15
364.348	321.4
364.729	343.55
365.111	338.13
365.493	337.9
365.874	339.48
366.256	339.26
366.637	322.76
367.019	347.39
367.4	336.54
367.781	320.05
368.163	310.78
368.544	313.72
368.925	320.5
369.306	312.59
369.688	309.65
370.069	308.07
370.45	318.47
370.831	321.4
371.212	316.66
371.593	336.32
371.974	324.34
372.355	324.34
372.736	326.38
373.117	318.47
373.498	325.02
373.879	329.99
374.26	330.67
374.641	308.75
375.021	323.66
375.402	318.24
375.783	353.27
376.163	326.6
376.544	334.74
376.925	310.1
377.305	319.37
377.686	340.16
378.066	326.15
378.447	342.19
378.827	358.24
379.208	332.93
379.588	344.23
379.968	340.39
380.349	341.29
380.729	346.94
381.109	349.65
381.489	361.4
381.87	356.66
382.25	364.11
382.63	348.75
383.01	357.34
383.39	358.24
383.77	363.89
384.15	347.17
384.53	377.9
384.91	343.1
385.29	362.53
385.67	372.7
386.049	381.74
386.429	366.6
386.809	357.56
387.189	361.4
387.568	368.18
387.948	390.1
388.328	367.96
388.707	371.12
389.087	383.55
389.466	389.2
389.846	388.29
390.225	405.92
390.605	388.52
390.984	383.1
391.363	381.52
391.743	384.45
392.122	388.75
392.501	397.79
392.881	400.95
393.26	399.82
393.639	388.97
394.018	395.98
394.397	414.06
394.776	406.15
395.155	422.64
395.534	427.84
395.913	413.6
396.292	403.89
396.671	433.49
397.05	419.48
397.429	418.58
397.808	399.82
398.186	416.99
398.565	407.28
398.944	438.01
399.323	447.95
399.701	423.77
400.08	435.07
400.458	437.11
400.837	464.9
401.215	436.66
401.594	432.59
401.972	457.45
402.351	452.7
402.729	444.34
403.107	457.22
403.486	445.47
403.864	470.55
404.242	486.37
404.62	496.31
404.999	493.6
405.377	497.44
405.755	495.86
406.133	499.93
406.511	527.5
406.889	492.47
407.267	519.82
407.645	540.61
408.023	516.65
408.401	552.81
408.779	542.19
409.156	553.94
409.534	575.41
409.912	598.68
410.29	590.32
410.667	601.17
411.045	574.28
411.422	603.88
411.8	605.92
412.178	621.74
412.555	609.31
412.933	620.15
413.31	647.95
413.687	661.28
414.065	669.64
414.442	677.78
414.819	700.15
415.197	699.7
415.574	727.49
415.951	713.94
416.328	746.7
416.705	768.62
417.082	759.81
417.46	771.11
417.837	791.22
418.214	796.19
418.591	799.13
418.967	797.55
419.344	806.59
419.721	821.96
420.098	838
420.475	862.63
420.852	882.07
421.228	877.77
421.605	903.31
421.982	892.91
422.358	918.45
422.735	921.39
423.111	961.16
423.488	946.92
423.864	994.15
424.241	1026.02
424.617	1049.75
424.994	1023.08
425.37	1051.78
425.746	1070.54
426.123	1091.33
426.499	1106.02
426.875	1124.32
427.251	1127.48
427.627	1165.45
428.003	1162.96
428.379	1184.66
428.756	1185.79
429.132	1212.91
429.507	1230.08
429.883	1222.4
430.259	1249.52
430.635	1250.42
431.011	1244.09
431.387	1316.86
431.763	1329.06
432.138	1346.69
432.514	1393.47
432.89	1370.42
433.265	1425.78
433.641	1448.38
434.016	1477.76
434.392	1473.69
434.767	1531.54
435.143	1548.72
435.518	1565.44
435.894	1591.43
436.269	1619
436.644	1673.23
437.02	1706
437.395	1694.02
437.77	1735.15
438.145	1792.78
438.52	1826.68
438.895	1827.13
439.271	1822.61
439.646	1910.29
440.021	1898.09
440.395	1933.79
440.77	1926.33
441.145	1950.74
441.52	2059.44
441.895	2071.41
442.27	2085.88
442.645	2077.97
443.019	2114.13
443.394	2143.5
443.769	2163.84
444.143	2124.75
444.518	2216.04
444.892	2200.22
445.267	2209.72
445.641	2228.47
446.016	2225.76
446.39	2309.83
446.764	2308.7
447.139	2301.46
447.513	2335.14
447.887	2364.97
448.262	2345.08
448.636	2397.51
449.01	2412.2
449.384	2456.04
449.758	2464.4
450.132	2503.27
450.506	2519.99
450.88	2535.81
451.254	2538.75
451.628	2554.11
452.002	2646.99
452.376	2644.51
452.75	2664.85
453.123	2636.82
453.497	2700.32
453.871	2733.54
454.244	2806.31
454.618	2797.72
454.992	2845.18
455.365	2806.31
455.739	2905.97
456.112	2943.26
456.486	2985.74
456.859	2986.42
457.232	3063.48
457.606	3039.52
457.979	3071.39
458.352	3153.87
458.725	3177.83
459.099	3220.99
459.472	3298.95
459.845	3287.65
460.218	3332.17
460.591	3369.69
460.964	3379.18
461.337	3434.99
461.71	3546.63
462.083	3544.14
462.456	3558.16
462.829	3569.68
463.201	3631.83
463.574	3627.76
463.947	3748.21
464.32	3807.19
464.692	3784.14
465.065	3854.64
465.438	3905.72
465.81	3929.22
466.183	4022.78
466.555	4127.18
466.928	4082.89
467.3	4138.03
467.672	4202.21
468.045	4310.23
468.417	4299.83
468.789	4328.98
469.161	4367.4
469.534	4466.83
469.906	4507.06
470.278	4525.81
470.65	4641.29
471.022	4712.47
471.394	4771.68
471.766	4801.96
472.138	4867.95
472.51	4930.77
472.882	5026.59
473.253	5095.97
473.625	5139.58
473.997	5243.53
474.369	5283.76
474.74	5361.05
475.112	5462.29
475.484	5540.93
475.855	5603.75
476.227	5662.96
476.598	5770.98
476.97	5822.73
477.341	5958.32
477.713	6050.97
478.084	6098.65
478.455	6215.94
478.827	6221.14
479.198	6505.2
479.569	6428.59
479.94	6603.27
480.311	6671.75
480.682	6825.87
481.053	6929.37
481.424	7020.44
481.795	7052.3
482.166	7228.57
482.537	7281.67
482.908	7419.75
483.279	7463.59
483.65	7648.89
484.021	7774.54
484.391	7847.31
484.762	7882.56
485.133	7954.2
485.503	8032.39
485.874	8228.54
486.244	8269.22
486.615	8385.15
486.985	8449.1
487.356	8647.51
487.726	8753.27
488.097	8855.42
488.467	8880.27
488.837	9002.98
489.207	9214.28
489.578	9234.16
489.948	9319.81
490.318	9398.45
490.688	9432.8
491.058	9621.72
491.428	9736.52
491.798	9818.1
492.168	9953.02
492.538	10001.38
492.908	10063.75
493.278	10209.51
493.648	10184.2
494.017	10326.11
494.387	10409.05
494.757	10500.12
495.126	10493.11
495.496	10553.23
495.866	10585.54
496.235	10793.67
496.605	10816.27
496.974	10826.89
497.344	10915.7
497.713	10959.09
498.082	11016.94
498.452	11137.39
498.821	11060.1
499.19	11179.2
499.559	11175.58
499.928	11308.69
500.298	11374.45
500.667	11454.44
501.036	11369.25
501.405	11477.72
501.774	11499.42
502.143	11594.78
502.512	11590.71
502.88	11627.1
503.249	11613.76
503.618	11675.46
503.987	11800.2
504.356	11724.27
504.724	11863.02
505.093	11878.39
505.462	11928.56
505.83	11957.48
506.199	12068.44
506.567	12086.52
506.936	12062.11
507.304	12180.75
507.672	12196.35
508.041	12225.5
508.409	12337.13
508.777	12307.3
509.145	12331.26
509.514	12314.31
509.882	12415.1
510.25	12423.01
510.618	12525.15
510.986	12481.99
511.354	12577.13
511.722	12607.18
512.09	12738.03
512.458	12691.7
512.826	12744.81
513.193	12716.78
513.561	12744.81
513.929	12754.3
514.297	12904.12
514.664	12929.89
515.032	12944.8
515.4	12942.99
515.767	12946.38
516.135	12943.9
516.502	12826.16
516.869	13045.14
517.237	13012.37
517.604	12986.83
517.972	13059.6
518.339	13090.11
518.706	13126.04
519.073	13077
519.44	13164.68
519.808	13312.25
520.175	13157.68
520.542	13302.31
520.909	13339.37
521.276	13251.46
521.643	13340.27
522.009	13378.01
522.376	13368.29
522.743	13370.1
523.11	13467.27
523.477	13449.87
523.843	13469.53
524.21	13564.22
524.577	13606.93
524.943	13594.73
525.31	13630.88
525.676	13612.81
526.043	13705.68
526.409	13696.65
526.776	13745.91
527.142	13690.54
527.508	13718.79
527.874	13735.97
528.241	13761.05
528.607	13680.6
528.973	13815.06
529.339	13778.23
529.705	13749.53
530.071	13776.87
530.437	13770.54
530.803	13751.33
531.169	13778.68
531.535	13751.11
531.901	13660.94
532.267	13686.02
532.632	13710.43
532.998	13702.07
533.364	13747.49
533.73	13646.03
534.095	13649.87
534.461	13722.63
534.826	13730.77
535.192	13674.27
535.557	13617.55
535.923	13520.38
536.288	13577.78
536.653	13573.94
537.019	13412.36
537.384	13408.74
537.749	13435.18
538.114	13410.33
538.479	13429.08
538.845	13325.58
539.21	13239.71
539.575	13279.03
539.94	13253.27
540.305	13189.09
540.67	13088.3
541.034	13069.77
541.399	13123.1
541.764	13019.83
542.129	13029.32
542.494	13059.37
542.858	13010.34
543.223	12931.92
543.587	12942.09
543.952	12787.97
544.316	12821.87
544.681	12831.36
545.045	12714.98
545.41	12817.12
545.774	12695.99
546.138	12543.91
546.503	12593.4
546.867	12610.8
547.231	12560.63
547.595	12524.25
547.959	12522.89
548.324	12401.31
548.688	12345.72
549.052	12383.69
549.416	12387.75
549.779	12254.65
550.143	12207.19
550.507	12325.83
550.871	12218.27
551.235	12114.99
551.599	12169.23
551.962	12095.78
552.326	12131.71
552.689	12067.31
553.053	12007.88
553.417	11980.31
553.78	12039.06
554.143	11899.86
554.507	11905.96
554.87	11842.91
555.234	11951.15
555.597	11830.48
555.96	11815.79
556.323	11765.62
556.686	11777.6
557.05	11847.65
557.413	11816.02
557.776	11748.45
558.139	11756.58
558.502	11782.12
558.865	11708.22
559.228	11811.5
559.59	11689.69
559.953	11610.37
560.316	11755.45
560.679	11673.87
561.041	11731.73
561.404	11784.83
561.767	11779.18
562.129	11658.28
562.492	11752.97
562.854	11686.75
563.217	11677.49
563.579	11661.44
563.941	11740.54
564.304	11718.62
564.666	11781.67
565.028	11713.19
565.39	11745.74
565.753	11774.21
566.115	11772.85
566.477	11763.14
566.839	11783.48
567.201	11828.9
567.563	11703.25
567.925	11815.34
568.287	11803.36
568.648	11821.89
569.01	11833.42
569.372	11847.65
569.734	11769.92
570.095	11870.93
570.457	11878.16
570.819	11883.13
571.18	11805.85
571.542	11931.04
571.903	11900.99
572.265	11913.19
572.626	11901.89
572.987	11967.2
573.349	11881.55
573.71	11926.07
574.071	11844.04
574.432	11963.13
574.794	11991.15
575.155	12028.89
575.516	11950.93
575.877	11941.44
576.238	11976.24
576.599	12076.58
576.96	12026.63
577.32	12016.24
577.681	12055.11
578.042	12048.33
578.403	11986.63
578.763	12018.72
579.124	12044.71
579.485	12084.48
579.845	12040.87
580.206	12105.05
580.566	12072.51
580.927	12045.39
581.287	12072.73
581.648	12023.7
582.008	12112.28
582.368	12092.39
582.728	12088.55
583.089	12044.71
583.449	12040.19
583.809	12054.2
584.169	12070.25
584.529	12037.93
584.889	12088.78
585.249	12051.72
585.609	11947.31
585.969	12050.59
586.329	11987.99
586.688	11937.37
587.048	12024.83
587.408	11984.37
587.768	11959.74
588.127	11938.27
588.487	11972.17
588.846	12070.93
589.206	11883.59
589.565	11956.58
589.925	11945.73
590.284	11938.73
590.643	11969.01
591.003	11884.49
591.362	11958.16
591.721	11993.64
592.08	11878.16
592.44	11908.22
592.799	11902.57
593.158	11872.96
593.517	11813.53
593.876	11918.84
594.235	11838.62
594.593	11868.44
594.952	11861.67
595.311	11822.8
595.67	11836.58
596.029	11927.43
596.387	11912.29
596.746	11898.27
597.104	11885.62
597.463	11879.07
597.822	11888.33
598.18	11755.45
598.538	11774.66
598.897	11919.74
599.255	11749.58
599.613	11883.59
599.972	11890.14
600.33	11860.08
600.688	11793.19
601.046	11871.38
601.404	11872.74
601.762	11877.48
602.12	11820.99
602.478	11818.05
602.836	11843.81
603.194	11869.35
603.552	11862.34
603.91	11777.37
604.268	11794.77
604.625	11836.58
604.983	11884.49
605.341	11678.39
605.698	11842.68
606.056	11916.35
606.413	11787.09
606.771	11819.86
607.128	11869.8
607.485	11782.12
607.843	11833.42
608.2	11841.55
608.557	11915.9
608.914	11825.73
609.272	11878.84
609.629	11941.89
609.986	11965.84
610.343	11885.62
610.7	12034.09
611.057	11958.84
611.414	11942.57
611.771	11976.01
612.127	12031.6
612.484	12044.71
612.841	12080.87
613.198	11923.36
613.554	11996.58
613.911	12108.66
614.267	12002.45
614.624	12046.75
614.98	12054.2
615.337	12023.02
615.693	12058.72
616.05	12005.62
616.406	12070.47
616.762	12029.34
617.118	12001.55
617.475	12029.12
617.831	12133.3
618.187	12048.78
618.543	12132.84
618.899	12176.01
619.255	12058.27
619.611	12055.33
619.967	12204.26
620.323	12149.57
620.678	12140.98
621.034	12067.08
621.39	12058.95
621.746	12058.04
622.101	12228.66
622.457	12145.5
622.812	12139.85
623.168	12173.75
623.523	12103.24
623.879	12184.14
624.234	12107.53
624.589	12114.77
624.945	12110.7
625.3	12112.73
625.655	12090.36
626.01	12169.68
626.365	12192.73
626.72	12181.88
627.075	12104.37
627.43	11987.09
627.785	12055.78
628.14	12062.79
628.495	12077.03
628.85	12037.25
629.205	12022.79
629.559	12011.94
629.914	12077.93
630.269	12002
630.623	11952.06
630.978	11936.92
631.332	11961.78
631.687	12027.99
632.041	11882.68
632.396	11950.02
632.75	11858.73
633.104	11886.3
633.459	11868.9
633.813	11919.74
634.167	11913.19
634.521	11864.15
634.875	11849.69
635.229	11815.57
635.583	11774.89
635.937	11746.41
636.291	11776.7
636.645	11738.28
636.999	11650.82
637.352	11754.55
637.706	11674.1
638.06	11764.49
638.413	11685.17
638.767	11720.2
639.121	11675.46
639.474	11580.09
639.828	11595.46
640.181	11643.37
640.534	11703.7
640.888	11525.4
641.241	11512.97
641.594	11557.49
641.947	11556.36
642.301	11552.3
642.654	11526.76
643.007	11530.37
643.36	11511.17
643.713	11526.53
644.066	11517.27
644.419	11458.06
644.771	11437.04
645.124	11303.04
645.477	11325.18
645.83	11178.07
646.182	11152.76
646.535	11138.52
646.888	11116.37
647.24	11084.51
647.593	11163.38
647.945	11066.21
648.298	11079.09
648.65	11014.68
649.002	11037.96
649.355	11061.46
649.707	11088.58
650.059	11105.53
650.411	11285.41
650.763	11315.01
651.115	11363.6
651.467	11334.9
651.819	11304.39
652.171	11335.35
652.523	11326.54
652.875	11272.75
653.227	11282.25
653.578	11367.22
653.93	11356.59
654.282	11313.43
654.633	11252.19
654.985	11280.44
655.337	11331.96
655.688	11374.45
656.039	11354.56
656.391	11306.2
656.742	11245.86
657.094	11242.92
657.445	11389.14
657.796	11326.31
658.147	11208.8
658.498	11375.8
658.849	11364.5
659.2	11329.02
659.551	11248.57
659.902	11357.05
660.253	11285.64
660.604	11311.62
660.955	11337.16
661.306	11315.69
661.656	11294.22
662.007	11374.45
662.358	11399.08
662.708	11336.26
663.059	11330.61
663.409	11253.55
663.76	11410.15
664.11	11405.63
664.461	11362.92
664.811	11416.93
665.161	11390.94
665.511	11298.97
665.862	11292.41
666.212	11394.11
666.562	11274.34
666.912	11335.58
667.262	11281.57
667.612	11390.94
667.962	11338.29
668.312	11336.26
668.662	11406.08
669.011	11338.52
669.361	11381
669.711	11272.98
670.06	11287.44
670.41	11298.52
670.76	11260.1
671.109	11225.3
671.459	11205.19
671.808	11216.71
672.157	11327.89
672.507	11165.64
672.856	11218.74
673.205	11259.42
673.554	11285.64
673.904	11186.88
674.253	11190.72
674.602	11175.36
674.951	11085.19
675.3	11024.63
675.649	11138.52
675.998	11133.55
676.346	11159.99
676.695	11202.47
677.044	11127.22
677.393	11115.24
677.741	11124.51
678.09	11092.19
678.438	11085.41
678.787	11083.61
679.135	11045.64
679.484	10985.76
679.832	11045.42
680.181	11017.62
680.529	10970.16
680.877	10956.6
681.225	10992.76
681.573	11013.55
681.922	10966.77
682.27	10860.11
682.618	10847.45
682.966	10886.55
683.314	10851.3
683.661	10772.88
684.009	10755.93
684.357	10741.02
684.705	10713.67
685.053	10705.99
685.4	10737.4
685.748	10691.75
686.095	10582.15
686.443	10552.1
686.79	10532.89
687.138	10568.37
687.485	10625.77
687.832	10503.51
688.18	10527.69
688.527	10416.51
688.874	10400.91
689.221	10392.78
689.568	10403.4
689.915	10354.59
690.262	10361.37
690.609	10336.96
690.956	10210.41
691.303	10279.33
691.65	10194.36
691.997	10209.28
692.344	10122.95
692.69	10122.73
693.037	10065.55
693.383	10015.16
693.73	10052.9
694.077	10037.08
694.423	9946.46
694.769	9959.57
695.116	9862.62
695.462	9851.32
695.808	9856.29
696.155	9865.33
696.501	9745.11
696.847	9756.64
697.193	9661.05
697.539	9654.49
697.885	9571.33
698.231	9506.02
698.577	9618.56
698.923	9509.86
699.269	9454.27
699.614	9455.18
699.96	9393.48
700.306	9378.34
700.651	9373.14
700.997	9314.16
701.342	9287.5
701.688	9268.74
702.033	9260.15
702.379	9198.01
702.724	9169.76
703.069	9211.11
703.415	9047.5
703.76	9080.27
704.105	9058.58
704.45	9094.51
704.795	8947.84
705.14	8944.91
705.485	8892.7
705.83	8878.24
706.175	8811.12
706.52	8920.27
706.865	8817
707.209	8813.84
707.554	8807.06
707.899	8743.56
708.243	8801.63
708.588	8633.95
708.932	8632.82
709.277	8676.66
709.621	8674.63
709.966	8570.45
710.31	8582.66
710.654	8445.94
710.998	8513.5
711.342	8512.15
711.687	8551.24
712.031	8451.59
712.375	8432.6
712.719	8446.84
713.063	8468.08
713.407	8413.62
713.75	8388.76
714.094	8397.8
714.438	8341.08
714.782	8335.43
715.125	8329.33
715.469	8292.27
715.812	8248.65
716.156	8231.48
716.499	8217.92
716.843	8213.63
717.186	8181.31
717.53	8218.82
717.873	8191.71
718.216	8162.78
718.559	8119.84
718.902	8068.32
719.246	8105.38
719.589	8102.22
719.932	8092.73
720.275	8126.17
720.617	8026.51
720.96	8008.21
721.303	8040.98
721.646	8087.08
721.989	8027.87
722.331	8094.53
722.674	8021.54
723.016	8045.27
723.359	7973.41
723.701	8023.8
724.044	7978.6
724.386	7921.66
724.729	7964.82
725.071	7939.06
725.413	8018.38
725.755	7932.28
726.097	7845.95
726.439	7902.9
726.782	7930.02
727.124	7919.62
727.465	7862.22
727.807	7901.54
728.149	7859.28
728.491	7915.55
728.833	7926.63
729.175	7869.91
729.516	7897.25
729.858	7872.84
730.199	7858.15
730.541	7861.54
730.882	7814.77
731.224	7873.07
731.565	7880.53
731.906	7852.05
732.248	7805.05
732.589	7864.26
732.93	7802.11
733.271	7831.94
733.612	7854.99
733.953	7839.4
734.294	7826.52
734.635	7774.99
734.976	7791.26
735.317	7788.55
735.658	7792.85
735.999	7820.19
736.339	7808.21
736.68	7843.47
737.021	7843.01
737.361	7823.35
737.702	7878.95
738.042	7861.77
738.383	7893.18
738.723	7917.36
739.063	7802.56
739.404	7940.19
739.744	7910.36
740.084	7848.21
740.424	7904.48
740.764	7892.73
741.104	7918.04
741.444	7932.05
741.784	7884.82
742.124	7965.27
742.464	7965.5
742.804	7955.78
743.143	8034.65
743.483	8039.85
743.823	8019.73
744.162	8030.81
744.502	8054.99
744.841	8120.07
745.181	8142.67
745.52	8156.68
745.86	8162.1
746.199	8247.75
746.538	8254.98
746.877	8326.84
747.216	8360.06
747.556	8393.28
747.895	8485.48
748.234	8458.82
748.573	8529.55
748.911	8570
749.25	8609.1
749.589	8650.22
749.928	8791.92
750.267	8827.62
750.605	8895.64
750.944	8980.16
751.283	9052.02
751.621	9102.19
751.96	9187.16
752.298	9280.04
752.636	9441.16
752.975	9459.47
753.313	9525
753.651	9749.86
753.989	9730.87
754.327	9882.28
754.666	10007.93
755.004	10183.07
755.342	10263.06
755.679	10358.65
756.017	10433.68
756.355	10655.37
756.693	10766.78
757.031	10959.99
757.368	11090.61
757.706	11226.88
758.044	11354.56
