Data from hue_24_FLMS001491_00068.txt Node
Date: Tue Feb 07 17:12:36 GMT 2017
User: dcchb
Spectrometer: FLMS00149
Trigger mode: 0
Integration Time (sec): 2.000000E-2
Scans to average: 10
Electric dark correction enabled: true
Nonlinearity correction enabled: false
Boxcar width: 0
XAxis mode: Wavelengths
Number of Pixels in Spectrum: 2048
>>>>>Begin Spectral Data<<<<<
341.393	-8.04
341.776	-8.04
342.16	-8.04
342.543	-55.04
342.927	-61.82
343.31	-49.17
343.693	-80.8
344.077	-60.92
344.46	-79.67
344.843	-69.96
345.226	-46.45
345.61	-36.51
345.993	-35.83
346.376	-12.1
346.759	22.25
347.142	24.28
347.525	52.75
347.908	69.25
348.291	84.62
348.674	103.15
349.057	115.12
349.44	132.3
349.823	147.44
350.206	171.85
350.588	208.23
350.971	235.12
351.354	238.74
351.737	243.93
352.119	266.31
352.502	263.59
352.884	277.83
353.267	296.14
353.65	300.2
354.032	316.7
354.414	331.62
354.797	320.54
355.179	332.75
355.562	316.47
355.944	347.89
356.326	331.84
356.709	338.4
357.091	351.5
357.473	358.73
357.855	371.84
358.238	349.47
358.62	365.96
359.002	352.18
359.384	357.6
359.766	350.82
360.148	362.12
360.53	351.28
360.912	366.19
361.294	343.14
361.676	343.59
362.057	356.25
362.439	360.32
362.821	330.26
363.203	336.81
363.584	337.94
363.966	342.46
364.348	339.3
364.729	343.59
365.111	351.95
365.493	329.58
365.874	333.88
366.256	334.55
366.637	335.23
367.019	323.71
367.4	354.21
367.781	318.73
368.163	325.29
368.544	326.87
368.925	330.49
369.306	341.33
369.688	326.87
370.069	317.38
370.45	342.69
370.831	330.94
371.212	339.75
371.593	333.65
371.974	326.64
372.355	335.01
372.736	348.34
373.117	348.79
373.498	348.11
373.879	342.91
374.26	326.19
374.641	335.68
375.021	318.06
375.402	328
375.783	363.25
376.163	343.37
376.544	344.72
376.925	337.94
377.305	320.99
377.686	357.83
378.066	372.07
378.447	373.87
378.827	344.04
379.208	371.61
379.588	352.86
379.968	338.17
380.349	372.74
380.729	368.22
381.109	360.09
381.489	350.37
381.87	356.7
382.25	358.96
382.63	363.48
383.01	359.64
383.39	382.91
383.77	360.77
384.15	399.64
384.53	398.28
384.91	386.53
385.29	358.96
385.67	370.48
386.049	382.01
386.429	367.32
386.809	392.86
387.189	377.72
387.568	371.61
387.948	381.78
388.328	396.02
388.707	401.22
389.087	381.11
389.466	354.67
389.846	406.64
390.225	367.32
390.605	398.05
390.984	392.86
391.363	393.08
391.743	425.85
392.122	414.1
392.501	393.99
392.881	410.48
393.26	436.25
393.639	415.91
394.018	425.62
394.397	421.33
394.776	421.1
395.155	435.12
395.534	419.75
395.913	410.71
396.292	455.45
396.671	419.75
397.05	424.72
397.429	409.81
397.808	418.84
398.186	432.18
398.565	442.8
398.944	447.54
399.323	446.87
399.701	448.45
400.08	434.66
400.458	440.77
400.837	438.51
401.215	467.43
401.594	442.12
401.972	442.35
402.351	448.22
402.729	452.06
403.107	461.78
403.486	471.05
403.864	457.26
404.242	464.27
404.62	471.5
404.999	489.58
405.377	475.11
405.755	482.8
406.133	479.63
406.511	491.61
406.889	494.1
407.267	498.39
407.645	473.53
408.023	510.14
408.401	505.62
408.779	511.5
409.156	518.96
409.534	506.98
409.912	526.19
410.29	492.52
410.667	536.81
411.045	530.71
411.422	528.9
411.8	520.09
412.178	563.93
412.555	529.12
412.933	541.55
413.31	562.57
413.687	553.3
414.065	542.46
414.442	554.21
414.819	541.78
415.197	560.54
415.574	586.07
415.951	593.53
416.328	570.71
416.705	590.82
417.082	567.77
417.46	575.68
417.837	589.01
418.214	594.21
418.591	608.67
418.967	603.02
419.344	631.04
419.721	611.83
420.098	608.9
420.475	601.89
420.852	635.79
421.228	621.33
421.605	631.95
421.982	622.23
422.358	660.87
422.735	646.18
423.111	638.5
423.488	639.63
423.864	655.22
424.241	672.4
424.617	674.66
424.994	659.29
425.37	679.4
425.746	659.97
426.123	696.13
426.499	677.37
426.875	720.53
427.251	701.1
427.627	708.1
428.003	692.06
428.379	707.42
428.756	732.51
429.132	742.68
429.507	742
429.883	766.41
430.259	778.84
430.635	751.04
431.011	778.61
431.387	790.13
431.763	802.79
432.138	782
432.514	799.63
432.89	817.93
433.265	832.17
433.641	830.59
434.016	823.35
434.392	836.46
434.767	844.14
435.143	836.24
435.518	851.15
435.894	857.03
436.269	867.42
436.644	878.27
437.02	886.4
437.395	882.34
437.77	882.11
438.145	926.63
438.52	893.63
438.895	927.98
439.271	927.53
439.646	952.39
440.021	961.66
440.395	961.66
440.77	953.75
441.145	968.89
441.52	962.79
441.895	989.68
442.27	972.28
442.645	973.41
443.019	1013.41
443.394	1001.88
443.769	999.17
444.143	1008.66
444.518	1019.28
444.892	1017.93
445.267	1007.98
445.641	1032.39
446.016	1012.73
446.39	1021.99
446.764	1062.67
447.139	1042.11
447.513	1074.87
447.887	1047.75
448.262	1056.57
448.636	1085.95
449.01	1101.54
449.384	1086.17
449.758	1091.37
450.132	1099.5
450.506	1124.82
450.88	1151.48
451.254	1138.37
451.628	1113.97
452.002	1170.69
452.376	1188.99
452.75	1198.94
453.123	1188.09
453.497	1203.91
453.871	1208.2
454.244	1235.55
454.618	1222.67
454.992	1238.94
455.365	1257.01
455.739	1257.92
456.112	1273.29
456.486	1301.31
456.859	1321.42
457.232	1368.65
457.606	1320.06
457.979	1356.9
458.352	1353.06
458.725	1398.25
459.099	1418.82
459.472	1392.6
459.845	1430.57
460.218	1461.98
460.591	1454.52
460.964	1466.28
461.337	1491.36
461.71	1514.64
462.083	1528.42
462.456	1539.04
462.829	1560.51
463.201	1577.91
463.574	1552.37
463.947	1619.94
464.32	1642.54
464.692	1686.38
465.065	1652.71
465.438	1677.79
465.81	1703.33
466.183	1725.93
466.555	1730.45
466.928	1743.78
467.3	1763.67
467.672	1807.73
468.045	1836.66
468.417	1841.63
468.789	1848.19
469.161	1902.42
469.534	1907.39
469.906	1946.71
470.278	1990.78
470.65	1977.67
471.022	2030.55
471.394	2072.13
471.766	2085.24
472.138	2130.89
472.51	2167.27
472.882	2202.3
473.253	2187.39
473.625	2228.29
473.997	2292.24
474.369	2290.66
474.74	2355.97
475.112	2401.17
475.484	2411.11
475.855	2486.81
476.227	2527.72
476.598	2555.29
476.97	2602.29
477.341	2656.98
477.713	2726.13
478.084	2710.99
478.455	2775.39
478.827	2860.81
479.198	2882.96
479.569	2926.58
479.94	3031.43
480.311	3074.37
480.682	3147.81
481.053	3221.71
481.424	3256.06
481.795	3298.54
482.166	3360.91
482.537	3417.64
482.908	3446.56
483.279	3527.69
483.65	3639.55
484.021	3696.5
484.391	3728.36
484.762	3788.93
485.133	3818.98
485.503	3883.39
485.874	4020.33
486.244	4059.88
486.615	4126.09
486.985	4159.09
487.356	4242.02
487.726	4316.14
488.097	4381.68
488.467	4436.37
488.837	4502.81
489.207	4577.15
489.578	4679.3
489.948	4696.7
490.318	4815.34
490.688	4830.93
491.058	4934.88
491.428	4962.23
491.798	5039.06
492.168	5169.68
492.538	5191.83
492.908	5267.53
493.278	5328.32
493.648	5369.45
494.017	5452.61
494.387	5519.5
494.757	5601.76
495.126	5620.74
495.496	5644.7
495.866	5645.37
496.235	5725.37
496.605	5815.54
496.974	5844.46
497.344	5924.69
497.713	5975.31
498.082	6019.83
498.452	6074.06
498.821	6124.91
499.19	6113.84
499.559	6203.33
499.928	6269.09
500.298	6310.67
500.667	6399.48
501.036	6378.01
501.405	6474.05
501.774	6454.62
502.143	6495.97
502.512	6525.13
502.88	6585.24
503.249	6672.01
503.618	6689.64
503.987	6733.71
504.356	6764.44
504.724	6799.02
505.093	6871.1
505.462	6842.86
505.83	6880.14
506.199	6952.23
506.567	7021.16
506.936	6982.97
507.304	7129.4
507.672	7204.88
508.041	7215.28
508.409	7195.62
508.777	7282.17
509.145	7294.82
509.514	7337.53
509.882	7337.31
510.25	7472.44
510.618	7468.38
510.986	7480.13
511.354	7572.56
511.722	7547.02
512.09	7629.5
512.458	7686.45
512.826	7688.03
513.193	7750.86
513.561	7763.28
513.929	7836.05
514.297	7958.08
514.664	7938.2
515.032	8048.02
515.4	8076.72
515.767	8010.51
516.135	8134.57
516.502	8096.84
516.869	8169.83
517.237	8212.76
517.604	8223.16
517.972	8295.02
518.339	8299.09
518.706	8421.8
519.073	8366.88
519.44	8382.48
519.808	8488.46
520.175	8469.71
520.542	8606.43
520.909	8652.07
521.276	8609.82
521.643	8732.98
522.009	8744.05
522.376	8816.82
522.743	8842.35
523.11	8938.62
523.477	8976.36
523.843	9089.58
524.21	9127.32
524.577	9212.29
524.943	9157.15
525.31	9260.42
525.676	9386.74
526.043	9326.86
526.409	9439.85
526.776	9512.84
527.142	9537.93
527.508	9567.53
527.874	9635.33
528.241	9612.28
528.607	9693.63
528.973	9852.5
529.339	9814.98
529.705	9910.35
530.071	9942.66
530.437	10053.17
530.803	10102.43
531.169	10123.9
531.535	10122.32
531.901	10141.75
532.267	10231.02
532.632	10263.33
532.998	10286.16
533.364	10395.98
533.73	10364.57
534.095	10452.03
534.461	10527.28
534.826	10620.38
535.192	10680.5
535.557	10677.56
535.923	10662.87
536.288	10771.12
536.653	10812.02
537.019	10802.3
537.384	10947.38
537.749	10926.59
538.114	11020.15
538.479	10996.87
538.845	11096.3
539.21	11056.53
539.575	11157.32
539.94	11144.66
540.305	11219.24
540.67	11157.77
541.034	11273.7
541.399	11199.8
541.764	11396.86
542.129	11436.18
542.494	11395.28
542.858	11510.3
543.223	11489.29
543.587	11582.85
543.952	11527.93
544.316	11638.89
544.681	11733.35
545.045	11748.72
545.41	11771.99
545.774	11836.85
546.138	11894.02
546.503	11904.19
546.867	11880.24
547.231	12075.94
547.595	12042.72
547.959	12097.41
548.324	12139.89
548.688	12138.54
549.052	12152.32
549.416	12238.87
549.779	12274.58
550.143	12302.83
550.507	12377.85
550.871	12467.12
551.235	12384.18
551.599	12500.56
551.962	12521.8
552.326	12544.85
552.689	12668.24
553.053	12593.89
553.417	12715.92
553.78	12764.06
554.143	12798.18
554.507	12796.37
554.87	12820.55
555.234	13038.63
555.597	12942.36
555.96	12969.02
556.323	13005.18
556.686	13098.06
557.05	13173.76
557.413	13240.88
557.776	13282.46
558.139	13315.91
558.502	13336.47
558.865	13322.69
559.228	13385.96
559.59	13489.24
559.953	13489.01
560.316	13636.12
560.679	13681.1
561.041	13740.53
561.404	13789.79
561.767	13794.09
562.129	13841.54
562.492	13950.01
562.854	13919.73
563.217	13977.58
563.579	14063.01
563.941	14102.1
564.304	14128.99
564.666	14203.34
565.028	14228.43
565.39	14224.13
565.753	14288.54
566.115	14497.12
566.477	14439.27
566.839	14552.03
567.201	14570.11
567.563	14615.76
567.925	14658.24
568.287	14705.02
568.648	14639.94
569.01	14836.09
569.372	14891.91
569.734	14829.09
570.095	15022.75
570.457	15146.59
570.819	15135.52
571.18	15143.66
571.542	15220.94
571.903	15333.71
572.265	15392.69
572.626	15478.34
572.987	15465.68
573.349	15502.29
573.71	15538
574.071	15737.76
574.432	15762.85
574.794	15786.8
575.155	15902.73
575.516	15926.23
575.877	16053.46
576.238	16144.99
576.599	16243.97
576.96	16316.28
577.32	16423.4
577.681	16541.36
578.042	16664.97
578.403	16791.75
578.763	16803.27
579.124	16991.52
579.485	17102.7
579.845	17330.49
580.206	17423.37
580.566	17447.55
580.927	17550.82
581.287	17904.49
581.648	17912.4
582.008	18163.24
582.368	18288.21
582.728	18459.95
583.089	18660.4
583.449	18813.84
583.809	18925.25
584.169	19313.49
584.529	19379.48
584.889	19748.96
585.249	19840.93
585.609	20010.42
585.969	20294.48
586.329	20476.4
586.688	20748.71
587.048	21035.7
587.408	21186.89
587.768	21417.61
588.127	21673.88
588.487	21954.32
588.846	22465.72
589.206	22477.93
589.565	22820.52
589.925	23266.38
590.284	23359.03
590.643	23776.42
591.003	24136.41
591.362	24437.87
591.721	24796.06
592.08	24996.96
592.44	25344.74
592.799	25590.16
593.158	25965.97
593.517	26289.58
593.876	26548.1
594.235	26963.46
594.593	27266.5
594.952	27704.23
595.311	27881.85
595.67	28256.98
596.029	28775.39
596.387	29103.97
596.746	29476.84
597.104	29628.7
597.463	29895.13
597.822	30339.41
598.18	30581.22
598.538	30868.89
598.897	31464.58
599.255	31647.18
599.613	32222.53
599.972	32382.52
600.33	32818.9
600.688	32929.4
601.046	33442.84
601.404	33825.42
601.762	33992.2
602.12	34542.02
602.478	34740.2
602.836	35176.12
603.194	35141.77
603.552	35473.74
603.91	35666.51
604.268	36035.76
604.625	36339.93
604.983	36744.44
605.341	36795.74
605.698	37379.68
606.056	37747.13
606.413	37871.42
606.771	38278.19
607.128	38592.3
607.485	38589.37
607.843	38936.48
608.2	39313.64
608.557	39786.62
608.914	39790.69
609.272	40219.61
609.629	40638.8
609.986	40886.71
610.343	40880.38
610.7	41322.63
611.057	41563.3
611.414	41449.4
611.771	41848.94
612.127	42067.24
612.484	42189.95
612.841	42498.42
613.198	42715.13
613.554	42796.49
613.911	43129.59
614.267	43408.22
614.624	43424.95
614.98	43730.47
615.337	44095.89
615.693	44185.83
616.05	44139.96
616.406	44613.16
616.762	44604.12
617.118	44908.97
617.475	44925.25
617.831	45180.38
618.187	45365.69
618.543	45551.44
618.899	45918.89
619.255	45908.95
619.611	45933.58
619.967	46349.16
620.323	46398.65
620.678	46272.33
621.034	46306
621.39	46411.53
621.746	46523.85
622.101	46980.78
622.457	46772.88
622.812	46980.33
623.168	47041.8
623.523	47260.1
623.879	47557.72
624.234	47168.35
624.589	47504.16
624.945	47506.42
625.3	47764.49
625.655	47720.88
626.01	47825.06
626.365	47865.28
626.72	47818.05
627.075	47853.76
627.43	47981.44
627.785	47987.54
628.14	48068.21
628.495	48223.69
628.85	48136.91
629.205	48044.26
629.559	48281.54
629.914	48193.18
630.269	48232.73
630.623	48169.23
630.978	48232.05
631.332	48444.47
631.687	48469.11
632.041	48353.63
632.396	48491.48
632.75	48375.1
633.104	48543.91
633.459	48349.34
633.813	48366.74
634.167	48465.72
634.521	48519.05
634.875	48613.28
635.229	48483.8
635.583	48364.48
635.937	48470.91
636.291	48534.42
636.645	48402.22
636.999	48408.77
637.352	48528.54
637.706	48297.81
638.06	48565.6
638.413	48499.84
638.767	48386.62
639.121	48391.82
639.474	48309.56
639.828	48397.02
640.181	48405.61
640.534	48365.83
640.888	48338.71
641.241	48128.78
641.594	48257.59
641.947	48431.37
642.301	48253.97
642.654	48303.69
643.007	48416.45
643.36	48249.23
643.713	48237.02
644.066	48470.24
644.419	48094.88
644.771	47949.35
645.124	47550.04
645.477	47496.25
645.83	47282.92
646.182	47199.54
646.535	47092.87
646.888	47257.84
647.24	46981.91
647.593	47235.92
647.945	47177.84
648.298	46966.77
648.65	46950.73
649.002	46905.31
649.355	47042.25
649.707	46985.08
650.059	47219.2
650.411	47837.94
650.763	47636.36
651.115	47989.12
651.467	47974.66
651.819	47917.48
652.171	47717.94
652.523	47783.02
652.875	47805.4
653.227	47590.49
653.578	47854.43
653.93	47784.83
654.282	47586.87
654.633	47576.93
654.985	47662.35
655.337	47647.89
655.688	47735.79
656.039	47749.58
656.391	47492.18
656.742	47555.46
657.094	47545.06
657.445	47662.12
657.796	47585.06
658.147	47453.54
658.498	47593.42
658.849	47606.3
659.2	47562.46
659.551	47499.41
659.902	47607.43
660.253	47481.34
660.604	47442.47
660.955	47380.55
661.306	47523.37
661.656	47491.96
662.007	47491.73
662.358	47459.64
662.708	47487.21
663.059	47494.44
663.409	47148.46
663.76	47551.84
664.11	47414.67
664.461	47430.72
664.811	47475.69
665.161	47430.26
665.511	47289.48
665.862	47360.44
666.212	47402.69
666.562	47481.79
666.912	47312.3
667.262	47334
667.612	47200.89
667.962	47390.27
668.312	47343.03
668.662	47454.22
669.011	47336.26
669.361	47263.26
669.711	47268.46
670.06	47203.38
670.41	47048.13
670.76	47046.09
671.109	47206.77
671.459	47097.17
671.808	47172.42
672.157	47232.98
672.507	46968.58
672.856	46875.93
673.205	47135.81
673.554	47239.53
673.904	46993.67
674.253	47178.29
674.602	47129.93
674.951	46585.99
675.3	46334.93
675.649	46964.06
675.998	46979.65
676.346	46944.63
676.695	47104.17
677.044	46713.67
677.393	46836.38
677.741	46968.81
678.09	46900.56
678.438	46694.92
678.787	46926.55
679.135	46829.38
679.484	46519.33
679.832	46722.49
680.181	46430.29
680.529	46521.81
680.877	46478.88
681.225	46336.73
681.573	46539.67
681.922	46352.33
682.27	46193.91
682.618	46212.67
682.966	46179.68
683.314	46216.28
683.661	46148.04
684.009	46060.81
684.357	45795.96
684.705	45760.93
685.053	45968.83
685.4	45798.89
685.748	45584.66
686.095	45515.74
686.443	45428.28
686.79	45440.03
687.138	45487.04
687.485	45530.43
687.832	45289.76
688.18	45334.73
688.527	45019.48
688.874	44941.29
689.221	44996.2
689.568	44939.03
689.915	44884.79
690.262	44847.96
690.609	44757.34
690.956	44565.03
691.303	44686.83
691.65	44423.34
691.997	44450.91
692.344	44221.08
692.69	44114.42
693.037	44141.09
693.383	43806.86
693.73	44000.52
694.077	43678.95
694.423	43702
694.769	43686.41
695.116	43612.51
695.462	43542.23
695.808	43369.81
696.155	43329.81
696.501	43189.92
696.847	43189.47
697.193	42779.99
697.539	42973.43
697.885	42683.27
698.231	42625.42
698.577	42476.5
698.923	42565.99
699.269	42440.11
699.614	42187.69
699.96	42079.67
700.306	42077.86
700.651	41973.01
700.997	41938.66
701.342	41853.91
701.688	41844.65
702.033	41545.22
702.379	41449.86
702.724	41392
703.069	41558.1
703.415	41044.67
703.76	41194.72
704.105	40949.3
704.45	40877.22
704.795	40863.43
705.14	40519.26
705.485	40650.33
705.83	40420.28
706.175	40489.2
706.52	40437.23
706.865	40287.85
707.209	40238.59
707.554	40160.85
707.899	40146.16
708.243	39937.13
708.588	39922.66
708.932	39707.76
709.277	39683.58
709.621	39764.7
709.966	39519.51
710.31	39517.48
710.654	39369.69
710.998	39406.29
711.342	39291.5
711.687	39123.59
712.031	39070.94
712.375	38899.42
712.719	39004.95
713.063	38807.21
713.407	38990.49
713.75	38731.96
714.094	38816.48
714.438	38616.94
714.782	38583.72
715.125	38581.01
715.469	38576.49
715.812	38312.31
716.156	38049.72
716.499	38027.12
716.843	38126.1
717.186	37888.59
717.53	38090.17
717.873	38080.23
718.216	37929.05
718.559	37711.88
718.902	37446.35
719.246	37615.61
719.589	37485.21
719.932	37285.22
720.275	37356.18
720.617	37410.87
720.96	37227.82
721.303	37272.79
721.646	37237.76
721.989	37114.83
722.331	37276.41
722.674	37065.79
723.016	37052.01
723.359	36931.78
723.701	36918.22
724.044	36791.22
724.386	36666.71
724.729	36731.56
725.071	36612.24
725.413	36609.08
725.755	36553.94
726.097	36410.44
726.439	36225.36
726.782	36249.77
727.124	36385.36
727.465	36101.07
727.807	36165.02
728.149	36136.78
728.491	35875.31
728.833	36056.78
729.175	35911.47
729.516	35847.29
729.858	35812.49
730.199	35810.46
730.541	35824.69
730.882	35622.44
731.224	35781.08
731.565	35501.99
731.906	35560.52
732.248	35513.29
732.589	35387.64
732.93	35330.92
733.271	35227.65
733.612	35263.13
733.953	35344.71
734.294	35150.36
734.635	34938.16
734.976	35274.65
735.317	34893.42
735.658	34915.34
735.999	34874.89
736.339	34878.05
736.68	34988.33
737.021	34934.32
737.361	34741.56
737.702	34923.7
738.042	34642.35
738.383	34542.69
738.723	34795.57
739.063	34477.38
739.404	34683.03
739.744	34481.23
740.084	34383.83
740.424	34395.13
740.764	34226.54
741.104	34411.62
741.444	34158.07
741.784	34097.73
742.124	34102.25
742.464	34159.2
742.804	34026.1
743.143	33991.3
743.483	34005.76
743.823	33771.41
744.162	33896.83
744.502	33830.4
744.841	33636.28
745.181	33916.95
745.52	33683.28
745.86	33777.29
746.199	33646.9
746.538	33577.07
746.877	33650.97
747.216	33603.96
747.556	33486.68
747.895	33470.41
748.234	33406
748.573	33202.62
748.911	33282.16
749.25	33227.25
749.589	33074.71
749.928	33147.02
750.267	33138.44
750.605	33163.29
750.944	33053.02
751.283	32832.46
751.621	32970.53
751.96	32806.02
752.298	32859.35
752.636	32921.49
752.975	32651.67
753.313	32494.61
753.651	32621.84
753.989	32528.06
754.327	32424.78
754.666	32224.34
755.004	32268.63
755.342	32272.47
755.679	32389.76
756.017	32075.87
756.355	32074.51
756.693	31951.12
757.031	32003.78
