Data from hue_250_FLMS001491_00089.txt Node
Date: Tue Feb 07 16:01:36 GMT 2017
User: dcchb
Spectrometer: FLMS00149
Trigger mode: 0
Integration Time (sec): 2.000000E-2
Scans to average: 10
Electric dark correction enabled: true
Nonlinearity correction enabled: false
Boxcar width: 0
XAxis mode: Wavelengths
Number of Pixels in Spectrum: 2048
>>>>>Begin Spectral Data<<<<<
341.393	-1.61
341.776	-1.61
342.16	-1.61
342.543	-50.65
342.927	-64.21
343.31	-53.13
343.693	-77.99
344.077	-59.46
344.46	-64.66
344.843	-68.05
345.226	-24.66
345.61	-20.59
345.993	-26.47
346.376	-8.84
346.759	11.04
347.142	15.11
347.525	27.32
347.908	53.98
348.291	77.71
348.674	94.88
349.057	123.81
349.44	145.28
349.823	135.34
350.206	170.14
350.588	177.14
350.971	204.49
351.354	205.16
351.737	228.67
352.119	232.51
352.502	256.91
352.884	257.82
353.267	274.77
353.65	283.81
354.032	290.36
354.414	287.42
354.797	309.12
355.179	313.18
355.562	317.7
355.944	305.95
356.326	312.73
356.709	328.78
357.091	321.09
357.473	327.87
357.855	342.79
358.238	334.65
358.62	316.57
359.002	317.48
359.384	343.01
359.766	334.65
360.148	338.04
360.53	321.32
360.912	330.13
361.294	326.52
361.676	328.32
362.057	337.82
362.439	315.44
362.821	310.47
363.203	336.69
363.584	315.22
363.966	324.48
364.348	323.13
364.729	311.83
365.111	322.45
365.493	298.04
365.874	335.56
366.256	308.21
366.637	317.25
367.019	305.95
367.4	291.04
367.781	326.06
368.163	317.25
368.544	313.41
368.925	311.38
369.306	298.27
369.688	326.97
370.069	308.44
370.45	309.12
370.831	298.04
371.212	322.9
371.593	309.79
371.974	305.73
372.355	297.37
372.736	306.4
373.117	310.7
373.498	307.53
373.879	321.55
374.26	300.75
374.641	296.69
375.021	285.84
375.402	301.66
375.783	305.05
376.163	322.45
376.544	333.97
376.925	333.75
377.305	302.11
377.686	314.99
378.066	313.64
378.447	326.52
378.827	326.29
379.208	315.9
379.588	340.3
379.968	344.6
380.349	329
380.729	349.57
381.109	327.42
381.489	334.88
381.87	318.83
382.25	321.55
382.63	338.95
383.01	339.85
383.39	323.58
383.77	356.12
384.15	322.9
384.53	331.71
384.91	350.47
385.29	336.46
385.67	338.95
386.049	349.34
386.429	342.79
386.809	350.7
387.189	357.02
387.568	337.59
387.948	348.66
388.328	352.28
388.707	338.49
389.087	344.6
389.466	350.7
389.846	336.69
390.225	369.68
390.605	353.86
390.984	352.96
391.363	368.55
391.743	375.78
392.122	353.41
392.501	371.26
392.881	374.65
393.26	370.81
393.639	382.79
394.018	371.94
394.397	387.08
394.776	372.84
395.155	391.83
395.534	409
395.913	368.1
396.292	400.19
396.671	392.96
397.05	368.78
397.429	381.88
397.808	389.79
398.186	392.73
398.565	389.79
398.944	390.02
399.323	390.47
399.701	401.54
400.08	404.25
400.458	413.52
400.837	436.12
401.215	412.39
401.594	396.57
401.972	420.07
402.351	421.66
402.729	414.88
403.107	419.85
403.486	426.63
403.864	438.15
404.242	431.37
404.62	410.13
404.999	441.77
405.377	440.86
405.755	446.74
406.133	445.16
406.511	466.85
406.889	444.03
407.267	448.1
407.645	473.63
408.023	464.59
408.401	463.91
408.779	478.15
409.156	500.98
409.534	493.52
409.912	482.44
410.29	499.62
410.667	504.59
411.045	510.92
411.422	501.88
411.8	523.8
412.178	547.53
412.555	537.13
412.933	526.29
413.31	551.37
413.687	562.22
414.065	562.22
414.442	549.79
414.819	544.82
415.197	587.98
415.574	574.65
415.951	588.88
416.328	614.87
416.705	610.58
417.082	591.59
417.46	620.29
417.837	620.75
418.214	628.43
418.591	639.5
418.967	629.79
419.344	637.7
419.721	642.21
420.098	648.77
420.475	680.63
420.852	685.6
421.228	670.46
421.605	689.45
421.982	691.25
422.358	707.98
422.735	706.17
423.111	727.41
423.488	732.61
423.864	740.74
424.241	742.78
424.617	754.53
424.994	768.54
425.37	736.68
425.746	803.57
426.123	822.77
426.499	811.93
426.875	812.38
427.251	814.87
427.627	813.74
428.003	863.68
428.379	851.02
428.756	852.38
429.132	891.25
429.507	871.36
429.883	889.67
430.259	886.05
430.635	903.9
431.011	917.46
431.387	926.05
431.763	948.87
432.138	950.68
432.514	981.19
432.89	967.4
433.265	1014.41
433.641	1013.96
434.016	1043.79
434.392	1034.07
434.767	1079.04
435.143	1080.85
435.518	1068.64
435.894	1101.41
436.269	1111.13
436.644	1097.34
437.02	1135.08
437.395	1152.48
437.77	1202.2
438.145	1200.17
438.52	1199.26
438.895	1222.54
439.271	1202.88
439.646	1248.53
440.021	1248.07
440.395	1274.29
440.77	1260.96
441.145	1308.86
441.52	1328.3
441.895	1324.91
442.27	1345.02
442.645	1349.31
443.019	1364.91
443.394	1335.98
443.769	1396.77
444.143	1386.83
444.518	1408.3
444.892	1385.02
445.267	1417.11
445.641	1444.23
446.016	1449.43
446.39	1429.54
446.764	1488.52
447.139	1472.48
447.513	1488.29
447.887	1489.65
448.262	1521.06
448.636	1488.29
449.01	1513.38
449.384	1536.43
449.758	1534.62
450.132	1567.16
450.506	1563.32
450.88	1582.08
451.254	1566.71
451.628	1579.14
452.002	1606.71
452.376	1634.51
452.75	1647.39
453.123	1682.19
453.497	1678.57
453.871	1698.23
454.244	1698.23
454.618	1724.9
454.992	1759.93
455.365	1778
455.739	1811
456.112	1789.98
456.486	1810.32
456.859	1862.07
457.232	1851
457.606	1867.95
457.979	1883.09
458.352	1946.59
458.725	1958.11
459.099	1933.93
459.472	1979.58
459.845	1992.24
460.218	2024.55
460.591	2002.63
460.964	2040.6
461.337	2088.5
461.71	2113.14
462.083	2128.5
462.456	2139.35
462.829	2116.3
463.201	2196.3
463.574	2205.79
463.947	2187.26
464.32	2297.09
464.692	2284.43
465.065	2272
465.438	2336.18
465.81	2354.49
466.183	2351.77
466.555	2396.97
466.928	2438.55
467.3	2398.33
467.672	2451.88
468.045	2523.07
468.417	2522.17
468.789	2550.87
469.161	2584.31
469.534	2632.9
469.906	2655.04
470.278	2645.55
470.65	2707.47
471.022	2740.24
471.394	2792.67
471.766	2807.58
472.138	2822.95
472.51	2856.85
472.882	2932.32
473.253	2964.19
473.625	3012.1
473.997	3027.69
474.369	3046.9
474.74	3082.15
475.112	3125.77
475.484	3191.75
475.855	3251.64
476.227	3289.83
476.598	3364.4
476.97	3342.26
477.341	3423.84
477.713	3466.55
478.084	3434.68
478.455	3567.56
478.827	3590.84
479.198	3645.75
479.569	3702.25
479.94	3768.23
480.311	3792.87
480.682	3857.95
481.053	3952.41
481.424	3965.74
481.795	4011.84
482.166	4038.28
482.537	4114.67
482.908	4141.78
483.279	4235.79
483.65	4282.12
484.021	4321.21
484.391	4370.93
484.762	4398.5
485.133	4470.14
485.503	4515.33
485.874	4602.34
486.244	4683.01
486.615	4751.94
486.985	4761.88
487.356	4851.82
487.726	4832.84
488.097	4965.04
488.467	4960.52
488.837	5060.86
489.207	5109.67
489.578	5117.8
489.948	5208.65
490.318	5229.21
490.688	5252.94
491.058	5365.93
491.428	5384.69
491.798	5412.03
492.168	5473.27
492.538	5518.47
492.908	5558.47
493.278	5715.3
493.648	5596.89
494.017	5710.1
494.387	5726.83
494.757	5816.99
495.126	5851.57
495.496	5838.69
495.866	5914.39
496.235	5955.3
496.605	6010.44
496.974	5990.55
497.344	6059.02
497.713	6089.76
498.082	6132.69
498.452	6098.12
498.821	6225.8
499.19	6225.8
499.559	6244.33
499.928	6253.37
500.298	6307.38
500.667	6354.15
501.036	6315.74
501.405	6427.15
501.774	6382.85
502.143	6419.92
502.512	6405.45
502.88	6534.04
503.249	6487.03
503.618	6534.72
503.987	6489.07
504.356	6576.3
504.724	6610.87
505.093	6672.11
505.462	6614.26
505.83	6671.21
506.199	6696.97
506.567	6817.65
506.936	6754.6
507.304	6797.53
507.672	6842.05
508.041	6877.98
508.409	6923.41
508.777	6960.69
509.145	6925.89
509.514	6934.93
509.882	6999.79
510.25	6991.2
510.618	7026.23
510.986	7030.52
511.354	7044.98
511.722	7102.16
512.09	7138.54
512.458	7100.58
512.826	7190.07
513.193	7168.6
513.561	7187.58
513.929	7224.41
514.297	7261.7
514.664	7315.03
515.032	7291.31
515.4	7285.43
515.767	7362.04
516.135	7426.67
516.502	7295.83
516.869	7361.81
517.237	7437.52
517.604	7402.04
517.972	7485.2
518.339	7452.66
518.706	7478.65
519.073	7432.54
519.44	7498.98
519.808	7517.06
520.175	7530.62
520.542	7588.47
520.909	7540.79
521.276	7531.3
521.643	7602.71
522.009	7630.05
522.376	7673.89
522.743	7692.42
523.11	7696.94
523.477	7758.19
523.843	7789.6
524.21	7759.99
524.577	7903.04
524.943	7846.32
525.31	7870.95
525.676	7928.8
526.043	7984.39
526.409	7908.24
526.776	8042.47
527.142	8018.52
527.508	7995.92
527.874	8029.14
528.241	8001.12
528.607	8028.24
528.973	8088.12
529.339	8037.5
529.705	8084.05
530.071	8086.31
530.437	8110.27
530.803	8147.78
531.169	8185.97
531.535	8104.84
531.901	8147.55
532.267	8188.91
532.632	8200.21
532.998	8211.51
533.364	8165.41
533.73	8139.87
534.095	8306.87
534.461	8199.76
534.826	8257.61
535.192	8235.91
535.557	8249.7
535.923	8224.61
536.288	8240.89
536.653	8245.4
537.019	8194.33
537.384	8212.86
537.749	8213.77
538.114	8198.17
538.479	8212.64
538.845	8223.48
539.21	8211.06
539.575	8164.73
539.94	8252.64
540.305	8236.82
540.67	8183.71
541.034	8153.2
541.399	8198.17
541.764	8247.66
542.129	8250.15
542.494	8184.16
542.858	8250.38
543.223	8253.77
543.587	8155.46
543.952	8160.21
544.316	8167.89
544.681	8111.17
545.045	8173.32
545.41	8125.86
545.774	8137.61
546.138	8152.75
546.503	8131.06
546.867	8137.38
547.231	8217.38
547.595	8165.63
547.959	8167.21
548.324	8146.2
548.688	8068.46
549.052	8186.88
549.416	8171.73
549.779	8167.67
550.143	8167.67
550.507	8166.99
550.871	8132.19
551.235	8129.02
551.599	8183.49
551.962	8156.82
552.326	8162.47
552.689	8204.05
553.053	8107.33
553.417	8107.78
553.78	8205.18
554.143	8163.15
554.507	8199.3
554.87	8187.55
555.234	8265.97
555.597	8180.77
555.96	8148.91
556.323	8178.97
556.686	8181.9
557.05	8217.83
557.413	8231.85
557.776	8200.21
558.139	8301.9
558.502	8270.26
558.865	8279.3
559.228	8261.68
559.59	8264.84
559.953	8336.25
560.316	8388.9
560.679	8383.25
561.041	8358.85
561.404	8435.91
561.767	8419.86
562.129	8402.69
562.492	8439.75
562.854	8488.34
563.217	8432.07
563.579	8431.84
563.941	8468.22
564.304	8576.24
564.666	8577.6
565.028	8475
565.39	8543.48
565.753	8580.31
566.115	8701.66
566.477	8644.26
566.839	8660.99
567.201	8732.85
567.563	8681.33
567.925	8723.36
568.287	8755.67
568.648	8784.83
569.01	8741.89
569.372	8859.85
569.734	8799.74
570.095	8825.05
570.457	8859.17
570.819	8866.86
571.18	8849.91
571.542	8899.85
571.903	8980.75
572.265	8906.86
572.626	8965.39
572.987	9069.11
573.349	9001.54
573.71	9056
574.071	9020.98
574.432	9048.77
574.794	9120.86
575.155	9111.6
575.516	9144.14
575.877	9200.63
576.238	9154.76
576.599	9237.24
576.96	9164.02
577.32	9207.64
577.681	9285.15
578.042	9307.75
578.403	9296.68
578.763	9326.96
579.124	9310.01
579.485	9401.76
579.845	9390.01
580.206	9328.99
580.566	9316.34
580.927	9441.31
581.287	9472.04
581.648	9412.83
582.008	9455.32
582.368	9455.77
582.728	9494.64
583.089	9487.41
583.449	9559.49
583.809	9520.85
584.169	9574.18
584.529	9448.76
584.889	9666.16
585.249	9490.34
585.609	9583.45
585.969	9562.66
586.329	9599.27
586.688	9657.34
587.048	9627.74
587.408	9598.59
587.768	9646.5
588.127	9662.99
588.487	9571.25
588.846	9754.97
589.206	9672.71
589.565	9711.13
589.925	9722.65
590.284	9691.92
590.643	9775.53
591.003	9724.46
591.362	9748.19
591.721	9755.65
592.08	9785.03
592.44	9798.13
592.799	9840.39
593.158	9764.91
593.517	9775.08
593.876	9820.28
594.235	9705.93
594.593	9862.54
594.952	9789.54
595.311	9773.95
595.67	9794.06
596.029	9924.23
596.387	9902.76
596.746	9965.81
597.104	9873.38
597.463	9895.53
597.822	9886.04
598.18	9872.93
598.538	9862.09
598.897	9878.58
599.255	9862.54
599.613	9995.64
599.972	9912.03
600.33	9857.11
600.688	9948.86
601.046	9940.73
601.404	10001.06
601.762	10024.79
602.12	10026.6
602.478	10082.64
602.836	9981.18
603.194	9967.39
603.552	10013.95
603.91	10008.3
604.268	10002.87
604.625	9967.62
604.983	10026.15
605.341	10009.2
605.698	10030.22
606.056	10049.43
606.413	9972.14
606.771	10047.39
607.128	10095.07
607.485	10020.73
607.843	10070.22
608.2	10076.54
608.557	10137.78
608.914	10066.37
609.272	10115.19
609.629	10107.73
609.986	10182.3
610.343	10114.73
610.7	10177.11
611.057	10192.7
611.414	10206.71
611.771	10171.46
612.127	10297.78
612.484	10247.61
612.841	10292.36
613.198	10202.19
613.554	10258.46
613.911	10245.35
614.267	10309.31
614.624	10235.63
614.98	10298.46
615.337	10304.11
615.693	10272.92
616.05	10315.18
616.406	10282.64
616.762	10287.38
617.118	10293.71
617.475	10295.52
617.831	10315.86
618.187	10274.05
618.543	10370.09
618.899	10371.68
619.255	10312.69
619.611	10376.42
619.967	10407.61
620.323	10385.01
620.678	10408.06
621.034	10302.3
621.39	10359.93
621.746	10312.47
622.101	10457.1
622.457	10434.73
622.812	10454.61
623.168	10334.39
623.523	10395.86
623.879	10514.5
624.234	10364.22
624.589	10453.48
624.945	10408.51
625.3	10385.01
625.655	10396.53
626.01	10377.33
626.365	10415.97
626.72	10416.2
627.075	10442.86
627.43	10443.54
627.785	10387.27
628.14	10379.36
628.495	10409.64
628.85	10301.62
629.205	10332.13
629.559	10345.24
629.914	10260.27
630.269	10297.33
630.623	10338.91
630.978	10254.84
631.332	10310.66
631.687	10319.47
632.041	10318.34
632.396	10290.55
632.75	10267.05
633.104	10234.73
633.459	10162.42
633.813	10176.43
634.167	10253.94
634.521	10157.22
634.875	10174.62
635.229	10128.52
635.583	10140.27
635.937	10203.77
636.291	10120.38
636.645	10069.99
636.999	10074.51
637.352	10096.66
637.706	10073.15
638.06	10099.14
638.413	10023.21
638.767	10020.5
639.121	10074.06
639.474	10041.29
639.828	9985.92
640.181	9990.9
640.534	9996.55
640.888	10089.65
641.241	9888.3
641.594	9957
641.947	10022.08
642.301	9904.12
642.654	9921.97
643.007	9903.67
643.36	9884.23
643.713	9875.64
644.066	9895.3
644.419	9904.12
644.771	9837.45
645.124	9763.56
645.477	9708.64
645.83	9613.96
646.182	9599.95
646.535	9557.01
646.888	9607.18
647.24	9541.42
647.593	9582.32
647.945	9589.78
648.298	9475.43
648.65	9529.89
649.002	9497.58
649.355	9559.27
649.707	9519.5
650.059	9545.03
650.411	9676.33
650.763	9705.03
651.115	9758.36
651.467	9704.35
651.819	9721.07
652.171	9696.89
652.523	9734.63
652.875	9702.54
653.227	9665.03
653.578	9778.92
653.93	9736.21
654.282	9745.48
654.633	9662.09
654.985	9712.03
655.337	9653.96
655.688	9711.58
656.039	9726.72
656.391	9637.68
656.742	9730.34
657.094	9703.45
657.445	9698.7
657.796	9685.59
658.147	9634.97
658.498	9624.8
658.849	9703.67
659.2	9698.7
659.551	9651.92
659.902	9727.63
660.253	9660.28
660.604	9710.45
660.955	9629.32
661.306	9617.35
661.656	9692.15
662.007	9625.03
662.358	9644.24
662.708	9619.38
663.059	9655.09
663.409	9612.6
663.76	9683.11
664.11	9651.24
664.461	9658.25
664.811	9698.93
665.161	9649.89
665.511	9598.36
665.862	9729.66
666.212	9629.32
666.562	9719.94
666.912	9707.29
667.262	9686.95
667.612	9661.64
667.962	9653.96
668.312	9719.26
668.662	9693.05
669.011	9685.14
669.361	9646.05
669.711	9642.88
670.06	9614.41
670.41	9692.82
670.76	9622.09
671.109	9629.55
671.459	9624.58
671.808	9566.5
672.157	9648.53
672.507	9559.95
672.856	9636.78
673.205	9553.39
673.554	9561.75
673.904	9537.57
674.253	9531.47
674.602	9582.77
674.951	9410.57
675.3	9399.95
675.649	9476.33
675.998	9510
676.346	9551.59
676.695	9607.4
677.044	9487.63
677.393	9482.66
677.741	9487.86
678.09	9427.29
678.438	9395.88
678.787	9416.9
679.135	9486.28
679.484	9372.38
679.832	9421.64
680.181	9300.07
680.529	9447.63
680.877	9311.59
681.225	9357.92
681.573	9423.23
681.922	9293.51
682.27	9274.53
682.618	9297.81
682.966	9239.95
683.314	9270.01
683.661	9210.58
684.009	9199.5
684.357	9210.13
684.705	9170.58
685.053	9201.76
685.4	9174.65
685.748	9104.14
686.095	9097.59
686.443	9087.64
686.79	9141.2
687.138	9131.94
687.485	9096.91
687.832	9045.16
688.18	8983.92
688.527	8997.02
688.874	9004.48
689.221	8933.97
689.568	8947.53
689.915	8883.13
690.262	8831.15
690.609	8849.23
690.956	8813.75
691.303	8806.52
691.65	8766.97
691.997	8703.7
692.344	8664.83
692.69	8645.17
693.037	8657.6
693.383	8556.13
693.73	8617.37
694.077	8570.82
694.423	8568.33
694.769	8500.54
695.116	8432.52
695.462	8472.74
695.808	8509.8
696.155	8478.39
696.501	8336.02
696.847	8329.47
697.193	8339.87
697.539	8304.61
697.885	8285.63
698.231	8235.01
698.577	8280.21
698.923	8187.1
699.269	8166.54
699.614	8128.35
699.96	8075.01
700.306	8099.42
700.651	8124.05
700.997	8124.73
701.342	7950.72
701.688	8032.75
702.033	7996.15
702.379	7984.62
702.724	7955.47
703.069	7970.16
703.415	7835.02
703.76	7908.24
704.105	7905.07
704.45	7809.94
704.795	7796.15
705.14	7719.77
705.485	7742.59
705.83	7743.95
706.175	7687
706.52	7687
706.865	7677.28
707.209	7604.74
707.554	7586.21
707.899	7585.99
708.243	7529.04
708.588	7589.83
708.932	7512.09
709.277	7473.22
709.621	7436.84
709.966	7389.16
710.31	7437.97
710.654	7372.66
710.998	7400.91
711.342	7389.38
711.687	7370.63
712.031	7383.96
712.375	7284.3
712.719	7323.17
713.063	7287.01
713.407	7381.25
713.75	7313
714.094	7239.1
714.438	7242.04
714.782	7244.53
715.125	7256.28
715.469	7208.82
715.812	7172.44
716.156	7159.11
716.499	7204.98
716.843	7182.83
717.186	7123.17
717.53	7141.03
717.873	7164.98
718.216	7112.1
718.559	7098.09
718.902	7061.26
719.246	7115.49
719.589	7030.07
719.932	6967.7
720.275	7010.41
720.617	7062.16
720.96	6963.63
721.303	6979
721.646	6993.23
721.989	6976.96
722.331	6971.77
722.674	6978.32
723.016	6905.78
723.359	6927.93
723.701	6911.43
724.044	6875.05
724.386	6864.88
724.729	6951.88
725.071	6904.42
725.413	6880.02
725.755	6878.66
726.097	6906
726.439	6832.56
726.782	6878.21
727.124	6849.74
727.465	6887.02
727.807	6843.86
728.149	6857.64
728.491	6829.62
728.833	6881.37
729.175	6794.14
729.516	6868.27
729.858	6783.52
730.199	6817.87
730.541	6836.63
730.882	6851.77
731.224	6823.75
731.565	6809.28
731.906	6814.48
732.248	6767.48
732.589	6760.02
732.93	6771.09
733.271	6834.14
733.612	6815.84
733.953	6732
734.294	6775.84
734.635	6756.18
734.976	6780.13
735.317	6707.14
735.658	6748.04
735.999	6816.97
736.339	6715.28
736.68	6765.22
737.021	6757.99
737.361	6729.96
737.702	6714.6
738.042	6757.31
738.383	6780.36
738.723	6804.76
739.063	6761.6
739.404	6811.32
739.744	6811.77
740.084	6723.86
740.424	6769.51
740.764	6731.77
741.104	6818.1
741.444	6773.8
741.784	6753.24
742.124	6787.14
742.464	6823.52
742.804	6802.05
743.143	6800.24
743.483	6820.36
743.823	6850.87
744.162	6829.17
744.502	6877.31
744.841	6844.76
745.181	6859
745.52	6927.93
745.86	6895.38
746.199	6914.37
746.538	6934.7
746.877	7035.94
747.216	7001.14
747.556	7037.75
747.895	7084.76
748.234	7054.7
748.573	7061.26
748.911	7160.69
749.25	7150.29
749.589	7228.93
749.928	7256.28
750.267	7294.7
750.605	7362.49
750.944	7420.34
751.283	7465.54
751.621	7476.84
751.96	7550.06
752.298	7592.31
752.636	7594.8
752.975	7719.09
753.313	7734.91
753.651	7808.35
753.989	7865.53
754.327	7896.26
754.666	7995.69
755.004	8149.81
755.342	8162.92
755.679	8275.23
756.017	8301.67
756.355	8438.17
756.693	8476.36
757.031	8590.03
757.368	8692.85
757.706	8793.19
758.044	8780.08
758.381	8922.67
758.719	9003.58
759.056	9096.68
759.394	9222.33
759.731	9334.19
760.068	9390.01
760.405	9420.29
760.743	9541.64
761.08	9666.84
761.417	9748.87
761.754	9886.72
762.091	9949.31
762.428	10067.5
762.765	10129.87
763.102	10264.33
763.438	10321.06
763.775	10413.71
764.112	10602.18
764.449	10661.84
764.785	10730.76
765.122	10888.27
765.458	10884.43
765.795	10970.3
766.131	11156.97
766.467	11172.33
766.804	11229.96
767.14	11320.58
767.476	11416.17
