Data from hue_230_FLMS001491_00043.txt Node
Date: Tue Feb 07 16:37:16 GMT 2017
User: dcchb
Spectrometer: FLMS00149
Trigger mode: 0
Integration Time (sec): 2.000000E-2
Scans to average: 10
Electric dark correction enabled: true
Nonlinearity correction enabled: false
Boxcar width: 0
XAxis mode: Wavelengths
Number of Pixels in Spectrum: 2048
>>>>>Begin Spectral Data<<<<<
341.393	9.58
341.776	9.58
342.16	9.58
342.543	-66.58
342.927	-63.19
343.31	-57.09
343.693	-77.65
344.077	-53.47
344.46	-50.08
344.843	-34.04
345.226	-34.04
345.61	-40.37
345.993	-31.33
346.376	7.54
346.759	9.58
347.142	16.58
347.525	29.24
347.908	57.48
348.291	64.04
348.674	92.06
349.057	101.55
349.44	122.79
349.823	153.08
350.206	154.2
350.588	184.03
350.971	195.33
351.354	202.79
351.737	231.49
352.119	254.09
352.502	245.5
352.884	245.5
353.267	283.92
353.65	301.77
354.032	277.59
354.414	297.7
354.797	302.68
355.179	294.77
355.562	323.47
355.944	337.48
356.326	323.01
356.709	324.37
357.091	323.92
357.473	315.1
357.855	334.31
358.238	326.18
358.62	328.21
359.002	339.96
359.384	326.86
359.766	324.6
360.148	337.03
360.53	324.37
360.912	325.05
361.294	323.01
361.676	313.52
362.057	339.51
362.439	318.04
362.821	316.01
363.203	334.31
363.584	314.88
363.966	317.14
364.348	321.21
364.729	302.9
365.111	308.1
365.493	307.65
365.874	326.86
366.256	306.29
366.637	303.58
367.019	318.95
367.4	292.05
367.781	315.1
368.163	322.56
368.544	337.7
368.925	303.35
369.306	297.7
369.688	280.98
370.069	292.73
370.45	317.59
370.831	301.77
371.212	296.12
371.593	296.12
371.974	316.23
372.355	278.04
372.736	299.96
373.117	316.01
373.498	302.68
373.879	303.13
374.26	301.32
374.641	301.77
375.021	316.69
375.402	283.47
375.783	306.52
376.163	330.47
376.544	314.43
376.925	337.93
377.305	309.46
377.686	311.26
378.066	315.1
378.447	327.31
378.827	315.33
379.208	324.37
379.588	310.59
379.968	334.09
380.349	331.15
380.729	321.66
381.109	337.25
381.489	325.95
381.87	320.98
382.25	325.73
382.63	325.05
383.01	326.63
383.39	329.79
383.77	337.25
384.15	335.9
384.53	334.09
384.91	329.12
385.29	334.99
385.67	338.61
386.049	320.75
386.429	337.25
386.809	341.32
387.189	344.71
387.568	353.52
387.948	332.05
388.328	363.01
388.707	347.42
389.087	348.1
389.466	374.09
389.846	351.71
390.225	339.06
390.605	342.22
390.984	348.32
391.363	342.22
391.743	361.88
392.122	353.75
392.501	358.95
392.881	379.28
393.26	356.01
393.639	360.08
394.018	364.59
394.397	363.47
394.776	357.82
395.155	359.17
395.534	355.56
395.913	363.24
396.292	375.22
396.671	379.28
397.05	377.93
397.429	373.86
397.808	376.57
398.186	384.26
398.565	371.37
398.944	373.41
399.323	400.53
399.701	390.36
400.08	386.06
400.458	385.84
400.837	397.14
401.215	392.84
401.594	405.72
401.972	384.71
402.351	417.25
402.729	407.31
403.107	402.56
403.486	412.05
403.864	406.4
404.242	436.01
404.62	404.14
404.999	430.36
405.377	435.78
405.755	404.82
406.133	428.77
406.511	421.54
406.889	441.2
407.267	430.13
407.645	440.07
408.023	452.28
408.401	442.33
408.779	447.53
409.156	469.9
409.534	478.04
409.912	470.81
410.29	466.51
410.667	481.65
411.045	471.03
411.422	491.37
411.8	519.85
412.178	504.25
412.555	517.81
412.933	507.64
413.31	533.18
413.687	544.25
414.065	545.61
414.442	535.21
414.819	557.36
415.197	546.51
415.574	553.52
415.951	566.62
416.328	562.33
416.705	571.14
417.082	577.7
417.46	594.19
417.837	584.7
418.214	604.81
418.591	612.5
418.967	619.05
419.344	626.51
419.721	639.84
420.098	626.06
420.475	673.51
420.852	656.79
421.228	642.1
421.605	671.93
421.982	677.13
422.358	708.54
422.735	677.58
423.111	694.08
423.488	719.84
423.864	724.13
424.241	740.4
424.617	761.42
424.994	752.83
425.37	800.06
425.746	762.1
426.123	770.46
426.499	764.13
426.875	793.28
427.251	814.75
427.627	801.19
428.003	830.8
428.379	862.43
428.756	837.35
429.132	857.01
429.507	859.72
429.883	881.42
430.259	876.22
430.635	877.58
431.011	912.6
431.387	926.61
431.763	944.47
432.138	933.17
432.514	962.32
432.89	958.93
433.265	992.15
433.641	999.15
434.016	981.3
434.392	1034.41
434.767	1045.48
435.143	1039.83
435.518	1073.28
435.894	1061.98
436.269	1090.45
436.644	1113.73
437.02	1122.09
437.395	1105.82
437.77	1172.26
438.145	1166.16
438.52	1219.49
438.895	1222.65
439.271	1202.54
439.646	1250.22
440.021	1248.19
440.395	1269.2
440.77	1273.95
441.145	1265.36
441.52	1301.75
441.895	1319.82
442.27	1350.56
442.645	1359.6
443.019	1359.6
443.394	1370.9
443.769	1400.5
444.143	1394.85
444.518	1392.82
444.892	1420.16
445.267	1406.38
445.641	1429.88
446.016	1461.74
446.39	1430.1
446.764	1453.61
447.139	1461.74
447.513	1475.3
447.887	1494.51
448.262	1490.22
448.636	1503.32
449.01	1532.7
449.384	1520.27
449.758	1541.51
450.132	1568.86
450.506	1551.68
450.88	1581.29
451.254	1572.7
451.628	1603.43
452.002	1597.78
452.376	1600.72
452.75	1649.76
453.123	1666.93
453.497	1676.42
453.871	1686.14
454.244	1699.25
454.618	1729.3
454.992	1758.68
455.365	1744.9
455.739	1776.54
456.112	1796.65
456.486	1825.8
456.859	1833.93
457.232	1867.61
457.606	1845.91
457.979	1900.15
458.352	1914.84
458.725	1920.49
459.099	1952.35
459.472	1978.79
459.845	2003.65
460.218	1981.5
460.591	2035.06
460.964	2043.42
461.337	2057.21
461.71	2099.92
462.083	2127.49
462.456	2098.56
462.829	2143.98
463.201	2160.03
463.574	2187.82
463.947	2208.39
464.32	2198.67
464.692	2273.25
465.065	2242.06
465.438	2295.84
465.81	2365.22
466.183	2360.7
466.555	2407.71
466.928	2431.43
467.3	2395.05
467.672	2425.33
468.045	2514.14
468.417	2518.89
468.789	2517.98
469.161	2539.9
469.534	2542.39
469.906	2598.89
470.278	2637.53
470.65	2640.47
471.022	2708.26
471.394	2754.14
471.766	2775.15
472.138	2791.42
472.51	2847.92
472.882	2870.29
473.253	2889.95
473.625	2951.19
473.997	2963.62
474.369	3023.28
474.74	3042.26
475.112	3091.53
475.484	3145.54
475.855	3148.25
476.227	3203.39
476.598	3266.21
476.97	3287
477.341	3311.41
477.713	3383.72
478.084	3399.54
478.455	3487.22
478.827	3535.13
479.198	3600.67
479.569	3579.43
479.94	3696.48
480.311	3705.07
480.682	3780.32
481.053	3846.31
481.424	3952.75
481.795	3950.72
482.166	4012.63
482.537	4075.68
482.908	4073.2
483.279	4123.59
483.65	4186.64
484.021	4312.29
484.391	4321.33
484.762	4355.9
485.133	4334.66
485.503	4433.19
485.874	4476.58
486.244	4526.75
486.615	4629.79
486.985	4617.14
487.356	4708.44
487.726	4715.22
488.097	4807.42
488.467	4802.9
488.837	4889.45
489.207	4968.09
489.578	5029.33
489.948	5070.91
490.318	5118.82
490.688	5151.36
491.058	5152.72
491.428	5259.16
491.798	5281.3
492.168	5358.81
492.538	5388.42
492.908	5444.01
493.278	5523.1
493.648	5506.38
494.017	5578.02
494.387	5622.76
494.757	5595.19
495.126	5657.56
495.496	5719.48
495.866	5712.7
496.235	5768.75
496.605	5855.07
496.974	5846.71
497.344	5863.89
497.713	5909.76
498.082	5952.92
498.452	5965.13
498.821	5985.24
499.19	5970.32
499.559	6059.13
499.928	6073.15
500.298	6070.21
500.667	6115.86
501.036	6148.85
501.405	6185.68
501.774	6168.28
502.143	6246.25
502.512	6233.59
502.88	6319.92
503.249	6270.88
503.618	6317.43
503.987	6289.41
504.356	6375.74
504.724	6295.29
505.093	6368.73
505.462	6368.73
505.83	6386.13
506.199	6455.73
506.567	6487.82
506.936	6504.55
507.304	6566.24
507.672	6601.72
508.041	6553.13
508.409	6543.42
508.777	6662.96
509.145	6651.21
509.514	6639.91
509.882	6678.1
510.25	6659.8
510.618	6696.63
510.986	6715.39
511.354	6808.04
511.722	6827.02
512.09	6892.56
512.458	6817.31
512.826	6870.64
513.193	6859.11
513.561	6768.72
513.929	6915.38
514.297	6887.14
514.664	6888.49
515.032	6914.93
515.4	6895.27
515.767	6906.8
516.135	6985.21
516.502	6863.18
516.869	7010.52
517.237	6952.44
517.604	6902.5
517.972	6957.64
518.339	7083.97
518.706	6989.28
519.073	7009.62
519.44	7015.72
519.808	7087.81
520.175	6997.19
520.542	7068.83
520.909	7111.31
521.276	7070.41
521.643	7104.98
522.009	7102.95
522.376	7166.68
522.743	7124.64
523.11	7177.07
523.477	7243.51
523.843	7200.8
524.21	7246
524.577	7269.72
524.943	7324.64
525.31	7231.98
525.676	7288.25
526.043	7246.22
526.409	7337.52
526.776	7312.66
527.142	7331.64
527.508	7320.34
527.874	7360.12
528.241	7338.2
528.607	7376.61
528.973	7388.14
529.339	7379.1
529.705	7396.73
530.071	7398.31
530.437	7378.65
530.803	7379.33
531.169	7397.63
531.535	7437.4
531.901	7417.29
532.267	7362.15
532.632	7326.22
532.998	7440.12
533.364	7374.58
533.73	7364.18
534.095	7387.46
534.461	7383.85
534.826	7370.06
535.192	7396.73
535.557	7416.16
535.923	7387.69
536.288	7349.04
536.653	7311.53
537.019	7301.36
537.384	7348.14
537.749	7324.64
538.114	7318.31
538.479	7322.6
538.845	7269.5
539.21	7265.88
539.575	7262.94
539.94	7260.23
540.305	7242.83
540.67	7221.36
541.034	7263.62
541.399	7263.62
541.764	7245.32
542.129	7164.64
542.494	7222.49
542.858	7219.56
543.223	7144.76
543.587	7160.57
543.952	7189.27
544.316	7117.64
544.681	7104.98
545.045	7140.01
545.41	7133.68
545.774	7087.13
546.138	7071.54
546.503	7067.02
546.867	7043.74
547.231	7123.74
547.595	7047.36
547.959	7059.79
548.324	7078.99
548.688	6976.85
549.052	7051.65
549.416	6939.79
549.779	6989.05
550.143	6948.83
550.507	6971.88
550.871	6951.99
551.235	6955.61
551.599	7002.61
551.962	6933.91
552.326	6921.71
552.689	6917.64
553.053	6883.75
553.417	6832.45
553.78	6921.94
554.143	6914.25
554.507	6870.41
554.87	6845.33
555.234	6896.63
555.597	6818.44
555.96	6846.01
556.323	6828.15
556.686	6801.94
557.05	6874.25
557.413	6855.72
557.776	6881.03
558.139	6869.51
558.502	6817.76
558.865	6833.58
559.228	6828.61
559.59	6864.31
559.953	6843.52
560.316	6895.95
560.679	6904.54
561.041	6940.24
561.404	6890.3
561.767	6973.46
562.129	6903.86
562.492	6954.7
562.854	6921.03
563.217	6919.45
563.579	6887.36
563.941	6906.12
564.304	6964.87
564.666	6934.59
565.028	7017.75
565.39	7027.02
565.753	7017.53
566.115	7078.77
566.477	7013.46
566.839	7068.6
567.201	7057.98
567.563	7070.41
567.925	7089.84
568.287	7149.95
568.648	7115.6
569.01	7176.62
569.372	7138.43
569.734	7104.98
570.095	7170.52
570.457	7189.95
570.819	7154.92
571.18	7161.93
571.542	7157.18
571.903	7163.96
572.265	7258.65
572.626	7242.83
572.987	7227.24
573.349	7270.4
573.71	7260.46
574.071	7314.92
574.432	7335.26
574.794	7373.68
575.155	7383.17
575.516	7383.62
575.877	7392.21
576.238	7419.55
576.599	7395.37
576.96	7408.93
577.32	7460.23
577.681	7445.31
578.042	7406.44
578.403	7485.31
578.763	7423.62
579.124	7511.53
579.485	7539.77
579.845	7568.02
580.206	7513.79
580.566	7605.31
580.927	7525.99
581.287	7620.9
581.648	7571.64
582.008	7640.34
582.368	7611.64
582.728	7661.8
583.089	7643.95
583.449	7654.35
583.809	7656.61
584.169	7703.39
584.529	7628.58
584.889	7734.34
585.249	7735.7
585.609	7669.94
585.969	7763.95
586.329	7773.44
586.688	7745.19
587.048	7832.65
587.408	7754.01
587.768	7817.28
588.127	7795.81
588.487	7750.16
588.846	7855.92
589.206	7832.87
589.565	7819.54
589.925	7872.65
590.284	7813.21
590.643	7836.26
591.003	7868.58
591.362	7957.84
591.721	7882.36
592.08	7888.24
592.44	7982.93
592.799	7897.5
593.158	7899.09
593.517	7921.68
593.876	7949.71
594.235	7884.62
594.593	7930.72
594.952	7937.28
595.311	7904.74
595.67	7947.9
596.029	8049.14
596.387	7975.92
596.746	8007.11
597.104	7949.93
597.463	8070.38
597.822	8019.53
598.18	8006.2
598.538	7990.61
598.897	8079.19
599.255	7925.98
599.613	8078.29
599.972	8017.95
600.33	8067.67
600.688	8036.94
601.046	8046.65
601.404	8061.34
601.762	8125.97
602.12	8130.72
602.478	8098.63
602.836	8126.88
603.194	8086.65
603.552	8129.36
603.91	8069.48
604.268	8102.92
604.625	8091.85
604.983	8157.61
605.341	8071.06
605.698	8095.69
606.056	8161.23
606.413	8146.76
606.771	8168.68
607.128	8216.37
607.485	8161.9
607.843	8172.98
608.2	8171.62
608.557	8252.52
608.914	8156.25
609.272	8246.42
609.629	8260.43
609.986	8270.38
610.343	8179.76
610.7	8303.82
611.057	8281
611.414	8293.88
611.771	8319.64
612.127	8353.09
612.484	8309.7
612.841	8325.52
613.198	8341.56
613.554	8295.91
613.911	8359.41
614.267	8336.59
614.624	8313.99
614.98	8352.63
615.337	8417.49
615.693	8347.89
616.05	8349.47
616.406	8391.28
616.762	8368.45
617.118	8418.85
617.475	8374.1
617.831	8474.89
618.187	8419.3
618.543	8415.91
618.899	8464.04
619.255	8455
619.611	8499.97
619.967	8480.31
620.323	8448.9
620.678	8444.38
621.034	8465.4
621.39	8370.03
621.746	8438.96
622.101	8535.23
622.457	8449.81
622.812	8476.47
623.168	8496.81
623.523	8504.04
623.879	8551.5
624.234	8463.82
624.589	8529.13
624.945	8469.01
625.3	8466.08
625.655	8473.53
626.01	8493.65
626.365	8460.43
626.72	8465.62
627.075	8494.55
627.43	8496.36
627.785	8498.62
628.14	8449.58
628.495	8505.85
628.85	8486.42
629.205	8469.01
629.559	8487.32
629.914	8491.61
630.269	8474.44
630.623	8482.8
630.978	8419.52
631.332	8376.59
631.687	8424.95
632.041	8399.64
632.396	8403.48
632.75	8365.97
633.104	8339.07
633.459	8335.46
633.813	8311.73
634.167	8299.08
634.521	8347.89
634.875	8375.68
635.229	8356.48
635.583	8330.94
635.937	8319.41
636.291	8221.11
636.645	8239.19
636.999	8209.36
637.352	8261.34
637.706	8162.58
638.06	8295.23
638.413	8191.28
638.767	8201.9
639.121	8181.56
639.474	8175.01
639.828	8102.24
640.181	8153.54
640.534	8197.84
640.888	8122.13
641.241	8196.93
641.594	8142.47
641.947	8158.06
642.301	8055.01
642.654	8095.69
643.007	8127.55
643.36	8104.73
643.713	8086.65
644.066	8158.97
644.419	7995.58
644.771	7981.8
645.124	7942.25
645.477	7911.29
645.83	7857.73
646.182	7846.43
646.535	7861.35
646.888	7793.33
647.24	7809.37
647.593	7879.65
647.945	7829.26
648.298	7843.04
648.65	7789.48
649.002	7754.68
649.355	7852.08
649.707	7842.14
650.059	7863.61
650.411	7902.7
650.763	7990.84
651.115	7993.77
651.467	8055.24
651.819	8021.12
652.171	7990.84
652.523	7960.33
652.875	7951.97
653.227	7928.46
653.578	7968.24
653.93	7975.69
654.282	7987.22
654.633	7909.03
654.985	7913.32
655.337	7985.41
655.688	7937.05
656.039	7995.81
656.391	7956.94
656.742	7923.72
657.094	7883.04
657.445	7967.78
657.796	7965.75
658.147	7998.29
658.498	7974.79
658.849	8011.85
659.2	7981.34
659.551	7912.87
659.902	7981.34
660.253	8020.89
660.604	7942.25
660.955	7937.28
661.306	8014.79
661.656	7947.45
662.007	7983.83
662.358	7979.31
662.708	7951.29
663.059	7939.99
663.409	7888.92
663.76	7940.21
664.11	7925.98
664.461	8012.08
664.811	7954.23
665.161	7968.91
665.511	8019.99
665.862	7966.65
666.212	7965.53
666.562	8008.24
666.912	7983.6
667.262	7960.33
667.612	7993.09
667.962	7970.5
668.312	8015.47
668.662	8005.3
669.011	8036.48
669.361	8019.31
669.711	7970.72
670.06	7889.14
670.41	7905.87
670.76	7913.32
671.109	7963.04
671.459	7953.77
671.808	7886.66
672.157	7972.3
672.507	7833.78
672.856	7885.3
673.205	7907.22
673.554	7900.89
673.904	7884.17
674.253	7875.81
674.602	7882.82
674.951	7822.7
675.3	7687.11
675.649	7880.78
675.998	7811.18
676.346	7865.41
676.695	7893.89
677.044	7792.87
677.393	7822.25
677.741	7792.65
678.09	7850.95
678.438	7785.87
678.787	7864.28
679.135	7839.65
679.484	7755.59
679.832	7735.93
680.181	7763.95
680.529	7683.72
680.877	7753.78
681.225	7777.06
681.573	7746.32
681.922	7681.24
682.27	7626.32
682.618	7649.38
682.966	7638.75
683.314	7644.63
683.661	7577.29
684.009	7579.55
684.357	7479.44
684.705	7570.51
685.053	7525.76
685.4	7520.56
685.748	7492.32
686.095	7549.26
686.443	7518.08
686.79	7454.13
687.138	7462.26
687.485	7510.62
687.832	7408.25
688.18	7512.43
688.527	7409.16
688.874	7354.24
689.221	7375.26
689.568	7325.54
689.915	7293.45
690.262	7327.8
690.609	7339.33
690.956	7238.76
691.303	7186.34
691.65	7208.71
691.997	7215.71
692.344	7122.84
692.69	7134.59
693.037	7166.22
693.383	7054.59
693.73	7076.73
694.077	7040.8
694.423	7059.79
694.769	7056.62
695.116	6927.81
695.462	6980.69
695.808	6961.94
696.155	6978.88
696.501	6949.05
696.847	6842.84
697.193	6879.23
697.539	6819.34
697.885	6853.01
698.231	6772.34
698.577	6853.01
698.923	6759
699.269	6711.09
699.614	6664.09
699.96	6645.33
700.306	6672.23
700.651	6652.11
700.997	6629.29
701.342	6578.22
701.688	6547.26
702.033	6512
702.379	6541.83
702.724	6508.16
703.069	6544.32
703.415	6469.97
703.76	6405.57
704.105	6448.05
704.45	6391.78
704.795	6364.66
705.14	6370.31
705.485	6361.5
705.83	6300.94
706.175	6291.9
706.52	6325.12
706.865	6241.28
707.209	6203.09
707.554	6295.96
707.899	6270.88
708.243	6248.51
708.588	6195.18
708.932	6129.87
709.277	6185.01
709.621	6145.46
709.966	6118.34
710.31	6123.31
710.654	6051.45
710.998	6096.87
711.342	6104.11
711.687	6066.59
712.031	6022.75
712.375	6007.16
712.719	6079.7
713.063	6022.3
713.407	6013.26
713.75	5976.42
714.094	5983.2
714.438	5945.01
714.782	5964.22
715.125	5917.22
715.469	5955.63
715.812	5922.19
716.156	5922.87
716.499	5896.2
716.843	5844
717.186	5794.06
717.53	5895.97
717.873	5866.6
718.216	5854.62
718.559	5841.29
718.902	5826.37
719.246	5796.99
719.589	5804
719.932	5761.29
720.275	5778.24
720.617	5763.32
720.96	5773.94
721.303	5771.68
721.646	5739.59
721.989	5715.41
722.331	5748.41
722.674	5730.78
723.016	5749.54
723.359	5747.96
723.701	5753.61
724.044	5722.87
724.386	5694.62
724.729	5725.36
725.071	5653.27
725.413	5716.32
725.755	5720.39
726.097	5664.79
726.439	5638.13
726.782	5637.9
727.124	5680.84
727.465	5644
727.807	5681.29
728.149	5635.42
728.491	5660.73
728.833	5647.85
729.175	5650.56
729.516	5658.24
729.858	5641.97
730.199	5658.24
730.541	5645.59
730.882	5601.52
731.224	5647.85
731.565	5619.6
731.906	5605.14
732.248	5666.83
732.589	5601.97
732.93	5613.72
733.271	5578.47
733.612	5636.09
733.953	5634.96
734.294	5632.03
734.635	5615.76
734.976	5598.36
735.317	5616.89
735.658	5617.56
735.999	5648.52
736.339	5637.68
736.68	5683.1
737.021	5658.69
737.361	5579.37
737.702	5633.61
738.042	5663.89
738.383	5669.54
738.723	5708.64
739.063	5643.33
739.404	5680.61
739.744	5690.56
740.084	5664.79
740.424	5694.17
740.764	5645.59
741.104	5705.7
741.444	5691.01
741.784	5689.43
742.124	5711.35
742.464	5736.66
742.804	5719.71
743.143	5702.76
743.483	5737.56
743.823	5771.91
744.162	5779.59
744.502	5850.33
744.841	5856.43
745.181	5886.94
745.52	5873.38
745.86	5896.88
746.199	5893.49
746.538	5917.22
746.877	5987.72
747.216	6000.15
747.556	6039.7
747.895	6089.19
748.234	6118.34
748.573	6062.3
748.911	6115.86
749.25	6213.48
749.589	6222.75
749.928	6288.96
750.267	6310.65
750.605	6377.09
750.944	6366.7
751.283	6485.34
751.621	6528.95
751.96	6558.1
752.298	6676.29
752.636	6716.29
752.975	6800.13
753.313	6798.55
753.651	6932.78
753.989	6982.27
754.327	7043.74
754.666	7159.9
755.004	7223.17
755.342	7338.2
755.679	7436.73
756.017	7502.94
756.355	7611.41
756.693	7671.75
757.031	7794.91
757.368	7823.83
757.706	7966.65
758.044	8094.34
758.381	8251.39
758.719	8295.01
759.056	8405.51
759.394	8538.62
759.731	8647.09
760.068	8738.39
760.405	8805.28
760.743	8963.01
761.08	9167.53
761.417	9156.68
761.754	9337.69
762.091	9387.41
762.428	9556.22
762.765	9637.8
763.102	9824.01
763.438	9879.82
763.775	10026.94
764.112	10107.62
764.449	10254.5
764.785	10302.86
765.122	10383.99
765.458	10534.95
765.795	10684.78
766.131	10730.65
766.467	10892.91
766.804	10827.37
767.14	11009.29
767.476	11110.3
767.812	11164.76
768.148	11348.71
768.485	11371.54
768.821	11404.98
769.157	11475.72
769.492	11531.53
