Data from hue_280_FLMS001491_00093.txt Node
Date: Tue Feb 07 15:56:08 GMT 2017
User: dcchb
Spectrometer: FLMS00149
Trigger mode: 0
Integration Time (sec): 2.000000E-2
Scans to average: 10
Electric dark correction enabled: true
Nonlinearity correction enabled: false
Boxcar width: 0
XAxis mode: Wavelengths
Number of Pixels in Spectrum: 2048
>>>>>Begin Spectral Data<<<<<
341.393	-10
341.776	-10
342.16	-10
342.543	-42.32
342.927	-51.35
343.31	-71.69
343.693	-54.97
344.077	-79.83
344.46	-49.32
344.843	-82.77
345.226	-42.09
345.61	-11.58
345.993	-8.64
346.376	-9.77
346.759	22.32
347.142	22.54
347.525	40.17
347.908	63.67
348.291	63.67
348.674	95.31
349.057	102.99
349.44	138.7
349.823	164.46
350.206	167.17
350.588	213.5
350.971	203.55
351.354	209.43
351.737	237.23
352.119	243.55
352.502	260.28
352.884	262.31
353.267	290.78
353.65	284.46
354.032	295.75
354.414	285.13
354.797	293.04
355.179	322.19
355.562	319.03
355.944	307.05
356.326	342.76
356.709	332.14
357.091	345.25
357.473	333.04
357.855	342.99
358.238	332.14
358.62	334.85
359.002	327.84
359.384	336.88
359.766	336.43
360.148	304.79
360.53	328.75
360.912	341.86
361.294	321.52
361.676	331.01
362.057	338.24
362.439	322.65
362.821	312.03
363.203	331.69
363.584	305.25
363.966	334.4
364.348	338.01
364.729	319.71
365.111	304.57
365.493	314.74
365.874	328.75
366.256	315.87
366.637	296.43
367.019	311.35
367.4	317.9
367.781	288.98
368.163	311.12
368.544	315.87
368.925	323.1
369.306	313.61
369.688	305.92
370.069	314.51
370.45	333.95
370.831	304.34
371.212	304.57
371.593	322.42
371.974	315.64
372.355	298.92
372.736	300.5
373.117	307.73
373.498	316.32
373.879	309.77
374.26	303.66
374.641	304.57
375.021	303.44
375.402	316.09
375.783	308.41
376.163	309.77
376.544	322.42
376.925	295.75
377.305	343.66
377.686	333.27
378.066	338.92
378.447	323.1
378.827	338.01
379.208	308.86
379.588	335.75
379.968	315.64
380.349	334.4
380.729	342.31
381.109	344.57
381.489	338.69
381.87	349.54
382.25	327.39
382.63	349.76
383.01	325.36
383.39	333.95
383.77	317.45
384.15	360.39
384.53	345.7
384.91	326.26
385.29	334.4
385.67	366.49
386.049	355.19
386.429	349.54
386.809	329.65
387.189	339.6
387.568	341.4
387.948	347.5
388.328	355.41
388.707	355.87
389.087	347.28
389.466	361.06
389.846	355.41
390.225	357.9
390.605	364.68
390.984	382.53
391.363	362.19
391.743	346.38
392.122	380.72
392.501	379.82
392.881	387.73
393.26	368.07
393.639	377.56
394.018	374.62
394.397	386.83
394.776	380.27
395.155	378.01
395.534	384.34
395.913	388.18
396.292	366.26
396.671	386.37
397.05	380.95
397.429	393.38
397.808	401.06
398.186	411.68
398.565	398.35
398.944	392.25
399.323	399.48
399.701	390.67
400.08	406.03
400.458	365.58
400.837	398.13
401.215	395.19
401.594	422.53
401.972	413.94
402.351	423.89
402.729	429.08
403.107	400.38
403.486	425.92
403.864	412.81
404.242	451.68
404.62	420.72
404.999	430.89
405.377	450.1
405.755	449.65
406.133	462.53
406.511	425.7
406.889	442.87
407.267	467.5
407.645	466.82
408.023	453.72
408.401	465.69
408.779	472.25
409.156	438.58
409.534	485.81
409.912	479.48
410.29	491.23
410.667	491.46
411.045	487.39
411.422	509.31
411.8	485.13
412.178	518.8
412.555	528.07
412.933	512.7
413.31	526.03
413.687	571.45
414.065	557.67
414.442	567.61
414.819	560.83
415.197	559.48
415.574	592.47
415.951	595.18
416.328	602.87
416.705	604.22
417.082	596.99
417.46	604.45
417.837	612.58
418.214	620.04
418.591	659.59
418.967	640.15
419.344	634.28
419.721	649.87
420.098	657.1
420.475	641.06
420.852	650.1
421.228	659.81
421.605	691
421.982	695.97
422.358	691.22
422.735	724.9
423.111	706.14
423.488	711.34
423.864	735.29
424.241	752.92
424.617	760.6
424.994	777.78
425.37	769.64
425.746	788.4
426.123	785.69
426.499	814.84
426.875	827.04
427.251	810.77
427.627	827.72
428.003	834.95
428.379	851.22
428.756	854.16
429.132	868.4
429.507	879.02
429.883	894.61
430.259	909.52
430.635	911.78
431.011	909.3
431.387	941.61
431.763	942.07
432.138	956.3
432.514	964.66
432.89	976.64
433.265	984.32
433.641	992.46
434.016	1012.57
434.392	1041.95
434.767	1032.23
435.143	1058.67
435.518	1069.07
435.894	1065
436.269	1106.13
436.644	1094.38
437.02	1137.77
437.395	1124.43
437.77	1154.94
438.145	1173.92
438.52	1186.8
438.895	1186.58
439.271	1200.59
439.646	1208.05
440.021	1229.29
440.395	1236.52
440.77	1237.43
441.145	1248.5
441.52	1269.06
441.895	1279.23
442.27	1290.53
442.645	1278.78
443.019	1287.14
443.394	1316.52
443.769	1320.13
444.143	1304.99
444.518	1337.76
444.892	1357.65
445.267	1388.38
445.641	1361.94
446.016	1349.51
446.39	1359.46
446.764	1375.27
447.139	1382.96
447.513	1399.23
447.887	1398.32
448.262	1411.21
448.636	1409.85
449.01	1433.58
449.384	1428.38
449.758	1428.15
450.132	1456.4
450.506	1474.26
450.88	1498.89
451.254	1461.37
451.628	1482.16
452.002	1497.53
452.376	1492.56
452.75	1501.82
453.123	1553.8
453.497	1538.66
453.871	1556.29
454.244	1557.87
454.618	1603.97
454.992	1593.8
455.365	1593.12
455.739	1640.58
456.112	1631.99
456.486	1634.02
456.859	1636.28
457.232	1674.93
457.606	1686.23
457.979	1695.04
458.352	1703.18
458.725	1761.93
459.099	1746.11
459.472	1783.4
459.845	1759.67
460.218	1807.35
460.591	1803.74
460.964	1812.55
461.337	1863.17
461.71	1843.96
462.083	1882.61
462.456	1914.92
462.829	1900.23
463.201	1917.18
463.574	1914.92
463.947	1930.29
464.32	1982.94
464.692	1992.89
465.065	2008.7
465.438	2006.22
465.81	2034.92
466.183	2034.24
466.555	2094.13
466.928	2054.35
467.3	2109.72
467.672	2120.34
468.045	2154.46
468.417	2156.95
468.789	2156.72
469.161	2205.54
469.534	2215.25
469.906	2277.85
470.278	2250.73
470.65	2294.8
471.022	2331.41
471.394	2344.06
471.766	2367.34
472.138	2367.56
472.51	2395.13
472.882	2440.78
473.253	2493.21
473.625	2468.35
473.997	2547.22
474.369	2554.68
474.74	2540.22
475.112	2611.85
475.484	2614.11
475.855	2659.31
476.227	2651.85
476.598	2732.75
476.97	2754.45
477.341	2756.93
477.713	2811.62
478.084	2849.59
478.455	2891.62
478.827	2919.64
479.198	2963.26
479.569	2959.64
479.94	3027.89
480.311	3083.7
480.682	3110.82
481.053	3172.52
481.424	3216.58
481.795	3232.4
482.166	3271.95
482.537	3287.99
482.908	3338.61
483.279	3342.23
483.65	3397.14
484.021	3485.28
484.391	3443.24
484.762	3520.08
485.133	3516.01
485.503	3571.6
485.874	3600.07
486.244	3647.08
486.615	3666.29
486.985	3698.38
487.356	3762.78
487.726	3801.65
488.097	3819.73
488.467	3838.71
488.837	3922.33
489.207	3927.52
489.578	3974.98
489.948	4050.01
490.318	4057.24
490.688	4043.68
491.058	4136.33
491.428	4163.68
491.798	4184.01
492.168	4273.96
492.538	4241.41
492.908	4259.72
493.278	4316.67
493.648	4327.97
494.017	4381.3
494.387	4453.61
494.757	4448.87
495.126	4453.39
495.496	4508.3
495.866	4478.7
496.235	4521.18
496.605	4562.99
496.974	4542.2
497.344	4618.35
497.713	4656.32
498.082	4645.47
498.452	4703.55
498.821	4720.27
499.19	4717.56
499.559	4687.96
499.928	4777.45
500.298	4745.36
500.667	4790.33
501.036	4812.25
501.405	4851.57
501.774	4843.43
502.143	4879.36
502.512	4909.64
502.88	4933.83
503.249	4901.28
503.618	4956.2
503.987	4980.15
504.356	5001.85
504.724	4993.26
505.093	4993.94
505.462	5020.83
505.83	5050.88
506.199	5060.83
506.567	5094.72
506.936	5057.66
507.304	5149.41
507.672	5179.24
508.041	5162.52
508.409	5213.14
508.777	5188.73
509.145	5227.38
509.514	5231.44
509.882	5293.14
510.25	5209.52
510.618	5277.32
510.986	5284.78
511.354	5287.71
511.722	5364.32
512.09	5365.45
512.458	5364.55
512.826	5397.77
513.193	5388.05
513.561	5417.65
513.929	5474.38
514.297	5442.51
514.664	5457.65
515.032	5415.85
515.4	5499.46
515.767	5463.3
516.135	5495.84
516.502	5446.13
516.869	5474.15
517.237	5525.9
517.604	5525.45
517.972	5550.53
518.339	5579.23
518.706	5561.15
519.073	5607.71
519.44	5634.6
519.808	5633.47
520.175	5635.73
520.542	5707.36
520.909	5713.69
521.276	5664.43
521.643	5741.94
522.009	5712.56
522.376	5739.68
522.743	5801.15
523.11	5857.64
523.477	5839.34
523.843	5840.47
524.21	5868.26
524.577	5871.43
524.943	5869.62
525.31	5946.68
525.676	5994.59
526.043	5990.75
526.409	6014.7
526.776	6065.77
527.142	6073.23
527.508	6066
527.874	6077.98
528.241	6167.46
528.607	6112.33
528.973	6150.52
529.339	6197.97
529.705	6156.39
530.071	6235.49
530.437	6235.49
530.803	6298.53
531.169	6342.38
531.535	6269.38
531.901	6248.37
532.267	6286.56
532.632	6364.07
532.998	6326.33
533.364	6334.01
533.73	6428.93
534.095	6401.13
534.461	6367.01
534.826	6420.79
535.192	6428.93
535.557	6469.6
535.923	6468.02
536.288	6454.69
536.653	6505.76
537.019	6495.37
537.384	6517.06
537.749	6537.85
538.114	6544.86
538.479	6544.86
538.845	6581.69
539.21	6557.29
539.575	6529.04
539.94	6545.31
540.305	6597.06
540.67	6571.75
541.034	6629.15
541.399	6615.36
541.764	6602.03
542.129	6692.42
542.494	6669.6
542.858	6714.8
543.223	6763.83
543.587	6704.85
543.952	6759.77
544.316	6720.22
544.681	6696.26
545.045	6708.69
545.41	6796.6
545.774	6797.5
546.138	6786.88
546.503	6777.39
546.867	6819.65
547.231	6884.51
547.595	6885.19
547.959	6855.13
548.324	6879.76
548.688	6867.79
549.052	6908.01
549.416	6892.64
549.779	6877.95
550.143	6907.33
550.507	6948.91
550.871	6937.39
551.235	6936.71
551.599	7002.7
551.962	6999.31
552.326	6910.72
552.689	7044.73
553.053	6925.86
553.417	6938.52
553.78	7104.84
554.143	7013.09
554.507	7054
554.87	7077.72
555.234	7113.88
555.597	7130.38
555.96	7080.66
556.323	7136.71
556.686	7145.29
557.05	7180.32
557.413	7100.1
557.776	7190.94
558.139	7171.05
558.502	7251.05
558.865	7211.73
559.228	7211.96
559.59	7211.51
559.953	7324.5
560.316	7327.43
560.679	7314.1
561.041	7360.88
561.404	7402.46
561.767	7395
562.129	7378.28
562.492	7472.97
562.854	7460.54
563.217	7378.28
563.579	7437.04
563.941	7490.59
564.304	7593.19
564.666	7594.32
565.028	7606.75
565.39	7597.94
565.753	7625.05
566.115	7651.95
566.477	7743.02
566.839	7680.19
567.201	7800.19
567.563	7772.62
567.925	7822.79
568.287	7794.77
568.648	7863.24
569.01	7915.44
569.372	7875.44
569.734	7931.94
570.095	7934.88
570.457	7969
570.819	7975.78
571.18	7931.49
571.542	8002.67
571.903	8052.39
572.265	8058.71
572.626	8096.45
572.987	8155.21
573.349	8171.25
573.71	8247.41
574.071	8235.66
574.432	8291.25
574.794	8322.89
575.155	8283.12
575.516	8355.2
575.877	8390.91
576.238	8401.98
576.599	8437.91
576.96	8455.77
577.32	8488.08
577.681	8552.94
578.042	8643.78
578.403	8592.71
578.763	8687.62
579.124	8639.49
579.485	8757.45
579.845	8806.27
580.206	8819.37
580.566	8765.14
580.927	8870.44
581.287	8937.56
581.648	8975.98
582.008	9069.99
582.368	9094.62
582.728	9118.8
583.089	9142.3
583.449	9217.1
583.809	9227.05
584.169	9330.77
584.529	9399.02
584.889	9391.11
585.249	9432.24
585.609	9480.6
585.969	9630.42
586.329	9681.72
586.688	9708.61
587.048	9741.38
587.408	9894.15
587.768	9805.11
588.127	9910.19
588.487	10001.94
588.846	10066.57
589.206	10040.13
589.565	10109.28
589.925	10318.99
590.284	10271.99
590.643	10409.16
591.003	10451.19
591.362	10556.5
591.721	10579.78
592.08	10640.57
592.44	10758.3
592.799	10824.52
593.158	10873.1
593.517	10885.76
593.876	10957.62
594.235	10996.72
594.593	11085.08
594.952	11153.77
595.311	11239.42
595.67	11284.39
596.029	11335.01
596.387	11396.93
596.746	11519.41
597.104	11425.86
597.463	11541.11
597.822	11658.17
598.18	11698.17
598.538	11739.97
598.897	11761.22
599.255	11777.03
599.613	12011.15
599.972	11919.63
600.33	12070.36
600.688	12088.44
601.046	12079.4
601.404	12226.97
601.762	12245.27
602.12	12315.33
602.478	12341.77
602.836	12403.23
603.194	12421.76
603.552	12428.54
603.91	12374.31
604.268	12525.49
604.625	12499.05
604.983	12636.9
605.341	12647.29
605.698	12640.52
606.056	12857.68
606.413	12689.33
606.771	12812.26
607.128	12913.73
607.485	12890
607.843	12918.25
608.2	13005.7
608.557	13046.83
608.914	13005.93
609.272	13119.37
609.629	13136.77
609.986	13208.18
610.343	13206.83
610.7	13388.74
611.057	13292.02
611.414	13325.69
611.771	13370.44
612.127	13483.2
612.484	13540.38
612.841	13567.04
613.198	13444.34
613.554	13463.09
613.911	13494.05
614.267	13614.5
614.624	13488.4
614.98	13646.14
615.337	13649.75
615.693	13708.28
616.05	13689.75
616.406	13790.77
616.762	13680.94
617.118	13744.89
617.475	13758.68
617.831	13800.48
618.187	13850.2
618.543	13829.41
618.899	14007.03
619.255	13945.79
619.611	13938.79
619.967	13952.57
620.323	13970.2
620.678	14083.19
621.034	13931.78
621.39	13908.73
621.746	13993.93
622.101	14168.84
622.457	14026.69
622.812	14066.69
623.168	14101.72
623.523	14129.06
623.879	14283.18
624.234	14023.53
624.589	14123.64
624.945	14127.48
625.3	14170.42
625.655	14242.51
626.01	14218.78
626.365	14236.63
626.72	14192.56
627.075	14150.76
627.43	14234.15
627.785	14206.35
628.14	14222.85
628.495	14219.46
628.85	14202.51
629.205	14160.48
629.559	14290.42
629.914	14124.54
630.269	14201.15
630.623	14190.3
630.978	14162.51
631.332	14192.79
631.687	14175.84
632.041	14197.99
632.396	14155.05
632.75	14064.43
633.104	14112.11
633.459	14075.05
633.813	14117.54
634.167	14162.06
634.521	14100.59
634.875	14070.76
635.229	14103.3
635.583	14022.4
635.937	14052.68
636.291	14077.09
636.645	14016.52
636.999	13970.65
637.352	13950.31
637.706	13958.22
638.06	14032.57
638.413	14004.77
638.767	13867.6
639.121	13979.46
639.474	13873.03
639.828	13787.38
640.181	13902.18
640.534	13965
640.888	13887.49
641.241	13738.79
641.594	13881.84
641.947	13914.38
642.301	13839.81
642.654	13810.88
643.007	13877.54
643.36	13759.13
643.713	13716.64
644.066	13796.19
644.419	13805.68
644.771	13673.93
645.124	13591.68
645.477	13536.31
645.83	13399.37
646.182	13353.94
646.535	13376.99
646.888	13358.91
647.24	13318.24
647.593	13407.73
647.945	13315.3
648.298	13351.23
648.65	13311.91
649.002	13290.67
649.355	13362.76
649.707	13379.7
650.059	13438.01
650.411	13581.96
650.763	13624.67
651.115	13777.43
651.467	13715.06
651.819	13728.85
652.171	13647.04
652.523	13619.7
652.875	13579.93
653.227	13626.25
653.578	13677.55
653.93	13720.26
654.282	13690.66
654.633	13635.07
654.985	13660.15
655.337	13650.66
655.688	13619.25
656.039	13771.78
656.391	13586.03
656.742	13668.06
657.094	13655.86
657.445	13770.88
657.796	13766.81
658.147	13633.03
658.498	13707.61
658.849	13646.59
659.2	13707.83
659.551	13613.37
659.902	13726.36
660.253	13704.44
660.604	13749.41
660.955	13664.22
661.306	13646.14
661.656	13718.23
662.007	13786.47
662.358	13738.34
662.708	13807.49
663.059	13862.86
663.409	13748.73
663.76	13799.35
664.11	13774.04
664.461	13753.71
664.811	13748.06
665.161	13718.9
665.511	13688.4
665.862	13712.35
666.212	13836.87
666.562	13828.73
666.912	13815.85
667.262	13888.62
667.612	13777.43
667.962	13838.9
668.312	13791.22
668.662	13915.74
669.011	13804.33
669.361	13818.34
669.711	13823.53
670.06	13823.76
670.41	13813.14
670.76	13720.26
671.109	13790.77
671.459	13781.73
671.808	13704.22
672.157	13756.42
672.507	13650.88
672.856	13633.94
673.205	13621.96
673.554	13683.2
673.904	13727.49
674.253	13754.84
674.602	13650.66
674.951	13550.55
675.3	13371.57
675.649	13603.65
675.998	13609.3
676.346	13598.23
676.695	13678.91
677.044	13524.11
677.393	13591.45
677.741	13520.04
678.09	13452.92
678.438	13434.39
678.787	13612.69
679.135	13493.15
679.484	13384.68
679.832	13453.15
680.181	13404.11
680.529	13403.21
680.877	13320.05
681.225	13367.95
681.573	13409.76
681.922	13324.79
682.27	13294.06
682.618	13232.36
682.966	13215.42
683.314	13231.23
683.661	13173.38
684.009	13160.95
684.357	13160.05
684.705	13085.02
685.053	13112.37
685.4	13075.53
685.748	13007.29
686.095	13041.63
686.443	12998.47
686.79	12964.12
687.138	13011.13
687.485	13025.59
687.832	12923.9
688.18	12969.55
688.527	12911.47
688.874	12804.13
689.221	12773.17
689.568	12743.79
689.915	12751.92
690.262	12702.21
690.609	12604.36
690.956	12635.54
691.303	12493.4
691.65	12478.03
691.997	12502.44
692.344	12428.77
692.69	12382.22
693.037	12358.04
693.383	12276.68
693.73	12330.24
694.077	12204.14
694.423	12274.65
694.769	12225.84
695.116	12195.33
695.462	12216.12
695.808	12051.6
696.155	12113.3
696.501	12014.99
696.847	11965.05
697.193	11825.17
697.539	11942
697.885	11895.68
698.231	11790.14
698.577	11773.87
698.923	11778.62
699.269	11647.77
699.614	11639.64
699.96	11582.01
700.306	11666.53
700.651	11473.77
700.997	11460.66
701.342	11471.28
701.688	11485.97
702.033	11287.1
702.379	11363.26
702.724	11295.24
703.069	11354.45
703.415	11132.53
703.76	11090.5
704.105	11080.33
704.45	11115.81
704.795	11055.7
705.14	11000.56
705.485	10949.03
705.83	10998.75
706.175	10909.49
706.52	10862.93
706.865	10860.67
707.209	10855.7
707.554	10820
707.899	10897.96
708.243	10748.14
708.588	10732.99
708.932	10647.35
709.277	10644.64
709.621	10640.57
709.966	10555.6
710.31	10606.67
710.654	10471.08
710.998	10488.03
711.342	10438.54
711.687	10433.79
712.031	10431.76
712.375	10410.97
712.719	10395.83
713.063	10455.71
713.407	10434.47
713.75	10304.08
714.094	10362.83
714.438	10347.47
714.782	10281.71
715.125	10263.18
715.469	10278.77
715.812	10225.21
716.156	10145.44
716.499	10182.05
716.843	10213.46
717.186	10118.77
717.53	10179.11
717.873	10150.19
718.216	10123.52
718.559	10083.97
718.902	10030.41
719.246	10060.92
719.589	10055.95
719.932	9970.3
720.275	9989.74
720.617	9986.57
720.96	10015.05
721.303	9992.9
721.646	9953.81
721.989	9950.64
722.331	9910.42
722.674	9923.07
723.016	9966.24
723.359	9899.34
723.701	9899.12
724.044	9854.6
724.386	9846.01
724.729	9867.25
725.071	9808.27
725.413	9811.21
725.755	9860.7
726.097	9764.88
726.439	9779.57
726.782	9795.17
727.124	9812.57
727.465	9807.14
727.807	9787.03
728.149	9716.52
728.491	9726.24
728.833	9752.46
729.175	9785.22
729.516	9735.05
729.858	9687.15
730.199	9812.11
730.541	9734.6
730.882	9702.97
731.224	9760.59
731.565	9732.12
731.906	9702.74
732.248	9763.98
732.589	9725.56
732.93	9724.43
733.271	9670.42
733.612	9679.24
733.953	9725.34
734.294	9675.62
734.635	9654.6
734.976	9769.18
735.317	9623.65
735.658	9650.09
735.999	9602.85
736.339	9676.3
736.68	9666.58
737.021	9653.25
737.361	9622.97
737.702	9707.48
738.042	9620.03
738.383	9607.37
738.723	9675.17
739.063	9697.09
739.404	9770.31
739.744	9653.7
740.084	9675.4
740.424	9713.59
740.764	9702.74
741.104	9803.3
741.444	9771.44
741.784	9662.74
742.124	9828.61
742.464	9748.39
742.804	9803.98
743.143	9789.97
743.483	9864.09
743.823	9844.43
744.162	9890.98
744.502	9934.37
744.841	9895.73
745.181	10009.4
745.52	9968.72
745.86	10014.37
746.199	10034.71
746.538	10081.71
746.877	10184.76
747.216	10221.82
747.556	10286.23
747.895	10303.18
748.234	10303.63
748.573	10398.77
748.911	10337.3
749.25	10460.46
749.589	10542.94
749.928	10612.09
750.267	10680.57
750.605	10794.91
750.944	10806.89
751.283	10812.09
751.621	10981.58
751.96	11038.07
752.298	11093.21
752.636	11279.19
752.975	11274.22
753.313	11309.25
753.651	11497.49
753.989	11579.75
754.327	11676.02
754.666	11727.09
755.004	11847.54
755.342	12074.65
755.679	12200.75
756.017	12194.43
756.355	12403.91
756.693	12457.92
757.031	12593.51
757.368	12743.11
757.706	12861.53
758.044	12909.21
758.381	13055.87
758.719	13153.04
759.056	13362.76
759.394	13518.46
759.731	13540.83
760.068	13719.58
760.405	13834.83
760.743	13986.47
761.08	14132.45
761.417	14213.36
