Data from hue_90_FLMS001491_91.txt Node
Date: Mon Feb 06 15:25:56 GMT 2017
User: dcchb
Spectrometer: FLMS00149
Trigger mode: 0
Integration Time (sec): 2.000000E-2
Scans to average: 10
Electric dark correction enabled: true
Nonlinearity correction enabled: false
Boxcar width: 0
XAxis mode: Wavelengths
Number of Pixels in Spectrum: 2048
>>>>>Begin Spectral Data<<<<<
341.393	-25.8
341.776	-25.8
342.16	-25.8
342.543	-54.73
342.927	-71.9
343.31	-64.22
343.693	-77.33
344.077	-57.44
344.46	-57.22
344.843	-57.89
345.226	-63.77
345.61	-25.58
345.993	-14.51
346.376	-15.86
346.759	12.16
347.142	23.01
347.525	48.09
347.908	53.06
348.291	81.54
348.674	104.59
349.057	111.37
349.44	112.05
349.823	157.02
350.206	177.35
350.588	170.35
350.971	200.4
351.354	213.51
351.737	238.6
352.119	240.63
352.502	274.53
352.884	266.17
353.267	279.95
353.65	287.18
354.032	293.96
354.414	287.63
354.797	354.07
355.179	312.72
355.562	323.34
355.944	325.37
356.326	328.54
356.709	342.55
357.091	323.34
357.473	345.49
357.855	340.29
358.238	317.92
358.62	354.98
359.002	344.58
359.384	316.56
359.766	321.53
360.148	333.28
360.53	326.05
360.912	319.27
361.294	331.93
361.676	315.2
362.057	317.01
362.439	324.47
362.821	328.31
363.203	312.49
363.584	333.51
363.966	305.26
364.348	311.81
364.729	327.41
365.111	306.84
365.493	315.43
365.874	330.8
366.256	305.71
366.637	302.55
367.019	307.97
367.4	305.49
367.781	293.96
368.163	280.4
368.544	331.47
368.925	306.62
369.306	306.62
369.688	311.59
370.069	321.53
370.45	303
370.831	317.24
371.212	323.79
371.593	313.85
371.974	302.55
372.355	313.85
372.736	308.2
373.117	312.72
373.498	311.81
373.879	317.92
374.26	287.41
374.641	324.92
375.021	333.96
375.402	331.25
375.783	300.97
376.163	331.02
376.544	330.12
376.925	307.29
377.305	329.21
377.686	300.29
378.066	319.27
378.447	321.08
378.827	333.28
379.208	337.58
379.588	336.45
379.968	319.27
380.349	356.11
380.729	327.86
381.109	315.88
381.489	328.99
381.87	341.19
382.25	323.56
382.63	346.84
383.01	332.38
383.39	346.16
383.77	330.12
384.15	335.99
384.53	356.56
384.91	340.74
385.29	357.24
385.67	331.93
386.049	376.22
386.429	344.81
386.809	368.54
387.189	367.18
387.568	345.71
387.948	353.62
388.328	321.53
388.707	352.26
389.087	347.75
389.466	368.31
389.846	343.68
390.225	356.11
390.605	372.6
390.984	371.47
391.363	370.12
391.743	351.36
392.122	350.91
392.501	351.36
392.881	389.78
393.26	385.48
393.639	372.6
394.018	366.05
394.397	393.62
394.776	385.03
395.155	355.43
395.534	371.25
395.913	383.9
396.292	381.19
396.671	384.35
397.05	393.62
397.429	376.67
397.808	386.84
398.186	391.13
398.565	412.15
398.944	391.36
399.323	406.27
399.701	369.89
400.08	397.91
400.458	380.06
400.837	401.3
401.215	404.69
401.594	405.82
401.972	375.31
402.351	408.99
402.729	376.67
403.107	400.4
403.486	397.24
403.864	420.74
404.242	417.57
404.62	437.23
404.999	426.39
405.377	449.21
405.755	406.95
406.133	402.66
406.511	424.81
406.889	423.9
407.267	426.84
407.645	439.72
408.023	444.24
408.401	418.48
408.779	449.89
409.156	452.83
409.534	434.97
409.912	432.26
410.29	442.43
410.667	441.53
411.045	457.8
411.422	456.44
411.8	461.19
412.178	451.47
412.555	485.59
412.933	482.2
413.31	466.84
413.687	481.07
414.065	483.33
414.442	470.45
414.819	500.51
415.197	490.79
415.574	489.89
415.951	487.4
416.328	474.75
416.705	493.96
417.082	503.9
417.46	506.84
417.837	516.1
418.214	534.41
418.591	522.2
418.967	516.1
419.344	510.23
419.721	518.14
420.098	498.02
420.475	533.95
420.852	523.33
421.228	516.1
421.605	535.31
421.982	547.97
422.358	510.23
422.735	554.29
423.111	528.08
423.488	542.77
423.864	581.41
424.241	555.65
424.617	543.22
424.994	563.78
425.37	556.78
425.746	577.8
426.123	588.19
426.499	572.15
426.875	567.4
427.251	590.9
427.627	597.91
428.003	595.87
428.379	572.82
428.756	597
429.132	606.04
429.507	594.52
429.883	603.56
430.259	620.96
430.635	632.48
431.011	634.74
431.387	652.82
431.763	651.01
432.138	648.75
432.514	657.79
432.89	659.6
433.265	645.59
433.641	676.1
434.016	672.48
434.392	692.59
434.767	665.48
435.143	703.89
435.518	703.44
435.894	716.1
436.269	710.67
436.644	705.7
437.02	725.14
437.395	723.55
437.77	711.13
438.145	752.48
438.52	741.86
438.895	752.25
439.271	729.2
439.646	740.28
440.021	763.55
440.395	761.75
440.77	769.43
441.145	768.98
441.52	806.49
441.895	786.38
442.27	790.9
442.645	811.91
443.019	815.76
443.394	834.29
443.769	803.78
444.143	801.07
444.518	820.95
444.892	820.05
445.267	862.99
445.641	832.48
446.016	843.1
446.39	840.61
446.764	848.3
447.139	848.97
447.513	866.38
447.887	854.17
448.262	866.6
448.636	862.08
449.01	855.98
449.384	888.3
449.758	882.42
450.132	890.78
450.506	890.33
450.88	895.08
451.254	913.61
451.628	918.58
452.002	909.99
452.376	933.72
452.75	956.32
453.123	945.24
453.497	963.32
453.871	971.23
454.244	989.54
454.618	1007.39
454.992	984.56
455.365	996.32
455.739	1038.8
456.112	1044.22
456.486	1032.47
456.859	1039.03
457.232	1051
457.606	1067.73
457.979	1074.05
458.352	1087.16
458.725	1128.97
459.099	1113.83
459.472	1126.26
459.845	1131.23
460.218	1167.16
460.591	1160.61
460.964	1195.41
461.337	1180.72
461.71	1218.46
462.083	1198.34
462.456	1248.51
462.829	1257.33
463.201	1282.18
463.574	1270.21
463.947	1307.95
464.32	1328.51
464.692	1343.43
465.065	1347.72
465.438	1352.92
465.81	1395.4
466.183	1395.18
466.555	1433.37
466.928	1460.71
467.3	1412.58
467.672	1460.26
468.045	1491.22
468.417	1523.76
468.789	1561.27
469.161	1532.35
469.534	1597.43
469.906	1607.82
470.278	1680.82
470.65	1662.96
471.022	1695.51
471.394	1727.37
471.766	1752.45
472.138	1814.37
472.51	1805.11
472.882	1849.63
473.253	1897.99
473.625	1937.76
473.997	1976.63
474.369	1994.26
474.74	2035.84
475.112	2101.6
475.484	2146.34
475.855	2191.54
476.227	2248.49
476.598	2334.59
476.97	2356.51
477.341	2380.69
477.713	2468.37
478.084	2502.26
478.455	2557.63
478.827	2619.78
479.198	2743.61
479.569	2754.91
479.94	2871.52
480.311	2914.46
480.682	3000.78
481.053	3117.39
481.424	3210.04
481.795	3262.7
482.166	3310.83
482.537	3426.08
482.908	3527.32
483.279	3570.94
483.65	3707.43
484.021	3781.1
484.391	3876.69
484.762	3951.49
485.133	4075.1
485.503	4154.88
485.874	4290.69
486.244	4389.45
486.615	4536.79
486.985	4620.18
487.356	4772.04
487.726	4871.24
488.097	4973.61
488.467	5056.32
488.837	5174.28
489.207	5289.08
489.578	5454.5
489.948	5533.37
490.318	5663.76
490.688	5741.5
491.058	5902.18
491.428	6090.64
491.798	6172.45
492.168	6357.76
492.538	6406.12
492.908	6560.01
493.278	6698.99
493.648	6783.51
494.017	6887.01
494.387	7044.29
494.757	7145.31
495.126	7265.98
495.496	7349.82
495.866	7486.09
496.235	7602.24
496.605	7725.63
496.974	7874.1
497.344	7929.92
497.713	8078.62
498.082	8144.83
498.452	8293.75
498.821	8359.29
499.19	8427.53
499.559	8571.03
499.928	8659.16
500.298	8705.04
500.667	8859.16
501.036	8919.5
501.405	9003.79
501.774	9037.23
502.143	9209.66
502.512	9315.19
502.88	9395.42
503.249	9437.9
503.618	9555.64
503.987	9617.56
504.356	9680.38
504.724	9701.4
505.093	9837.89
505.462	9939.36
505.83	9999.02
506.199	10102.97
506.567	10198.79
506.936	10138.22
507.304	10319.69
507.672	10429.06
508.041	10413.7
508.409	10475.84
508.777	10527.14
509.145	10646.68
509.514	10673.35
509.882	10720.81
510.25	10781.82
510.618	10833.35
510.986	10821.37
511.354	11011.42
511.722	11037.63
512.09	11170.29
512.458	11135.48
512.826	11228.14
513.193	11259.77
513.561	11249.61
513.929	11333.44
514.297	11517.85
514.664	11552.42
515.032	11483.27
515.4	11568.02
515.767	11616.38
516.135	11670.16
516.502	11601.46
516.869	11824.96
517.237	11739.31
517.604	11699.76
517.972	11829.7
518.339	11838.97
518.706	11882.81
519.073	11797.61
519.44	11967.78
519.808	12174.33
520.175	11965.07
520.542	12162.35
520.909	12211.16
521.276	12135.01
521.643	12253.19
522.009	12267.43
522.376	12290.03
522.743	12345.62
523.11	12466.07
523.477	12512.4
523.843	12524.83
524.21	12599.85
524.577	12611.38
524.943	12574.99
525.31	12671.49
525.676	12751.71
526.043	12753.97
526.409	12662.22
526.776	12800.3
527.142	12818.38
527.508	12874.87
527.874	12840.07
528.241	12882.33
528.607	12924.36
528.973	13007.98
529.339	12872.61
529.705	12940.86
530.071	13087.52
530.437	13036.23
530.803	13007.53
531.169	13077.58
531.535	12972.5
531.901	12990.8
532.267	13031.71
532.632	13013.63
532.998	13059.73
533.364	13021.54
533.73	12992.61
534.095	13075.55
534.461	13111.93
534.826	13067.18
535.192	13143.11
535.557	13122.32
535.923	13018.15
536.288	13054.08
536.653	13031.93
537.019	12902.67
537.384	12988.09
537.749	13004.36
538.114	12938.15
538.479	12922.78
538.845	12932.95
539.21	12895.66
539.575	12872.16
539.94	12840.07
540.305	12894.99
540.67	12837.36
541.034	12760.3
541.399	12754.42
541.764	12706.52
542.129	12878.94
542.494	12779.06
542.858	12691.83
543.223	12721.43
543.587	12685.05
543.952	12672.17
544.316	12594.2
544.681	12591.94
545.045	12600.3
545.41	12620.87
545.774	12600.08
546.138	12478.27
546.503	12579.97
546.867	12495.22
547.231	12501.1
547.595	12469.91
547.959	12513.53
548.324	12392.4
548.688	12371.38
549.052	12371.16
549.416	12376.81
549.779	12285.74
550.143	12237.83
550.507	12307.43
550.871	12366.19
551.235	12237.83
551.599	12328.9
551.962	12219.3
552.326	12224.27
552.689	12238.05
553.053	12171.61
553.417	12156.25
553.78	12290.03
554.143	12037.83
554.507	12227.88
554.87	12103.82
555.234	12221.11
555.597	12086.87
555.96	12130.26
556.323	12134.78
556.686	12041
557.05	12077.15
557.413	12080.09
557.776	12033.99
558.139	12091.62
558.502	12014.11
558.865	12125.51
559.228	12135.91
559.59	12037.61
559.953	12116.93
560.316	12179.75
560.679	12104.27
561.041	12109.47
561.404	12138.4
561.767	12255.23
562.129	12076.7
562.492	12132.07
562.854	12092.97
563.217	12095.91
563.579	12180.65
563.941	12255
564.304	12181.56
564.666	12247.77
565.028	12273.99
565.39	12337.03
565.753	12304.27
566.115	12323.48
566.477	12270.6
566.839	12316.02
567.201	12353.31
567.563	12328.9
567.925	12413.42
568.287	12297.26
568.648	12404.15
569.01	12431.27
569.372	12532.51
569.734	12383.13
570.095	12516.24
570.457	12479.4
570.819	12487.54
571.18	12539.29
571.542	12526.63
571.903	12555.56
572.265	12624.71
572.626	12532.96
572.987	12589.23
573.349	12624.03
573.71	12600.53
574.071	12658.61
574.432	12631.26
574.794	12664.26
575.155	12629.91
575.516	12657.93
575.877	12732.73
576.238	12666.52
576.599	12773.86
576.96	12616.12
577.32	12731.83
577.681	12718.72
578.042	12749.68
578.403	12695.67
578.763	12750.13
579.124	12725.72
579.485	12750.36
579.845	12758.04
580.206	12675.1
580.566	12736.12
580.927	12704.26
581.287	12744.03
581.648	12702.9
582.008	12814.08
582.368	12770.47
582.728	12840.98
583.089	12763.01
583.449	12796.23
583.809	12668.1
584.169	12672.39
584.529	12673.52
584.889	12869.45
585.249	12698.83
585.609	12719.4
585.969	12791.94
586.329	12729.79
586.688	12755.78
587.048	12750.58
587.408	12697.7
587.768	12697.93
588.127	12634.88
588.487	12705.61
588.846	12655.22
589.206	12591.26
589.565	12598.5
589.925	12665.61
590.284	12593.07
590.643	12626.52
591.003	12588.33
591.362	12651.6
591.721	12645.5
592.08	12564.6
592.44	12631.04
592.799	12619.29
593.158	12520.31
593.517	12608.44
593.876	12631.49
594.235	12563.24
594.593	12589.01
594.952	12631.49
595.311	12590.59
595.67	12569.8
596.029	12622.68
596.387	12587.65
596.746	12545.16
597.104	12495.9
597.463	12558.95
597.822	12535.45
598.18	12496.13
598.538	12498.84
598.897	12527.76
599.255	12449.35
599.613	12639.4
599.972	12509.46
600.33	12525.73
600.688	12535
601.046	12541.77
601.404	12604.15
601.762	12540.87
602.12	12542.23
602.478	12577.03
602.836	12585.16
603.194	12489.12
603.552	12567.31
603.91	12457.48
604.268	12524.37
604.625	12588.1
604.983	12479.18
605.341	12533.87
605.698	12589.46
606.056	12535.22
606.413	12536.35
606.771	12565.73
607.128	12549.23
607.485	12473.53
607.843	12589.01
608.2	12611.38
608.557	12623.13
608.914	12566.86
609.272	12627.87
609.629	12677.36
609.986	12682.34
610.343	12620.87
610.7	12733.41
611.057	12678.04
611.414	12634.65
611.771	12691.6
612.127	12775.89
612.484	12720.75
612.841	12761.43
613.198	12701.77
613.554	12758.72
613.911	12750.13
614.267	12730.47
614.624	12763.46
614.98	12750.58
615.337	12775.89
615.693	12871.94
616.05	12812.28
616.406	12862.22
616.762	12765.95
617.118	12872.84
617.475	12840.98
617.831	12836.23
618.187	12810.02
618.543	12859.96
618.899	12909.45
619.255	12916.23
619.611	12898.6
619.967	12942.44
620.323	12956
620.678	12878.72
621.034	12849.11
621.39	12910.58
621.746	12846.85
622.101	13065.83
622.457	12925.27
622.812	12932.27
623.168	12988.54
623.523	13005.49
623.879	12985.38
624.234	12911.93
624.589	12991.25
624.945	13024.93
625.3	13063.79
625.655	12972.27
626.01	12952.16
626.365	12945.38
626.72	12926.4
627.075	12901.99
627.43	12909.45
627.785	12922.78
628.14	12894.76
628.495	12840.07
628.85	12927.53
629.205	12894.08
629.559	12842.11
629.914	12791.49
630.269	12816.34
630.623	12841.43
630.978	12772.73
631.332	12828.09
631.687	12824.93
632.041	12761.66
632.396	12834.87
632.75	12779.73
633.104	12761.43
633.459	12716.23
633.813	12735.22
634.167	12617.7
634.521	12698.83
634.875	12692.73
635.229	12689.34
635.583	12585.62
635.937	12584.26
636.291	12571.83
636.645	12718.27
636.999	12599.85
637.352	12648.21
637.706	12559.85
638.06	12563.92
638.413	12555.56
638.767	12565.95
639.121	12536.8
639.474	12481.44
639.828	12500.87
640.181	12489.35
640.534	12469.01
640.888	12474.66
641.241	12470.14
641.594	12455.22
641.947	12468.1
642.301	12400.54
642.654	12442.79
643.007	12398.73
643.36	12396.02
643.713	12436.01
644.066	12439.18
644.419	12399.63
644.771	12274.89
645.124	12146.3
645.477	12118.51
645.83	12039.42
646.182	11981.34
646.535	12000.55
646.888	12000.77
647.24	11959.64
647.593	12018.85
647.945	12018.4
648.298	11938.63
648.65	11862.47
649.002	11868.12
649.355	11947.21
649.707	11911.96
650.059	12017.95
650.411	12088.68
650.763	12129.36
651.115	12312.18
651.467	12251.16
651.819	12287.09
652.171	12195.12
652.523	12159.64
652.875	12253.42
653.227	12063.14
653.578	12231.27
653.93	12186.53
654.282	12179.75
654.633	12114.89
654.985	12182.01
655.337	12118.51
655.688	12249.35
656.039	12194.44
656.391	12113.31
656.742	12101.79
657.094	12160.32
657.445	12159.19
657.796	12177.72
658.147	12182.46
658.498	12191.5
658.849	12116.93
659.2	12102.69
659.551	12089.36
659.902	12215.46
660.253	12160.09
660.604	12141.56
660.955	12102.46
661.306	12146.53
661.656	12154.89
662.007	12187.43
662.358	12149.24
662.708	12132.29
663.059	12151.95
663.409	12108.11
663.76	12183.59
664.11	12236.92
664.461	12246.87
664.811	12218.85
665.161	12180.88
665.511	12179.3
665.862	12245.29
666.212	12222.91
666.562	12285.28
666.912	12219.75
667.262	12157.6
667.612	12267.43
667.962	12249.81
668.312	12198.96
668.662	12306.3
669.011	12253.42
669.361	12150.6
669.711	12192.41
670.06	12210.94
670.41	12157.15
670.76	12137.94
671.109	12249.81
671.459	12199.86
671.808	12163.93
672.157	12112.41
672.507	12144.95
672.856	12120.99
673.205	12136.14
673.554	12172.29
673.904	12030.6
674.253	12140.2
674.602	12111.28
674.951	11884.39
675.3	11935.01
675.649	12048.91
675.998	12015.01
676.346	12016.59
676.695	12031.96
677.044	11930.27
677.393	11998.06
677.741	11959.19
678.09	12033.54
678.438	11917.38
678.787	11943.82
679.135	11981.56
679.484	11866.31
679.832	11928.91
680.181	11835.13
680.529	11863.83
680.877	11850.95
681.225	11844.17
681.573	11860.21
681.922	11794.68
682.27	11664.51
682.618	11717.16
682.966	11735.92
683.314	11729.14
683.661	11703.38
684.009	11695.02
684.357	11663.38
684.705	11556.72
685.053	11593.55
685.4	11565.98
685.748	11498.86
686.095	11528.24
686.443	11491.86
686.79	11461.58
687.138	11495.93
687.485	11410.51
687.832	11362.14
688.18	11388.13
688.527	11343.39
688.874	11276.72
689.221	11292.99
689.568	11266.55
689.915	11247.12
690.262	11182.49
690.609	11213.45
690.956	11124.41
691.303	11093.45
691.65	11062.27
691.997	11041.02
692.344	10909.5
692.69	10998.09
693.037	10982.27
693.383	10778.66
693.73	10851.65
694.077	10838.77
694.423	10755.38
694.769	10770.3
695.116	10750.64
695.462	10777.3
695.808	10740.92
696.155	10697.98
696.501	10572.56
696.847	10617.98
697.193	10483.98
697.539	10522.62
697.885	10470.19
698.231	10403.3
698.577	10384.32
698.923	10422.96
699.269	10293.02
699.614	10269.07
699.96	10239.91
700.306	10198.79
700.651	10179.35
700.997	10157.43
701.342	10041.5
701.688	10095.06
702.033	10071.56
702.379	10036.08
702.724	9986.36
703.069	9952.24
703.415	9923.99
703.76	9846.03
704.105	9850.77
704.45	9872.01
704.795	9770.55
705.14	9694.62
705.485	9743.2
705.83	9664.34
706.175	9744.56
706.52	9617.33
706.865	9626.15
707.209	9622.08
707.554	9549.76
707.899	9549.54
708.243	9528.75
708.588	9525.58
708.932	9371.69
709.277	9409.43
709.621	9369.43
709.966	9357.23
710.31	9402.65
710.654	9293.05
710.998	9335.98
711.342	9297.79
711.687	9314.51
712.031	9176.44
712.375	9160.17
712.719	9201.52
713.063	9194.52
713.407	9239.71
713.75	9098.02
714.094	9121.98
714.438	9074.97
714.782	9108.64
715.125	9064.13
715.469	9070.91
715.812	9067.74
716.156	8998.59
716.499	8987.29
716.843	9011.02
717.186	8909.55
717.53	8998.37
717.873	8989.33
718.216	8920.63
718.559	8865.04
718.902	8854.64
719.246	8887.86
719.589	8884.47
719.932	8854.41
720.275	8871.36
720.617	8813.51
720.96	8893.51
721.303	8789.56
721.646	8772.61
721.989	8736.45
722.331	8818.26
722.674	8787.3
723.016	8725.83
723.359	8736.45
723.701	8762.44
724.044	8720.86
724.386	8643.35
724.729	8779.61
725.071	8596.34
725.413	8733.97
725.755	8663.68
726.097	8627.3
726.439	8598.83
726.782	8661.88
727.124	8661.65
727.465	8609.9
727.807	8637.47
728.149	8513.86
728.491	8587.75
728.833	8603.35
729.175	8559.28
729.516	8537.59
729.858	8522.22
730.199	8530.35
730.541	8518.6
730.882	8542.78
731.224	8531.48
731.565	8556.34
731.906	8571.71
732.248	8553.18
732.589	8543.91
732.93	8458.94
733.271	8540.75
733.612	8517.7
733.953	8539.62
734.294	8483.12
734.635	8444.26
734.976	8535.33
735.317	8462.79
735.658	8486.29
735.999	8490.81
736.339	8434.54
736.68	8571.03
737.021	8490.36
737.361	8459.4
737.702	8516.57
738.042	8540.52
738.383	8527.19
738.723	8569.68
739.063	8546.63
739.404	8562.67
739.744	8507.53
740.084	8535.33
740.424	8574.2
740.764	8651.93
741.104	8583.91
741.444	8526.74
741.784	8568.32
742.124	8613.97
742.464	8580.52
742.804	8603.35
743.143	8592.05
743.483	8688.09
743.823	8663.23
744.162	8713.4
744.502	8697.36
744.841	8668.43
745.181	8761.76
745.52	8714.53
745.86	8851.48
746.199	8784.81
746.538	8877.01
746.877	8895.54
747.216	8949.78
747.556	8968.99
747.895	9053.28
748.234	8971.02
748.573	9075.88
748.911	9085.59
749.25	9173.28
749.589	9247.62
749.928	9339.15
750.267	9289.66
750.605	9361.52
750.944	9436.77
751.283	9465.92
751.621	9573.04
751.96	9618.24
752.298	9709.98
752.636	9774.39
752.975	9868.4
753.313	9846.25
753.651	10074.49
753.989	10093.25
754.327	10153.36
754.666	10312.23
755.004	10309.74
755.342	10483.07
755.679	10557.19
756.017	10650.53
756.355	10797.41
756.693	10892.78
757.031	11013.68
757.368	11151.98
757.706	11254.8
758.044	11372.54
758.381	11491.86
758.719	11563.27
759.056	11729.59
759.394	11860.89
