Data from hue_24_FLMS001491_00094.txt Node
Date: Tue Feb 07 17:13:00 GMT 2017
User: dcchb
Spectrometer: FLMS00149
Trigger mode: 0
Integration Time (sec): 2.000000E-2
Scans to average: 10
Electric dark correction enabled: true
Nonlinearity correction enabled: false
Boxcar width: 0
XAxis mode: Wavelengths
Number of Pixels in Spectrum: 2048
>>>>>Begin Spectral Data<<<<<
341.393	-21.96
341.776	-21.96
342.16	-21.96
342.543	-58.8
342.927	-77.55
343.31	-77.78
343.693	-71.23
344.077	-68.74
344.46	-53.83
344.843	-56.99
345.226	-35.52
345.61	-28.52
345.993	-11.34
346.376	3.35
346.759	18.71
347.142	28.66
347.525	35.66
347.908	55.32
348.291	71.37
348.674	94.87
349.057	96
349.44	123.12
349.823	132.16
350.206	172.83
350.588	202.21
350.971	216.68
351.354	248.09
351.737	244.92
352.119	235.21
352.502	277.69
352.884	272.49
353.267	288.54
353.65	299.84
354.032	313.62
354.414	323.56
354.797	301.87
355.179	327.41
355.562	324.24
355.944	336.45
356.326	341.19
356.709	353.62
357.091	340.74
357.473	350.23
357.855	332.38
358.238	345.94
358.62	347.97
359.002	342.55
359.384	339.38
359.766	349.55
360.148	335.99
360.53	328.08
360.912	337.35
361.294	347.07
361.676	352.49
362.057	323.11
362.439	311.36
362.821	335.54
363.203	338.71
363.584	323.79
363.966	332.83
364.348	317.01
364.729	340.97
365.111	319.05
365.493	340.06
365.874	327.18
366.256	336.22
366.637	310.68
367.019	315.88
367.4	326.5
367.781	309.33
368.163	326.05
368.544	315.66
368.925	325.82
369.306	337.12
369.688	299.38
370.069	325.82
370.45	302.55
370.831	312.72
371.212	313.4
371.593	326.05
371.974	322.89
372.355	327.18
372.736	341.64
373.117	313.17
373.498	328.31
373.879	327.18
374.26	317.46
374.641	319.5
375.021	310.46
375.402	339.84
375.783	344.13
376.163	333.51
376.544	338.71
376.925	324.92
377.305	327.41
377.686	336.9
378.066	333.06
378.447	346.16
378.827	354.98
379.208	322.44
379.588	360.85
379.968	343.45
380.349	347.29
380.729	345.03
381.109	359.04
381.489	333.28
381.87	358.14
382.25	340.74
382.63	360.85
383.01	366.73
383.39	347.52
383.77	368.08
384.15	350
384.53	355.65
384.91	369.44
385.29	370.8
385.67	355.88
386.049	387.74
386.429	372.83
386.809	383
387.189	371.93
387.568	366.28
387.948	356.78
388.328	374.41
388.707	378.7
389.087	378.25
389.466	378.93
389.846	377.8
390.225	392.72
390.605	368.54
390.984	385.48
391.363	399.04
391.743	392.26
392.122	396.33
392.501	396.33
392.881	408.99
393.26	408.99
393.639	406.27
394.018	393.39
394.397	411.92
394.776	408.31
395.155	400.85
395.534	414.41
395.913	392.04
396.292	431.13
396.671	411.92
397.05	433.17
397.429	421.87
397.808	440.62
398.186	431.13
398.565	420.29
398.944	434.75
399.323	456.44
399.701	437.91
400.08	439.04
400.458	462.32
400.837	448.31
401.215	457.8
401.594	441.53
401.972	437.91
402.351	430.91
402.729	447.63
403.107	453.51
403.486	455.31
403.864	465.26
404.242	479.49
404.62	471.36
404.999	443.11
405.377	475.43
405.755	466.61
406.133	470.23
406.511	484.69
406.889	479.72
407.267	499.38
407.645	501.64
408.023	489.89
408.401	491.02
408.779	484.46
409.156	507.51
409.534	489.21
409.912	505.26
410.29	494.41
410.667	523.11
411.045	506.38
411.422	507.74
411.8	534.18
412.178	543.67
412.555	533.5
412.933	527.63
413.31	550.45
413.687	533.73
414.065	546.61
414.442	552.26
414.819	545.71
415.197	548.64
415.574	551.13
415.951	574.18
416.328	555.65
416.705	568.3
417.082	577.57
417.46	598.36
417.837	589.77
418.214	578.47
418.591	606.95
418.967	595.65
419.344	590.9
419.721	618.92
420.098	604.01
420.475	617.12
420.852	614.63
421.228	602.2
421.605	626.38
421.982	644.23
422.358	640.39
422.735	643.56
423.111	659.15
423.488	646.49
423.864	667.28
424.241	662.54
424.617	677.23
424.994	683.78
425.37	653.73
425.746	660.05
426.123	674.52
426.499	683.78
426.875	706.83
427.251	702.76
427.627	686.72
428.003	711.13
428.379	714.29
428.756	704.12
429.132	723.78
429.507	726.27
429.883	732.37
430.259	748.64
430.635	756.77
431.011	759.26
431.387	771.46
431.763	797.45
432.138	778.92
432.514	792.03
432.89	787.28
433.265	811.91
433.641	818.69
434.016	824.79
434.392	827.28
434.767	839.94
435.143	848.52
435.518	824.12
435.894	852.14
436.269	867.51
436.644	884.68
437.02	880.61
437.395	911.12
437.77	892.36
438.145	873.83
438.52	921.06
438.895	916.32
439.271	912.7
439.646	922.65
440.021	935.53
440.395	945.24
440.77	947.5
441.145	955.64
441.52	945.47
441.895	997.45
442.27	971.23
442.645	971.23
443.019	1009.65
443.394	972.81
443.769	987.5
444.143	985.24
444.518	1005.58
444.892	1014.62
445.267	1008.74
445.641	1025.24
446.016	1017.78
446.39	1033.6
446.764	1082.42
447.139	1056.65
447.513	1054.39
447.887	1061.85
448.262	1056.43
448.636	1052.13
449.01	1100.04
449.384	1091.23
449.758	1093.94
450.132	1111.11
450.506	1121.06
450.88	1116.76
451.254	1131.23
451.628	1114.28
452.002	1169.64
452.376	1148.4
452.75	1176.2
453.123	1173.71
453.497	1175.97
453.871	1201.96
454.244	1219.81
454.618	1214.39
454.992	1249.42
455.365	1264.56
455.739	1231.56
456.112	1262.98
456.486	1294.16
456.859	1294.84
457.232	1311.79
457.606	1322.86
457.979	1333.03
458.352	1366.02
458.725	1363.99
459.099	1363.31
459.472	1400.82
459.845	1422.29
460.218	1409.64
460.591	1424.1
460.964	1436.76
461.337	1459.35
461.71	1486.92
462.083	1521.27
462.456	1541.61
462.829	1512.23
463.201	1559.69
463.574	1552.91
463.947	1594.49
464.32	1631.1
464.692	1655.28
465.065	1654.15
465.438	1686.24
465.81	1665.22
466.183	1690.99
466.555	1697.99
466.928	1739.12
467.3	1758.1
467.672	1759.91
468.045	1824.99
468.417	1834.26
468.789	1824.77
469.161	1882.39
469.534	1892.79
469.906	1940.25
470.278	1954.71
470.65	1982.28
471.022	2013.01
471.394	2047.81
471.766	2084.42
472.138	2064.54
472.51	2113.8
472.882	2145.21
473.253	2195.61
473.625	2234.93
473.997	2264.76
474.369	2267.24
474.74	2279.67
475.112	2383.4
475.484	2415.49
475.855	2412.1
476.227	2469.5
476.598	2523.96
476.97	2569.61
477.341	2596.5
477.713	2624.75
478.084	2668.59
478.455	2791.3
478.827	2788.58
479.198	2844.18
479.569	2859.54
479.94	2965.76
480.311	2998.75
480.682	3084.17
481.053	3142.25
481.424	3173.66
481.795	3233.32
482.166	3281.91
482.537	3346.99
482.908	3382.92
483.279	3456.82
483.65	3570.03
484.021	3632.86
484.391	3621.33
484.762	3686.19
485.133	3774.55
485.503	3781.1
485.874	3920.31
486.244	3928.44
486.615	4019.74
486.985	4065.16
487.356	4136.57
487.726	4218.15
488.097	4286.85
488.467	4353.74
488.837	4398.03
489.207	4437.58
489.578	4526.39
489.948	4646.62
490.318	4686.84
490.688	4667.18
491.058	4769.55
491.428	4854.07
491.798	4889.09
492.168	5004.12
492.538	5030.79
492.908	5055.64
493.278	5133.16
493.648	5212.7
494.017	5310.55
494.387	5336.99
494.757	5353.94
495.126	5404.79
495.496	5456.76
495.866	5511.23
496.235	5568.85
496.605	5634.84
496.974	5733.59
497.344	5757.77
497.713	5779.24
498.082	5833.02
498.452	5864.89
498.821	5845
499.19	5950.99
499.559	6035.51
499.928	6017.43
500.298	6094.71
500.667	6170.64
501.036	6151.89
501.405	6193.92
501.774	6193.02
502.143	6251.54
502.512	6316.63
502.88	6315.05
503.249	6384.2
503.618	6428.26
503.987	6440.47
504.356	6503.29
504.724	6569.73
505.093	6563.85
505.462	6633.91
505.83	6660.35
506.199	6768.14
506.567	6797.07
506.936	6760.23
507.304	6868.03
507.672	6872.32
508.041	6952.77
508.409	6942.15
508.777	6953
509.145	7080.22
509.514	7069.83
509.882	7134.91
510.25	7134.01
510.618	7170.16
510.986	7124.74
511.354	7209.03
511.722	7358.86
512.09	7358.18
512.458	7384.4
512.826	7419.88
513.193	7517.95
513.561	7493.55
513.929	7527.67
514.297	7541.45
514.664	7624.62
515.032	7589.36
515.4	7720.88
515.767	7730.6
516.135	7853.31
516.502	7686.99
516.869	7906.87
517.237	7818.96
517.604	7872.07
517.972	7950.26
518.339	7994.78
518.706	7980.31
519.073	7985.96
519.44	8097.37
519.808	8163.58
520.175	8138.73
520.542	8225.73
520.909	8265.95
521.276	8275.67
521.643	8304.6
522.009	8422.11
522.376	8445.39
522.743	8466.18
523.11	8584.36
523.477	8661.88
523.843	8671.14
524.21	8704.81
524.577	8767.64
524.943	8798.37
525.31	8831.82
525.676	8949.55
526.043	9020.29
526.409	9014.41
526.776	9148.87
527.142	9202.88
527.508	9193.84
527.874	9266.38
528.241	9284.69
528.607	9330.33
528.973	9450.33
529.339	9466.83
529.705	9511.8
530.071	9650.1
530.437	9631.12
530.803	9737.78
531.169	9727.16
531.535	9689.19
531.901	9746.82
532.267	9778.01
532.632	9909.75
532.998	9896.87
533.364	9986.59
533.73	9998.56
534.095	10100.93
534.461	10142.52
534.826	10135.74
535.192	10155.62
535.557	10345.9
535.923	10274.49
536.288	10336.41
536.653	10382.51
537.019	10339.12
537.384	10451.66
537.749	10549.06
538.114	10396.52
538.479	10496.63
538.845	10635.61
539.21	10627.7
539.575	10629.96
539.94	10671.32
540.305	10711.77
540.67	10767.58
541.034	10825.44
541.399	10819.33
541.764	10911.08
542.129	10880.35
542.494	10950.63
542.858	11030.4
543.223	11069.05
543.587	11165.31
543.952	11158.08
544.316	11231.3
544.681	11281.92
545.045	11286.89
545.41	11398.98
545.774	11432.2
546.138	11417.06
546.503	11481.92
546.867	11465.64
547.231	11575.47
547.595	11556.72
547.959	11645.3
548.324	11682.81
548.688	11710.16
549.052	11729.82
549.416	11746.09
549.779	11843.04
550.143	11869.7
550.507	11960.1
550.871	11947.67
551.235	11893.2
551.599	12022.24
551.962	12092.07
552.326	12085.06
552.689	12215.68
553.053	12160.99
553.417	12163.25
553.78	12365.51
554.143	12328.22
554.507	12397.6
554.87	12379.75
555.234	12542.23
555.597	12500.19
555.96	12550.36
556.323	12554.43
556.686	12648.89
557.05	12740.41
557.413	12718.27
557.776	12767.98
558.139	12903.35
558.502	12869.45
558.865	12913.74
559.228	12976.34
559.59	13035.32
559.953	13052.04
560.316	13139.27
560.679	13232.15
561.041	13286.16
561.404	13282.77
561.767	13275.31
562.129	13323
562.492	13475.54
562.854	13440.28
563.217	13430.79
563.579	13513.27
563.941	13590.33
564.304	13585.59
564.666	13727.05
565.028	13754.85
565.39	13823.1
565.753	13965.92
566.115	13897.22
566.477	13984.45
566.839	14030.1
567.201	14141.28
567.563	14160.04
567.925	14193.48
568.287	14176.08
568.648	14189.64
569.01	14280.71
569.372	14461.27
569.734	14379.92
570.095	14537.65
570.457	14552.57
570.819	14539.69
571.18	14623.98
571.542	14725.67
571.903	14847.02
572.265	14815.16
572.626	14916.63
572.987	14949.62
573.349	15004.08
573.71	15127.92
574.071	15247.01
574.432	15220.35
574.794	15437.29
575.155	15465.31
575.516	15388.25
575.877	15516.61
576.238	15587.8
576.599	15757.06
576.96	15801.12
577.32	15856.72
577.681	16013.55
578.042	16119.08
578.403	16197.5
578.763	16239.76
579.124	16418.51
579.485	16582.57
579.845	16698.28
580.206	16784.15
580.566	16920.87
580.927	17047.19
581.287	17238.83
581.648	17319.05
582.008	17589.55
582.368	17677.46
582.728	17875.87
583.089	18060.5
583.449	18108.63
583.809	18279.48
584.169	18626.81
584.529	18706.36
584.889	19046.46
585.249	19217.53
585.609	19336.62
585.969	19666.56
586.329	19781.13
586.688	19933.22
587.048	20204.4
587.408	20471.74
587.768	20678.96
588.127	20890.71
588.487	21198.27
588.846	21691.14
589.206	21702.89
589.565	22102.43
589.925	22515.52
590.284	22730.89
590.643	22956.64
591.003	23321.83
591.362	23749.84
591.721	23977.18
592.08	24257.4
592.44	24642.7
592.799	24955.23
593.158	25216.92
593.517	25558.38
593.876	25973.06
594.235	26185.48
594.593	26533.95
594.952	27007.16
595.311	27224.1
595.67	27721.26
596.029	28166.22
596.387	28415.71
596.746	28784.06
597.104	29042.81
597.463	29338.17
597.822	29829.68
598.18	30031.03
598.538	30386.05
598.897	30887.28
599.255	30967.96
599.613	31806.58
599.972	31980.59
600.33	32343.29
600.688	32545.99
601.046	32970.39
601.404	33473.88
601.762	33660.54
602.12	34291.03
602.478	34436.34
602.836	34832.94
603.194	34929.21
603.552	35308.41
603.91	35561.73
604.268	36030.87
604.625	36178.67
604.983	36672.21
605.341	36738.43
605.698	37318.52
606.056	37646.65
606.413	38000.09
606.771	38305.39
607.128	38542.67
607.485	38702.22
607.843	38919.16
608.2	39465.59
608.557	39789.19
608.914	39819.02
609.272	40328.16
609.629	40605.9
609.986	40971.99
610.343	40908.49
610.7	41456.95
611.057	41574.46
611.414	41872.98
611.771	42126.08
612.127	42582.11
612.484	42574.88
612.841	42994.08
613.198	42959.51
613.554	43108.43
613.911	43687.4
614.267	43823.21
614.624	43794.74
614.98	44137.78
615.337	44610.54
615.693	44619.35
616.05	44745.45
616.406	45122.84
616.762	45100.69
617.118	45228.82
617.475	45391.76
617.831	45741.58
618.187	45840.11
618.543	46064.74
618.899	46414.1
619.255	46389.7
619.611	46496.14
619.967	46832.4
620.323	46843.02
620.678	46954.43
621.034	46790.59
621.39	47051.6
621.746	47009.8
622.101	47652.94
622.457	47386.96
622.812	47592.15
623.168	47780.4
623.523	47926.16
623.879	48076.66
624.234	48011.58
624.589	48147.84
624.945	48221.29
625.3	48309.2
625.655	48280.72
626.01	48472.58
626.365	48577.21
626.72	48556.87
627.075	48528.4
627.43	48613.59
627.785	48650.2
628.14	48738.56
628.495	48952.79
628.85	49028.95
629.205	48855.85
629.559	49060.59
629.914	48905.34
630.269	49186.46
630.623	49027.14
630.978	49045.45
631.332	49188.27
631.687	49331.54
632.041	49196.63
632.396	49240.47
632.75	49174.71
633.104	49246.8
633.459	49168.83
633.813	49202.73
634.167	49266.91
634.521	49328.38
634.875	49401.82
635.229	49313.24
635.583	49185.78
635.937	49259.23
636.291	49220.13
636.645	49231.21
636.999	49159.12
637.352	49423.06
637.706	49212.9
638.06	49332.22
638.413	49294.03
638.767	49222.17
639.121	49258.32
639.474	49151.89
639.828	48986.01
640.181	49172.22
640.534	49250.19
640.888	49009.74
641.241	48989.63
641.594	49115.95
641.947	49163.64
642.301	49224.43
642.654	49126.58
643.007	49206.12
643.36	49153.24
643.713	49019.91
644.066	49200.02
644.419	48968.39
644.771	48840.93
645.124	48399.14
645.477	48468.97
645.83	48183.1
646.182	48094.74
646.535	47975.42
646.888	48139.93
647.24	47934.29
647.593	48215.86
647.945	48039.15
648.298	48044.12
648.65	47803.67
649.002	47699.95
649.355	47854.97
649.707	47853.39
650.059	48098.81
650.411	48499.25
650.763	48497.67
651.115	48876.19
651.467	48787.38
651.819	48750.54
652.171	48612.92
652.523	48693.37
652.875	48617.89
653.227	48364.79
653.578	48812.46
653.93	48697.21
654.282	48568.17
654.633	48440.49
654.985	48510.32
655.337	48450.21
655.688	48603.88
656.039	48805.45
656.391	48437.55
656.742	48543.99
657.094	48485.24
657.445	48687.94
657.796	48519.59
658.147	48442.3
658.498	48465.8
658.849	48408.18
659.2	48404.79
659.551	48343.77
659.902	48508.29
660.253	48325.47
660.604	48498.8
660.955	48301.51
661.306	48328.4
661.656	48386.71
662.007	48392.36
662.358	48324.11
662.708	48326.14
663.059	48365.24
663.409	48173.83
663.76	48375.18
664.11	48292.47
664.461	48266.03
664.811	48308.52
665.161	48321.4
665.511	48213.38
665.862	48305.58
666.212	48342.87
666.562	48373.15
666.912	48209.31
667.262	48202.53
667.612	48257.9
667.962	48459.93
668.312	48319.59
668.662	48344.22
669.011	48119.6
669.361	48130.67
669.711	48241.85
670.06	48021.97
670.41	48106.26
670.76	48077.34
671.109	48219.48
671.459	48148.97
671.808	47950.79
672.157	48184.45
672.507	47993.5
672.856	47949.43
673.205	47972.71
673.554	48064.46
673.904	48051.35
674.253	48131.35
674.602	48010.45
674.951	47516.22
675.3	47336.57
675.649	47852.94
675.998	47836.44
676.346	47824.24
676.695	48059.26
677.044	47671.47
677.393	47839.83
677.741	47877.57
678.09	47779.94
678.438	47655.2
678.787	47803.9
679.135	47782.88
679.484	47436.9
679.832	47622.43
680.181	47420.18
680.529	47587.41
680.877	47363.01
681.225	47270.13
681.573	47551.02
681.922	47263.8
682.27	47072.84
682.618	47176.12
682.966	47123.01
683.314	47275.78
683.661	47086.86
684.009	46884.15
684.357	46811.16
684.705	46791.5
685.053	46973.41
685.4	46652.74
685.748	46507.21
686.095	46520.09
686.443	46410.49
686.79	46248.46
687.138	46483.71
687.485	46491.62
687.832	46396.25
688.18	46338.63
688.527	46196.26
688.874	46062.93
689.221	46049.14
689.568	46012.08
689.915	45934.34
690.262	45914.91
690.609	45652.77
690.956	45497.07
691.303	45514.92
691.65	45315.15
691.997	45359.67
692.344	45159.67
692.69	45033.12
693.037	45070.18
693.383	44709.74
693.73	44873.35
694.077	44533.93
694.423	44672.46
694.769	44590.2
695.116	44446.92
695.462	44158.8
695.808	44384.33
696.155	44394.04
696.501	44097.56
696.847	44004
697.193	43808.75
697.539	43931.68
697.885	43630
698.231	43578.92
698.577	43545.71
698.923	43527.4
699.269	43314.98
699.614	43124.7
699.96	43102.1
700.306	42960.18
700.651	42837.02
700.997	42779.17
701.342	42743.01
701.688	42569.46
702.033	42568.1
702.379	42441.55
702.724	42379.63
703.069	42413.08
703.415	42081.34
703.76	42132.18
704.105	42157.27
704.45	41984.62
704.795	41638.18
705.14	41596.15
705.485	41583.72
705.83	41517.74
706.175	41575.81
706.52	41237.74
706.865	41223.28
707.209	41190.51
707.554	41108.93
707.899	41137.86
708.243	40957.3
708.588	40838.88
708.932	40597.99
709.277	40582.85
709.621	40622.17
709.966	40223.98
710.31	40415.62
710.654	40088.4
710.998	40269.18
711.342	40155.06
711.687	40045.46
712.031	39897.67
712.375	39749.42
712.719	39681.4
713.063	39635.07
713.407	39762.75
713.75	39593.04
714.094	39534.06
714.438	39354.18
714.782	39534.06
715.125	39238.25
715.469	39352.14
715.812	39237.34
716.156	39006.62
716.499	38968.2
716.843	38979.95
717.186	38752.61
717.53	38985.83
717.873	38847.3
718.216	38813.85
718.559	38584.25
718.902	38466.97
719.246	38412.51
719.589	38303.13
719.932	38073.31
720.275	38190.82
720.617	38244.38
720.96	38161.44
721.303	38102.23
721.646	38085.06
721.989	37917.15
722.331	38081.89
722.674	37845.06
723.016	37875.35
723.359	37837.38
723.701	37868.57
724.044	37516.03
724.386	37431.97
724.729	37574.56
725.071	37371.63
725.413	37400.78
725.755	37378.64
726.097	37187.91
726.439	36927.12
726.782	37059.32
727.124	37146.55
727.465	37002.83
727.807	36980
728.149	36878.54
728.491	36867.24
728.833	36888.03
729.175	36593.57
729.516	36708.37
729.858	36553.57
730.199	36601.03
730.541	36622.05
730.882	36480.35
731.224	36518.32
731.565	36286.46
731.906	36300.92
732.248	36366.69
732.589	36109.06
732.93	36038.33
733.271	36011.44
733.612	36161.94
733.953	36221.38
734.294	35958.56
734.635	35913.36
734.976	36043.53
735.317	35625.01
735.658	35736.87
735.999	35746.36
736.339	35704.56
736.68	35684.22
737.021	35498.01
737.361	35524.9
737.702	35636.76
738.042	35533.03
738.383	35429.53
738.723	35457.56
739.063	35331.23
739.404	35392.02
739.744	35293.27
740.084	35173.5
740.424	35192.25
740.764	35040.39
741.104	35120.84
741.444	35068.41
741.784	34808.53
742.124	34954.97
742.464	34882.88
742.804	34720.4
743.143	34706.16
743.483	34693.51
743.823	34657.58
744.162	34554.3
744.502	34698.93
744.841	34483.34
745.181	34501.65
745.52	34435.44
745.86	34419.84
746.199	34303.91
746.538	34278.15
746.877	34338.04
747.216	34197.25
747.556	34233.18
747.895	34218.72
748.234	34044.03
748.573	34024.15
748.911	33941.66
749.25	33915
749.589	33764.95
749.928	33940.53
750.267	33902.8
750.605	33757.49
750.944	33656.02
751.283	33569.24
751.621	33759.52
751.96	33336.03
752.298	33456.48
752.636	33496.7
752.975	33260.1
753.313	33192.08
753.651	33227.78
753.989	33253.32
754.327	33034.12
754.666	32961.8
755.004	32814.69
755.342	32969.03
755.679	32862.82
756.017	32611.76
756.355	32767.46
756.693	32545.32
757.031	32689.04
757.368	32439.56
