Data from hue_40_FLMS001491_52.txt Node
Date: Mon Feb 06 15:08:05 GMT 2017
User: dcchb
Spectrometer: FLMS00149
Trigger mode: 0
Integration Time (sec): 2.000000E-2
Scans to average: 10
Electric dark correction enabled: true
Nonlinearity correction enabled: false
Boxcar width: 0
XAxis mode: Wavelengths
Number of Pixels in Spectrum: 2048
>>>>>Begin Spectral Data<<<<<
341.393	-2.58
341.776	-2.58
342.16	-2.58
342.543	-54.11
342.927	-70.38
343.31	-70.61
343.693	-59.98
344.077	-55.01
344.46	-52.07
344.843	-53.66
345.226	-39.87
345.61	-35.58
345.993	-9.59
346.376	-19.08
346.759	18.43
347.142	30.86
347.525	38.77
347.908	51.65
348.291	85.32
348.674	81.71
349.057	88.71
349.44	149.05
349.823	147.69
350.206	182.04
350.588	208.48
350.971	196.96
351.354	220.23
351.737	240.35
352.119	283.28
352.502	290.51
352.884	263.85
353.267	289.16
353.65	307.01
354.032	292.1
354.414	319.67
354.797	324.41
355.179	334.13
355.562	323.73
355.944	332.1
356.326	326.9
356.709	332.32
357.091	328.03
357.473	365.09
357.855	328.48
358.238	340.68
358.62	344.07
359.002	339.1
359.384	351.98
359.766	357.18
360.148	348.14
360.53	363.28
360.912	338.2
361.294	337.07
361.676	353.79
362.057	345.88
362.439	357.18
362.821	347.24
363.203	339.1
363.584	331.19
363.966	346.11
364.348	341.59
364.729	329.38
365.111	353.34
365.493	328.03
365.874	332.32
366.256	341.81
366.637	323.51
367.019	332.32
367.4	318.76
367.781	321.7
368.163	327.12
368.544	316.73
368.925	319.44
369.306	344.3
369.688	326.45
370.069	329.38
370.45	291.42
370.831	327.35
371.212	325.99
371.593	331.19
371.974	321.02
372.355	327.8
372.736	316.05
373.117	337.52
373.498	329.84
373.879	337.07
374.26	341.81
374.641	300.23
375.021	316.73
375.402	346.11
375.783	335.26
376.163	318.54
376.544	334.58
376.925	326.9
377.305	333
377.686	328.03
378.066	344.52
378.447	337.52
378.827	324.86
379.208	345.65
379.588	339.1
379.968	335.71
380.349	335.71
380.729	333.45
381.109	335.94
381.489	350.4
381.87	356.73
382.25	343.17
382.63	337.29
383.01	353.11
383.39	350.63
383.77	357.63
384.15	346.33
384.53	341.14
384.91	369.38
385.29	363.51
385.67	363.73
386.049	362.6
386.429	376.39
386.809	371.87
387.189	350.63
387.568	361.7
387.948	382.94
388.328	376.84
388.707	368.25
389.087	382.49
389.466	363.06
389.846	355.82
390.225	361.25
390.605	357.86
390.984	368.25
391.363	369.61
391.743	399.66
392.122	370.51
392.501	381.81
392.881	382.72
393.26	381.81
393.639	377.74
394.018	388.14
394.397	384.98
394.776	394.24
395.155	388.59
395.534	386.56
395.913	392.89
396.292	384.3
396.671	400.34
397.05	405.09
397.429	402.15
397.808	372.09
398.186	389.72
398.565	403.96
398.944	383.39
399.323	400.57
399.701	398.31
400.08	403.28
400.458	395.37
400.837	399.44
401.215	398.31
401.594	403.51
401.972	409.38
402.351	420.23
402.729	406.22
403.107	419.55
403.486	419.33
403.864	422.26
404.242	441.92
404.62	441.7
404.999	434.92
405.377	424.75
405.755	432.66
406.133	446.22
406.511	458.19
406.889	425.2
407.267	442.83
407.645	436.05
408.023	457.52
408.401	458.19
408.779	435.37
409.156	462.49
409.534	450.06
409.912	444.18
410.29	481.7
410.667	447.57
411.045	478.98
411.422	462.49
411.8	455.93
412.178	477.85
412.555	476.95
412.933	474.69
413.31	465.88
413.687	483.05
414.065	503.39
414.442	503.39
414.819	493.9
415.197	513.11
415.574	497.29
415.951	513.33
416.328	493.67
416.705	497.97
417.082	524.86
417.46	522.83
417.837	522.37
418.214	510.85
418.591	512.2
418.967	537.51
419.344	527.34
419.721	537.06
420.098	513.11
420.475	550.17
420.852	555.82
421.228	535.25
421.605	538.42
421.982	561.92
422.358	537.51
422.735	543.62
423.111	572.99
423.488	553.33
423.864	558.76
424.241	552.2
424.617	585.65
424.994	558.76
425.37	579.09
425.746	579.55
426.123	584.74
426.499	564.41
426.875	608.47
427.251	597.17
427.627	608.47
428.003	596.5
428.379	615.48
428.756	607.12
429.132	610.73
429.507	628.13
429.883	617.29
430.259	637.85
430.635	639.88
431.011	658.64
431.387	645.53
431.763	664.74
432.138	642.37
432.514	673.78
432.89	690.28
433.265	685.08
433.641	696.15
434.016	673.56
434.392	715.59
434.767	713.33
435.143	671.07
435.518	713.33
435.894	698.87
436.269	710.62
436.644	706.55
437.02	717.17
437.395	711.97
437.77	731.63
438.145	735.02
438.52	758.75
438.895	764.17
439.271	753.55
439.646	757.4
440.021	787.68
440.395	770.95
440.77	774.8
441.145	780.22
441.52	778.41
441.895	780.22
442.27	795.36
442.645	804.17
443.019	813.44
443.394	815.02
443.769	808.47
444.143	784.97
444.518	830.84
444.892	820.67
445.267	842.14
445.641	829.26
446.016	862.03
446.39	849.37
446.764	856.6
447.139	851.86
447.513	847.79
447.887	867.22
448.262	858.18
448.636	848.92
449.01	882.82
449.384	862.03
449.758	881.01
450.132	920.55
450.506	907.67
450.88	917.39
451.254	904.51
451.628	909.03
452.002	915.36
452.376	921.91
452.75	916.49
453.123	924.62
453.497	951.06
453.871	955.58
454.244	989.03
454.618	982.02
454.992	982.25
455.365	999.42
455.739	1043.72
456.112	995.81
456.486	1018.63
456.859	1029.7
457.232	1052.75
457.606	1054.11
457.979	1047.56
458.352	1089.36
458.725	1103.15
459.099	1112.41
459.472	1106.54
459.845	1119.42
460.218	1136.82
460.591	1154.9
460.964	1151.74
461.337	1186.08
461.71	1176.14
462.083	1208.23
462.456	1191.51
462.829	1234.9
463.201	1222.92
463.574	1251.85
463.947	1258.85
464.32	1290.26
464.692	1309.92
465.065	1332.75
465.438	1355.8
465.81	1329.81
466.183	1378.17
466.555	1382.92
466.928	1397.6
467.3	1428.79
467.672	1441.67
468.045	1486.87
468.417	1475.57
468.789	1480.09
469.161	1489.35
469.534	1561.44
469.906	1588.11
470.278	1601.21
470.65	1626.98
471.022	1638.73
471.394	1647.54
471.766	1706.75
472.138	1732.28
472.51	1748.56
472.882	1801.21
473.253	1844.6
473.625	1862.9
473.997	1918.49
474.369	1908.33
474.74	1974.99
475.112	1976.8
475.484	2055.44
475.855	2117.81
476.227	2119.39
476.598	2195.32
476.97	2224.02
477.341	2298.82
477.713	2333.85
478.084	2365.04
478.455	2447.07
478.827	2501.53
479.198	2592.38
479.569	2598.48
479.94	2697.01
480.311	2762.31
480.682	2851.13
481.053	2912.37
481.424	2980.39
481.795	3080.05
482.166	3107.84
482.537	3178.12
482.908	3300.15
483.279	3375.18
483.65	3478
484.021	3585.34
484.391	3638.9
484.762	3704.89
485.133	3787.82
485.503	3851.55
485.874	3981.04
486.244	4110.53
486.615	4213.12
486.985	4298.09
487.356	4418.77
487.726	4487.47
488.097	4662.6
488.467	4723.84
488.837	4833.22
489.207	4946.89
489.578	5081.12
489.948	5141.69
490.318	5291.29
490.688	5334.68
491.058	5441.57
491.428	5623.48
491.798	5702.58
492.168	5881.33
492.538	5989.57
492.908	6054.43
493.278	6203.58
493.648	6293.29
494.017	6408.77
494.387	6460.3
494.757	6607.19
495.126	6711.82
495.496	6803.34
495.866	6913.17
496.235	7036.33
496.605	7172.59
496.974	7208.3
497.344	7393.15
497.713	7426.82
498.082	7594.96
498.452	7688.29
498.821	7789.98
499.19	7869.3
499.559	7967.6
499.928	8075.17
500.298	8102.29
500.667	8308.84
501.036	8314.03
501.405	8437.65
501.774	8443.52
502.143	8576.85
502.512	8677.19
502.88	8760.57
503.249	8875.83
503.618	8988.14
503.987	9024.3
504.356	9063.62
504.724	9202.82
505.093	9270.62
505.462	9329.6
505.83	9420.9
506.199	9529.37
506.567	9602.81
506.936	9717.39
507.304	9843.26
507.672	9916.02
508.041	9941.33
508.409	10027.43
508.777	10196.24
509.145	10262
509.514	10282.57
509.882	10405.5
510.25	10423.81
510.618	10560.53
510.986	10565.73
511.354	10643.92
511.722	10792.84
512.09	10925.04
512.458	10892.5
512.826	10992.61
513.193	11078.03
513.561	11157.8
513.929	11273.05
514.297	11314.63
514.664	11434.85
515.032	11455.42
515.4	11578.58
515.767	11648.86
516.135	11716.88
516.502	11638.69
516.869	11892.47
517.237	11909.87
517.604	11900.83
517.972	12022.64
518.339	12088.17
518.706	12157.32
519.073	12185.12
519.44	12301.05
519.808	12411.78
520.175	12421.27
520.542	12588.95
520.909	12658.1
521.276	12693.58
521.643	12789.17
522.009	12874.82
522.376	12982.84
522.743	13021.93
523.11	13185.32
523.477	13352.77
523.843	13264.86
524.21	13447.01
524.577	13535.82
524.943	13679.99
525.31	13641.12
525.676	13884.28
526.043	13895.13
526.409	13992.08
526.776	14123.15
527.142	14161.11
527.508	14197.49
527.874	14283.37
528.241	14468.45
528.607	14430.26
528.973	14571.72
529.339	14618.5
529.705	14718.61
530.071	14908.66
530.437	14829.79
530.803	14960.41
531.169	15089.67
531.535	15128.32
531.901	15129.67
532.267	15253.29
532.632	15288.99
532.998	15392.26
533.364	15533.73
533.73	15508.19
534.095	15582.32
534.461	15743.44
534.826	15783.67
535.192	15853.72
535.557	15949.09
535.923	15942.76
536.288	15893.27
536.653	16226.82
537.019	16109.31
537.384	16149.98
537.749	16286.03
538.114	16297.1
538.479	16411.45
538.845	16483.08
539.21	16463.88
539.575	16513.59
539.94	16612.12
540.305	16726.69
540.67	16696.64
541.034	16834.71
541.399	16870.64
541.764	16944.09
542.129	17030.64
542.494	17016.4
542.858	17120.13
543.223	17137.3
543.587	17296.17
543.952	17227.02
544.316	17463.62
544.681	17424.3
545.045	17518.76
545.41	17570.51
545.774	17567.8
546.138	17695.03
546.503	17684.63
546.867	17725.99
547.231	17845.76
547.595	17871.07
547.959	18002.82
548.324	17956.72
548.688	18114.68
549.052	18245.52
549.416	18221.12
549.779	18222.02
550.143	18272.19
550.507	18384.73
550.871	18480.55
551.235	18540.43
551.599	18676.92
551.962	18694.32
552.326	18697.26
552.689	18777.94
553.053	18754.89
553.417	18831.27
553.78	19050.93
554.143	18958.5
554.507	19114.2
554.87	19120.3
555.234	19303.57
555.597	19199.17
555.96	19295.44
556.323	19352.39
556.686	19398.26
557.05	19585.37
557.413	19533.4
557.776	19656.56
558.139	19796.44
558.502	19750.34
558.865	19898.59
559.228	20049.77
559.59	20038.92
559.953	20061.75
560.316	20347.84
560.679	20273.94
561.041	20316.66
561.404	20457.44
561.767	20646.59
562.129	20590.32
562.492	20747.38
562.854	20735.85
563.217	20810.43
563.579	20881.16
563.941	20972.68
564.304	21103.53
564.666	21185.11
565.028	21259.68
565.39	21258.78
565.753	21415.61
566.115	21526.57
566.477	21632.33
566.839	21646.56
567.201	21755.04
567.563	21801.59
567.925	21903.05
568.287	21891.08
568.648	22030.96
569.01	22050.85
569.372	22172.2
569.734	22089.04
570.095	22338.52
570.457	22452.42
570.819	22457.39
571.18	22596.37
571.542	22646.09
571.903	22837.27
572.265	22814.89
572.626	22945.96
572.987	23026.64
573.349	23133.98
573.71	23233.19
574.071	23260.08
574.432	23496.91
574.794	23643.12
575.155	23522.67
575.516	23629.34
575.877	23820.97
576.238	23852.83
576.599	23994.98
576.96	24119.49
577.32	24096.44
577.681	24431.12
578.042	24477.68
578.403	24497.79
578.763	24626.6
579.124	24688.29
579.485	25001.5
579.845	25122.63
580.206	25202.18
580.566	25327.37
580.927	25476.75
581.287	25762.84
581.648	25760.81
582.008	26029.73
582.368	25995.15
582.728	26235.6
583.089	26490.5
583.449	26589.03
583.809	26640.78
584.169	26921.91
584.529	27024.73
584.889	27334.55
585.249	27405.28
585.609	27366.41
585.969	27844.82
586.329	27857.25
586.688	28201.42
587.048	28286.16
587.408	28366.84
587.768	28563.44
588.127	28643.67
588.487	28976.31
588.846	29224.22
589.206	29268.06
589.565	29479.8
589.925	29786.46
590.284	29983.29
590.643	30121.82
591.003	30483.39
591.362	30727.23
591.721	30717.96
592.08	30893.78
592.44	31167.9
592.799	31293.99
593.158	31446.08
593.517	31575.57
593.876	31867.54
594.235	32009.91
594.593	32163.8
594.952	32431.36
595.311	32474.3
595.67	32787.29
596.029	33094.62
596.387	33253.04
596.746	33419.59
597.104	33439.25
597.463	33565.12
597.822	33887.37
598.18	33959.01
598.538	34133.92
598.897	34471.31
599.255	34380.01
599.613	34886.22
599.972	34921.47
600.33	35138.86
600.688	35095.7
601.046	35446.2
601.404	35604.39
601.762	35764.84
602.12	36029.91
602.478	36171.83
602.836	36324.14
603.194	36185.84
603.552	36414.99
603.91	36419.06
604.268	36697.69
604.625	36810.68
604.983	37036.89
605.341	36904.02
605.698	37255.42
606.056	37410.44
606.413	37431.46
606.771	37716.88
607.128	37772.69
607.485	37644.34
607.843	37805.91
608.2	38158.45
608.557	38369.74
608.914	38276.41
609.272	38487.93
609.629	38819.45
609.986	38948.26
610.343	38818.09
610.7	39166.55
611.057	39217.85
611.414	39271.18
611.771	39451.52
612.127	39600.44
612.484	39490.16
612.841	39815.8
613.198	39773.09
613.554	39934.67
613.911	40211.95
614.267	40166.98
614.624	40180.09
614.98	40490.36
615.337	40648.32
615.693	40531.26
616.05	40660.75
616.406	40995.43
616.762	40816.91
617.118	40797.92
617.475	40914.98
617.831	41138.03
618.187	41195.88
618.543	41134.64
618.899	41639.26
619.255	41565.14
619.611	41603.55
619.967	41652.82
620.323	41743.66
620.678	41698.24
621.034	41582.99
621.39	41690.33
621.746	41598.13
622.101	42110.66
622.457	42038.57
622.812	41967.16
623.168	42154.27
623.523	42145.23
623.879	42273.59
624.234	41977.55
624.589	42271.33
624.945	42402.18
625.3	42402.85
625.655	42264.33
626.01	42485.79
626.365	42644.66
626.72	42542.96
627.075	42573.24
627.43	42592.45
627.785	42564.66
628.14	42670.87
628.495	42643.98
628.85	42634.49
629.205	42410.09
629.559	42835.61
629.914	42664.32
630.269	42709.06
630.623	42571.21
630.978	42526.01
631.332	42800.58
631.687	42757.19
632.041	42704.31
632.396	42789.28
632.75	42587.03
633.104	42652.79
633.459	42643.98
633.813	42489.18
634.167	42674.03
634.521	42525.56
634.875	42665.22
635.229	42619.12
635.583	42343.65
635.937	42330.99
636.291	42465.23
636.645	42455.96
636.999	42389.3
637.352	42535.28
637.706	42309.3
638.06	42513.81
638.413	42376.64
638.767	42384.78
639.121	42401.27
639.474	42222.29
639.828	42032.02
640.181	42246.47
640.534	42158.57
640.888	42226.59
641.241	42041.51
641.594	42182.52
641.947	42159.24
642.301	42031.34
642.654	42201.5
643.007	42160.83
643.36	42058.68
643.713	42083.54
644.066	42126.03
644.419	41882.87
644.771	41633.16
645.124	41405.82
645.477	41207.18
645.83	40990.69
646.182	40945.27
646.535	40805.61
646.888	40938.49
647.24	40717.7
647.593	40908.43
647.945	40707.76
648.298	40565.16
648.65	40592.51
649.002	40397.26
649.355	40624.82
649.707	40669.11
650.059	40794.08
650.411	41263.9
650.763	41196.78
651.115	41776.2
651.467	41487.17
651.819	41498.47
652.171	41428.42
652.523	41293.96
652.875	41344.12
653.227	41165.37
653.578	41477.45
653.93	41383.67
654.282	41043.12
654.633	41162.89
654.985	41020.07
655.337	41147.07
655.688	41168.76
656.039	41341.86
656.391	40979.16
656.742	40955.21
657.094	41018.03
657.445	41197.24
657.796	41082.66
658.147	41267.97
658.498	41098.26
658.849	41079.95
659.2	40956.11
659.551	40906.62
659.902	41152.49
660.253	41006.51
660.604	41042.21
660.955	40905.49
661.306	41001.76
661.656	41065.26
662.007	40954.08
662.358	40867.53
662.708	40889.45
663.059	40865.27
663.409	40722.45
663.76	40911.82
664.11	40980.74
664.461	40936
664.811	40801.77
665.161	40862.33
665.511	40691.71
665.862	40853.97
666.212	40851.26
666.562	40783.91
666.912	40816
667.262	40683.58
667.612	40667.98
667.962	40732.62
668.312	40722.45
668.662	40869.11
669.011	40670.7
669.361	40786.63
669.711	40762.45
670.06	40619.4
670.41	40509.57
670.76	40591.15
671.109	40687.19
671.459	40599.29
671.808	40616.01
672.157	40684.26
672.507	40298.73
672.856	40451.72
673.205	40611.49
673.554	40693.75
673.904	40454.66
674.253	40687.19
674.602	40510.47
674.951	39929.25
675.3	39845.86
675.649	40489.46
675.998	40205.85
676.346	40280.88
676.695	40392.51
677.044	40127.66
677.393	40234.32
677.741	40248.11
678.09	40163.36
678.438	40202.69
678.787	40159.3
679.135	40193.42
679.484	39884.05
679.832	40148.68
680.181	39849.7
680.529	40049.7
680.877	39955.01
681.225	39922.92
681.573	40148.22
681.922	39814.67
682.27	39677.73
682.618	39752.75
682.966	39636.15
683.314	39764.96
683.661	39584.4
684.009	39444.06
684.357	39251.07
684.705	39149.15
685.053	39363.84
685.4	39184.63
685.748	39091.75
686.095	39033.45
686.443	38932.44
686.79	38840.69
687.138	38924.08
687.485	38914.81
687.832	38850.63
688.18	38781.48
688.527	38745.32
688.874	38559.34
689.221	38534.93
689.568	38543.29
689.915	38384.65
690.262	38256.97
690.609	38279.57
690.956	38009.75
691.303	38054.27
691.65	37913.93
691.997	37879.13
692.344	37635.07
692.69	37777.21
693.037	37678.91
693.383	37463.77
693.73	37435.75
694.077	37278.47
694.423	37203.22
694.769	37179.49
695.116	37043.45
695.462	37020.4
695.808	36894.07
696.155	37030.79
696.501	36788.31
696.847	36785.15
697.193	36419.73
697.539	36555.55
697.885	36311.26
698.231	36175.45
698.577	36218.84
698.923	36180.42
699.269	36009.8
699.614	35892.29
699.96	35809.36
700.306	35704.5
700.651	35663.14
700.997	35611.62
701.342	35517.84
701.688	35363.49
702.033	35425.18
702.379	35374.34
702.724	35180.45
703.069	35228.58
703.415	34901.81
703.76	34869.49
704.105	34931.19
704.45	34817.52
704.795	34610.97
705.14	34531.42
705.485	34539.78
705.83	34431.76
706.175	34401.71
706.52	34226.12
706.865	33968.95
707.209	34130.76
707.554	34019.35
707.899	34068.38
708.243	33729.64
708.588	33907.48
708.932	33672.24
709.277	33571.45
709.621	33624.1
709.966	33496.2
710.31	33393.83
710.654	33326.93
710.998	33283.77
711.342	33220.27
711.687	33137.56
712.031	32915.87
712.375	32908.87
712.719	32830.45
713.063	32893.73
713.407	33024.34
713.75	32835.65
714.094	32807.63
714.438	32639.04
714.782	32648.76
715.125	32391.59
715.469	32644.92
715.812	32319.73
716.156	32203.12
716.499	32201.31
716.843	32229.11
717.186	32057.82
717.53	32256.91
717.873	32219.17
718.216	32061.21
718.559	31919.06
718.902	31771.72
719.246	31808.33
719.589	31763.13
719.932	31560.65
720.275	31581.22
720.617	31635.68
720.96	31548.68
721.303	31483.59
721.646	31433.88
721.989	31223.26
722.331	31437.04
722.674	31362.92
723.016	31213.54
723.359	31260.55
723.701	31307.55
724.044	31004.96
724.386	30868.02
724.729	31023.49
725.071	30984.85
725.413	31021.91
725.755	30925.42
726.097	30719.77
726.439	30642.71
726.782	30635.71
727.124	30751.18
727.465	30440.68
727.807	30450.4
728.149	30418.08
728.491	30392.1
728.833	30425.77
729.175	30319.78
729.516	30361.59
729.858	30272.1
730.199	30223.29
730.541	30149.39
730.882	30192.78
731.224	30138.09
731.565	29936.97
731.906	30028.26
732.248	30021.48
732.589	29756.63
732.93	29707.82
733.271	29719.8
733.612	29769.74
733.953	29830.08
734.294	29590.08
734.635	29574.94
734.976	29635.28
735.317	29554.83
735.658	29459.47
735.999	29382.86
736.339	29399.13
736.68	29296.98
737.021	29329.53
737.361	29265.12
737.702	29450.65
738.042	29317.77
738.383	29184.44
738.723	29224.67
739.063	29101.51
739.404	29215.4
739.744	28997.1
740.084	28896.32
740.424	28955.07
740.764	28900.16
741.104	29002.53
741.444	28754.63
741.784	28659.03
742.124	28709.65
742.464	28612.93
742.804	28627.85
743.143	28595.53
743.483	28545.37
743.823	28498.36
744.162	28416.1
744.502	28522.99
744.841	28311.7
745.181	28532.48
745.52	28297.01
745.86	28289.1
746.199	28255.43
746.538	28205.04
746.877	28290.46
747.216	28349.66
747.556	28149.67
747.895	28115.32
748.234	28052.72
748.573	27944.03
748.911	27915.78
749.25	27884.14
749.589	27745.61
749.928	27894.53
750.267	27867.19
750.605	27750.81
750.944	27708.33
751.283	27476.92
751.621	27665.16
751.96	27439.86
752.298	27478.95
752.636	27378.39
752.975	27303.14
753.313	27312.18
753.651	27364.15
753.989	27108.57
754.327	27229.02
754.666	26881.68
755.004	27024.95
755.342	27031.28
755.679	27027.44
756.017	26842.13
756.355	26847.33
