Data from hue_270_FLMS001491_00024.txt Node
Date: Tue Feb 07 15:56:58 GMT 2017
User: dcchb
Spectrometer: FLMS00149
Trigger mode: 0
Integration Time (sec): 2.000000E-2
Scans to average: 10
Electric dark correction enabled: true
Nonlinearity correction enabled: false
Boxcar width: 0
XAxis mode: Wavelengths
Number of Pixels in Spectrum: 2048
>>>>>Begin Spectral Data<<<<<
341.393	-5.45
341.776	-5.45
342.16	-5.45
342.543	-61.27
342.927	-60.59
343.31	-74.15
343.693	-57.65
344.077	-71.21
344.46	-58.56
344.843	-46.81
345.226	-29.18
345.61	-23.53
345.993	-26.02
346.376	-3.64
346.759	12.85
347.142	28.22
347.525	43.81
347.908	53.3
348.291	72.06
348.674	86.98
349.057	93.53
349.44	119.97
349.823	143.7
350.206	160.65
350.588	173.3
350.971	202.9
351.354	219.4
351.737	223.24
352.119	258.72
352.502	239.97
352.884	261.21
353.267	278.61
353.65	289
354.032	284.26
354.414	275.9
354.797	285.16
355.179	312.73
355.562	306.63
355.944	315.22
356.326	327.65
356.709	340.08
357.091	323.13
357.473	326.52
357.855	349.12
358.238	339.4
358.62	308.21
359.002	334.2
359.384	333.3
359.766	325.16
360.148	323.13
360.53	333.52
360.912	333.07
361.294	322.9
361.676	307.53
362.057	296.46
362.439	324.26
362.821	348.66
363.203	344.82
363.584	329.23
363.966	321.55
364.348	330.81
364.729	315.67
365.111	308.44
365.493	319.06
365.874	324.48
366.256	310.25
366.637	311.6
367.019	320.87
367.4	304.82
367.781	300.08
368.163	338.04
368.544	314.99
368.925	295.56
369.306	318.61
369.688	306.4
370.069	321.77
370.45	298.04
370.831	290.81
371.212	317.48
371.593	313.41
371.974	307.53
372.355	307.99
372.736	308.89
373.117	310.25
373.498	321.09
373.879	294.88
374.26	312.73
374.641	307.53
375.021	304.14
375.402	307.53
375.783	319.29
376.163	304.6
376.544	334.65
376.925	323.13
377.305	309.79
377.686	296.24
378.066	326.52
378.447	312.51
378.827	346.63
379.208	340.3
379.588	333.07
379.968	343.24
380.349	318.38
380.729	323.35
381.109	338.27
381.489	339.62
381.87	328.78
382.25	336.46
382.63	354.31
383.01	345.95
383.39	327.65
383.77	324.48
384.15	363.58
384.53	344.14
384.91	355.44
385.29	356.57
385.67	334.43
386.049	364.03
386.429	348.44
386.809	343.24
387.189	365.61
387.568	350.7
387.948	344.37
388.328	355.67
388.707	361.09
389.087	371.94
389.466	350.92
389.846	369.45
390.225	377.59
390.605	357.25
390.984	377.36
391.363	369.45
391.743	383.69
392.122	359.96
392.501	367.19
392.881	390.47
393.26	366.06
393.639	377.36
394.018	385.05
394.397	381.2
394.776	416.91
395.155	390.92
395.534	379.17
395.913	391.6
396.292	388.66
396.671	380.75
397.05	404.71
397.429	405.61
397.808	405.38
398.186	413.97
398.565	416.68
398.944	424.14
399.323	414.88
399.701	417.81
400.08	426.63
400.458	413.52
400.837	423.69
401.215	432.28
401.594	432.5
401.972	429.34
402.351	426.4
402.729	445.61
403.107	440.64
403.486	449.9
403.864	446.06
404.242	446.74
404.62	453.52
404.999	449.68
405.377	458.04
405.755	467.76
406.133	453.75
406.511	458.26
406.889	480.86
407.267	492.16
407.645	486.51
408.023	489
408.401	500.75
408.779	519.05
409.156	502.78
409.534	515.66
409.912	516.79
410.29	531.03
410.667	512.73
411.045	530.35
411.422	548.43
411.8	554.31
412.178	544.82
412.555	554.53
412.933	569.22
413.31	566.06
413.687	594.98
414.065	570.8
414.442	604.02
414.819	614.19
415.197	594.98
415.574	610.35
415.951	616
416.328	617.58
416.705	626.17
417.082	653.74
417.46	619.16
417.837	658.71
418.214	664.59
418.591	671.59
418.967	664.81
419.344	670.46
419.721	695.55
420.098	698.94
420.475	703
420.852	718.14
421.228	728.31
421.605	745.49
421.982	724.47
422.358	726.73
422.735	766.28
423.111	746.17
423.488	756.11
423.864	775.32
424.241	812.38
424.617	787.52
424.994	817.8
425.37	825.71
425.746	834.3
426.123	815.09
426.499	844.02
426.875	857.58
427.251	877.24
427.627	918.59
428.003	921.76
428.379	917.46
428.756	912.26
429.132	950.23
429.507	962.43
429.883	958.36
430.259	974.64
430.635	995.2
431.011	994.97
431.387	1015.76
431.763	1028.87
432.138	1020.28
432.514	1031.36
432.89	1060.28
433.265	1068.19
433.641	1092.82
434.016	1110.9
434.392	1126.95
434.767	1169.21
435.143	1158.81
435.518	1161.52
435.894	1178.02
436.269	1233.61
436.644	1221.41
437.02	1224.57
437.395	1242.65
437.77	1258.7
438.145	1284.68
438.52	1315.87
438.895	1315.19
439.271	1314.97
439.646	1375.53
440.021	1364.46
440.395	1389.09
440.77	1392.03
441.145	1403.78
441.52	1415.75
441.895	1412.59
442.27	1457.79
442.645	1468.63
443.019	1487.62
443.394	1454.17
443.769	1481.97
444.143	1475.19
444.518	1519.03
444.892	1517.22
445.267	1514.28
445.641	1554.51
446.016	1571.91
446.39	1548.18
446.764	1569.42
447.139	1564.9
447.513	1596.99
447.887	1609.19
448.262	1597.9
448.636	1605.13
449.01	1635.63
449.384	1601.96
449.758	1660.72
450.132	1646.48
450.506	1672.7
450.88	1700.49
451.254	1712.7
451.628	1712.7
452.002	1737.78
452.376	1735.97
452.75	1741.85
453.123	1735.29
453.497	1772.13
453.871	1792.47
454.244	1815.29
454.618	1832.01
454.992	1874.05
455.365	1857.1
455.739	1907.04
456.112	1897.1
456.486	1914.27
456.859	1932.8
457.232	1985
457.606	1939.13
457.979	1981.16
458.352	2001.05
458.725	2034.27
459.099	2053.03
459.472	2049.18
459.845	2079.01
460.218	2103.42
460.591	2119.24
460.964	2151.33
461.337	2183.87
461.71	2185
462.083	2226.13
462.456	2225.22
462.829	2249.86
463.201	2267.48
463.574	2254.83
463.947	2269.97
464.32	2333.7
464.692	2342.06
465.065	2372.56
465.438	2420.7
465.81	2438.1
466.183	2406.91
466.555	2493.92
466.928	2493.47
467.3	2509.06
467.672	2521.49
468.045	2566.01
468.417	2612.78
468.789	2622.5
469.161	2639.22
469.534	2646
469.906	2729.84
470.278	2729.84
470.65	2782.27
471.022	2797.64
471.394	2846.45
471.766	2828.37
472.138	2906.56
472.51	2968.03
472.882	2980.01
473.253	3011.19
473.625	3047.58
473.997	3099.1
474.369	3082.6
474.74	3129.16
475.112	3159.66
475.484	3226.78
475.855	3235.82
476.227	3254.12
476.598	3371.63
476.97	3347.68
477.341	3441.01
477.713	3485.53
478.084	3464.74
478.455	3543.83
478.827	3593.1
479.198	3688.24
479.569	3668.8
479.94	3758.74
480.311	3804.39
480.682	3856.82
481.053	3915.8
481.424	3939.76
481.795	3979.3
482.166	4024.72
482.537	4065.18
482.908	4117.83
483.279	4156.02
483.65	4224.27
484.021	4330.48
484.391	4347.65
484.762	4390.82
485.133	4391.72
485.503	4442.34
485.874	4550.59
486.244	4561.89
486.615	4602.79
486.985	4700.19
487.356	4738.38
487.726	4789
488.097	4864.02
488.467	4840.3
488.837	4952.84
489.207	4991.93
489.578	5047.07
489.948	5056.34
490.318	5133.17
490.688	5135.2
491.058	5177.69
491.428	5250.91
491.798	5279.61
492.168	5375.2
492.538	5431.92
492.908	5461.52
493.278	5494.52
493.648	5505.36
494.017	5562.76
494.387	5632.82
494.757	5624.91
495.126	5713.04
495.496	5667.62
495.866	5666.04
496.235	5758.46
496.605	5847.05
496.974	5838.46
497.344	5869.87
497.713	5927.05
498.082	5939.48
498.452	6044.11
498.821	5989.19
499.19	5997.1
499.559	6073.03
499.928	6112.81
500.298	6110.32
500.667	6165.23
501.036	6143.99
501.405	6224.67
501.774	6236.64
502.143	6232.35
502.512	6244.1
502.88	6289.07
503.249	6342.86
503.618	6341.27
503.987	6338.11
504.356	6435.51
504.724	6410.42
505.093	6387.6
505.462	6407.03
505.83	6451.1
506.199	6518.67
506.567	6549.86
506.936	6539.01
507.304	6639.8
507.672	6626.46
508.041	6645.67
508.409	6600.93
508.777	6734.03
509.145	6697.42
509.514	6739.46
509.882	6774.71
510.25	6795.27
510.618	6759.79
510.986	6790.98
511.354	6861.71
511.722	6887.25
512.09	6926.8
512.458	6847.48
512.826	6955.5
513.193	6942.61
513.561	6964.08
513.929	7037.75
514.297	7003.86
514.664	7054.93
515.032	7016.28
515.4	7153.91
515.767	7052.44
516.135	7128.15
516.502	7052.22
516.869	7199.56
517.237	7223.74
517.604	7111.2
517.972	7208.6
518.339	7262.61
518.706	7239.78
519.073	7226.67
519.44	7249.72
519.808	7354.13
520.175	7316.84
520.542	7435.71
520.909	7405.65
521.276	7402.04
521.643	7440.91
522.009	7430.96
522.376	7480.9
522.743	7480.68
523.11	7542.82
523.477	7625.31
523.843	7585.31
524.21	7657.17
524.577	7672.76
524.943	7762.03
525.31	7751.18
525.676	7813.1
526.043	7756.38
526.409	7783.5
526.776	7892.19
527.142	7868.92
527.508	7840.22
527.874	7874.79
528.241	7894
528.607	7916.15
528.973	7939.88
529.339	8023.26
529.705	8049.03
530.071	8092.64
530.437	8100.55
530.803	8109.36
531.169	8146.2
531.535	8139.87
531.901	8106.43
532.267	8169.93
532.632	8211.51
532.998	8159.08
533.364	8265.74
533.73	8229.36
534.095	8294.89
534.461	8267.78
534.826	8333.09
535.192	8286.99
535.557	8389.36
535.923	8293.99
536.288	8316.14
536.653	8404.04
537.019	8371.96
537.384	8364.72
537.749	8329.02
538.114	8360.66
538.479	8451.05
538.845	8412.41
539.21	8369.02
539.575	8455.57
539.94	8445.85
540.305	8436.81
540.67	8484.72
541.034	8490.6
541.399	8503.03
541.764	8519.97
542.129	8572.85
542.494	8554.32
542.858	8549.8
543.223	8570.59
543.587	8613.76
543.952	8621.21
544.316	8602.68
544.681	8563.81
545.045	8603.59
545.41	8629.8
545.774	8627.77
546.138	8690.14
546.503	8677.03
546.867	8685.39
547.231	8750.48
547.595	8648.11
547.959	8715.45
548.324	8746.63
548.688	8680.42
549.052	8752.96
549.416	8804.26
549.779	8783.7
550.143	8695.56
550.507	8773.53
550.871	8809.01
551.235	8786.41
551.599	8815.11
551.962	8829.8
552.326	8863.24
552.689	8836.35
553.053	8855.11
553.417	8820.3
553.78	8990.02
554.143	8954.76
554.507	8897.82
554.87	8992.28
555.234	8986.4
555.597	8935.1
555.96	9025.72
556.323	9076.8
556.686	9072.28
557.05	9087.87
557.413	9092.16
557.776	9095.78
558.139	9181.88
558.502	9135.32
558.865	9171.03
559.228	9260.97
559.59	9211.71
559.953	9277.24
560.316	9392.49
560.679	9341.87
561.041	9395.66
561.404	9318.82
561.767	9497.35
562.129	9457.35
562.492	9492.15
562.854	9527.63
563.217	9538.48
563.579	9397.24
563.941	9527.63
564.304	9604.92
564.666	9618.7
565.028	9675.65
565.39	9726.5
565.753	9770.34
566.115	9797
566.477	9791.35
566.839	9877.23
567.201	9909.99
567.563	9871.58
567.925	9947.51
568.287	9938.92
568.648	9981.86
569.01	10060.95
569.372	10072.7
569.734	10091.68
570.095	10180.95
570.457	10195.41
570.819	10196.99
571.18	10264.56
571.542	10220.95
571.903	10270.66
572.265	10295.52
572.626	10339.81
572.987	10430.88
573.349	10396.31
573.71	10453.93
574.071	10485.12
574.432	10551.56
574.794	10559.24
575.155	10629.97
575.516	10612.12
575.877	10641.95
576.238	10642.18
576.599	10712.68
576.96	10666.13
577.32	10775.96
577.681	10780.93
578.042	10758.11
578.403	10813.7
578.763	10833.36
579.124	10919.23
579.485	10932.57
579.845	10946.35
580.206	11006.69
580.566	11028.16
580.927	11041.49
581.287	11187.7
581.648	11041.04
582.008	11109.96
582.368	11184.76
582.728	11145.67
583.089	11187.02
583.449	11211.2
583.809	11289.84
584.169	11268.15
584.529	11281.93
584.889	11423.85
585.249	11350.86
585.609	11371.65
585.969	11422.5
586.329	11389.95
586.688	11486.9
587.048	11443.74
587.408	11434.47
587.768	11539.78
588.127	11507.47
588.487	11430.18
588.846	11637.18
589.206	11553.57
589.565	11653
589.925	11660.68
590.284	11716.73
590.643	11665.2
591.003	11728.48
591.362	11708.14
591.721	11807.8
592.08	11818.42
592.44	11820.23
592.799	11855.48
593.158	11834.46
593.517	11846.89
593.876	11976.38
594.235	11853.22
594.593	11960.56
594.952	11925.76
595.311	11979.32
595.67	11992.2
596.029	12039.2
596.387	12057.06
596.746	12118.98
597.104	12136.83
597.463	12077.17
597.822	12078.98
598.18	12098.86
598.538	12089.82
598.897	12142.25
599.255	12129.6
599.613	12279.42
599.972	12257.95
600.33	12182.48
600.688	12191.74
601.046	12325.98
601.404	12338.4
601.762	12266.32
602.12	12348.57
602.478	12386.09
602.836	12355.13
603.194	12262.47
603.552	12355.58
603.91	12334.79
604.268	12360.1
604.625	12323.72
604.983	12450.49
605.341	12368.46
605.698	12409.59
606.056	12323.94
606.413	12367.33
606.771	12414.79
607.128	12445.97
607.485	12380.21
607.843	12410.72
608.2	12546.31
608.557	12535.91
608.914	12490.94
609.272	12556.25
609.629	12542.69
609.986	12680.54
610.343	12517.16
610.7	12575.01
611.057	12626.53
611.414	12607.1
611.771	12642.13
612.127	12678.73
612.484	12675.8
612.841	12730.26
613.198	12709.69
613.554	12708.56
613.911	12756.92
614.267	12786.53
614.624	12743.14
614.98	12765.96
615.337	12869.24
615.693	12780.43
616.05	12735.23
616.406	12854.77
616.762	12822.23
617.118	12800.31
617.475	12856.81
617.831	12830.37
618.187	12975.9
618.543	12928.9
618.899	12915.79
619.255	12948.56
619.611	12904.94
619.967	12937.94
620.323	12990.14
620.678	12850.48
621.034	12910.82
621.39	12946.52
621.746	12892.51
622.101	13006.86
622.457	12897.26
622.812	12997.82
623.168	13002.79
623.523	12960.99
623.879	12974.32
624.234	12898.39
624.589	12962.79
624.945	12932.74
625.3	12937.48
625.655	12963.02
626.01	12979.97
626.365	12992.17
626.72	12989.69
627.075	12919.86
627.43	12951.27
627.785	12983.36
628.14	12929.58
628.495	12948.33
628.85	12922.34
629.205	12917.15
629.559	12922.34
629.914	12889.58
630.269	12970.25
630.623	12937.26
630.978	12831.05
631.332	12967.54
631.687	12927.32
632.041	12804.83
632.396	12883.02
632.75	12831.95
633.104	12807.32
633.459	12784.27
633.813	12811.84
634.167	12680.54
634.521	12770.03
634.875	12810.26
635.229	12748.11
635.583	12647.55
635.937	12730.03
636.291	12654.55
636.645	12629.92
636.999	12673.99
637.352	12668.57
637.706	12611.17
638.06	12542.47
638.413	12586.08
638.767	12593.09
639.121	12590.6
639.474	12560.32
639.828	12546.31
640.181	12534.11
640.534	12520.09
640.888	12529.81
641.241	12491.85
641.594	12451.62
641.947	12509.93
642.301	12544.27
642.654	12484.16
643.007	12450.27
643.36	12345.64
643.713	12412.75
644.066	12379.08
644.419	12373.66
644.771	12250.72
645.124	12217.73
645.477	12196.71
645.83	12052.31
646.182	12000.56
646.535	12045.08
646.888	11990.16
647.24	11889.6
647.593	12058.41
647.945	11937.96
648.298	11912.2
648.65	11942.26
649.002	11832.43
649.355	11959.88
649.707	11987.68
650.059	12018.41
650.411	12048.24
650.763	12163.04
651.115	12276.26
651.467	12221.35
651.819	12223.83
652.171	12143.16
652.523	12146.09
652.875	12242.14
653.227	12140.67
653.578	12181.12
653.93	12214.34
654.282	12117.17
654.633	12127.11
654.985	12187.67
655.337	12144.29
655.688	12101.35
656.039	12247.11
656.391	12143.16
656.742	12146.09
657.094	12167.79
657.445	12235.13
657.796	12148.35
658.147	12226.09
658.498	12222.7
658.849	12258.63
659.2	12143.16
659.551	12142.48
659.902	12142.03
660.253	12146.09
660.604	12157.39
660.955	12150.61
661.306	12208.92
661.656	12192.19
662.007	12190.61
662.358	12208.92
662.708	12109.71
663.059	12129.6
663.409	12189.71
663.76	12170.05
664.11	12194.91
664.461	12202.81
664.811	12257.73
665.161	12205.75
665.511	12140.9
665.862	12234.45
666.212	12255.92
666.562	12243.04
666.912	12163.72
667.262	12113.1
667.612	12206.43
667.962	12186.32
668.312	12160.78
668.662	12226.32
669.011	12198.3
669.361	12166.21
669.711	12153.78
670.06	12124.62
670.41	12113.1
670.76	12113.78
671.109	12191.29
671.459	12085.08
671.808	12109.94
672.157	12156.71
672.507	12031.07
672.856	12138.64
673.205	12103.38
673.554	12087.34
673.904	12069.48
674.253	12081.69
674.602	12075.13
674.951	11881.47
675.3	11712.88
675.649	11964.63
675.998	11922.82
676.346	11968.7
676.695	11996.49
677.044	11939.32
677.393	11979.32
677.741	11962.82
678.09	11978.41
678.438	11926.89
678.787	11879.89
679.135	11905.42
679.484	11793.11
679.832	11897.06
680.181	11806.21
680.529	11808.47
680.877	11758.08
681.225	11692.77
681.573	11838.08
681.922	11697.97
682.27	11638.76
682.618	11758.53
682.966	11643.73
683.314	11708.14
683.661	11611.87
684.009	11606.67
684.357	11624.07
684.705	11564.41
685.053	11526
685.4	11510.63
685.748	11529.16
686.095	11516.73
686.443	11472.21
686.79	11455.04
687.138	11463.4
687.485	11420.46
687.832	11342.95
688.18	11344.53
688.527	11311.76
688.874	11292.1
689.221	11173.01
689.568	11154.25
689.915	11188.38
690.262	11181.37
690.609	11118.1
690.956	11037.87
691.303	11084.43
691.65	11016.41
691.997	11102.28
692.344	10963.98
692.69	10923.98
693.037	10902.06
693.383	10776.86
693.73	10866.58
694.077	10725.34
694.423	10765.11
694.769	10699.13
695.116	10746.81
695.462	10701.39
695.808	10699.13
696.155	10660.03
696.501	10550.2
696.847	10640.6
697.193	10451.22
697.539	10483.76
697.885	10393.82
698.231	10418.45
698.577	10377.78
698.923	10370.77
699.269	10310.44
699.614	10250.55
699.96	10222.08
700.306	10269.98
700.651	10165.81
700.997	10033.83
701.342	10098.01
701.688	10066.37
702.033	9984.57
702.379	10054.4
702.724	9962.65
703.069	10008.07
703.415	9860.28
703.76	9817.34
704.105	9847.85
704.45	9810.79
704.795	9799.71
705.14	9675.42
705.485	9707.51
705.83	9675.2
706.175	9635.88
706.52	9660.06
706.865	9659.15
707.209	9539.16
707.554	9601.75
707.899	9512.94
708.243	9475.88
708.588	9459.61
708.932	9408.09
709.277	9425.49
709.621	9451.25
709.966	9424.81
710.31	9360.18
710.654	9316.56
710.998	9296.45
711.342	9243.12
711.687	9248.09
712.031	9234.98
712.375	9167.87
712.719	9230.92
713.063	9202.44
713.407	9208.77
713.75	9147.3
714.094	9176.91
714.438	9093.97
714.782	9097.81
715.125	9106.4
715.469	9098.49
715.812	9072.95
716.156	9061.43
716.499	8963.13
716.843	9024.37
717.186	9023.01
717.53	8997.48
717.873	9004.48
718.216	8995.67
718.559	8977.14
718.902	8874.99
719.246	8969.68
719.589	8912.96
719.932	8859.4
720.275	8834.32
720.617	8884.48
720.96	8840.87
721.303	8855.11
721.646	8844.03
721.989	8764.26
722.331	8816.01
722.674	8844.71
723.016	8851.94
723.359	8747.99
723.701	8742.34
724.044	8741.89
724.386	8675.9
724.729	8803.13
725.071	8695.56
725.413	8690.59
725.755	8750.48
726.097	8672.96
726.439	8632.97
726.782	8624.83
727.124	8675.68
727.465	8666.86
727.807	8596.81
728.149	8622.8
728.491	8579.86
728.833	8635
729.175	8580.09
729.516	8613.53
729.858	8545.74
730.199	8567.43
730.541	8584.38
730.882	8529.01
731.224	8568.79
731.565	8538.5
731.906	8546.64
732.248	8570.59
732.589	8468.9
732.93	8428.68
733.271	8476.59
733.612	8476.81
733.953	8545.74
734.294	8486.3
734.635	8457.38
734.976	8502.57
735.317	8479.52
735.658	8432.52
735.999	8394.78
736.339	8478.39
736.68	8515.91
737.021	8514.55
737.361	8457.6
737.702	8544.15
738.042	8529.92
738.383	8505.28
738.723	8522.91
739.063	8513.65
739.404	8486.3
739.744	8535.57
740.084	8540.99
740.424	8583.02
740.764	8500.31
741.104	8542.57
741.444	8510.71
741.784	8502.35
742.124	8579.41
742.464	8592.74
742.804	8554.55
743.143	8562.68
743.483	8649.69
743.823	8598.16
744.162	8549.35
744.502	8697.82
744.841	8612.4
745.181	8671.83
745.52	8673.87
745.86	8776.69
746.199	8772.85
746.538	8712.29
746.877	8831.15
747.216	8804.03
747.556	8872.96
747.895	8970.36
748.234	8965.84
748.573	8966.52
748.911	9076.12
749.25	9081.77
749.589	9121.09
749.928	9224.59
750.267	9242.21
750.605	9275.89
750.944	9385.71
751.283	9400.85
751.621	9493.06
751.96	9506.16
752.298	9644.46
752.636	9678.14
752.975	9741.86
753.313	9872.71
753.651	9956.77
753.989	10058.69
754.327	10110.44
754.666	10162.19
755.004	10265.01
755.342	10388.17
755.679	10521.05
756.017	10606.92
756.355	10691.44
756.693	10828.16
757.031	10896.63
757.368	11123.3
757.706	11247.36
758.044	11297.3
758.381	11505.21
758.719	11609.38
759.056	11769.61
759.394	11855.48
759.731	12000.33
760.068	12149.26
760.405	12254.56
760.743	12357.39
761.08	12558.74
761.417	12688.68
761.754	12906.07
762.091	13007.09
