Data from hue_180_FLMS001491_00026.txt Node
Date: Tue Feb 07 16:46:46 GMT 2017
User: dcchb
Spectrometer: FLMS00149
Trigger mode: 0
Integration Time (sec): 2.000000E-2
Scans to average: 10
Electric dark correction enabled: true
Nonlinearity correction enabled: false
Boxcar width: 0
XAxis mode: Wavelengths
Number of Pixels in Spectrum: 2048
>>>>>Begin Spectral Data<<<<<
341.393	-20.18
341.776	-20.18
342.16	-20.18
342.543	-45.27
342.927	-65.38
343.31	-44.59
343.693	-72.61
344.077	-66.28
344.46	-67.87
344.843	-53.63
345.226	-40.97
345.61	-20.64
345.993	-19.96
346.376	-15.21
346.759	9.19
347.142	28.86
347.525	25.69
347.908	50.32
348.291	82.87
348.674	98.01
349.057	106.82
349.44	121.28
349.823	148.17
350.206	160.38
350.588	180.72
350.971	205.8
351.354	217.78
351.737	241.73
352.119	241.5
352.502	258.45
352.884	269.98
353.267	270.2
353.65	286.48
354.032	286.7
354.414	291.22
354.797	297.77
355.179	323.54
355.562	323.99
355.944	307.94
356.326	321.73
356.709	328.73
357.091	326.7
357.473	340.71
357.855	338
358.238	347.49
358.62	344.55
359.002	335.06
359.384	339.13
359.766	318.57
360.148	322.63
360.53	339.81
360.912	338.9
361.294	327.83
361.676	319.69
362.057	327.6
362.439	321.73
362.821	318.34
363.203	339.36
363.584	324.21
363.966	314.72
364.348	324.21
364.729	329.86
365.111	300.71
365.493	290.77
365.874	320.82
366.256	319.69
366.637	305.46
367.019	305.23
367.4	306.14
367.781	306.14
368.163	321.5
368.544	315.18
368.925	323.76
369.306	346.59
369.688	306.59
370.069	297.55
370.45	291.45
370.831	316.53
371.212	310.43
371.593	310.43
371.974	319.69
372.355	298.68
372.736	328.28
373.117	301.16
373.498	311.33
373.879	301.39
374.26	320.37
374.641	318.11
375.021	305.68
375.402	300.26
375.783	328.06
376.163	318.79
376.544	311.33
376.925	330.77
377.305	315.4
377.686	316.98
378.066	315.4
378.447	330.77
378.827	321.73
379.208	347.49
379.588	314.72
379.968	335.29
380.349	330.77
380.729	331.67
381.109	335.06
381.489	323.54
381.87	323.08
382.25	336.87
382.63	338.68
383.01	330.32
383.39	326.93
383.77	351.33
384.15	336.64
384.53	351.11
384.91	342.29
385.29	317.21
385.67	316.08
386.049	352.69
386.429	336.19
386.809	345.68
387.189	355.4
387.568	336.64
387.948	334.61
388.328	343.42
388.707	333.48
389.087	341.39
389.466	348.62
389.846	378.22
390.225	384.1
390.605	373.7
390.984	362.63
391.363	340.26
391.743	354.27
392.122	356.53
392.501	358.79
392.881	372.12
393.26	361.05
393.639	359.69
394.018	373.93
394.397	353.82
394.776	360.15
395.155	364.89
395.534	358.79
395.913	368.73
396.292	375.74
396.671	379.81
397.05	364.21
397.429	377.77
397.808	387.94
398.186	402.18
398.565	386.13
398.944	383.87
399.323	403.76
399.701	396.76
400.08	404.89
400.458	419.58
400.837	407.15
401.215	397.89
401.594	396.3
401.972	400.82
402.351	396.3
402.729	425.23
403.107	399.92
403.486	435.62
403.864	423.87
404.242	419.35
404.62	432.46
404.999	425.45
405.377	420.26
405.755	426.81
406.133	438.79
406.511	423.87
406.889	437.66
407.267	452.35
407.645	455.74
408.023	451.67
408.401	466.13
408.779	487.15
409.156	478.56
409.534	477.88
409.912	478.33
410.29	524.21
410.667	481.05
411.045	507.03
411.422	519.24
411.8	499.8
412.178	521.95
412.555	522.85
412.933	546.81
413.31	554.27
413.687	571.21
414.065	556.07
414.442	557.88
414.819	573.02
415.197	587.03
415.574	593.81
415.951	602.63
416.328	599.69
416.705	594.49
417.082	604.89
417.46	614.38
417.837	625.9
418.214	650.53
418.591	644.43
418.967	661.15
419.344	661.38
419.721	668.84
420.098	663.19
420.475	670.65
420.852	670.19
421.228	706.35
421.605	702.06
421.982	705
422.358	713.81
422.735	751.55
423.111	748.84
423.488	744.54
423.864	755.84
424.241	782.06
424.617	804.43
424.994	785.67
425.37	826.12
425.746	786.12
426.123	808.27
426.499	841.49
426.875	839.46
427.251	840.13
427.627	861.83
428.003	894.82
428.379	912.67
428.756	898.21
429.132	904.31
429.507	923.97
429.883	916.74
430.259	943.63
430.635	951.54
431.011	952.9
431.387	964.42
431.763	997.42
432.138	996.74
432.514	1018.89
432.89	1032.9
433.265	1053.91
433.641	1064.08
434.016	1085.32
434.392	1089.62
434.767	1111.76
435.143	1121.71
435.518	1128.71
435.894	1164.64
436.269	1178.88
436.644	1186.56
437.02	1238.09
437.395	1214.81
437.77	1230.18
438.145	1258.65
438.52	1275.83
438.895	1271.31
439.271	1299.33
439.646	1340.46
440.021	1360.12
440.395	1348.59
440.77	1366.9
441.145	1388.14
441.52	1416.62
441.895	1447.12
442.27	1412.32
442.645	1456.16
443.019	1471.76
443.394	1448.7
443.769	1504.75
444.143	1490.51
444.518	1530.96
444.892	1526.67
445.267	1530.96
445.641	1573.45
446.016	1554.46
446.39	1596.05
446.764	1622.03
447.139	1604.86
447.513	1597.63
447.887	1595.82
448.262	1611.86
448.636	1647.34
449.01	1643.95
449.384	1654.12
449.758	1708.59
450.132	1717.62
450.506	1688.7
450.88	1748.81
451.254	1725.31
451.628	1773.67
452.002	1775.02
452.376	1824.29
452.75	1821.35
453.123	1831.07
453.497	1855.02
453.871	1909.94
454.244	1937.73
454.618	1893.21
454.992	1957.17
455.365	1961.69
455.739	1979.76
456.112	2027.45
456.486	2072.42
456.859	2081.23
457.232	2085.07
457.606	2089.59
457.979	2137.05
458.352	2168.01
458.725	2202.13
459.099	2186.99
459.472	2262.47
459.845	2257.5
460.218	2304.5
460.591	2316.25
460.964	2339.98
461.337	2371.39
461.71	2434.67
462.083	2493.88
462.456	2467.21
462.829	2484.61
463.201	2540.65
463.574	2539.98
463.947	2564.16
464.32	2644.61
464.692	2672.85
465.065	2705.17
465.438	2732.74
465.81	2757.37
466.183	2815
466.555	2868.78
466.928	2876.69
467.3	2898.61
467.672	2934.09
468.045	3007.08
468.417	3021.32
468.789	3065.16
469.161	3098.38
469.534	3155.55
469.906	3193.07
470.278	3257.47
470.65	3264.48
471.022	3340.63
471.394	3459.05
471.766	3481.42
472.138	3506.28
472.51	3588.54
472.882	3626.5
473.253	3670.34
473.625	3755.76
473.997	3848.42
474.369	3884.57
474.74	3950.56
475.112	4022.87
475.484	4103.78
475.855	4150.55
476.227	4175.86
476.598	4362.07
476.97	4362.3
477.341	4500.6
477.713	4546.25
478.084	4608.17
478.455	4686.81
478.827	4768.17
479.198	4938.33
479.569	4954.83
479.94	5080.93
480.311	5171.54
480.682	5293.12
481.053	5379.67
481.424	5475.94
481.795	5537.86
482.166	5655.37
482.537	5775.14
482.908	5917.06
483.279	5952.77
483.65	6094.23
484.021	6259.88
484.391	6301.91
484.762	6319.54
485.133	6436.14
485.503	6505.75
485.874	6671.17
486.244	6809.69
486.615	6911.39
486.985	6976.02
487.356	7134.88
487.726	7222.79
488.097	7390.02
488.467	7454.65
488.837	7592.72
489.207	7689.67
489.578	7814.64
489.948	7932.6
490.318	8053.95
490.688	8082.43
491.058	8182.77
491.428	8373.49
491.798	8411.46
492.168	8565.81
492.538	8633.15
492.908	8687.38
493.278	8826.82
493.648	8808.74
494.017	8947.49
494.387	9066.58
494.757	9138.9
495.126	9184.09
495.496	9265
495.866	9307.71
496.235	9443.75
496.605	9483.3
496.974	9611.2
497.344	9640.81
497.713	9694.36
498.082	9766.9
498.452	9901.14
498.821	9914.47
499.19	9980.91
499.559	9990.18
499.928	9962.15
500.298	10108.82
500.667	10215.48
501.036	10232.65
501.405	10324.86
501.774	10285.08
502.143	10347.45
502.512	10389.03
502.88	10476.26
503.249	10448.24
503.618	10504.96
503.987	10567.11
504.356	10542.25
504.724	10603.94
505.093	10624.06
505.462	10663.15
505.83	10733.66
506.199	10853.66
506.567	10944.73
506.936	10885.52
507.304	10949.92
507.672	11017.49
508.041	11001
508.409	11087.55
508.777	11100.43
509.145	11154.66
509.514	11161.67
509.882	11258.84
510.25	11176.13
510.618	11241.67
510.986	11249.8
511.354	11271.5
511.722	11390.59
512.09	11403.02
512.458	11406.64
512.826	11436.92
513.193	11462.23
513.561	11470.14
513.929	11544.03
514.297	11585.16
514.664	11599.17
515.032	11619.96
515.4	11714.88
515.767	11611.38
516.135	11646.85
516.502	11494.99
516.869	11683.46
517.237	11668.32
517.604	11628.55
517.972	11730.47
518.339	11763.01
518.706	11727.98
519.073	11710.36
519.44	11732.05
519.808	11845.27
520.175	11711.26
520.542	11872.16
520.909	11913.51
521.276	11789.9
521.643	11911.25
522.009	11853.63
522.376	11937.24
522.743	11979.95
523.11	11941.31
523.477	12068.76
523.843	11965.26
524.21	12007.07
524.577	12069.89
524.943	12070.8
525.31	12056.34
525.676	12134.07
526.043	12125.26
526.409	12063.12
526.776	12167.29
527.142	12122.32
527.508	12109.22
527.874	12150.8
528.241	12158.25
528.607	12170.46
528.973	12090.46
529.339	12131.14
529.705	12131.36
530.071	12058.14
530.437	12151.47
530.803	12121.19
531.169	12169.55
531.535	12028.09
531.901	11975.89
532.267	12019.73
532.632	12028.31
532.998	11993.51
533.364	11968.43
533.73	11881.65
534.095	11966.39
534.461	11944.02
534.826	11891.82
535.192	11905.83
535.557	11896.11
535.923	11782.9
536.288	11767.08
536.653	11728.21
537.019	11598.04
537.384	11620.41
537.749	11599.85
538.114	11581.32
538.479	11534.99
538.845	11547.87
539.21	11479.63
539.575	11441.44
539.94	11349.01
540.305	11488.67
540.67	11265.85
541.034	11296.36
541.399	11224.27
541.764	11243.7
542.129	11240.31
542.494	11185.62
542.858	11110.82
543.223	11102.91
543.587	11083.48
543.952	10974.1
544.316	10912.18
544.681	10937.72
545.045	10861.56
545.41	10862.69
545.774	10810.49
546.138	10726.88
546.503	10735.47
546.867	10653.66
547.231	10646.43
547.595	10627.45
547.959	10519.88
548.324	10548.35
548.688	10423.84
549.052	10431.07
549.416	10327.34
549.779	10360.79
550.143	10304.29
550.507	10341.58
550.871	10279.89
551.235	10161.47
551.599	10152.88
551.962	10087.57
552.326	10085.99
552.689	10104.75
553.053	9992.89
553.417	9997.63
553.78	9997.18
554.143	9949.5
554.507	9892.78
554.87	9860.46
555.234	9916.5
555.597	9822.5
555.96	9821.14
556.323	9821.59
556.686	9723.29
557.05	9787.47
557.413	9770.97
557.776	9695.27
558.139	9701.6
558.502	9679
558.865	9673.8
559.228	9711.76
559.59	9577.76
559.953	9517.19
560.316	9736.62
560.679	9568.27
561.041	9641.48
561.404	9641.03
561.767	9623.18
562.129	9520.58
562.492	9560.81
562.854	9462.96
563.217	9502.96
563.579	9549.73
563.941	9554.93
564.304	9549.51
564.666	9522.62
565.028	9561.03
565.39	9525.1
565.753	9553.12
566.115	9526.01
566.477	9528.04
566.839	9565.55
567.201	9523.52
567.563	9486.69
567.925	9525.78
568.287	9516.06
568.648	9512
569.01	9544.54
569.372	9568.27
569.734	9513.58
570.095	9589.96
570.457	9564.2
570.819	9528.49
571.18	9474.48
571.542	9528.04
571.903	9541.15
572.265	9549.51
572.626	9560.36
572.987	9514.03
573.349	9530.53
573.71	9575.95
574.071	9589.96
574.432	9588.15
574.794	9623.41
575.155	9622.95
575.516	9467.03
575.877	9512
576.238	9492.34
576.599	9564.88
576.96	9554.71
577.32	9573.69
577.681	9547.93
578.042	9487.82
578.403	9540.47
578.763	9495.72
579.124	9480.13
579.485	9571.2
579.845	9553.12
580.206	9544.99
580.566	9523.97
580.927	9535.5
581.287	9546.35
581.648	9528.94
582.008	9482.17
582.368	9490.98
582.728	9564.88
583.089	9405.33
583.449	9435.16
583.809	9546.12
584.169	9413.47
584.529	9425.9
584.889	9497.76
585.249	9493.01
585.609	9340.93
585.969	9384.09
586.329	9408.27
586.688	9374.82
587.048	9389.06
587.408	9329.85
587.768	9302.28
588.127	9317.42
588.487	9246.92
588.846	9313.58
589.206	9306.8
589.565	9269.74
589.925	9306.8
590.284	9281.72
590.643	9277.2
591.003	9246.24
591.362	9397.42
591.721	9287.59
592.08	9305.45
592.44	9254.15
592.799	9269.74
593.158	9221.83
593.517	9185.22
593.876	9260.02
594.235	9182.29
594.593	9262.06
594.952	9227.71
595.311	9132.57
595.67	9173.25
596.029	9210.76
596.387	9205.79
596.746	9196.52
597.104	9173.7
597.463	9159.24
597.822	9162.63
598.18	9102.74
598.538	9093.7
598.897	9211.44
599.255	9083.08
599.613	9183.42
599.972	9093.02
600.33	9081.72
600.688	9086.02
601.046	9105.68
601.404	9137.54
601.762	9137.99
602.12	9206.24
602.478	9136.41
602.836	9113.59
603.194	9060.03
603.552	9079.69
603.91	9098.67
604.268	9079.46
604.625	9043.53
604.983	9100.26
605.341	9081.72
605.698	9106.58
606.056	9102.06
606.413	9086.7
606.771	9101.61
607.128	9086.02
607.485	9015.96
607.843	9015.74
608.2	9060.48
608.557	9130.31
608.914	9128.28
609.272	9150.65
609.629	9066.36
609.986	9169.18
610.343	9097.32
610.7	9172.12
611.057	9139.8
611.414	9148.39
611.771	9114.72
612.127	9130.08
612.484	9157.2
612.841	9146.13
613.198	9116.07
613.554	9151.1
613.911	9232.23
614.267	9258.89
614.624	9116.07
614.98	9142.51
615.337	9239.23
615.693	9233.58
616.05	9149.75
616.406	9263.87
616.762	9160.37
617.118	9256.41
617.475	9181.83
617.831	9244.21
618.187	9259.35
618.543	9259.8
618.899	9276.52
619.255	9221.38
619.611	9208.27
619.967	9300.25
620.323	9214.38
620.678	9271.78
621.034	9211.89
621.39	9211.66
621.746	9209.86
622.101	9327.59
622.457	9213.02
622.812	9269.52
623.168	9291.66
623.523	9272.91
623.879	9276.97
624.234	9251.89
624.589	9215.96
624.945	9265.22
625.3	9244.66
625.655	9212.57
626.01	9283.98
626.365	9250.53
626.72	9180.48
627.075	9264.32
627.43	9209.63
627.785	9151.1
628.14	9245.56
628.495	9242.4
628.85	9241.95
629.205	9204.66
629.559	9243.53
629.914	9161.27
630.269	9185.68
630.623	9093.48
630.978	9128.95
631.332	9152.46
631.687	9148.39
632.041	9148.62
632.396	9107.49
632.75	9090.76
633.104	9118.79
633.459	9156.52
633.813	9067.94
634.167	9066.36
634.521	9083.53
634.875	9105.9
635.229	9015.96
635.583	9048.28
635.937	8945.46
636.291	8965.8
636.645	9033.82
636.999	9002.4
637.352	8970.31
637.706	8959.47
638.06	8946.59
638.413	8937.55
638.767	8947.72
639.121	8874.5
639.474	8873.14
639.828	8856.87
640.181	8940.03
640.534	8842.41
640.888	8843.54
641.241	8791.34
641.594	8910.66
641.947	8851.67
642.301	8888.51
642.654	8848.06
643.007	8874.95
643.36	8845.8
643.713	8806.03
644.066	8825.91
644.419	8757.67
644.771	8775.29
645.124	8626.6
645.477	8662.98
645.83	8589.76
646.182	8581.17
646.535	8574.62
646.888	8578.46
647.24	8498.91
647.593	8596.31
647.945	8636.09
648.298	8462.98
648.65	8503.43
649.002	8492.81
649.355	8534.39
649.707	8513.15
650.059	8596.31
650.411	8670.66
650.763	8666.59
651.115	8742.07
651.467	8674.96
651.819	8724.9
652.171	8726.93
652.523	8698.01
652.875	8695.29
653.227	8656.2
653.578	8713.6
653.93	8743.88
654.282	8667.05
654.633	8662.75
654.985	8681.28
655.337	8658.68
655.688	8732.13
656.039	8789.53
656.391	8658.46
656.742	8695.29
657.094	8787.04
657.445	8762.86
657.796	8766.25
658.147	8773.26
658.498	8769.64
658.849	8752.92
659.2	8748.4
659.551	8726.93
659.902	8787.72
660.253	8715.63
660.604	8761.96
660.955	8772.81
661.306	8766.48
661.656	8763.77
662.007	8773.48
662.358	8881.28
662.708	8805.35
663.059	8792.69
663.409	8746.14
663.76	8831.11
664.11	8854.61
664.461	8794.05
664.811	8820.71
665.161	8801.96
665.511	8754.95
665.862	8786.82
666.212	8768.51
666.562	8850.54
666.912	8816.87
667.262	8820.71
667.612	8791.56
667.962	8852.35
668.312	8812.58
668.662	8903.65
669.011	8831.11
669.361	8820.04
669.711	8811.22
670.06	8803.31
670.41	8830.43
670.76	8808.96
671.109	8824.1
671.459	8783.43
671.808	8733.71
672.157	8836.31
672.507	8710.21
672.856	8748.85
673.205	8760.15
673.554	8727.38
673.904	8734.61
674.253	8790.88
674.602	8748.85
674.951	8644.9
675.3	8514.28
675.649	8667.5
675.998	8703.88
676.346	8646.48
676.695	8726.93
677.044	8625.01
677.393	8647.61
677.741	8624.11
678.09	8661.4
678.438	8591.34
678.787	8602.64
679.135	8588.63
679.484	8569.87
679.832	8643.77
680.181	8512.7
680.529	8554.96
680.877	8502.08
681.225	8467.05
681.573	8557.67
681.922	8487.39
682.27	8455.07
682.618	8439.26
682.966	8395.64
683.314	8437.67
683.661	8412.59
684.009	8333.5
684.357	8399.03
684.705	8318.13
685.053	8385.92
685.4	8319.48
685.748	8252.59
686.095	8292.82
686.443	8262.54
686.79	8237
687.138	8299.15
687.485	8267.28
687.832	8210.79
688.18	8238.81
688.527	8175.76
688.874	8128.53
689.221	8114.52
689.568	8066.84
689.915	8074.97
690.262	8050.79
690.609	8021.87
690.956	7957.91
691.303	7936.9
691.65	7931.7
691.997	7917.69
692.344	7840.18
692.69	7913.39
693.037	7856.9
693.383	7769.67
693.73	7887.18
694.077	7696
694.423	7707.52
694.769	7661.2
695.116	7698.94
695.462	7642.67
695.808	7608.54
696.155	7606.28
696.501	7512.05
696.847	7532.39
697.193	7446.51
697.539	7529.45
697.885	7432.05
698.231	7378.04
698.577	7377.81
698.923	7375.55
699.269	7301.66
699.614	7331.71
699.96	7324.03
700.306	7272.73
700.651	7238.38
700.997	7194.77
701.342	7189.8
701.688	7134.21
702.033	7160.65
702.379	7177.59
702.724	7091.04
703.069	7048.56
703.415	6988.9
703.76	7030.7
704.105	6952.51
704.45	6956.36
704.795	6921.1
705.14	6886.75
705.485	6870.26
705.83	6870.94
706.175	6870.48
706.52	6831.84
706.865	6826.42
707.209	6791.62
707.554	6773.54
707.899	6801.56
708.243	6707.78
708.588	6723.37
708.932	6645.4
709.277	6673.88
709.621	6691.05
709.966	6632.07
710.31	6611.51
710.654	6586.87
710.998	6539.64
711.342	6576.25
711.687	6503.49
712.031	6520.89
712.375	6550.49
712.719	6499.42
713.063	6434.34
713.407	6494.22
713.75	6432.3
714.094	6439.99
714.438	6404.51
714.782	6432.08
715.125	6418.29
715.469	6373.55
715.812	6328.58
716.156	6292.19
716.499	6328.58
716.843	6319.76
717.186	6318.63
717.53	6340.33
717.873	6313.44
718.216	6316.37
718.559	6298.75
718.902	6261.46
719.246	6272.08
719.589	6204.74
719.932	6191.41
720.275	6266.43
720.617	6211.07
720.96	6153.67
721.303	6235.92
721.646	6178.98
721.989	6158.19
722.331	6217.84
722.674	6174.68
723.016	6228.24
723.359	6133.55
723.701	6174.23
724.044	6158.19
724.386	6099.88
724.729	6144.17
725.071	6171.07
725.413	6138.07
725.755	6141.24
726.097	6133.1
726.439	6126.77
726.782	6062.14
727.124	6155.25
727.465	6069.83
727.807	6148.24
728.149	6119.09
728.491	6074.57
728.833	6102.14
729.175	6111.41
729.516	6107.79
729.858	6087.45
730.199	6111.63
730.541	6046.78
730.882	6103.05
731.224	6113.21
731.565	6043.61
731.906	6081.35
732.248	6131.52
732.589	6107.57
732.93	6099.43
733.271	6122.48
733.612	6057.62
733.953	6128.58
734.294	6091.52
734.635	6099.66
734.976	6068.02
735.317	6101.69
735.658	6112.31
735.999	6118.41
736.339	6157.51
736.68	6148.47
737.021	6150.5
737.361	6144.63
737.702	6115.25
738.042	6190.05
738.383	6176.72
738.723	6170.39
739.063	6156.6
739.404	6168.81
739.744	6211.97
740.084	6222.36
740.424	6235.25
740.764	6213.55
741.104	6230.05
741.444	6194.79
741.784	6251.74
742.124	6250.16
742.464	6279.99
742.804	6324.51
743.143	6372.19
743.483	6378.74
743.823	6404.05
744.162	6348.24
744.502	6445.86
744.841	6444.28
745.181	6481.79
745.52	6488.57
745.86	6520.89
746.199	6584.16
746.538	6588.68
746.877	6613.77
747.216	6675.46
747.556	6712.3
747.895	6811.05
748.234	6807.66
748.573	6862.57
748.911	6921.56
749.25	6980.76
749.589	7018.28
749.928	7123.58
750.267	7174.43
750.605	7230.93
750.944	7301.21
751.283	7360.19
751.621	7429.79
751.96	7524.03
752.298	7556.34
752.636	7695.77
752.975	7767.18
753.313	7835.88
753.651	8031.58
753.989	8094.41
754.327	8199.71
754.666	8287.62
755.004	8402.19
755.342	8585.24
755.679	8722.19
756.017	8725.35
756.355	8963.08
756.693	9091.67
757.031	9164.21
757.368	9301.83
757.706	9462.51
758.044	9646.91
758.381	9785.89
758.719	9949.05
759.056	10114.92
759.394	10237.85
759.731	10298.42
760.068	10515.59
760.405	10642.36
760.743	10697.73
761.08	10998.96
761.417	11158.51
761.754	11293.19
762.091	11503.13
762.428	11660.19
762.765	11771.82
763.102	12014.3
763.438	12022.21
763.775	12229.66
764.112	12456.78
764.449	12639.6
764.785	12783.55
765.122	12952.13
765.458	13076.65
765.795	13202.29
766.131	13284.78
