Data from hue_280_FLMS001491_00098.txt Node
Date: Tue Feb 07 15:56:09 GMT 2017
User: dcchb
Spectrometer: FLMS00149
Trigger mode: 0
Integration Time (sec): 2.000000E-2
Scans to average: 10
Electric dark correction enabled: true
Nonlinearity correction enabled: false
Boxcar width: 0
XAxis mode: Wavelengths
Number of Pixels in Spectrum: 2048
>>>>>Begin Spectral Data<<<<<
341.393	-3.73
341.776	-3.73
342.16	-3.73
342.543	-45.08
342.927	-53.22
343.31	-64.97
343.693	-76.95
344.077	-55.03
344.46	-54.35
344.843	-75.59
345.226	-47.34
345.61	-21.81
345.993	-32.43
346.376	-3.95
346.759	22.03
347.142	34.46
347.525	60.22
347.908	50.73
348.291	75.59
348.674	82.14
349.057	107.23
349.44	129.6
349.823	136.38
350.206	152.2
350.588	184.74
350.971	184.97
351.354	210.5
351.737	238.52
352.119	224.74
352.502	261.58
352.884	274
353.267	270.16
353.65	281.46
354.032	275.59
354.414	278.07
354.797	321.23
355.179	304.51
355.562	324.4
355.944	321.69
356.326	330.5
356.709	355.58
357.091	334.57
357.473	340.67
357.855	320.56
358.238	337.51
358.62	337.28
359.002	328.01
359.384	325.53
359.766	339.31
360.148	346.54
360.53	322.59
360.912	339.77
361.294	307.9
361.676	317.84
362.057	333.44
362.439	328.24
362.821	325.08
363.203	323.49
363.584	327.11
363.966	317.84
364.348	318.97
364.729	312.87
365.111	318.07
365.493	331.4
365.874	297.05
366.256	308.35
366.637	304.29
367.019	323.72
367.4	326.43
367.781	310.16
368.163	305.19
368.544	309.48
368.925	314.68
369.306	301.8
369.688	283.5
370.069	303.83
370.45	322.59
370.831	299.99
371.212	312.65
371.593	325.75
371.974	318.3
372.355	297.28
372.736	306.32
373.117	309.26
373.498	324.62
373.879	312.87
374.26	333.89
374.641	331.4
375.021	304.51
375.402	316.71
375.783	324.85
376.163	320.78
376.544	310.39
376.925	327.34
377.305	335.7
377.686	346.77
378.066	315.58
378.447	319.43
378.827	329.82
379.208	333.21
379.588	310.61
379.968	320.33
380.349	310.16
380.729	334.34
381.109	335.7
381.489	350.61
381.87	329.6
382.25	307.9
382.63	334.57
383.01	331.18
383.39	351.74
383.77	334.34
384.15	345.41
384.53	341.12
384.91	358.3
385.29	347.67
385.67	349.71
386.049	347.22
386.429	332.08
386.809	337.96
387.189	342.7
387.568	354.23
387.948	354.91
388.328	336.15
388.707	340.67
389.087	348.13
389.466	347.9
389.846	340.44
390.225	357.17
390.605	333.66
390.984	367.56
391.363	371.18
391.743	371.85
392.122	355.81
392.501	372.98
392.881	372.53
393.26	355.58
393.639	372.31
394.018	385.87
394.397	373.44
394.776	389.26
395.155	368.24
395.534	387.22
395.913	381.8
396.292	378.41
396.671	377.96
397.05	386.77
397.429	401.23
397.808	392.19
398.186	382.93
398.565	412.98
398.944	401.46
399.323	409.82
399.701	408.46
400.08	408.69
400.458	389.03
400.837	406.2
401.215	396.49
401.594	407.33
401.972	403.72
402.351	425.41
402.729	424.51
403.107	428.12
403.486	428.35
403.864	410.05
404.242	405.53
404.62	435.81
404.999	440.78
405.377	449.59
405.755	447.56
406.133	458.86
406.511	465.64
406.889	453.21
407.267	474.22
407.645	448.46
408.023	455.47
408.401	475.81
408.779	462.7
409.156	477.61
409.534	499.76
409.912	475.58
410.29	496.82
410.667	501.12
411.045	503.38
411.422	514.68
411.8	526.65
412.178	512.42
412.555	535.01
412.933	514.9
413.31	539.53
413.687	536.6
414.065	562.58
414.442	579.76
414.819	561.91
415.197	559.65
415.574	561.23
415.951	584.28
416.328	593.32
416.705	600.78
417.082	588.57
417.46	609.59
417.837	608.23
418.214	633.77
418.591	651.4
418.967	626.76
419.344	644.62
419.721	650.04
420.098	661.34
420.475	657.04
420.852	685.52
421.228	678.74
421.605	688.68
421.982	706.99
422.358	702.02
422.735	707.21
423.111	712.18
423.488	735.01
423.864	757.83
424.241	746.31
424.617	779.75
424.994	759.87
425.37	754.44
425.746	757.83
426.123	772.52
426.499	792.63
426.875	795.57
427.251	825.63
427.627	820.2
428.003	825.18
428.379	857.49
428.756	876.02
429.132	866.08
429.507	892.29
429.883	887.55
430.259	913.99
430.635	930.71
431.011	920.09
431.387	926.64
431.763	940.88
432.138	945.85
432.514	932.07
432.89	986.08
433.265	961.44
433.641	984.72
434.016	998.5
434.392	1027.66
434.767	1079.41
435.143	1078.5
435.518	1060.88
435.894	1075.11
436.269	1092.06
436.644	1135.45
437.02	1144.49
437.395	1116.47
437.77	1133.42
438.145	1137.71
438.52	1165.05
438.895	1196.24
439.271	1174.09
439.646	1208.89
440.021	1225.39
440.395	1224.71
440.77	1232.85
441.145	1254.54
441.52	1261.55
441.895	1301.32
442.27	1298.16
442.645	1293.19
443.019	1305.39
443.394	1314.65
443.769	1331.15
444.143	1327.99
444.518	1340.42
444.892	1334.54
445.267	1343.81
445.641	1348.1
446.016	1373.18
446.39	1402.79
446.764	1376.35
447.139	1386.52
447.513	1420.19
447.887	1385.61
448.262	1393.07
448.636	1420.87
449.01	1438.04
449.384	1454.09
449.758	1433.3
450.132	1431.04
450.506	1466.74
450.88	1462
451.254	1464.26
451.628	1494.31
452.002	1497.25
452.376	1534.31
452.75	1541.99
453.123	1506.06
453.497	1556.46
453.871	1554.65
454.244	1567.08
454.618	1615.89
454.992	1588.77
455.365	1609.11
455.739	1615.44
456.112	1628.09
456.486	1638.94
456.859	1660.63
457.232	1692.95
457.606	1669.9
457.979	1704.02
458.352	1763.23
458.725	1761.65
459.099	1702.67
459.472	1767.3
459.845	1758.03
460.218	1804.59
460.591	1828.09
460.964	1799.84
461.337	1836.45
461.71	1857.92
462.083	1927.07
462.456	1883.23
462.829	1887.97
463.201	1930.01
463.574	1903.11
463.947	1969.55
464.32	1959.16
464.692	1966.39
465.065	1991.25
465.438	2005.48
465.81	2033.51
466.183	2051.36
466.555	2096.33
466.928	2097.01
467.3	2101.98
467.672	2144.46
468.045	2191.47
468.417	2184.46
468.789	2206.16
469.161	2197.57
469.534	2198.47
469.906	2257.45
470.278	2295.65
470.65	2287.06
471.022	2334.97
471.394	2346.27
471.766	2365.93
472.138	2366.6
472.51	2430.33
472.882	2443.21
473.253	2475.3
473.625	2508.07
473.997	2548.29
474.369	2561.18
474.74	2566.15
475.112	2612.02
475.484	2656.09
475.855	2651.34
476.227	2707.16
476.598	2742.64
476.97	2729.53
477.341	2773.83
477.713	2835.97
478.084	2847.04
478.455	2954.39
478.827	2874.39
479.198	2998.9
479.569	2967.49
479.94	3047.26
480.311	3088.17
480.682	3094.04
481.053	3151.44
481.424	3205.45
481.795	3250.87
482.166	3267.82
482.537	3273.47
482.908	3334.26
483.279	3390.53
483.65	3402.28
484.021	3472.56
484.391	3482.96
484.762	3477.08
485.133	3522.51
485.503	3567.02
485.874	3642.05
486.244	3701.48
486.615	3685.44
486.985	3781.48
487.356	3781.93
487.726	3812.67
488.097	3835.04
488.467	3879.33
488.837	3922.04
489.207	3987.35
489.578	3986.45
489.948	4037.29
490.318	4083.17
490.688	4130.63
491.058	4143.28
491.428	4115.26
491.798	4222.15
492.168	4267.35
492.538	4254.46
492.908	4316.84
493.278	4385.99
493.648	4387.57
494.017	4359.09
494.387	4450.84
494.757	4430.05
495.126	4527.9
495.496	4488.81
495.866	4531.07
496.235	4548.69
496.605	4556.83
496.974	4620.33
497.344	4659.2
497.713	4630.27
498.082	4656.49
498.452	4678.18
498.821	4698.07
499.19	4720.89
499.559	4708.92
499.928	4791.4
500.298	4814.45
500.667	4839.08
501.036	4824.39
501.405	4866.43
501.774	4873.66
502.143	4930.6
502.512	4919.31
502.88	4927.67
503.249	4975.8
503.618	4934.9
503.987	4973.09
504.356	5040.66
504.724	4975.8
505.093	5029.13
505.462	5024.16
505.83	5011.51
506.199	5105.74
506.567	5078.17
506.936	5124.72
507.304	5139.41
507.672	5200.2
508.041	5185.97
508.409	5218.28
508.777	5211.5
509.145	5280.65
509.514	5203.37
509.882	5249.24
510.25	5272.97
510.618	5283.36
510.986	5322.01
511.354	5307.32
511.722	5336.47
512.09	5400.2
512.458	5340.09
512.826	5377.6
513.193	5375.56
513.561	5394.77
513.929	5439.29
514.297	5467.54
514.664	5459.4
515.032	5472.51
515.4	5508.22
515.767	5545.96
516.135	5520.42
516.502	5457.14
516.869	5600.64
517.237	5623.02
517.604	5587.08
517.972	5645.61
518.339	5657.59
518.706	5653.98
519.073	5602
519.44	5644.48
519.808	5655.11
520.175	5665.73
520.542	5746.85
520.909	5761.09
521.276	5736.01
521.643	5767.42
522.009	5750.92
522.376	5804.71
522.743	5776.01
523.11	5878.38
523.477	5866.4
523.843	5854.42
524.21	5890.81
524.577	5954.53
524.943	5976.68
525.31	5967.64
525.676	5975.1
526.043	6045.15
526.409	6043.8
526.776	6094.19
527.142	6095.32
527.508	6071.14
527.874	6122.44
528.241	6131.7
528.607	6147.3
528.973	6163.11
529.339	6163.11
529.705	6215.09
530.071	6248.99
530.437	6275.43
530.803	6313.85
531.169	6330.12
531.535	6318.59
531.901	6297.35
532.267	6307.29
532.632	6385.71
532.998	6356.1
533.364	6379.38
533.73	6380.06
534.095	6431.13
534.461	6448.31
534.826	6445.59
535.192	6518.13
535.557	6511.58
535.923	6537.79
536.288	6544.12
536.653	6539.15
537.019	6517.68
537.384	6599.71
537.749	6587.28
538.114	6589.54
538.479	6588.41
538.845	6600.62
539.21	6579.83
539.575	6650.33
539.94	6592.03
540.305	6677.9
540.67	6655.76
541.034	6639.71
541.399	6682.42
541.764	6700.05
542.129	6749.09
542.494	6712.7
542.858	6767.17
543.223	6760.16
543.587	6718.81
543.952	6763.1
544.316	6733.95
544.681	6715.64
545.045	6806.71
545.41	6841.29
545.774	6792.25
546.138	6816.88
546.503	6824.11
546.867	6894.85
547.231	6894.85
547.595	6937.56
547.959	6859.37
548.324	6895.52
548.688	6955.18
549.052	6944.56
549.416	6923.09
549.779	6937.11
550.143	6889.2
550.507	7002.19
550.871	6958.12
551.235	6965.35
551.599	6986.14
551.962	7010.32
552.326	7002.19
552.689	7042.41
553.053	7020.49
553.417	7013.26
553.78	7096.88
554.143	7088.74
554.507	7082.64
554.87	7127.38
555.234	7160.6
555.597	7126.48
555.96	7139.36
556.323	7147.5
556.686	7149.08
557.05	7216.65
557.413	7225.46
557.776	7258
558.139	7194.05
558.502	7266.59
558.865	7250.54
559.228	7269.07
559.59	7298.9
559.953	7347.26
560.316	7416.42
560.679	7349.98
561.041	7450.31
561.404	7467.04
561.767	7509.07
562.129	7450.09
562.492	7567.82
562.854	7471.1
563.217	7474.04
563.579	7519.24
563.941	7617.09
564.304	7576.64
564.666	7593.81
565.028	7613.25
565.39	7637.43
565.753	7678.33
566.115	7700.48
566.477	7688.72
566.839	7746.35
567.201	7807.59
567.563	7829.51
567.925	7819.34
568.287	7796.74
568.648	7858.66
569.01	7824.77
569.372	7942.28
569.734	7927.81
570.095	8029.28
570.457	8037.64
570.819	8086
571.18	8037.64
571.542	8064.99
571.903	8109.5
572.265	8171.42
572.626	8166.45
572.987	8150.41
573.349	8235.38
573.71	8248.26
574.071	8274.92
574.432	8297.75
574.794	8383.17
575.155	8428.59
575.516	8404.86
575.877	8469.95
576.238	8478.76
576.599	8516.05
576.96	8577.74
577.32	8608.93
577.681	8557.4
578.042	8653.9
578.403	8553.33
578.763	8685.31
579.124	8781.8
579.485	8784.97
579.845	8824.51
580.206	8864.74
580.566	8918.75
580.927	8974.34
581.287	8992.42
581.648	9045.98
582.008	9138.86
582.368	9127.33
582.728	9223.37
583.089	9206.88
583.449	9253.43
583.809	9293.2
584.169	9378.62
584.529	9448.23
584.889	9518.05
585.249	9532.74
585.609	9523.48
585.969	9628.33
586.329	9651.16
586.688	9780.87
587.048	9812.96
587.408	9886.86
587.768	9944.94
588.127	9962.79
588.487	10053.41
588.846	10237.58
589.206	10123.69
589.565	10192.39
589.925	10263.57
590.284	10306.28
590.643	10465.37
591.003	10532.27
591.362	10595.31
591.721	10637.12
592.08	10708.31
592.44	10796.89
592.799	10868.08
593.158	10859.26
593.517	11009.99
593.876	11109.2
594.235	11071.69
594.593	11130.67
594.952	11246.37
595.311	11219.7
595.67	11317.1
596.029	11440.72
596.387	11517.55
596.746	11518.45
597.104	11517.78
597.463	11660.82
597.822	11769.75
598.18	11730.65
598.538	11776.3
598.897	11862.4
599.255	11826.24
599.613	12023.53
599.972	11984.43
600.33	12062.85
600.688	12113.47
601.046	12211.09
601.404	12301.26
601.762	12266.46
602.12	12393.69
602.478	12452.44
602.836	12444.98
603.194	12485.66
603.552	12468.03
603.91	12552.78
604.268	12588.03
604.625	12490.18
604.983	12733.34
605.341	12693.34
605.698	12683.4
606.056	12811.3
606.413	12830.06
606.771	12900.79
607.128	12941.24
607.485	12873.22
607.843	12977.17
608.2	13071.41
608.557	13133.1
608.914	13128.81
609.272	13190.73
609.629	13240.44
609.986	13233.44
610.343	13218.75
610.7	13358.63
611.057	13385.52
611.414	13294.23
611.771	13391.85
612.127	13480.89
612.484	13519.98
612.841	13554.11
613.198	13512.75
613.554	13458.29
613.911	13632.3
614.267	13601.11
614.624	13661.9
614.98	13713.2
615.337	13851.05
615.693	13748.23
616.05	13687.66
616.406	13843.59
616.762	13756.14
617.118	13810.15
617.475	13913.87
617.831	13908
618.187	13943.48
618.543	13957.26
618.899	14069.35
619.255	14025.73
619.611	13943.25
619.967	14023.47
620.323	14052.62
620.678	13970.59
621.034	14026.41
621.39	14054.88
621.746	13980.54
622.101	14183.24
622.457	14127.65
622.812	14150.48
623.168	14127.43
623.523	14241.32
623.879	14231.6
624.234	14098.73
624.589	14159.29
624.945	14214.65
625.3	14243.81
625.655	14147.76
626.01	14209.23
626.365	14309.12
626.72	14202.45
627.075	14226.86
627.43	14243.58
627.785	14227.99
628.14	14225.73
628.495	14321.09
628.85	14305.27
629.205	14224.6
629.559	14257.59
629.914	14208.78
630.269	14317.7
630.623	14331.26
630.978	14239.29
631.332	14345.95
631.687	14314.76
632.041	14187.76
632.396	14274.09
632.75	14102.34
633.104	14174.43
633.459	14208.1
633.813	14113.87
634.167	14094.21
634.521	14156.35
634.875	14145.5
635.229	14192.51
635.583	14046.3
635.937	14081.55
636.291	14104.15
636.645	14058.27
636.999	14023.25
637.352	14030.93
637.706	13931.95
638.06	14065.51
638.413	13960.2
638.767	13996.13
639.121	13945.96
639.474	13872.74
639.828	13995
640.181	13939.86
640.534	13921.33
640.888	13902.12
641.241	13849.92
641.594	13841.1
641.947	13991.16
642.301	13901.67
642.654	13919.07
643.007	13889.01
643.36	13854.66
643.713	13906.64
644.066	13906.19
644.419	13799.98
644.771	13748.23
645.124	13630.72
645.477	13621
645.83	13545.52
646.182	13509.81
646.535	13472.98
646.888	13482.7
647.24	13372.42
647.593	13433.43
647.945	13398.18
648.298	13409.93
648.65	13437.5
649.002	13367.22
649.355	13500.77
649.707	13442.25
650.059	13507.1
650.411	13680.66
650.763	13720.66
651.115	13872.06
651.467	13755.23
651.819	13788
652.171	13724.27
652.523	13719.53
652.875	13808.11
653.227	13712.52
653.578	13779.64
653.93	13770.6
654.282	13712.29
654.633	13619.42
654.985	13759.53
655.337	13720.88
655.688	13817.83
656.039	13816.92
656.391	13689.47
656.742	13669.36
657.094	13827.32
657.445	13681.11
657.796	13721.33
658.147	13616.25
658.498	13686.31
658.849	13745.74
659.2	13778.51
659.551	13780.32
659.902	13824.61
660.253	13726.08
660.604	13722.69
660.955	13691.73
661.306	13773.99
661.656	13805.63
662.007	13828
662.358	13761.56
662.708	13832.52
663.059	13775.8
663.409	13731.05
663.76	13785.74
664.11	13810.37
664.461	13879.97
664.811	13851.73
665.161	13813.99
665.511	13755.01
665.862	13888.79
666.212	13833.87
666.562	13885.17
666.912	13881.56
667.262	13860.77
667.612	13860.99
667.962	13863.03
668.312	13889.01
668.662	13949.8
669.011	13781.67
669.361	13877.26
669.711	13886.3
670.06	13770.6
670.41	13802.24
670.76	13794.1
671.109	13826.64
671.459	13837.04
671.808	13791.39
672.157	13826.19
672.507	13762.69
672.856	13728.79
673.205	13732.63
673.554	13852.63
673.904	13708.91
674.253	13826.87
674.602	13713.42
674.951	13554.56
675.3	13417.16
675.649	13646.08
675.998	13717.72
676.346	13550.94
676.695	13643.82
677.044	13627.1
677.393	13668.91
677.741	13603.37
678.09	13612.64
678.438	13582.35
678.787	13604.95
679.135	13589.13
679.484	13508.23
679.832	13553.43
680.181	13428.01
680.529	13475.92
680.877	13423.71
681.225	13395.24
681.573	13467.1
681.922	13426.2
682.27	13338.75
682.618	13364.73
682.966	13257.62
683.314	13371.29
683.661	13341.91
684.009	13245.19
684.357	13196.83
684.705	13205.19
685.053	13162.93
685.4	13216.94
685.748	13116.38
686.095	13001.81
686.443	13084.97
686.79	13011.97
687.138	13056.72
687.485	13031.41
687.832	12985.99
688.18	12946.21
688.527	12894.92
688.874	12871.19
689.221	12848.59
689.568	12829.61
689.915	12730.85
690.262	12769.95
690.609	12655.83
690.956	12633.68
691.303	12625.32
691.65	12651.08
691.997	12624.64
692.344	12417.87
692.69	12485.89
693.037	12402.5
693.383	12363.18
693.73	12433.23
694.077	12327.7
694.423	12309.62
694.769	12284.99
695.116	12205.44
695.462	12173.8
695.808	12098.78
696.155	12179.91
696.501	12053.36
696.847	12019.46
697.193	11899.46
697.539	11994.83
697.885	11799.8
698.231	11846.58
698.577	11857.65
698.923	11808.84
699.269	11782.4
699.614	11678.22
699.96	11671.44
700.306	11626.02
700.651	11587.6
700.997	11480.72
701.342	11488.17
701.688	11453.82
702.033	11429.87
702.379	11405.69
702.724	11280.27
703.069	11311.45
703.415	11181.51
703.76	11200.27
704.105	11222.42
704.45	11113.49
704.795	11041.18
705.14	11020.84
705.485	11000.28
705.83	10973.16
706.175	11016.77
706.52	10916.66
706.865	10899.04
707.209	10923.44
707.554	10880.96
707.899	10837.57
708.243	10818.36
708.588	10702.43
708.932	10685.71
709.277	10678.48
709.621	10669.21
709.966	10639.38
710.31	10605.71
710.654	10518.93
710.998	10523.45
711.342	10560.97
711.687	10525.26
712.031	10496.11
712.375	10453.4
712.719	10504.02
713.063	10454.53
713.407	10466.73
713.75	10367.98
714.094	10407.75
714.438	10325.04
714.782	10405.72
715.125	10334.98
715.469	10338.6
715.812	10164.82
716.156	10217.47
716.499	10261.31
716.843	10140.41
717.186	10134.54
717.53	10229.9
717.873	10242.78
718.216	10195.55
718.559	10122.78
718.902	10067.42
719.246	10137.02
719.589	10020.64
719.932	10040.75
720.275	10044.37
720.617	10020.87
720.96	10008.89
721.303	9958.95
721.646	9972.73
721.989	9972.28
722.331	9994.88
722.674	10001.43
723.016	9920.08
723.359	9939.06
723.701	9909.23
724.044	9866.75
724.386	9868.1
724.729	9919.4
725.071	9909
725.413	9844.83
725.755	9845.5
726.097	9850.48
726.439	9771.38
726.782	9782.45
727.124	9865.84
727.465	9744.72
727.807	9774.09
728.149	9794.21
728.491	9687.54
728.833	9763.25
729.175	9786.07
729.516	9796.24
729.858	9764.83
730.199	9831.72
730.541	9800.53
730.882	9775.68
731.224	9809.35
731.565	9751.5
731.906	9751.95
732.248	9758.5
732.589	9709.24
732.93	9756.69
733.271	9757.6
733.612	9702.46
733.953	9700.65
734.294	9700.2
734.635	9737.03
734.976	9769.57
735.317	9673.98
735.658	9715.56
735.999	9700.65
736.339	9724.38
736.68	9657.03
737.021	9739.52
737.361	9674.43
737.702	9766.86
738.042	9697.03
738.383	9715.79
738.723	9776.58
739.063	9671.72
739.404	9733.64
739.744	9783.81
740.084	9681.67
740.424	9748.56
740.764	9794.43
741.104	9777.26
741.444	9744.26
741.784	9802.57
742.124	9753.53
742.464	9818.16
742.804	9817.03
743.143	9848.44
743.483	9880.08
743.823	9906.29
744.162	9867.42
744.502	9939.96
744.841	9988.55
745.181	10080.07
745.52	9963.92
745.86	10129.11
746.199	10046.85
746.538	10126.63
746.877	10200.52
747.216	10252.27
747.556	10245.95
747.895	10334.53
748.234	10338.37
748.573	10402.55
748.911	10448.2
749.25	10568.2
749.589	10515.09
749.928	10701.75
750.267	10733.16
750.605	10755.76
750.944	10854.74
751.283	10879.83
751.621	10993.5
751.96	11046.6
752.298	11195.52
752.636	11207.5
752.975	11317.56
753.313	11349.19
753.651	11537.44
753.989	11584.67
754.327	11747.83
754.666	11762.06
755.004	11946.69
755.342	12031.44
755.679	12232.11
756.017	12315.27
756.355	12404.31
756.693	12395.27
757.031	12725.43
757.368	12700.12
757.706	12837.52
758.044	13027.57
758.381	13117.06
758.719	13272.08
759.056	13493.77
759.394	13585.29
759.731	13578.06
760.068	13750.71
760.405	13862.35
760.743	13964.72
761.08	14185.28
761.417	14328.1
