Data from hue_190_FLMS001491_00002.txt Node
Date: Tue Feb 07 16:44:42 GMT 2017
User: dcchb
Spectrometer: FLMS00149
Trigger mode: 0
Integration Time (sec): 2.000000E-2
Scans to average: 10
Electric dark correction enabled: true
Nonlinearity correction enabled: false
Boxcar width: 0
XAxis mode: Wavelengths
Number of Pixels in Spectrum: 2048
>>>>>Begin Spectral Data<<<<<
341.393	-10.86
341.776	-10.86
342.16	-10.86
342.543	-56.51
342.927	-71.88
343.31	-65.55
343.693	-77.3
344.077	-68.49
344.46	-69.62
344.843	-56.06
345.226	-38.21
345.61	-34.82
345.993	-20.13
346.376	-9.51
346.759	25.52
347.142	29.59
347.525	36.82
347.908	77.05
348.291	78.63
348.674	88.57
349.057	103.49
349.44	128.8
349.823	136.03
350.206	146.42
350.588	195.69
350.971	213.31
351.354	239.08
351.737	235.23
352.119	233.65
352.502	259.64
352.884	241.79
353.267	281.11
353.65	283.37
354.032	291.5
354.414	304.84
354.797	306.64
355.179	309.36
355.562	305.97
355.944	325.18
356.326	319.53
356.709	354.55
357.091	346.42
357.473	339.64
357.855	346.19
358.238	339.86
358.62	342.58
359.002	350.71
359.384	339.41
359.766	331.28
360.148	346.87
360.53	330.37
360.912	331.5
361.294	317.94
361.676	345.29
362.057	336.47
362.439	322.24
362.821	337.83
363.203	344.61
363.584	319.75
363.966	327.89
364.348	343.03
364.729	303.48
365.111	344.61
365.493	319.53
365.874	314.33
366.256	300.32
366.637	327.89
367.019	323.82
367.4	305.06
367.781	299.64
368.163	315.01
368.544	315.23
368.925	324.95
369.306	329.24
369.688	309.58
370.069	326.76
370.45	303.71
370.831	321.11
371.212	314.78
371.593	314.55
371.974	311.16
372.355	305.97
372.736	313.88
373.117	299.19
373.498	301.45
373.879	284.72
374.26	314.55
374.641	310.03
375.021	300.32
375.402	330.82
375.783	306.19
376.163	323.82
376.544	323.82
376.925	322.01
377.305	304.61
377.686	324.27
378.066	319.3
378.447	307.32
378.827	322.92
379.208	330.6
379.588	327.43
379.968	324.05
380.349	345.29
380.729	330.15
381.109	320.66
381.489	326.08
381.87	329.02
382.25	343.25
382.63	327.66
383.01	338.51
383.39	349.58
383.77	343.93
384.15	349.13
384.53	320.88
384.91	343.25
385.29	340.32
385.67	338.28
386.049	357.04
386.429	329.47
386.809	358.85
387.189	348.45
387.568	326.76
387.948	350.94
388.328	341.45
388.707	356.81
389.087	349.81
389.466	355.46
389.846	366.3
390.225	360.43
390.605	367.43
390.984	350.49
391.363	352.52
391.743	364.72
392.122	361.56
392.501	386.19
392.881	357.26
393.26	381.22
393.639	395.23
394.018	372.63
394.397	389.81
394.776	366.98
395.155	369.47
395.534	398.62
395.913	379.18
396.292	387.09
396.671	372.18
397.05	376.25
397.429	394.33
397.808	382.8
398.186	408.56
398.565	400.2
398.944	402.46
399.323	392.29
399.701	426.42
400.08	393.2
400.458	388.9
400.837	414.21
401.215	402.01
401.594	416.47
401.972	415.34
402.351	407.66
402.729	409.01
403.107	425.06
403.486	429.81
403.864	420.99
404.242	434.32
404.62	429.35
404.999	425.06
405.377	431.39
405.755	436.13
406.133	435
406.511	425.51
406.889	428.9
407.267	452.63
407.645	450.6
408.023	460.09
408.401	477.49
408.779	477.94
409.156	497.6
409.534	481.56
409.912	498.05
410.29	511.84
410.667	512.29
411.045	525.4
411.422	511.38
411.8	530.14
412.178	558.39
412.555	561.55
412.933	571.27
413.31	570.82
413.687	574.21
414.065	597.03
414.442	592.96
414.819	605.17
415.197	604.72
415.574	631.83
415.951	631.61
416.328	615.56
416.705	653.98
417.082	645.62
417.46	649.46
417.837	676.58
418.214	655.56
418.591	683.58
418.967	700.98
419.344	691.72
419.721	682
420.098	704.37
420.475	717.26
420.852	731.72
421.228	737.59
421.605	732.4
421.982	765.16
422.358	790.02
422.735	804.03
423.111	789.8
423.488	815.33
423.864	853.75
424.241	839.96
424.617	847.42
424.994	854.2
425.37	868.66
425.746	908.89
426.123	901.21
426.499	896.23
426.875	938.04
427.251	957.25
427.627	981.65
428.003	963.8
428.379	973.75
428.756	1010.81
429.132	1025.5
429.507	1026.17
429.883	1041.54
430.259	1054.42
430.635	1047.64
431.011	1046.51
431.387	1071.37
431.763	1102.33
432.138	1108.66
432.514	1140.29
432.89	1108.66
433.265	1203.12
433.641	1180.29
434.016	1215.32
434.392	1208.99
434.767	1270.01
435.143	1257.13
435.518	1270.46
435.894	1292.16
436.269	1318.37
436.644	1328.99
437.02	1368.31
437.395	1415.77
437.77	1398.82
438.145	1445.82
438.52	1473.39
438.895	1442.43
439.271	1510
439.646	1533.28
440.021	1555.2
440.395	1574.41
440.77	1559.94
441.145	1594.07
441.52	1634.75
441.895	1653.5
442.27	1698.47
442.645	1676.33
443.019	1709.09
443.394	1732.6
443.769	1718.36
444.143	1700.28
444.518	1791.8
444.892	1764.69
445.267	1771.92
445.641	1815.76
446.016	1809.88
446.39	1829.32
446.764	1895.3
447.139	1838.36
447.513	1908.64
447.887	1892.59
448.262	1881.74
448.636	1899.37
449.01	1943.44
449.384	1974.62
449.758	2011.01
450.132	1990.89
450.506	2014.85
450.88	2058.24
451.254	2030.67
451.628	2058.46
452.002	2094.85
452.376	2114.05
452.75	2114.73
453.123	2157.9
453.497	2210.32
453.871	2200.15
454.244	2227.27
454.618	2309.53
454.992	2279.25
455.365	2311.79
455.739	2324.22
456.112	2371.9
456.486	2364.67
456.859	2392.92
457.232	2443.99
457.606	2471.56
457.979	2484.89
458.352	2543.2
458.725	2554.95
459.099	2599.92
459.472	2649.41
459.845	2676.75
460.218	2686.47
460.591	2711.55
460.964	2730.54
461.337	2792.91
461.71	2786.81
462.083	2851.44
462.456	2829.52
462.829	2864.77
463.201	2951.77
463.574	2964.43
463.947	2995.39
464.32	3081.94
464.692	3062.96
465.065	3064.31
465.438	3156.74
465.81	3186.12
466.183	3223.18
466.555	3319.45
466.928	3323.97
467.3	3323.06
467.672	3350.41
468.045	3461.82
468.417	3498.42
468.789	3512.44
469.161	3584.98
469.534	3655.71
469.906	3686.89
470.278	3730.74
470.65	3756.72
471.022	3841.47
471.394	3902.71
471.766	3941.8
472.138	3948.81
472.51	4080.78
472.882	4135.47
473.253	4154.23
473.625	4275.81
473.997	4338.63
474.369	4302.92
474.74	4410.27
475.112	4535.46
475.484	4588.79
475.855	4657.72
476.227	4695
476.598	4823.81
476.97	4862
477.341	5019.74
477.713	5102.68
478.084	5102.22
478.455	5224.93
478.827	5313.52
479.198	5451.14
479.569	5408.88
479.94	5577.92
480.311	5660.18
480.682	5759.38
481.053	5922.32
481.424	5975.65
481.795	6044.8
482.166	6162.76
482.537	6254.74
482.908	6375.19
483.279	6431.68
483.65	6569.08
484.021	6668.96
484.391	6784.44
484.762	6800.26
485.133	6826.47
485.503	6945.57
485.874	7111.66
486.244	7189.18
486.615	7295.61
486.985	7421.94
487.356	7524.31
487.726	7573.57
488.097	7797.75
488.467	7833.23
488.837	7931.3
489.207	7983.96
489.578	8121.81
489.948	8250.84
490.318	8381.23
490.688	8368.81
491.058	8510.5
491.428	8555.24
491.798	8656.26
492.168	8807.89
492.538	8885.4
492.908	8987.09
493.278	9027.77
493.648	9070.26
494.017	9198.84
494.387	9226.18
494.757	9284.49
495.126	9348.21
495.496	9395.67
495.866	9419.4
496.235	9552.96
496.605	9628.89
496.974	9764.47
497.344	9734.87
497.713	9855.32
498.082	9841.99
498.452	9936.45
498.821	9923.11
499.19	9964.24
499.559	9997.46
499.928	10058.93
500.298	10118.59
500.667	10233.62
501.036	10143.45
501.405	10314.52
501.774	10211.69
502.143	10349.77
502.512	10390.67
502.88	10426.83
503.249	10484
503.618	10420.05
503.987	10573.95
504.356	10631.57
504.724	10625.7
505.093	10547.28
505.462	10640.38
505.83	10630.67
506.199	10708.63
506.567	10834.05
506.936	10720.61
507.304	10861.4
507.672	10844.9
508.041	10799.02
508.409	10836.54
508.777	10924.67
509.145	11025.68
509.514	10948.17
509.882	11049.86
510.25	11036.31
510.618	11025.01
510.986	11028.85
511.354	11095.74
511.722	11124.67
512.09	11158.79
512.458	11152.91
512.826	11117.43
513.193	11170.31
513.561	11206.7
513.929	11268.84
514.297	11244.44
514.664	11293.02
515.032	11328.05
515.4	11363.3
515.767	11289.18
516.135	11312
516.502	11232.68
516.869	11364.88
517.237	11363.08
517.604	11272.91
517.972	11340.25
518.339	11354.94
518.706	11347.48
519.073	11361.27
519.44	11384.77
519.808	11448.5
520.175	11387.48
520.542	11484.2
520.909	11462.28
521.276	11316.52
521.643	11451.89
522.009	11446.01
522.376	11495.73
522.743	11512.9
523.11	11509.74
523.477	11521.04
523.843	11588.16
524.21	11580.92
524.577	11588.38
524.943	11522.62
525.31	11577.08
525.676	11591.09
526.043	11594.94
526.409	11499.34
526.776	11629.06
527.142	11518.1
527.508	11572.11
527.874	11555.16
528.241	11525.56
528.607	11476.29
528.973	11521.26
529.339	11443.3
529.705	11498.67
530.071	11524.65
530.437	11445.33
530.803	11418.44
531.169	11457.76
531.535	11306.36
531.901	11275.85
532.267	11247.37
532.632	11310.87
532.998	11178.9
533.364	11209.86
533.73	11204.21
534.095	11189.3
534.461	11142.29
534.826	11140.03
535.192	11080.37
535.557	11076.76
535.923	10969.41
536.288	10958.57
536.653	10909.08
537.019	10791.57
537.384	10840.38
537.749	10848.29
538.114	10778.69
538.479	10734.39
538.845	10707.73
539.21	10579.14
539.575	10483.1
539.94	10474.51
540.305	10442.88
540.67	10418.69
541.034	10367.85
541.399	10317.91
541.764	10267.74
542.129	10213.05
542.494	10177.12
542.858	10190
543.223	10134.41
543.587	10123.11
543.952	10013.06
544.316	9956.11
544.681	9884.47
545.045	9886.51
545.41	9840.86
545.774	9848.99
546.138	9644.7
546.503	9641.54
546.867	9587.08
547.231	9601.77
547.595	9532.84
547.959	9493.97
548.324	9373.98
548.688	9405.61
549.052	9373.3
549.416	9328.33
549.779	9259.86
550.143	9164.26
550.507	9179.18
550.871	9148.22
551.235	9018.05
551.599	9026.42
551.962	8934.67
552.326	8917.94
552.689	8920.88
553.053	8834.56
553.417	8847.21
553.78	8919.75
554.143	8727.89
554.507	8778.51
554.87	8746.2
555.234	8747.78
555.597	8612.87
555.96	8656.93
556.323	8526.32
556.686	8575.35
557.05	8524.06
557.413	8534
557.776	8503.49
558.139	8481.8
558.502	8425.53
558.865	8415.13
559.228	8358.41
559.59	8426.88
559.953	8375.58
560.316	8372.42
560.679	8349.37
561.041	8367
561.404	8275.25
561.767	8345.3
562.129	8284.51
562.492	8293.55
562.854	8239.77
563.217	8157.06
563.579	8223.72
563.941	8195.25
564.304	8177.4
564.666	8241.13
565.028	8217.62
565.39	8127.23
565.753	8191.41
566.115	8194.8
566.477	8172.88
566.839	8149.6
567.201	8214.01
567.563	8149.83
567.925	8183.5
568.287	8180.11
568.648	8123.39
569.01	8097.4
569.372	8192.76
569.734	8101.47
570.095	8127.91
570.457	8181.69
570.819	8122.48
571.18	8081.58
571.542	8104.86
571.903	8075.93
572.265	8100.11
572.626	8052.43
572.987	8111.19
573.349	8149.83
573.71	8132.2
574.071	8121.13
574.432	8153.9
574.794	8168.13
575.155	8131.52
575.516	8111.41
575.877	8129.94
576.238	8083.39
576.599	8080
576.96	8086.33
577.32	8104.63
577.681	8131.52
578.042	8034.35
578.403	8076.84
578.763	8047.91
579.124	8085.87
579.485	8069.83
579.845	8104.18
580.206	8052.66
580.566	8088.36
580.927	8046.78
581.287	8089.72
581.648	8085.87
582.008	8123.16
582.368	8056.27
582.728	8030.74
583.089	8064.41
583.449	7998.87
583.809	7969.72
584.169	8068.25
584.529	7978.31
584.889	7989.15
585.249	7959.55
585.609	7923.39
585.969	8023.73
586.329	7899.21
586.688	7960.45
587.048	7934.24
587.408	7914.13
587.768	7844.53
588.127	7889.27
588.487	7830.74
588.846	7910.74
589.206	7858.31
589.565	7793
589.925	7838.42
590.284	7836.62
590.643	7800.46
591.003	7789.61
591.362	7812.66
591.721	7814.47
592.08	7862.15
592.44	7764.53
592.799	7777.86
593.158	7840.01
593.517	7802.04
593.876	7790.29
594.235	7758.2
594.593	7726.79
594.952	7776.05
595.311	7696.96
595.67	7698.09
596.029	7708.03
596.387	7707.58
596.746	7734.25
597.104	7690.86
597.463	7649.28
597.822	7734.47
598.18	7651.31
598.538	7717.52
598.897	7667.13
599.255	7673.46
599.613	7686.11
599.972	7654.25
600.33	7666.45
600.688	7636.85
601.046	7665.32
601.404	7695.15
601.762	7671.42
602.12	7689.73
602.478	7639.78
602.836	7628.94
603.194	7639.33
603.552	7623.51
603.91	7543.06
604.268	7635.27
604.625	7609.28
604.983	7615.6
605.341	7551.88
605.698	7622.16
606.056	7613.12
606.413	7567.7
606.771	7657.64
607.128	7622.84
607.485	7591.88
607.843	7574.25
608.2	7675.94
608.557	7629.62
608.914	7618.54
609.272	7614.02
609.629	7592.78
609.986	7641.82
610.343	7564.31
610.7	7640.01
611.057	7641.59
611.414	7695.15
611.771	7673
612.127	7686.11
612.484	7689.5
612.841	7698.54
613.198	7667.81
613.554	7651.08
613.911	7727.47
614.267	7705.55
614.624	7644.3
614.98	7654.7
615.337	7733.79
615.693	7725.66
616.05	7708.48
616.406	7743.29
616.762	7693.79
617.118	7645.43
617.475	7677.75
617.831	7721.14
618.187	7660.8
618.543	7733.79
618.899	7757.3
619.255	7737.41
619.611	7741.25
619.967	7770.4
620.323	7783.96
620.678	7745.09
621.034	7705.77
621.39	7698.31
621.746	7745.32
622.101	7778.54
622.457	7749.84
622.812	7758.43
623.168	7721.59
623.523	7688.82
623.879	7788.26
624.234	7677.07
624.589	7697.18
624.945	7783.06
625.3	7740.8
625.655	7737.41
626.01	7817.63
626.365	7830.74
626.72	7671.2
627.075	7715.26
627.43	7714.36
627.785	7703.74
628.14	7733.12
628.495	7768.14
628.85	7700.12
629.205	7687.24
629.559	7698.99
629.914	7669.39
630.269	7688.82
630.623	7687.92
630.978	7605.66
631.332	7658.09
631.687	7669.39
632.041	7609.05
632.396	7643.4
632.75	7573.8
633.104	7621.48
633.459	7559.56
633.813	7604.98
634.167	7536.06
634.521	7600.01
634.875	7573.35
635.229	7603.18
635.583	7543.74
635.937	7552.56
636.291	7516.17
636.645	7519.79
636.999	7442.28
637.352	7516.17
637.706	7435.72
638.06	7475.27
638.413	7474.37
638.767	7467.81
639.121	7407.7
639.474	7435.72
639.828	7407.02
640.181	7460.35
640.534	7428.72
640.888	7425.1
641.241	7422.84
641.594	7380.13
641.947	7385.1
642.301	7360.92
642.654	7377.42
643.007	7373.13
643.36	7326.57
643.713	7387.81
644.066	7378.1
644.419	7361.15
644.771	7307.82
645.124	7225.56
645.477	7190.76
645.83	7177.2
646.182	7143.07
646.535	7123.87
646.888	7159.35
647.24	7178.78
647.593	7213.58
647.945	7159.35
648.298	7107.82
648.65	7080.03
649.002	7057.88
649.355	7139.91
649.707	7162.51
650.059	7133.36
650.411	7226.01
650.763	7204.99
651.115	7315.05
651.467	7319.12
651.819	7258.1
652.171	7309.4
652.523	7299.23
652.875	7310.75
653.227	7259.91
653.578	7322.28
653.93	7322.05
654.282	7311.43
654.633	7252
654.985	7304.65
655.337	7276.86
655.688	7262.62
656.039	7310.08
656.391	7285.9
656.742	7365.44
657.094	7295.61
657.445	7340.58
657.796	7338.55
658.147	7318.44
658.498	7345.78
658.849	7345.33
659.2	7373.8
659.551	7360.92
659.902	7390.75
660.253	7376.52
660.604	7283.64
660.955	7346.91
661.306	7360.7
661.656	7417.19
662.007	7328.61
662.358	7352.33
662.708	7352.79
663.059	7360.92
663.409	7285.9
663.76	7451.09
664.11	7349.85
664.461	7391.66
664.811	7409.96
665.161	7404.08
665.511	7454.48
665.862	7364.09
666.212	7410.19
666.562	7361.15
666.912	7352.33
667.262	7386.23
667.612	7430.52
667.962	7375.61
668.312	7291.09
668.662	7352.11
669.011	7401.83
669.361	7358.66
669.711	7349.62
670.06	7347.36
670.41	7321.6
670.76	7391.66
671.109	7406.34
671.459	7391.66
671.808	7351.43
672.157	7344.88
672.507	7360.24
672.856	7366.12
673.205	7306.46
673.554	7324.31
673.904	7285.9
674.253	7363.18
674.602	7331.77
674.951	7261.26
675.3	7200.93
675.649	7320.7
675.998	7249.74
676.346	7273.69
676.695	7353.46
677.044	7243.86
677.393	7264.2
677.741	7305.33
678.09	7248.61
678.438	7236.86
678.787	7278.21
679.135	7221.04
679.484	7173.13
679.832	7226.01
680.181	7194.15
680.529	7158.89
680.877	7188.5
681.225	7153.02
681.573	7220.36
681.922	7109.63
682.27	7059.01
682.618	7113.7
682.966	7091.32
683.314	7066.24
683.661	7021.5
684.009	7017.2
684.357	7007.94
684.705	7039.8
685.053	6976.53
685.4	6992.12
685.748	6944.21
686.095	6908.5
686.443	6908.73
686.79	6882.52
687.138	6923.19
687.485	6900.37
687.832	6883.65
688.18	6905.79
688.527	6832.35
688.874	6810.65
689.221	6747.38
689.568	6787.83
689.915	6801.61
690.262	6780.37
690.609	6700.6
690.956	6716.19
691.303	6681.39
691.65	6673.26
691.997	6595.52
692.344	6609.3
692.69	6593.26
693.037	6550.77
693.383	6516.65
693.73	6554.62
694.077	6488.18
694.423	6483.66
694.769	6434.39
695.116	6377.9
695.462	6446.14
695.808	6390.55
696.155	6362.53
696.501	6306.94
696.847	6292.93
697.193	6299.26
697.539	6311.23
697.885	6273.72
698.231	6260.61
698.577	6190.11
698.923	6225.36
699.269	6165.93
699.614	6131.35
699.96	6110.79
700.306	6128.19
700.651	6068.53
700.997	6002.99
701.342	6029.43
701.688	6014.07
702.033	5986.72
702.379	6015.19
702.724	6002.09
703.069	5926.61
703.415	5890.9
703.76	5855.65
704.105	5906.72
704.45	5885.03
704.795	5847.52
705.14	5798.93
705.485	5788.08
705.83	5743.34
706.175	5791.02
706.52	5750.34
706.865	5715.32
707.209	5731.36
707.554	5708.08
707.899	5675.54
708.243	5674.41
708.588	5633.51
708.932	5586.51
709.277	5647.97
709.621	5598.93
709.966	5570.69
710.31	5544.92
710.654	5556
710.998	5543.79
711.342	5543.34
711.687	5519.39
712.031	5520.29
712.375	5487.75
712.719	5504.25
713.063	5531.37
713.407	5463.12
713.75	5432.39
714.094	5447.75
714.438	5430.8
714.782	5453.4
715.125	5442.78
715.469	5398.71
715.812	5383.8
716.156	5350.81
716.499	5368.88
716.843	5326.17
717.186	5326.63
717.53	5354.87
717.873	5343.57
718.216	5350.35
718.559	5310.35
718.902	5256.57
719.246	5341.31
719.589	5246.85
719.932	5289.79
720.275	5294.08
720.617	5238.94
720.96	5234.88
721.303	5288.43
721.646	5293.86
721.989	5225.39
722.331	5249.34
722.674	5273.52
723.016	5272.16
723.359	5246.4
723.701	5235.33
724.044	5182.22
724.386	5195.56
724.729	5204.59
725.071	5203.46
725.413	5152.17
725.755	5193.75
726.097	5210.92
726.439	5170.7
726.782	5171.38
727.124	5221.32
727.465	5188.78
727.807	5200.53
728.149	5168.89
728.491	5182
728.833	5184.71
729.175	5176.12
729.516	5217.48
729.858	5174.31
730.199	5204.37
730.541	5233.97
730.882	5198.72
731.224	5196.91
731.565	5178.61
731.906	5191.04
732.248	5152.39
732.589	5160.98
732.93	5153.75
733.271	5161.88
733.612	5163.01
733.953	5175.44
734.294	5175.67
734.635	5144.26
734.976	5213.41
735.317	5194.65
735.658	5195.33
735.999	5194.88
736.339	5215.22
736.68	5199.4
737.021	5207.76
737.361	5198.49
737.702	5189.68
738.042	5233.52
738.383	5176.8
738.723	5213.18
739.063	5255.21
739.404	5260.41
739.744	5274.2
740.084	5278.49
740.424	5255.21
740.764	5305.61
741.104	5321.65
741.444	5301.54
741.784	5290.47
742.124	5351.03
742.464	5367.98
742.804	5382.9
743.143	5384.25
743.483	5419.5
743.823	5421.54
744.162	5461.09
744.502	5550.35
744.841	5501.31
745.181	5522.78
745.52	5549.67
745.86	5589.44
746.199	5613.4
746.538	5692.94
746.877	5749.89
747.216	5740.85
747.556	5762.32
747.895	5845.03
748.234	5822.43
748.573	5931.81
748.911	5946.72
749.25	6007.74
749.589	6087.96
749.928	6107.4
750.267	6235.53
750.605	6275.3
750.944	6348.29
751.283	6402.3
751.621	6547.61
751.96	6550.55
752.298	6726.36
752.636	6724.1
752.975	6791.45
753.313	6972.01
753.651	7053.59
753.989	7106.24
754.327	7248.61
754.666	7304.2
755.004	7473.01
755.342	7563.4
755.679	7745.54
756.017	7854.24
756.355	7984.41
756.693	8030.06
757.031	8262.59
757.368	8374.68
757.706	8482.47
758.044	8664.39
758.381	8816.03
758.719	9011.27
759.056	9157.03
759.394	9364.03
759.731	9445.16
760.068	9664.14
760.405	9714.98
760.743	9863.46
761.08	10168.76
761.417	10266.61
761.754	10468.41
762.091	10587.05
762.428	10811.68
762.765	10971.22
763.102	11218.45
763.438	11324.21
763.775	11470.19
764.112	11663.63
764.449	11952.89
764.785	12048.71
765.122	12135.71
765.458	12344.52
765.795	12522.82
766.131	12702.48
766.467	12852.53
766.804	13045.74
767.14	13172.52
