Data from hue_200_FLMS001491_00001.txt Node
Date: Tue Feb 07 16:42:43 GMT 2017
User: dcchb
Spectrometer: FLMS00149
Trigger mode: 0
Integration Time (sec): 2.000000E-2
Scans to average: 10
Electric dark correction enabled: true
Nonlinearity correction enabled: false
Boxcar width: 0
XAxis mode: Wavelengths
Number of Pixels in Spectrum: 2048
>>>>>Begin Spectral Data<<<<<
341.393	-14.69
341.776	-14.69
342.16	-14.69
342.543	-45.2
342.927	-57.17
343.31	-73.9
343.693	-68.25
344.077	-68.47
344.46	-68.7
344.843	-53.11
345.226	-21.02
345.61	-33.67
345.993	3.62
346.376	-22.37
346.759	13.78
347.142	18.76
347.525	43.84
347.908	56.04
348.291	54.91
348.674	83.39
349.057	135.14
349.44	116.83
349.823	140.11
350.206	156.83
350.588	206.32
350.971	192.54
351.354	239.99
351.737	230.5
352.119	256.49
352.502	266.89
352.884	246.77
353.267	278.41
353.65	297.62
354.032	308.24
354.414	304.62
354.797	310.73
355.179	308.47
355.562	305.53
355.944	342.59
356.326	347.56
356.709	347.79
357.091	332.19
357.473	349.14
357.855	345.53
358.238	332.19
358.62	330.61
359.002	340.1
359.384	333.78
359.766	337.39
360.148	334.91
360.53	350.27
360.912	346.66
361.294	346.88
361.676	338.52
362.057	326.09
362.439	336.04
362.821	341.46
363.203	318.41
363.584	310.95
363.966	320.22
364.348	345.75
364.729	317.73
365.111	329.93
365.493	319.31
365.874	303.72
366.256	322.93
366.637	325.19
367.019	316.6
367.4	322.93
367.781	327.22
368.163	309.82
368.544	318.64
368.925	315.02
369.306	334.45
369.688	310.5
370.069	323.38
370.45	319.54
370.831	331.06
371.212	326.32
371.593	329.26
371.974	315.47
372.355	338.3
372.736	322.7
373.117	329.71
373.498	329.93
373.879	291.97
374.26	328.35
374.641	309.6
375.021	310.27
375.402	327.68
375.783	323.83
376.163	329.93
376.544	345.98
376.925	325.87
377.305	339.2
377.686	332.19
378.066	314.34
378.447	315.47
378.827	331.97
379.208	341.23
379.588	338.07
379.968	326.32
380.349	339.43
380.729	345.75
381.109	355.24
381.489	331.74
381.87	342.14
382.25	349.14
382.63	353.21
383.01	349.6
383.39	334.45
383.77	361.12
384.15	340.33
384.53	343.04
384.91	359.31
385.29	370.16
385.67	377.39
386.049	359.31
386.429	350.27
386.809	371.97
387.189	355.24
387.568	347.56
387.948	376.26
388.328	381.01
388.707	378.07
389.087	368.58
389.466	375.81
389.846	395.24
390.225	370.39
390.605	392.76
390.984	390.5
391.363	397.28
391.743	383.72
392.122	381.46
392.501	399.99
392.881	366.32
393.26	390.27
393.639	395.7
394.018	392.53
394.397	389.37
394.776	392.98
395.155	407.45
395.534	402.02
395.913	388.46
396.292	396.37
396.671	404.28
397.05	422.59
397.429	428.69
397.808	421.68
398.186	418.75
398.565	435.92
398.944	435.24
399.323	407.22
399.701	418.52
400.08	438.63
400.458	444.06
400.837	434.11
401.215	446.54
401.594	441.12
401.972	451.06
402.351	452.64
402.729	457.62
403.107	450.38
403.486	460.78
403.864	452.64
404.242	454.45
404.62	489.03
404.999	485.64
405.377	496.71
405.755	454.68
406.133	475.92
406.511	483.6
406.889	519.08
407.267	516.82
407.645	527.44
408.023	520.66
408.401	535.13
408.779	529.25
409.156	542.81
409.534	562.25
409.912	550.04
410.29	583.49
410.667	578.06
411.045	569.48
411.422	580.78
411.8	615.35
412.178	608.12
412.555	619.42
412.933	627.33
413.31	641.11
413.687	658.06
414.065	650.15
414.442	677.04
414.819	687.21
415.197	697.83
415.574	703.71
415.951	690.38
416.328	701.45
416.705	706.87
417.082	754.1
417.46	726.08
417.837	743.71
418.214	766.76
418.591	780.77
418.967	769.02
419.344	784.84
419.721	839.07
420.098	817.61
420.475	849.24
420.852	842.46
421.228	886.76
421.605	887.43
421.982	903.93
422.358	909.35
422.735	919.3
423.111	933.76
423.488	956.36
423.864	996.36
424.241	1000.43
424.617	1016.24
424.994	1020.31
425.37	1018.05
425.746	1049.92
426.123	1080.65
426.499	1087.2
426.875	1094.43
427.251	1134.66
427.627	1144.15
428.003	1165.85
428.379	1140.76
428.756	1155.22
429.132	1208.56
429.507	1218.27
429.883	1242.45
430.259	1244.94
430.635	1257.14
431.011	1274.09
431.387	1293.75
431.763	1324.03
432.138	1336.91
432.514	1362.68
432.89	1375.33
433.265	1401.77
433.641	1404.93
434.016	1453.07
434.392	1479.74
434.767	1496.68
435.143	1552.5
435.518	1565.61
435.894	1577.13
436.269	1631.37
436.644	1614.87
437.02	1693.06
437.395	1683.12
437.77	1720.63
438.145	1760.63
438.52	1809.22
438.895	1831.59
439.271	1818.94
439.646	1892.15
440.021	1874.98
440.395	1937.35
440.77	1914.98
441.145	1956.56
441.52	2000.85
441.895	2021.64
442.27	2037.23
442.645	2073.62
443.019	2109.55
443.394	2097.35
443.769	2130.34
444.143	2147.06
444.518	2192.48
444.892	2190.9
445.267	2210.11
445.641	2256.66
446.016	2228.42
446.39	2259.83
446.764	2302.54
447.139	2310
447.513	2350.45
447.887	2378.24
448.262	2374.4
448.636	2406.49
449.01	2435.64
449.384	2451.91
449.758	2454.62
450.132	2509.99
450.506	2510.67
450.88	2514.51
451.254	2535.07
451.628	2567.39
452.002	2606.03
452.376	2613.49
452.75	2628.18
453.123	2669.08
453.497	2705.47
453.871	2718.8
454.244	2759.48
454.618	2812.36
454.992	2853.26
455.365	2835.63
455.739	2924.22
456.112	2935.97
456.486	2942.3
456.859	2976.87
457.232	3044.21
457.606	3047.15
457.979	3109.97
458.352	3147.94
458.725	3190.2
459.099	3197.2
459.472	3291.66
459.845	3284.43
460.218	3309.29
460.591	3357.65
460.964	3360.36
461.337	3453.47
461.71	3484.2
462.083	3550.64
462.456	3561.71
462.829	3592.22
463.201	3666.34
463.574	3655.95
463.947	3726
464.32	3709.51
464.692	3837.41
465.065	3859.79
465.438	3914.93
465.81	3996.51
466.183	4012.55
466.555	4077.63
466.928	4096.16
467.3	4103.17
467.672	4205.31
468.045	4242.6
468.417	4297.97
468.789	4270.85
469.161	4363.5
469.534	4444.85
469.906	4516.27
470.278	4572.31
470.65	4646.66
471.022	4737.28
471.394	4776.15
471.766	4795.35
472.138	4830.83
472.51	4994.67
472.882	5012.3
473.253	5037.38
473.625	5136.59
473.997	5236.25
474.369	5295.45
474.74	5292.74
475.112	5407.77
475.484	5527.99
475.855	5599.4
476.227	5662
476.598	5783.12
476.97	5798.04
477.341	5924.82
477.713	6047.07
478.084	6051.59
478.455	6178.59
478.827	6231.7
479.198	6380.17
479.569	6409.1
479.94	6570
480.311	6642.31
480.682	6775.87
481.053	6902.64
481.424	6958.69
481.795	6995.75
482.166	7102.19
482.537	7158.91
482.908	7423.08
483.279	7504.44
483.65	7584.89
484.021	7690.65
484.391	7743.07
484.762	7867.82
485.133	7888.15
485.503	8029.62
485.874	8221.03
486.244	8268.94
486.615	8411.98
486.985	8468.48
487.356	8620.56
487.726	8654.91
488.097	8792.54
488.467	8838.41
488.837	8969.71
489.207	9053.55
489.578	9170.61
489.948	9288.8
490.318	9391.84
490.688	9317.5
491.058	9524.27
491.428	9620.76
491.798	9705.06
492.168	9834.09
492.538	9879.29
492.908	10027.53
493.278	10056.91
493.648	10077.7
494.017	10219.39
494.387	10309.33
494.757	10351.59
495.126	10373.51
495.496	10470.91
495.866	10587.74
496.235	10627.74
496.605	10784.12
496.974	10717.46
497.344	10839.49
497.713	10854.18
498.082	10894.85
498.452	11000.84
498.821	11018.69
499.19	11011.01
499.559	11079.93
499.928	11185.69
500.298	11189.76
500.667	11248.74
501.036	11238.57
501.405	11361.74
501.774	11353.15
502.143	11437.44
502.512	11496.65
502.88	11472.92
503.249	11526.25
503.618	11602.86
503.987	11573.93
504.356	11623.2
504.724	11647.83
505.093	11681.27
505.462	11732.12
505.83	11801.95
506.199	11860.48
506.567	11988.61
506.936	11942.96
507.304	12108.38
507.672	12048.72
508.041	11978.44
508.409	12118.55
508.777	12206.23
509.145	12190.64
509.514	12231.54
509.882	12224.09
510.25	12286
510.618	12245.55
510.986	12292.33
511.354	12376.17
511.722	12424.76
512.09	12420.46
512.458	12331.88
512.826	12470.63
513.193	12539.78
513.561	12502.5
513.929	12530.07
514.297	12700.23
514.664	12606.67
515.032	12724.41
515.4	12741.81
515.767	12736.61
516.135	12701.59
516.502	12588.14
516.869	12856.16
517.237	12807.8
517.604	12764.18
517.972	12879.66
518.339	12873.11
518.706	12792.66
519.073	12885.31
519.44	12881.92
519.808	12894.58
520.175	12879.21
520.542	13034.01
520.909	12987.23
521.276	12989.71
521.643	13008.92
522.009	13012.99
522.376	13081.01
522.743	13101.58
523.11	13100.9
523.477	13185.87
523.843	13214.57
524.21	13217.28
524.577	13312.42
524.943	13311.74
525.31	13258.18
525.676	13301.8
526.043	13378.41
526.409	13338.86
526.776	13410.49
527.142	13412.53
527.508	13442.81
527.874	13488.46
528.241	13441.45
528.607	13422.92
528.973	13467.44
529.339	13392.19
529.705	13444.62
530.071	13498.18
530.437	13513.09
530.803	13434
531.169	13498.85
531.535	13382.47
531.901	13319.2
532.267	13281.46
532.632	13336.82
532.998	13252.31
533.364	13333.43
533.73	13337.05
534.095	13354.23
534.461	13262.93
534.826	13310.38
535.192	13245.75
535.557	13312.42
535.923	13209.14
536.288	13197.62
536.653	13166.43
537.019	13135.93
537.384	13097.73
537.749	13048.47
538.114	13079.2
538.479	12970.05
538.845	12928.02
539.21	12854.35
539.575	12890.73
539.94	12855.93
540.305	12879.44
540.67	12715.37
541.034	12789.95
541.399	12718.08
541.764	12671.31
542.129	12631.08
542.494	12674.24
542.858	12640.35
543.223	12514.7
543.587	12523.06
543.952	12422.5
544.316	12443.06
544.681	12340.69
545.045	12428.83
545.41	12325.33
545.774	12342.05
546.138	12208.49
546.503	12180.02
546.867	12180.02
547.231	12218.89
547.595	12145.22
547.959	12035.84
548.324	11963.08
548.688	11884.66
549.052	11950.65
549.416	11839.91
549.779	11832.46
550.143	11819.35
550.507	11756.75
550.871	11748.39
551.235	11731.67
551.599	11658.9
551.962	11584.1
552.326	11631.78
552.689	11568.96
553.053	11473.82
553.417	11498.91
553.78	11615.29
554.143	11442.41
554.507	11485.8
554.87	11474.95
555.234	11475.18
555.597	11363.54
555.96	11393.82
556.323	11288.06
556.686	11338.46
557.05	11324
557.413	11292.81
557.776	11284.68
558.139	11342.98
558.502	11249.65
558.865	11230.21
559.228	11290.32
559.59	11186.6
559.953	11209.2
560.316	11224.34
560.679	11190.44
561.041	11269.53
561.404	11196.32
561.767	11288.74
562.129	11129.2
562.492	11191.8
562.854	11131.91
563.217	11156.77
563.579	11158.58
563.941	11164.45
564.304	11204
564.666	11183.43
565.028	11170.33
565.39	11098.01
565.753	11191.34
566.115	11173.72
566.477	11135.53
566.839	11191.12
567.201	11196.09
567.563	11179.82
567.925	11215.98
568.287	11249.2
568.648	11269.31
569.01	11205.58
569.372	11290.32
569.734	11168.97
570.095	11239.93
570.457	11302.53
570.819	11226.6
571.18	11230.67
571.542	11286.03
571.903	11326.93
572.265	11298.69
572.626	11295.3
572.987	11304.79
573.349	11364.67
573.71	11363.32
574.071	11438.34
574.432	11414.16
574.794	11422.07
575.155	11419.36
575.516	11381.62
575.877	11382.98
576.238	11430.21
576.599	11417.78
576.96	11353.15
577.32	11377.55
577.681	11312.92
578.042	11375.29
578.403	11429.53
578.763	11451
579.124	11431.56
579.485	11509.75
579.845	11462.52
580.206	11415.75
580.566	11407.61
580.927	11412.81
581.287	11453.03
581.648	11459.59
582.008	11476.31
582.368	11387.27
582.728	11475.63
583.089	11366.25
583.449	11354.96
583.809	11400.83
584.169	11454.39
584.529	11386.14
584.889	11431.34
585.249	11379.59
585.609	11337.33
585.969	11479.7
586.329	11334.17
586.688	11366.48
587.048	11358.35
587.408	11340.72
587.768	11395.41
588.127	11332.81
588.487	11322.41
588.846	11329.19
589.206	11330.32
589.565	11261.85
589.925	11355.18
590.284	11266.14
590.643	11357.89
591.003	11419.81
591.362	11390.89
591.721	11319.93
592.08	11357.22
592.44	11379.81
592.799	11342.98
593.158	11303.21
593.517	11264.11
593.876	11292.13
594.235	11218.24
594.593	11244
594.952	11330.32
595.311	11243.09
595.67	11265.47
596.029	11361.06
596.387	11351.57
596.746	11375.97
597.104	11299.59
597.463	11154.28
597.822	11249.87
598.18	11182.76
598.538	11199.71
598.897	11323.77
599.255	11189.08
599.613	11292.58
599.972	11284.68
600.33	11253.49
600.688	11257.78
601.046	11298.23
601.404	11290.32
601.762	11244.9
602.12	11340.04
602.478	11306.82
602.836	11273.83
603.194	11293.49
603.552	11237.67
603.91	11248.74
604.268	11236.54
604.625	11213.72
604.983	11254.17
605.341	11160.38
605.698	11213.49
606.056	11280.61
606.413	11295.52
606.771	11297.33
607.128	11329.65
607.485	11205.13
607.843	11214.62
608.2	11262.98
608.557	11345.46
608.914	11312.47
609.272	11304.56
609.629	11331.23
609.986	11366.93
610.343	11336.2
610.7	11362.64
611.057	11353.6
611.414	11337.33
611.771	11287.84
612.127	11355.41
612.484	11349.98
612.841	11371.23
613.198	11306.82
613.554	11408.51
613.911	11478.12
614.267	11425.46
614.624	11400.83
614.98	11482.64
615.337	11442.64
615.693	11404.22
616.05	11446.03
616.406	11451.45
616.762	11451
617.118	11463.88
617.475	11527.38
617.831	11531.45
618.187	11434.05
618.543	11443.77
618.899	11490.32
619.255	11504.33
619.611	11534.16
619.967	11522.18
620.323	11503.65
620.678	11410.32
621.034	11473.6
621.39	11475.86
621.746	11457.33
622.101	11532.8
622.457	11443.09
622.812	11493.71
623.168	11473.37
623.523	11526.02
623.879	11572.35
624.234	11459.59
624.589	11528.74
624.945	11516.99
625.3	11467.95
625.655	11564.22
626.01	11495.06
626.365	11538
626.72	11464.33
627.075	11503.88
627.43	11462.52
627.785	11444.67
628.14	11377.78
628.495	11482.86
628.85	11453.26
629.205	11394.5
629.559	11467.95
629.914	11336.88
630.269	11412.13
630.623	11391.79
630.978	11416.65
631.332	11432.02
631.687	11335.07
632.041	11389.98
632.396	11368.51
632.75	11264.79
633.104	11311.79
633.459	11262.98
633.813	11278.35
634.167	11285.8
634.521	11258.24
634.875	11309.08
635.229	11287.61
635.583	11125.58
635.937	11214.39
636.291	11170.1
636.645	11108.18
636.999	11143.44
637.352	11139.37
637.706	11116.09
638.06	11188.18
638.413	11003.55
638.767	11124.23
639.121	11129.88
639.474	11027.05
639.828	11055.75
640.181	11062.76
640.534	11040.16
640.888	11026.38
641.241	10964.68
641.594	11050.78
641.947	10979.15
642.301	10972.82
642.654	11020.05
643.007	10977.11
643.36	11003.1
643.713	10922.65
644.066	10922.88
644.419	10957.9
644.771	10874.97
645.124	10777.8
645.477	10757.68
645.83	10628.2
646.182	10545.71
646.535	10578.03
646.888	10573.06
647.24	10512.49
647.593	10564.69
647.945	10557.91
648.298	10504.36
648.65	10483.57
649.002	10390.46
649.355	10558.82
649.707	10500.06
650.059	10597.01
650.411	10757.46
650.763	10727.85
651.115	10824.8
651.467	10742.77
651.819	10798.13
652.171	10764.24
652.523	10746.84
652.875	10778.25
653.227	10721.75
653.578	10783.22
653.93	10697.12
654.282	10717.46
654.633	10700.51
654.985	10705.71
655.337	10755.42
655.688	10755.42
656.039	10807.63
656.391	10674.07
656.742	10757.23
657.094	10708.87
657.445	10732.83
657.796	10776.44
658.147	10750
658.498	10778.25
658.849	10721.75
659.2	10748.19
659.551	10674.52
659.902	10753.84
660.253	10691.92
660.604	10869.09
660.955	10694.63
661.306	10749.1
661.656	10789.32
662.007	10798.81
662.358	10727.63
662.708	10796.33
663.059	10810.79
663.409	10728.76
663.76	10805.14
664.11	10822.99
664.461	10778.7
664.811	10804.69
665.161	10769.21
665.511	10777.12
665.862	10739.83
666.212	10801.07
666.562	10836.55
666.912	10844.23
667.262	10800.17
667.612	10774.18
667.962	10743.22
668.312	10800.17
668.662	10787.74
669.011	10783.45
669.361	10779.83
669.711	10776.67
670.06	10695.31
670.41	10764.01
670.76	10677.23
671.109	10803.33
671.459	10746.84
671.808	10754.75
672.157	10735.54
672.507	10678.36
672.856	10667.52
673.205	10730.11
673.554	10711.13
673.904	10591.36
674.253	10742.32
674.602	10594.3
674.951	10560.85
675.3	10385.04
675.649	10611.25
675.998	10570.8
676.346	10666.61
676.695	10695.99
677.044	10546.39
677.393	10585.03
677.741	10574.41
678.09	10607.4
678.438	10517.92
678.787	10489.44
679.135	10541.42
679.484	10487.86
679.832	10474.98
680.181	10427.75
680.529	10497.58
680.877	10490.35
681.225	10442.66
681.573	10473.85
681.922	10365.6
682.27	10326.06
682.618	10350.01
682.966	10315.66
683.314	10322.44
683.661	10325.38
684.009	10205.61
684.357	10230.24
684.705	10211.93
685.053	10194.08
685.4	10163.12
685.748	10117.47
686.095	10142.11
686.443	10074.09
686.79	10060.07
687.138	10105.95
687.485	10142.33
687.832	10052.62
688.18	10072.5
688.527	9924.03
688.874	9947.54
689.221	9949.12
689.568	9868.89
689.915	9800.19
690.262	9868.44
690.609	9810.36
690.956	9811.49
691.303	9804.04
691.65	9677.49
691.997	9633.42
692.344	9745.51
692.69	9644.94
693.037	9582.57
693.383	9554.33
693.73	9560.2
694.077	9455.8
694.423	9467.55
694.769	9374.44
695.116	9387.1
695.462	9391.39
695.808	9322.01
696.155	9393.43
696.501	9262.58
696.847	9265.97
697.193	9177.84
697.539	9230.27
697.885	9117.5
698.231	9078.63
698.577	9048.12
698.923	9034.79
699.269	8985.75
699.614	8941.01
699.96	8960.67
700.306	8852.42
700.651	8856.72
700.997	8857.39
701.342	8818.75
701.688	8773.1
702.033	8737.62
702.379	8736.27
702.724	8635.48
703.069	8668.25
703.415	8621.02
703.76	8636.38
704.105	8687.46
704.45	8584.41
704.795	8527.46
705.14	8496.5
705.485	8498.76
705.83	8449.5
706.175	8492.66
706.52	8414.92
706.865	8356.39
707.209	8349.84
707.554	8316.84
707.899	8325.43
708.243	8307.58
708.588	8234.36
708.932	8232.55
709.277	8212.44
709.621	8174.93
709.966	8128.15
710.31	8200.91
710.654	8070.75
710.998	8067.36
711.342	8088.6
711.687	8011.09
712.031	8026.68
712.375	7980.13
712.719	8032.78
713.063	8038.66
713.407	8034.59
713.75	7985.33
714.094	7917.53
714.438	7884.76
714.782	7915.5
715.125	7921.83
715.469	7917.98
715.812	7896.29
716.156	7841.15
716.499	7843.41
716.843	7819
717.186	7748.95
717.53	7816.97
717.873	7789.17
718.216	7795.95
718.559	7676.63
718.902	7722.73
719.246	7674.6
719.589	7695.84
719.932	7649.29
720.275	7704.43
720.617	7649.06
720.96	7581.27
721.303	7721.6
721.646	7724.77
721.989	7638.22
722.331	7704.66
722.674	7620.59
723.016	7679.35
723.359	7587.6
723.701	7568.61
724.044	7543.53
724.386	7516.41
724.729	7579.69
725.071	7535.17
725.413	7547.15
725.755	7533.14
726.097	7541.04
726.439	7509.63
726.782	7514.38
727.124	7494.04
727.465	7469.63
727.807	7466.24
728.149	7508.05
728.491	7450.65
728.833	7434.61
729.175	7457.43
729.516	7501.95
729.858	7442.97
730.199	7454.27
730.541	7414.27
730.882	7430.09
731.224	7464.44
731.565	7405.46
731.906	7466.92
732.248	7411.33
732.589	7437.09
732.93	7437.77
733.271	7443.19
733.612	7354.16
733.953	7474.38
734.294	7471.89
734.635	7435.06
734.976	7459.69
735.317	7438.45
735.658	7388.05
735.999	7417.88
736.339	7518.22
736.68	7523.64
737.021	7470.54
737.361	7449.75
737.702	7437.77
738.042	7462.18
738.383	7474.15
738.723	7528.39
739.063	7517.54
739.404	7498.11
739.744	7555.96
740.084	7512.8
740.424	7532.91
740.764	7513.93
741.104	7643.64
741.444	7565.68
741.784	7538.78
742.124	7582.4
742.464	7561.84
742.804	7598.22
743.143	7582.4
743.483	7656.3
743.823	7666.24
744.162	7720.25
744.502	7752.11
744.841	7775.61
745.181	7794.37
745.52	7790.98
745.86	7863.97
746.199	7923.41
746.538	7927.48
746.877	7983.74
747.216	8051.54
747.556	8057.19
747.895	8127.92
748.234	8089.05
748.573	8241.59
748.911	8204.08
749.25	8285.21
749.589	8409.27
749.928	8383.06
750.267	8538.08
750.605	8536.95
750.944	8650.85
751.283	8693.56
751.621	8807.68
751.96	8833.44
752.298	8923.38
752.636	9026.88
752.975	9110.95
753.313	9237.72
753.651	9386.42
753.989	9416.93
754.327	9603.59
754.666	9651.27
755.004	9752.29
755.342	9980.53
755.679	10060.98
756.017	10136
756.355	10323.8
756.693	10488.99
757.031	10564.02
757.368	10743.45
757.706	10907.28
758.044	11004.46
