Data from hue_28_FLMS001491_00099.txt Node
Date: Tue Feb 07 17:18:05 GMT 2017
User: dcchb
Spectrometer: FLMS00149
Trigger mode: 0
Integration Time (sec): 2.000000E-2
Scans to average: 10
Electric dark correction enabled: true
Nonlinearity correction enabled: false
Boxcar width: 0
XAxis mode: Wavelengths
Number of Pixels in Spectrum: 2048
>>>>>Begin Spectral Data<<<<<
341.393	-39.96
341.776	-39.96
342.16	-39.96
342.543	-74.76
342.927	-75.66
343.31	-91.25
343.693	-66.4
344.077	-68.2
344.46	-65.72
344.843	-63.91
345.226	-32.95
345.61	-43.8
345.993	-9.9
346.376	11.34
346.759	8.18
347.142	26.03
347.525	48.18
347.908	60.15
348.291	66.03
348.674	110.55
349.057	111.68
349.44	111.9
349.823	133.37
350.206	170.43
350.588	199.13
350.971	215.63
351.354	216.99
351.737	233.48
352.119	247.04
352.502	247.95
352.884	267.38
353.267	262.41
353.65	294.72
354.032	293.14
354.414	305.35
354.797	300.6
355.179	336.3
355.562	324.33
355.944	346.47
356.326	324.55
356.709	328.4
357.091	330.43
357.473	334.5
357.855	339.69
358.238	335.17
358.62	325.46
359.002	318.23
359.384	325.01
359.766	325.01
360.148	346.7
360.53	335.17
360.912	327.04
361.294	328.62
361.676	338.56
362.057	336.08
362.439	309.64
362.821	313.71
363.203	308.73
363.584	333.37
363.966	332.69
364.348	324.33
364.729	311.9
365.111	302.41
365.493	337.43
365.874	320.94
366.256	320.49
366.637	313.03
367.019	329.53
367.4	298.11
367.781	302.63
368.163	294.72
368.544	307.38
368.925	311.22
369.306	337.43
369.688	321.84
370.069	339.69
370.45	288.85
370.831	307.38
371.212	297.44
371.593	320.71
371.974	325.23
372.355	320.03
372.736	314.84
373.117	324.78
373.498	310.09
373.879	317.32
374.26	320.03
374.641	319.13
375.021	298.79
375.402	324.55
375.783	316.19
376.163	334.5
376.544	325.46
376.925	303.09
377.305	308.28
377.686	317.55
378.066	321.39
378.447	323.65
378.827	313.93
379.208	310.09
379.588	313.93
379.968	326.59
380.349	325.23
380.729	312.35
381.109	331.33
381.489	326.81
381.87	338.11
382.25	322.07
382.63	344.67
383.01	355.74
383.39	344.44
383.77	329.07
384.15	343.31
384.53	342.18
384.91	329.53
385.29	354.38
385.67	364.33
386.049	347.38
386.429	350.99
386.809	355.29
387.189	336.76
387.568	320.49
387.948	354.16
388.328	338.56
388.707	344.21
389.087	355.06
389.466	343.31
389.846	367.72
390.225	360.71
390.605	353.71
390.984	359.13
391.363	360.71
391.743	360.48
392.122	374.04
392.501	364.55
392.881	371.56
393.26	359.35
393.639	370.88
394.018	378.79
394.397	370.88
394.776	377.21
395.155	373.82
395.534	360.94
395.913	345.12
396.292	359.13
396.671	399.13
397.05	380.82
397.429	383.31
397.808	376.76
398.186	380.15
398.565	386.7
398.944	353.48
399.323	386.92
399.701	401.84
400.08	398.68
400.458	379.24
400.837	382.18
401.215	396.64
401.594	401.61
401.972	389.18
402.351	382.86
402.729	400.26
403.107	398.68
403.486	407.72
403.864	403.2
404.242	401.84
404.62	414.72
404.999	405.23
405.377	420.37
405.755	398.9
406.133	409.75
406.511	412.01
406.889	451.78
407.267	424.66
407.645	428.96
408.023	419.24
408.401	424.89
408.779	409.07
409.156	430.99
409.534	443.65
409.912	442.29
410.29	439.58
410.667	431.9
411.045	413.59
411.422	453.82
411.8	476.41
412.178	444.1
412.555	465.11
412.933	470.31
413.31	459.01
413.687	454.72
414.065	462.86
414.442	465.57
414.819	478
415.197	470.09
415.574	484.55
415.951	479.8
416.328	476.87
416.705	494.27
417.082	493.59
417.46	493.59
417.837	508.28
418.214	492.46
418.591	485.45
418.967	500.37
419.344	502.85
419.721	501.95
420.098	510.09
420.475	500.59
420.852	532.91
421.228	518.22
421.605	520.25
421.982	529.29
422.358	529.97
422.735	524.55
423.111	535.85
423.488	560.48
423.864	531.55
424.241	563.19
424.617	541.05
424.994	548.5
425.37	555.28
425.746	564.55
426.123	568.61
426.499	580.59
426.875	575.85
427.251	583.76
427.627	557.32
428.003	592.8
428.379	592.34
428.756	593.47
429.132	590.54
429.507	607.48
429.883	596.86
430.259	640.48
430.635	602.96
431.011	617.2
431.387	616.75
431.763	644.32
432.138	624.43
432.514	642.06
432.89	647.71
433.265	649.74
433.641	646.58
434.016	654.94
434.392	671.89
434.767	689.29
435.143	678.44
435.518	689.06
435.894	681.38
436.269	680.02
436.644	700.59
437.02	715.96
437.395	718.22
437.77	710.76
438.145	712.11
438.52	727.48
438.895	725
439.271	746.24
439.646	732
440.021	740.59
440.395	744.43
440.77	759.8
441.145	759.57
441.52	767.93
441.895	747.59
442.27	771.55
442.645	746.24
443.019	788.5
443.394	763.86
443.769	791.43
444.143	792.11
444.518	788.04
444.892	774.03
445.267	803.41
445.641	799.8
446.016	817.42
446.39	813.81
446.764	813.35
447.139	817.42
447.513	822.85
447.887	846.57
448.262	844.99
448.636	836.63
449.01	835.05
449.384	835.27
449.758	843.41
450.132	854.71
450.506	864.88
450.88	860.58
451.254	882.51
451.628	901.71
452.002	876.4
452.376	903.07
452.75	884.76
453.123	903.3
453.497	915.72
453.871	914.82
454.244	929.74
454.618	947.81
454.992	939.68
455.365	946.01
455.739	978.1
456.112	972.9
456.486	981.26
456.859	1000.02
457.232	1039.34
457.606	995.04
457.979	1020.58
458.352	1039.34
458.725	1066
459.099	1046.79
459.472	1088.15
459.845	1072.78
460.218	1073.46
460.591	1114.82
460.964	1115.27
461.337	1112.56
461.71	1151.2
462.083	1143.29
462.456	1150.07
462.829	1203.17
463.201	1163.4
463.574	1198.2
463.947	1192.78
464.32	1196.62
464.692	1232.1
465.065	1260.8
465.438	1240.24
465.81	1265.32
466.183	1308.71
466.555	1301.7
466.928	1301.25
467.3	1336.05
467.672	1326.56
468.045	1366.33
468.417	1388.93
468.789	1403.85
469.161	1425.99
469.534	1419.89
469.906	1437.07
470.278	1476.61
470.65	1483.39
471.022	1519.55
471.394	1550.06
471.766	1573.56
472.138	1561.13
472.51	1595.25
472.882	1656.5
473.253	1652.2
473.625	1677.96
473.997	1748.02
474.369	1745.08
474.74	1777.17
475.112	1795.02
475.484	1809.94
475.855	1832.76
476.227	1862.59
476.598	1950.27
476.97	1943.95
477.341	1988.69
477.713	2048.58
478.084	2087.45
478.455	2085.86
478.827	2143.04
479.198	2219.42
479.569	2214.45
479.94	2289.93
480.311	2310.49
480.682	2401.34
481.053	2453.09
481.424	2459.86
481.795	2507.1
482.166	2554.33
482.537	2548
482.908	2654.21
483.279	2652.18
483.65	2765.39
484.021	2816.24
484.391	2810.59
484.762	2875.22
485.133	2929.68
485.503	2947.31
485.874	3059.62
486.244	3081.77
486.615	3150.24
486.985	3230.69
487.356	3275.44
487.726	3322.21
488.097	3430.46
488.467	3471.82
488.837	3525.6
489.207	3578.25
489.578	3644.01
489.948	3694.86
490.318	3720.62
490.688	3729.66
491.058	3841.52
491.428	3894.86
491.798	3945.25
492.168	4024.12
492.538	4010.11
492.908	4138.24
493.278	4166.26
493.648	4178.69
494.017	4284.68
494.387	4331
494.757	4394.96
495.126	4448.51
495.496	4464.78
495.866	4553.82
496.235	4589.75
496.605	4585.01
496.974	4681.5
497.344	4729.41
497.713	4773.7
498.082	4806.47
498.452	4839.69
498.821	4880.59
499.19	4915.39
499.559	4966.47
499.928	5002.4
500.298	5063.41
500.667	5094.6
501.036	5082.39
501.405	5120.13
501.774	5196.29
502.143	5234.26
502.512	5251.66
502.88	5284.2
503.249	5313.12
503.618	5365.33
503.987	5396.74
504.356	5386.34
504.724	5472.89
505.093	5478.99
505.462	5515.38
505.83	5555.83
506.199	5609.61
506.567	5683.51
506.936	5661.14
507.304	5742.72
507.672	5753.79
508.041	5767.35
508.409	5827.01
508.777	5860.91
509.145	5912.2
509.514	5927.8
509.882	5947.91
510.25	5961.47
510.618	6050.5
510.986	6018.64
511.354	6086.44
511.722	6095.48
512.09	6138.19
512.458	6116.94
512.826	6231.74
513.193	6202.82
513.561	6231.06
513.929	6265.87
514.297	6345.64
514.664	6338.86
515.032	6351.97
515.4	6405.52
515.767	6444.84
516.135	6424.73
516.502	6448.91
516.869	6525.97
517.237	6552.86
517.604	6604.61
517.972	6619.3
518.339	6605.07
518.706	6648.23
519.073	6707.89
519.44	6648.68
519.808	6795.12
520.175	6780.66
520.542	6801.9
520.909	6873.76
521.276	6807.1
521.643	6869.24
522.009	6971.84
522.376	6991.95
522.743	7052.29
523.11	7035.56
523.477	7136.35
523.843	7097.93
524.21	7190.81
524.577	7265.84
524.943	7296.8
525.31	7304.03
525.676	7322.11
526.043	7353.3
526.409	7373.18
526.776	7477.13
527.142	7505.38
527.508	7544.93
527.874	7633.29
528.241	7678.94
528.607	7659.95
528.973	7762.55
529.339	7685.94
529.705	7843.9
530.071	7887.74
530.437	7836.22
530.803	7932.49
531.169	7986.73
531.535	8011.36
531.901	8002.54
532.267	8002.32
532.632	8123.9
532.998	8121.86
533.364	8129.77
533.73	8184.91
534.095	8280.5
534.461	8308.98
534.826	8384.45
535.192	8358.01
535.557	8399.82
535.923	8395.08
536.288	8462.19
536.653	8427.17
537.019	8449.99
537.384	8587.16
537.749	8553.49
538.114	8550.33
538.479	8611.57
538.845	8660.61
539.21	8606.37
539.575	8654.96
539.94	8802.07
540.305	8758.91
540.67	8741.06
541.034	8860.37
541.399	8845.91
541.764	8958.45
542.129	8976.98
542.494	9021.5
542.858	9004.33
543.223	9042.74
543.587	9132.46
543.952	9138.56
544.316	9204.09
544.681	9227.6
545.045	9255.62
545.41	9298.1
545.774	9235.73
546.138	9287.48
546.503	9310.08
546.867	9349.4
547.231	9526.57
547.595	9442.51
547.959	9519.34
548.324	9519.57
548.688	9607.25
549.052	9629.17
549.416	9671.43
549.779	9671.65
550.143	9677.53
550.507	9675.04
550.871	9765.44
551.235	9713.01
551.599	9835.04
551.962	9804.98
552.326	9882.72
552.689	9945.77
553.053	9806.79
553.417	9958.65
553.78	10034.58
554.143	10020.8
554.507	10047.91
554.87	10043.85
555.234	10141.7
555.597	10139.44
555.96	10205.88
556.323	10209.72
556.686	10174.01
557.05	10322.03
557.413	10330.62
557.776	10365.19
558.139	10438.64
558.502	10477.96
558.865	10441.12
559.228	10490.39
559.59	10534.45
559.953	10575.81
560.316	10702.36
560.679	10601.35
561.041	10739.2
561.404	10735.13
561.767	10814
562.129	10725.86
562.492	10862.81
562.854	10840.21
563.217	10852.86
563.579	10914.78
563.941	10919.76
564.304	11069.36
564.666	11029.58
565.028	11018.96
565.39	11112.29
565.753	11176.25
566.115	11180.31
566.477	11239.07
566.839	11215.57
567.201	11340.08
567.563	11407.65
567.925	11442.91
568.287	11440.19
568.648	11519.29
569.01	11461.21
569.372	11636.57
569.734	11619.85
570.095	11672.28
570.457	11720.64
570.819	11865.04
571.18	11823.46
571.542	11910.24
571.903	11931.48
572.265	12001.53
572.626	12045.83
572.987	12036.11
573.349	12187.74
573.71	12189.78
574.071	12258.25
574.432	12258.93
574.794	12573.72
575.155	12444.69
575.516	12466.16
575.877	12600.84
576.238	12647.17
576.599	12749.99
576.96	12830.21
577.32	13006.93
577.681	13024.56
578.042	13213.71
578.403	13198.34
578.763	13355.85
579.124	13465.23
579.485	13592.23
579.845	13738.89
580.206	13800.81
580.566	13872.22
580.927	14070.86
581.287	14259.55
581.648	14415.71
582.008	14584.29
582.368	14598.75
582.728	14860.44
583.089	14928.24
583.449	15010.5
583.809	15407.09
584.169	15495.23
584.529	15745.17
584.889	16021.09
585.249	16106.74
585.609	16200.52
585.969	16503.79
586.329	16690
586.688	16989.43
587.048	17169.99
587.408	17487.27
587.768	17666.7
588.127	17889.52
588.487	18151.66
588.846	18452.66
589.206	18592.1
589.565	18894.69
589.925	19225.3
590.284	19437.95
590.643	19650.6
591.003	20030.7
591.362	20283.35
591.721	20552.95
592.08	20894.18
592.44	21064.57
592.799	21408.07
593.158	21716.08
593.517	21861.39
593.876	22356.97
594.235	22406.46
594.593	22829.05
594.952	23131.64
595.311	23445.3
595.67	23724.39
596.029	24146.3
596.387	24428.78
596.746	24803.01
597.104	24964.13
597.463	25215.2
597.822	25643.44
598.18	25865.8
598.538	26010.88
598.897	26557.08
599.255	26571.77
599.613	27228.93
599.972	27315.71
600.33	27701.69
600.688	27853.32
601.046	28224.16
601.404	28468.45
601.762	28875.44
602.12	29084.25
602.478	29442.88
602.836	29512.03
603.194	29780.73
603.552	30138.01
603.91	30176.88
604.268	30627.49
604.625	30784.09
604.983	31124.42
605.341	31228.15
605.698	31597.18
606.056	31939.54
606.413	32178.86
606.771	32446.42
607.128	32589.47
607.485	32805.96
607.843	32991.94
608.2	33399.39
608.557	33723.68
608.914	33688.65
609.272	34012.93
609.629	34391.68
609.986	34556.42
610.343	34501.73
610.7	35077.31
611.057	35123.19
611.414	35397.53
611.771	35456.29
612.127	35738.54
612.484	35866.44
612.841	36265.08
613.198	36273.44
613.554	36466.88
613.911	36831.84
614.267	36871.62
614.624	37063.93
614.98	37100.54
615.337	37495.78
615.693	37564.25
616.05	37617.13
616.406	37991.59
616.762	38015.99
617.118	38210.79
617.475	38248.08
617.831	38537.79
618.187	38550.67
618.543	38713.6
618.899	38951.33
619.255	39016.42
619.611	39050.09
619.967	39403.98
620.323	39474.48
620.678	39444.2
621.034	39468.16
621.39	39625.44
621.746	39612.11
622.101	40096.84
622.457	39841.25
622.812	40100
623.168	40248.93
623.523	40307.68
623.879	40486.66
624.234	40324.86
624.589	40460.22
624.945	40569.6
625.3	40806.43
625.655	40810.49
626.01	40814.79
626.365	40980.66
626.72	41035.8
627.075	41127.77
627.43	41082.58
627.785	40999.42
628.14	41297.26
628.495	41261.33
628.85	41350.82
629.205	41164.16
629.559	41464.04
629.914	41342.23
630.269	41406.19
630.623	41434.21
630.978	41331.16
631.332	41628.78
631.687	41798.94
632.041	41552.4
632.396	41679.62
632.75	41625.39
633.104	41735.67
633.459	41622.45
633.813	41567.54
634.167	41601.89
634.521	41611.83
634.875	41768.21
635.229	41596.91
635.583	41598.72
635.937	41557.37
636.291	41630.36
636.645	41596.91
636.999	41683.69
637.352	41789.9
637.706	41542
638.06	41710.36
638.413	41628.78
638.767	41587.88
639.121	41639.4
639.474	41429.91
639.828	41551.27
640.181	41661.09
640.534	41603.47
640.888	41580.19
641.241	41370.93
641.594	41323.25
641.947	41720.08
642.301	41469.91
642.654	41466.07
643.007	41600.76
643.36	41399.63
643.713	41504.26
644.066	41634.2
644.419	41237.83
644.771	41053.65
645.124	40704.51
645.477	40754
645.83	40495.7
646.182	40217.97
646.535	40359.43
646.888	40438.75
647.24	40139.55
647.593	40395.82
647.945	40357.85
648.298	40051.42
648.65	40163.96
649.002	40047.35
649.355	40267.01
649.707	40085.09
650.059	40347.91
650.411	40852.3
650.763	40790.38
651.115	41244.83
651.467	41110.6
651.819	41091.84
652.171	41146.08
652.523	40918.74
652.875	40973.88
653.227	40764.39
653.578	41047.78
653.93	41099.75
654.282	40739.76
654.633	40690.05
654.985	40810.49
655.337	40833.54
655.688	40888.46
656.039	40853.66
656.391	40730.72
656.742	40743.38
657.094	40734.79
657.445	41024.73
657.796	40920.1
658.147	40699.99
658.498	40805.98
658.849	40815.01
659.2	40667.67
659.551	40608.24
659.902	40755.35
660.253	40799.65
660.604	40819.76
660.955	40580.44
661.306	40725.53
661.656	40628.35
662.007	40748.12
662.358	40712.42
662.708	40611.86
663.059	40757.61
663.409	40386.78
663.76	40761.23
664.11	40793.32
664.461	40764.17
664.811	40822.47
665.161	40840.32
665.511	40540.45
665.862	40795.81
666.212	40709.03
666.562	40624.74
666.912	40605.75
667.262	40601.23
667.612	40600.56
667.962	40669.26
668.312	40532.31
668.662	40706.77
669.011	40591.52
669.361	40645.53
669.711	40448.24
670.06	40541.8
670.41	40378.87
670.76	40335.25
671.109	40666.32
671.459	40450.73
671.808	40377.74
672.157	40558.52
672.507	40189.04
672.856	40338.42
673.205	40389.49
673.554	40445.53
673.904	40219.78
674.253	40456.15
674.602	40422.26
674.951	39742.05
675.3	39592.45
675.649	40162.38
675.998	40313.33
676.346	40234.92
676.695	40414.8
677.044	40029.5
677.393	40228.14
677.741	40069.05
678.09	40209.61
678.438	40145.43
678.787	40072.89
679.135	40215.03
679.484	39698.43
679.832	40009.61
680.181	39642.84
680.529	39930.74
680.877	39853.01
681.225	39838.32
681.573	40054.36
681.922	39709.96
682.27	39617.31
682.618	39680.35
682.966	39495.5
683.314	39751.31
683.661	39528.95
684.009	39328.05
684.357	39290.53
684.705	39197.66
685.053	39238.78
685.4	39243.3
685.748	38953.82
686.095	39012.8
686.443	38868.85
686.79	38894.84
687.138	38973.48
687.485	38752.92
687.832	38653.49
688.18	38731.68
688.527	38559.25
688.874	38514.51
689.221	38393.38
689.568	38247.4
689.915	38238.58
690.262	38478.8
690.609	38140.28
690.956	37960.85
691.303	38253.05
691.65	37643.12
691.997	37829.33
692.344	37610.8
692.69	37669.79
693.037	37625.49
693.383	37350.7
693.73	37443.58
694.077	37257.14
694.423	37376.46
694.769	37227.54
695.116	37077.71
695.462	37127.2
695.808	36842.46
696.155	37039.75
696.501	36745.06
696.847	36700.32
697.193	36546.88
697.539	36624.39
697.885	36321.8
698.231	36241.8
698.577	36204.51
698.923	36290.84
699.269	36045.65
699.614	35946.67
699.96	35844.07
700.306	35856.27
700.651	35709.39
700.997	35525.21
701.342	35540.12
701.688	35508.71
702.033	35360.47
702.379	35295.84
702.724	35201.83
703.069	35364.31
703.415	34967.71
703.76	34940.59
704.105	35036.64
704.45	35029.4
704.795	34583.77
705.14	34608.85
705.485	34439.59
705.83	34498.12
706.175	34460.15
706.52	34272.36
706.865	34317.78
707.209	34149.43
707.554	33984.91
707.899	33992.82
708.243	34001.41
708.588	33915.31
708.932	33693.39
709.277	33820.17
709.621	33771.13
709.966	33586.73
710.31	33635.77
710.654	33152.39
710.998	33379.5
711.342	33277.36
711.687	33107.42
712.031	33068.33
712.375	33065.16
712.719	33057.48
713.063	32995.78
713.407	33136.12
713.75	32828.11
714.094	32857.03
714.438	32757.15
714.782	32798.5
715.125	32575.91
715.469	32613.87
715.812	32590.6
716.156	32382.02
716.499	32387.67
716.843	32410.49
717.186	32225.64
717.53	32350.38
717.873	32334.56
718.216	32133.43
718.559	32022.93
718.902	31859.09
719.246	31959.65
719.589	31873.33
719.932	31689.83
720.275	31684.86
720.617	31617.97
720.96	31655.26
721.303	31590.4
721.646	31653
721.989	31427.69
722.331	31514.47
722.674	31436.96
723.016	31356.96
723.359	31498.42
723.701	31359.67
724.044	31148.38
724.386	31160.13
724.729	31186.12
725.071	31032.22
725.413	31113.35
725.755	31046.01
726.097	30824.77
726.439	30791.55
726.782	30800.36
727.124	30832.68
727.465	30676.52
727.807	30650.99
728.149	30554.72
728.491	30520.14
728.833	30567.37
729.175	30420.26
729.516	30336.19
729.858	30351.79
730.199	30433.59
730.541	30360.15
730.882	30253.94
731.224	30350.88
731.565	30164
731.906	30244.9
732.248	30172.81
732.589	30034.51
732.93	29986.82
733.271	29988.86
733.612	30033.6
733.953	29892.59
734.294	29759.94
734.635	29736.89
734.976	29831.8
735.317	29734.63
735.658	29655.31
735.999	29637.23
736.339	29556.78
736.68	29624.35
737.021	29554.07
737.361	29433.39
737.702	29622.54
738.042	29425.71
738.383	29358.59
738.723	29337.58
739.063	29207.41
739.404	29336.67
739.744	29327.63
740.084	29158.37
740.424	29205.15
740.764	29055.1
741.104	29302.77
741.444	29039.5
741.784	29043.57
742.124	29012.84
742.464	28914.76
742.804	28894.65
743.143	28773.75
743.483	28825.27
743.823	28760.64
744.162	28625.96
744.502	28655.56
744.841	28558.39
745.181	28726.07
745.52	28647.42
745.86	28613.75
746.199	28479.07
746.538	28353.65
746.877	28519.29
747.216	28501.44
747.556	28357.49
747.895	28341.44
748.234	28322.46
748.573	28305.51
748.911	28093.99
749.25	28282.46
749.589	27957.95
749.928	28062.13
750.267	28082.24
750.605	27942.81
750.944	27941.45
751.283	27820.55
751.621	27949.14
751.96	27757.73
752.298	27812.42
752.636	27829.59
752.975	27570.39
753.313	27615.36
753.651	27643.38
753.989	27545.53
754.327	27494.91
754.666	27426.89
755.004	27270.06
755.342	27430.51
755.679	27276.16
756.017	27211.98
756.355	27308.48
756.693	27078.43
757.031	27229.16
757.368	26891.76
757.706	26928.6
758.044	26938.77
758.381	26951.2
758.719	26744.65
759.056	26794.37
759.394	26707.81
