Data from hue_36_FLMS001491_00034.txt Node
Date: Tue Feb 07 17:29:43 GMT 2017
User: dcchb
Spectrometer: FLMS00149
Trigger mode: 0
Integration Time (sec): 2.000000E-2
Scans to average: 10
Electric dark correction enabled: true
Nonlinearity correction enabled: false
Boxcar width: 0
XAxis mode: Wavelengths
Number of Pixels in Spectrum: 2048
>>>>>Begin Spectral Data<<<<<
341.393	-17.87
341.776	-17.87
342.16	-17.87
342.543	-63.74
342.927	-76.4
343.31	-48.83
343.693	-62.16
344.077	-67.36
344.46	-59.67
344.843	-57.64
345.226	-50.86
345.61	-36.4
345.993	-25.55
346.376	-5.66
346.759	-2.27
347.142	15.35
347.525	35.92
347.908	52.64
348.291	93.99
348.674	97.84
349.057	120.66
349.44	125.86
349.823	172.41
350.206	157.5
350.588	188.68
350.971	195.46
351.354	216.48
351.737	239.98
352.119	242.92
352.502	267.1
352.884	270.71
353.267	267.55
353.65	286.76
354.032	308.45
354.414	306.87
354.797	329.47
355.179	299.86
355.562	333.76
355.944	333.99
356.326	336.93
356.709	343.48
357.091	336.7
357.473	342.35
357.855	341.45
358.238	334.89
358.62	325.18
359.002	354.33
359.384	342.12
359.766	350.94
360.148	334.21
360.53	327.21
360.912	346.64
361.294	346.19
361.676	312.07
362.057	344.16
362.439	331.95
362.821	325.4
363.203	328.34
363.584	349.36
363.966	342.8
364.348	319.07
364.729	317.72
365.111	322.01
365.493	333.08
365.874	306.87
366.256	325.63
366.637	337.15
367.019	296.48
367.4	318.85
367.781	315.01
368.163	294.67
368.544	321.56
368.925	303.25
369.306	337.38
369.688	315.23
370.069	319.75
370.45	312.97
370.831	304.84
371.212	322.01
371.593	318.62
371.974	332.86
372.355	311.62
372.736	311.62
373.117	318.62
373.498	304.61
373.879	344.38
374.26	312.29
374.641	306.42
375.021	313.65
375.402	320.88
375.783	340.77
376.163	329.47
376.544	331.28
376.925	312.75
377.305	323.14
377.686	331.05
378.066	324.5
378.447	321.56
378.827	329.92
379.208	342.58
379.588	336.7
379.968	329.24
380.349	316.36
380.729	330.82
381.109	330.15
381.489	334.21
381.87	333.31
382.25	340.99
382.63	329.02
383.01	331.28
383.39	330.82
383.77	345.29
384.15	338.06
384.53	331.28
384.91	332.63
385.29	355.23
385.67	366.98
386.049	347.77
386.429	343.93
386.809	350.49
387.189	348.68
387.568	339.41
387.948	332.86
388.328	351.84
388.707	351.62
389.087	375.57
389.466	362.01
389.846	356.36
390.225	364.04
390.605	341.67
390.984	364.5
391.363	363.59
391.743	358.62
392.122	355.68
392.501	373.76
392.881	380.54
393.26	363.82
393.639	349.36
394.018	377.83
394.397	360.43
394.776	381.44
395.155	383.48
395.534	366.98
395.913	387.32
396.292	376.02
396.671	374.21
397.05	373.31
397.429	384.38
397.808	372.63
398.186	390.71
398.565	389.35
398.944	379.18
399.323	396.81
399.701	390.94
400.08	382.57
400.458	378.51
400.837	392.97
401.215	384.83
401.594	390.48
401.972	391.84
402.351	411.27
402.729	368.56
403.107	389.13
403.486	409.69
403.864	394.33
404.242	404.04
404.62	396.13
404.999	403.14
405.377	409.47
405.755	393.42
406.133	390.26
406.511	413.31
406.889	403.14
407.267	416.02
407.645	412.86
408.023	442.23
408.401	430.93
408.779	431.39
409.156	440.88
409.534	446.08
409.912	417.83
410.29	439.97
410.667	424.61
411.045	427.32
411.422	428.45
411.8	452.63
412.178	417.15
412.555	455.12
412.933	453.76
413.31	439.07
413.687	445.62
414.065	470.03
414.442	440.43
414.819	463.93
415.197	457.6
415.574	473.65
415.951	457.37
416.328	465.74
416.705	469.13
417.082	465.51
417.46	470.03
417.837	501.44
418.214	484.49
418.591	476.81
418.967	507.77
419.344	475
419.721	475.68
420.098	482.69
420.475	489.24
420.852	490.37
421.228	509.13
421.605	505.51
421.982	524.72
422.358	509.35
422.735	520.2
423.111	526.3
423.488	503.7
423.864	533.98
424.241	543.93
424.617	522.01
424.994	510.25
425.37	533.76
425.746	512.29
426.123	543.47
426.499	546.86
426.875	531.95
427.251	549.12
427.627	562.68
428.003	576.47
428.379	575.11
428.756	599.97
429.132	570.14
429.507	556.58
429.883	542.34
430.259	583.02
430.635	567.43
431.011	570.14
431.387	566.07
431.763	604.04
432.138	575.56
432.514	604.72
432.89	605.39
433.265	634.77
433.641	631.61
434.016	606.3
434.392	611.72
434.767	623.25
435.143	632.96
435.518	628.44
435.894	631.38
436.269	635.22
436.644	644.26
437.02	637.94
437.395	661.21
437.77	663.92
438.145	657.37
438.52	660.99
438.895	701.89
439.271	632.06
439.646	682.68
440.021	688.33
440.395	675.22
440.77	683.13
441.145	683.81
441.52	701.89
441.895	713.41
442.27	710.48
442.645	714.54
443.019	713.87
443.394	711.83
443.769	729.46
444.143	719.06
444.518	717.71
444.892	715.45
445.267	713.41
445.641	740.53
446.016	744.6
446.39	748.44
446.764	743.24
447.139	743.92
447.513	736.69
447.887	753.86
448.262	764.26
448.636	770.36
449.01	772.85
449.384	772.85
449.758	795.45
450.132	798.16
450.506	788.67
450.88	805.84
451.254	818.95
451.628	811.26
452.002	806.74
452.376	806.07
452.75	818.95
453.123	824.37
453.497	821.43
453.871	829.12
454.244	876.57
454.618	881.09
454.992	837.03
455.365	862.11
455.739	880.41
456.112	877.02
456.486	903.92
456.859	932.62
457.232	925.61
457.606	907.53
457.979	935.33
458.352	933.75
458.725	941.88
459.099	949.57
459.472	966.74
459.845	962.67
460.218	986.63
460.591	1004.48
460.964	1010.13
461.337	1045.83
461.71	1016
462.083	1031.15
462.456	1045.16
462.829	1068.88
463.201	1039.28
463.574	1090.58
463.947	1077.7
464.32	1099.84
464.692	1134.19
465.065	1121.99
465.438	1131.03
465.81	1148.43
466.183	1186.85
466.555	1194.98
466.928	1230.69
467.3	1203.34
467.672	1222.55
468.045	1258.71
468.417	1265.49
468.789	1256.68
469.161	1283.12
469.534	1321.53
469.906	1359.72
470.278	1353.4
470.65	1357.92
471.022	1400.63
471.394	1450.34
471.766	1460.51
472.138	1504.81
472.51	1495.99
472.882	1495.31
473.253	1564.24
473.625	1558.36
473.997	1626.38
474.369	1637.68
474.74	1648.08
475.112	1688.98
475.484	1754.74
475.855	1804.68
476.227	1816.89
476.598	1889.88
476.97	1906.6
477.341	1942.99
477.713	2038.35
478.084	2003.1
478.455	2075.64
478.827	2133.04
479.198	2199.48
479.569	2252.36
479.94	2313.15
480.311	2375.29
480.682	2455.97
481.053	2502.07
481.424	2582.74
481.795	2597.43
482.166	2687.37
482.537	2747.71
482.908	2826.35
483.279	2914.49
483.65	2969.85
484.021	3047.82
484.391	3147.47
484.762	3175.95
485.133	3242.61
485.503	3302.95
485.874	3443.74
486.244	3511.53
486.615	3598.76
486.985	3640.79
487.356	3796.72
487.726	3852.99
488.097	4045.76
488.467	4024.74
488.837	4135.7
489.207	4232.64
489.578	4384.5
489.948	4442.81
490.318	4563.03
490.688	4553.09
491.058	4746.3
491.428	4837.6
491.798	4918.95
492.168	5116.24
492.538	5167.08
492.908	5216.57
493.278	5316.46
493.648	5418.15
494.017	5489.79
494.387	5608.43
494.757	5685.49
495.126	5809.1
495.496	5891.81
495.866	5938.59
496.235	6051.35
496.605	6092.71
496.974	6245.92
497.344	6337.22
497.713	6419.25
498.082	6495.41
498.452	6646.59
498.821	6716.19
499.19	6711
499.559	6880.03
499.928	6879.13
500.298	7040.93
500.667	7119.35
501.036	7144.88
501.405	7183.07
501.774	7296.29
502.143	7459
502.512	7440.69
502.88	7605.44
503.249	7574.7
503.618	7709.16
503.987	7729.5
504.356	7885.88
504.724	7960.68
505.093	7918.87
505.462	8011.3
505.83	8081.81
506.199	8164.29
506.567	8296.49
506.936	8286.32
507.304	8402.93
507.672	8496.26
508.041	8584.84
508.409	8569.25
508.777	8729.93
509.145	8854.89
509.514	8782.81
509.882	8939.64
510.25	8953.42
510.618	9012.18
510.986	9066.41
511.354	9090.82
511.722	9237.26
512.09	9368.55
512.458	9313.41
512.826	9404.71
513.193	9409.91
513.561	9455.33
513.929	9594.76
514.297	9698.71
514.664	9677.92
515.032	9811.93
515.4	9883.57
515.767	9937.35
516.135	9885.6
516.502	9983
516.869	10119.95
517.237	10098.03
517.604	10122.43
517.972	10329.21
518.339	10253.28
518.706	10297.34
519.073	10423.44
519.44	10404.23
519.808	10597.22
520.175	10631.34
520.542	10721.74
520.909	10714.96
521.276	10712.25
521.643	10768.97
522.009	10882.19
522.376	10963.77
522.743	11063.42
523.11	11139.35
523.477	11274.72
523.843	11307.71
524.21	11387.71
524.577	11402.17
524.943	11535.05
525.31	11557.65
525.676	11689.4
526.043	11762.39
526.409	11803.29
526.776	11834.25
527.142	11949.73
527.508	12025.43
527.874	12107.92
528.241	12135.71
528.607	12154.92
528.973	12369.15
529.339	12325.99
529.705	12440.11
530.071	12537.06
530.437	12561.69
530.803	12649.37
531.169	12747.22
531.535	12716.49
531.901	12845.98
532.267	12838.74
532.632	12921.68
532.998	13022.47
533.364	13091.17
533.73	13165.52
534.095	13187.89
534.461	13259.98
534.826	13309.24
535.192	13375.23
535.557	13454.32
535.923	13443.93
536.288	13499.52
536.653	13627.88
537.019	13642.57
537.384	13704.03
537.749	13747.87
538.114	13777.48
538.479	13829
538.845	13872.62
539.21	13817.93
539.575	13945.61
539.94	13949
540.305	14118.71
540.67	14007.3
541.034	14167.97
541.399	14218.14
541.764	14248.42
542.129	14359.38
542.494	14374.52
542.858	14428.53
543.223	14426.5
543.587	14538.81
543.952	14555.99
544.316	14551.47
544.681	14661.75
545.045	14697.68
545.41	14798.92
545.774	14833.27
546.138	14920.05
546.503	14809.77
546.867	14904.9
547.231	15154.62
547.595	15063.54
547.959	15125.01
548.324	15223.77
548.688	15258.12
549.052	15288.4
549.416	15333.37
549.779	15392.8
550.143	15386.47
550.507	15522.74
550.871	15602.51
551.235	15565.9
551.599	15675.73
551.962	15707.14
552.326	15720.48
552.689	15870.76
553.053	15832.11
553.417	15916.18
553.78	16168.37
554.143	16006.8
554.507	16174.48
554.87	16164.31
555.234	16227.36
555.597	16160.69
555.96	16228.71
556.323	16455.15
556.686	16359.1
557.05	16474.81
557.413	16485.65
557.776	16522.04
558.139	16713.22
558.502	16656.27
558.865	16761.58
559.228	16925.19
559.59	16860.79
559.953	16963.38
560.316	17070.27
560.679	16995.92
561.041	17219.19
561.404	17349.59
561.767	17320.43
562.129	17331.73
562.492	17559.07
562.854	17507.77
563.217	17555.23
563.579	17617.38
563.941	17635.91
564.304	17802.91
564.666	17882.91
565.028	17840.65
565.39	17963.13
565.753	17986.63
566.115	18154.76
566.477	18171.49
566.839	18206.96
567.201	18400.41
567.563	18323.35
567.925	18520.85
568.287	18521.53
568.648	18547.29
569.01	18694.64
569.372	18729.89
569.734	18774.18
570.095	18773.73
570.457	18922.65
570.819	19008.07
571.18	19022.54
571.542	19151.57
571.903	19215.07
572.265	19355.41
572.626	19400.83
572.987	19440.83
573.349	19422.53
573.71	19577.1
574.071	19679.02
574.432	19799.24
574.794	20061.61
575.155	19908.39
575.516	20045.56
575.877	20202.62
576.238	20277.42
576.599	20403.29
576.96	20486
577.32	20536.85
577.681	20747.46
578.042	20871.3
578.403	20887.8
578.763	20980.9
579.124	21077.17
579.485	21423.83
579.845	21569.59
580.206	21607.78
580.566	21720.77
580.927	21861.78
581.287	21962.57
581.648	22187.43
582.008	22470.81
582.368	22410.47
582.728	22688.2
583.089	22814.98
583.449	23006.84
583.809	23149.66
584.169	23428.75
584.529	23554.85
584.889	23738.57
585.249	23872.8
585.609	23988.73
585.969	24266.69
586.329	24419.91
586.688	24681.6
587.048	24799.56
587.408	24944.87
587.768	25211.3
588.127	25390.5
588.487	25596.15
588.846	26051.5
589.206	25898.06
589.565	26357.03
589.925	26499.4
590.284	26708.44
590.643	26909.11
591.003	27243.34
591.362	27408.76
591.721	27661.18
592.08	27855.52
592.44	28102.07
592.799	28345.91
593.158	28455.96
593.517	28739.12
593.876	28982.05
594.235	29106.34
594.593	29432.88
594.952	29626.78
595.311	29700.67
595.67	30107.67
596.029	30370.03
596.387	30497.26
596.746	30819.51
597.104	30777.03
597.463	31034.88
597.822	31347.41
598.18	31423.79
598.538	31574.97
598.897	31904.68
599.255	31921.63
599.613	32585.34
599.972	32610.88
600.33	32691.56
600.688	32738.11
601.046	33107.59
601.404	33390.07
601.762	33372.44
602.12	33772.66
602.478	33844.52
602.836	34077.06
603.194	33981.92
603.552	34155.92
603.91	34212.19
604.268	34676.36
604.625	34738.51
604.983	34891.5
605.341	34826.41
605.698	35257.36
606.056	35430.01
606.413	35574.19
606.771	35721.98
607.128	35869.55
607.485	35856.44
607.843	35975.31
608.2	36250.56
608.557	36283.78
608.914	36410.78
609.272	36658.68
609.629	36960.6
609.986	37018.9
610.343	36962.4
610.7	37383.86
611.057	37409.62
611.414	37514.93
611.771	37692.55
612.127	37900.68
612.484	37991.76
612.841	38098.87
613.198	38042.38
613.554	38234.46
613.911	38518.07
614.267	38423.61
614.624	38624.96
614.98	38703.37
615.337	38949.24
615.693	38901.79
616.05	38975.23
616.406	39314.43
616.762	39290.48
617.118	39350.82
617.475	39407.09
617.831	39558.49
618.187	39637.36
618.543	39635.33
618.899	39957.13
619.255	39737.02
619.611	40056.79
619.967	40192.15
620.323	40290.45
620.678	40233.05
621.034	40197.12
621.39	40255.2
621.746	40204.35
622.101	40751.68
622.457	40540.39
622.812	40582.42
623.168	40809.76
623.523	40833.94
623.879	40840.27
624.234	40723.89
624.589	40972.47
624.945	41015.86
625.3	41019.02
625.655	41143.31
626.01	41176.76
626.365	41261.27
626.72	41209.3
627.075	41161.62
627.43	41284.1
627.785	41205.23
628.14	41244.78
628.495	41395.96
628.85	41435.73
629.205	41231.44
629.559	41433.25
629.914	41333.14
630.269	41330.88
630.623	41218.56
630.978	41259.24
631.332	41513.24
631.687	41448.16
632.041	41466.92
632.396	41576.07
632.75	41363.19
633.104	41381.5
633.459	41302.4
633.813	41405
634.167	41370.2
634.521	41416.3
634.875	41564.77
635.229	41426.02
635.583	41308.28
635.937	41287.04
636.291	41277.32
636.645	41347.15
636.999	41239.35
637.352	41437.31
637.706	41242.29
638.06	41314.61
638.413	41181.73
638.767	41003.43
639.121	41162.97
639.474	41121.16
639.828	41062.18
640.181	41133.37
640.534	41085.91
640.888	41072.8
641.241	40890.89
641.594	41078
641.947	41123.42
642.301	41089.53
642.654	40965.01
643.007	40999.36
643.36	40975.63
643.713	40979.02
644.066	41015.86
644.419	40869.42
644.771	40518.47
645.124	40288.64
645.477	40150.79
645.83	40006.84
646.182	39881.65
646.535	39711.71
646.888	39826.51
647.24	39654.54
647.593	39985.83
647.945	39723.91
648.298	39606.18
648.65	39620.86
649.002	39420.19
649.355	39586.06
649.707	39648.66
650.059	39815.21
650.411	40258.81
650.763	40274.86
651.115	40694.06
651.467	40554.4
651.819	40485.93
652.171	40536.77
652.523	40285.03
652.875	40298.59
653.227	40257.46
653.578	40458.58
653.93	40432.14
654.282	40143.34
654.633	40126.84
654.985	40080.06
655.337	40234.18
655.688	40233.96
656.039	40342.43
656.391	40121.19
656.742	40063.57
657.094	40196.22
657.445	40255.42
657.796	40163
658.147	40179.95
658.498	40128.87
658.849	40046.62
659.2	40172.94
659.551	40130.91
659.902	40141.76
660.253	40039.61
660.604	40043
660.955	39954.64
661.306	39975.88
661.656	40042.55
662.007	40118.93
662.358	39984.92
662.708	40020.18
663.059	40044.58
663.409	39842.1
663.76	40070.57
664.11	39943.34
664.461	40078.03
664.811	39955.32
665.161	39941.53
665.511	39864.25
665.862	40047.29
666.212	40046.39
666.562	39879.84
666.912	39883.91
667.262	39909.67
667.612	39759.17
667.962	39815.44
668.312	39847.75
668.662	39883.23
669.011	39932.95
669.361	39996.22
669.711	39801.2
670.06	39808.2
670.41	39711.26
670.76	39650.24
671.109	39824.02
671.459	39748.32
671.808	39810.92
672.157	39775.66
672.507	39633.29
672.856	39552.39
673.205	39505.39
673.554	39873.51
673.904	39724.14
674.253	39756.91
674.602	39690.47
674.951	39145.85
675.3	38911.51
675.649	39593.3
675.998	39532.51
676.346	39519.17
676.695	39607.53
677.044	39297.71
677.393	39485.73
677.741	39463.36
678.09	39335.67
678.438	39363.92
678.787	39307.43
679.135	39368.89
679.484	39073.08
679.832	39191.27
680.181	38944.27
680.529	39268.56
680.877	39115.79
681.225	38978.62
681.573	39330.93
681.922	38953.76
682.27	38842.35
682.618	38782.47
682.966	38731.85
683.314	38728.91
683.661	38800.55
684.009	38531.63
684.357	38423.16
684.705	38482.82
685.053	38631.29
685.4	38517.84
685.748	38295.02
686.095	38292.09
686.443	38011.64
686.79	38058.42
687.138	38089.15
687.485	38220.9
687.832	38067.46
688.18	38097.29
688.527	37905.88
688.874	37773
689.221	37779.78
689.568	37751.08
689.915	37528.26
690.262	37528.72
690.609	37466.57
690.956	37335.5
691.303	37265.9
691.65	37135.73
691.997	37152.23
692.344	37101.84
692.69	36979.13
693.037	36856.64
693.383	36605.8
693.73	36758.12
694.077	36419.82
694.423	36640.6
694.769	36393.61
695.116	36450.55
695.462	36342.99
695.808	36217.79
696.155	36276.55
696.501	36064.8
696.847	35846.95
697.193	35688.76
697.539	35775.54
697.885	35677.92
698.231	35513.4
698.577	35651.25
698.923	35511.14
699.269	35336.46
699.614	35135.11
699.96	35117.71
700.306	35138.72
700.651	35038.61
700.997	34732.86
701.342	34854.66
701.688	34692.18
702.033	34726.3
702.379	34597.27
702.724	34578.06
703.069	34679.98
703.415	34121.57
703.76	34272.53
704.105	34222.59
704.45	34187.34
704.795	33922.48
705.14	33886.1
705.485	33802.94
705.83	33696.73
706.175	33844.07
706.52	33728.36
706.865	33542.83
707.209	33595.49
707.554	33483.17
707.899	33470.97
708.243	33157.31
708.588	33179.45
708.932	33067.36
709.277	33115.27
709.621	33095.39
709.966	32825.56
710.31	32941.72
710.654	32712.12
710.998	32743.31
711.342	32705.11
711.687	32468.74
712.031	32581.05
712.375	32281.85
712.719	32311.23
713.063	32377.21
713.407	32385.35
713.75	32085.47
714.094	32162.76
714.438	32064.91
714.782	31922.76
715.125	31964.12
715.469	31997.34
715.812	31904.01
716.156	31651.13
716.499	31596.44
716.843	31750.56
717.186	31514.19
717.53	31582.88
717.873	31592.38
718.216	31539.04
718.559	31386.73
718.902	31075.55
719.246	31217.92
719.589	31173.4
719.932	31143.35
720.275	31076.91
720.617	30876.46
720.96	30910.36
721.303	30899.29
721.646	30946.74
721.989	30687.09
722.331	30729.12
722.674	30681.89
723.016	30686.41
723.359	30673.3
723.701	30656.13
724.044	30492.74
724.386	30390.83
724.729	30552.4
725.071	30410.94
725.413	30381.56
725.755	30344.5
726.097	30190.83
726.439	30128.69
726.782	30004.85
727.124	30243.26
727.465	29978.86
727.807	29962.14
728.149	30034
728.491	29927.56
728.833	29903.38
729.175	29789.71
729.516	29758.3
729.858	29726.44
730.199	29707.68
730.541	29640.11
730.882	29595.82
731.224	29667.91
731.565	29470.17
731.906	29527.8
732.248	29458.42
732.589	29396.73
732.93	29283.96
733.271	29340.23
733.612	29473.11
733.953	29360.8
734.294	29254.58
734.635	29126.9
734.976	29199.9
735.317	29057.53
735.658	29034.7
735.999	29114.47
736.339	28885.1
736.68	29157.41
737.021	28886.23
737.361	28805.78
737.702	29018.66
738.042	28893.92
738.383	28782.51
738.723	28719.23
739.063	28628.39
739.404	28727.59
739.744	28670.64
740.084	28681.04
740.424	28519.24
740.764	28473.59
741.104	28603.08
741.444	28320.15
741.784	28285.12
742.124	28312.91
742.464	28373.03
742.804	28264.55
743.143	28137.1
743.483	28116.76
743.823	27956.54
744.162	27952.92
744.502	28043.09
744.841	27961.06
745.181	28044.9
745.52	27975.3
745.86	27959.7
746.199	27908.63
746.538	27840.84
746.877	27923.09
747.216	27873.83
747.556	27729.2
747.895	27727.62
748.234	27649.43
748.573	27677.22
748.911	27642.87
749.25	27461.86
749.589	27415.31
749.928	27492.6
750.267	27382.54
750.605	27328.53
750.944	27366.05
751.283	27225.26
751.621	27246.95
751.96	27145.03
752.298	27061.42
752.636	27153.85
752.975	27051.03
753.313	26894.19
753.651	27041.76
753.989	26864.59
754.327	26691.26
754.666	26614.43
755.004	26852.61
755.342	26762.45
755.679	26682
756.017	26490.59
756.355	26529.23
756.693	26336.47
757.031	26525.16
757.368	26256.7
757.706	26362
