Data from hue_220_FLMS001491_00007.txt Node
Date: Tue Feb 07 16:38:28 GMT 2017
User: dcchb
Spectrometer: FLMS00149
Trigger mode: 0
Integration Time (sec): 2.000000E-2
Scans to average: 10
Electric dark correction enabled: true
Nonlinearity correction enabled: false
Boxcar width: 0
XAxis mode: Wavelengths
Number of Pixels in Spectrum: 2048
>>>>>Begin Spectral Data<<<<<
341.393	-15.06
341.776	-15.06
342.16	-15.06
342.543	-65
342.927	-78.78
343.31	-78.11
343.693	-61.16
344.077	-57.09
344.46	-37.2
344.843	-35.17
345.226	-36.07
345.61	-27.49
345.993	-47.15
346.376	-22.51
346.759	8.67
347.142	16.81
347.525	35.34
347.908	57.48
348.291	90.48
348.674	91.38
349.057	101.78
349.44	130.93
349.823	131.83
350.206	159.4
350.588	186.52
350.971	209.12
351.354	219.06
351.737	229.68
352.119	235.78
352.502	245.05
352.884	254.32
353.267	268.33
353.65	293.64
354.032	275.11
354.414	297.25
354.797	298.83
355.179	299.74
355.562	323.47
355.944	316.01
356.326	321.43
356.709	326.4
357.091	321.88
357.473	340.87
357.855	330.25
358.238	338.83
358.62	343.8
359.002	347.19
359.384	337.25
359.766	323.24
360.148	326.63
360.53	322.79
360.912	325.73
361.294	315.33
361.676	330.92
362.057	335.67
362.439	318.27
362.821	322.34
363.203	309
363.584	324.37
363.966	302
364.348	299.74
364.729	316.91
365.111	296.35
365.493	310.59
365.874	302
366.256	304.94
366.637	293.64
367.019	300.87
367.4	308.1
367.781	283.69
368.163	301.32
368.544	304.03
368.925	307.87
369.306	325.27
369.688	287.53
370.069	289.79
370.45	308.33
370.831	287.31
371.212	311.94
371.593	317.36
371.974	298.16
372.355	314.2
372.736	329.34
373.117	312.62
373.498	315.78
373.879	284.37
374.26	332.28
374.641	303.35
375.021	309.91
375.402	302.68
375.783	320.08
376.163	316.91
376.544	302.45
376.925	309.68
377.305	317.59
377.686	302.45
378.066	339.74
378.447	330.02
378.827	333.86
379.208	311.71
379.588	312.39
379.968	346.74
380.349	342.67
380.729	330.47
381.109	316.23
381.489	317.36
381.87	328.89
382.25	328.44
382.63	332.96
383.01	333.41
383.39	340.19
383.77	327.08
384.15	317.82
384.53	331.15
384.91	347.87
385.29	338.15
385.67	337.48
386.049	357.59
386.429	340.64
386.809	348.78
387.189	360.98
387.568	356.23
387.948	370.7
388.328	365.05
388.707	359.62
389.087	362.56
389.466	365.5
389.846	351.71
390.225	387.19
390.605	363.92
390.984	379.51
391.363	362.11
391.743	391.94
392.122	375.22
392.501	375.44
392.881	380.19
393.26	383.8
393.639	362.56
394.018	384.26
394.397	384.93
394.776	373.18
395.155	376.12
395.534	388.1
395.913	382.67
396.292	389
396.671	384.71
397.05	384.93
397.429	396.91
397.808	385.16
398.186	387.65
398.565	395.78
398.944	406.63
399.323	402.11
399.701	418.83
400.08	413.63
400.458	420.19
400.837	421.99
401.215	405.5
401.594	438.49
401.972	436.46
402.351	431.71
402.729	416.12
403.107	427.87
403.486	436.68
403.864	438.94
404.242	439.4
404.62	455.89
404.999	434.2
405.377	460.64
405.755	452.73
406.133	467.42
406.511	457.02
406.889	484.82
407.267	470.81
407.645	463.35
408.023	483.69
408.401	497.02
408.779	507.64
409.156	518.49
409.534	521.2
409.912	516.46
410.29	531.6
410.667	530.69
411.045	548.09
411.422	554.19
411.8	549.67
412.178	544.93
412.555	570.24
412.933	563.46
413.31	585.15
413.687	605.27
414.065	611.14
414.442	616.79
414.819	629.22
415.197	642.33
415.574	649.79
415.951	625.61
416.328	656.56
416.705	659.95
417.082	668.99
417.46	675.77
417.837	680.07
418.214	675.1
418.591	735.88
418.967	711.93
419.344	720.97
419.721	727.3
420.098	738.6
420.475	733.62
420.852	763.23
421.228	763.68
421.605	790.12
421.982	805.71
422.358	814.75
422.735	821.76
423.111	805.04
423.488	870.12
423.864	848.88
424.241	875.54
424.617	865.37
424.994	902.89
425.37	905.37
425.746	923.22
426.123	930.91
426.499	942.21
426.875	959.16
427.251	984.69
427.627	1017.69
428.003	986.27
428.379	1032.37
428.756	1016.1
429.132	1046.16
429.507	1070.57
429.883	1053.16
430.259	1077.57
430.635	1096.1
431.011	1119.6
431.387	1133.84
431.763	1143.78
432.138	1166.61
432.514	1164.35
432.89	1170.45
433.265	1226.04
433.641	1217.23
434.016	1255.64
434.392	1269.66
434.767	1276.21
435.143	1308.75
435.518	1311.24
435.894	1354.63
436.269	1377.68
436.644	1381.07
437.02	1419.48
437.395	1434.4
437.77	1467.84
438.145	1515.07
438.52	1514.4
438.895	1511.23
439.271	1529.54
439.646	1585.35
440.021	1598.46
440.395	1605.01
440.77	1596.65
441.145	1641.62
441.52	1684.33
441.895	1663.77
442.27	1699.25
442.645	1706.03
443.019	1729.98
443.394	1758
443.769	1743.32
444.143	1764.78
444.518	1819.47
444.892	1807.27
445.267	1834.84
445.641	1814.5
446.016	1854.05
446.39	1864.67
446.764	1873.03
447.139	1888.85
447.513	1895.63
447.887	1921.84
448.262	1914.61
448.636	1929.53
449.01	1958.45
449.384	1966.81
449.758	1991.22
450.132	2004.78
450.506	2021.95
450.88	2009.52
451.254	2048.17
451.628	2096.75
452.002	2086.58
452.376	2111.22
452.75	2107.15
453.123	2112.35
453.497	2160.03
453.871	2193.93
454.244	2223.08
454.618	2233.7
454.992	2280.02
455.365	2252.68
455.739	2285.45
456.112	2319.12
456.486	2346.69
456.859	2392.79
457.232	2412.22
457.606	2386.24
457.979	2433.24
458.352	2483.41
458.725	2491.32
459.099	2500.58
459.472	2574.03
459.845	2587.36
460.218	2602.73
460.591	2657.87
460.964	2622.84
461.337	2709.62
461.71	2714.14
462.083	2761.14
462.456	2777.41
462.829	2804.98
463.201	2834.59
463.574	2849.05
463.947	2856.28
464.32	2974.24
464.692	2949.16
465.065	2958.88
465.438	3016.05
465.81	3049.27
466.183	3062.38
466.555	3146.44
466.928	3150.06
467.3	3123.17
467.672	3169.49
468.045	3265.31
468.417	3301.69
468.789	3277.51
469.161	3326.32
469.534	3381.92
469.906	3414.01
470.278	3490.61
470.65	3518.64
471.022	3552.53
471.394	3596.6
471.766	3634.57
472.138	3663.94
472.51	3777.16
472.882	3795.01
473.253	3866.65
473.625	3854.67
473.997	3926.08
474.369	3920.43
474.74	3949.13
475.112	4054.67
475.484	4103.25
475.855	4144.16
476.227	4184.38
476.598	4324.04
476.97	4297.82
477.341	4387.77
477.713	4425.96
478.084	4527.88
478.455	4560.64
478.827	4622.11
479.198	4683.58
479.569	4766.74
479.94	4834.53
480.311	4898.71
480.682	4914.98
481.053	5063.91
481.424	5152.27
481.795	5146.39
482.166	5215.31
482.537	5267.29
482.908	5386.61
483.279	5420.73
483.65	5474.97
484.021	5637.68
484.391	5612.14
484.762	5709.54
485.133	5682.65
485.503	5782.98
485.874	5908.4
486.244	5946.14
486.615	6067.04
486.985	6062.75
487.356	6121.28
487.726	6223.2
488.097	6322.18
488.467	6346.13
488.837	6431.55
489.207	6490.54
489.578	6587.03
489.948	6648.95
490.318	6709.06
490.688	6712.45
491.058	6811.88
491.428	6919.45
491.798	6912.22
492.168	7093.91
492.538	7033.8
492.908	7103.63
493.278	7214.58
493.648	7186.79
494.017	7230.63
494.387	7331.42
494.757	7377.74
495.126	7439.66
495.496	7402.15
495.866	7474.01
496.235	7569.6
496.605	7627.23
496.974	7615.25
497.344	7661.13
497.713	7725.98
498.082	7694.35
498.452	7786.77
498.821	7827.45
499.19	7804.85
499.559	7912.87
499.928	8023.83
500.298	7937.5
500.667	8066.31
501.036	7998.74
501.405	8059.53
501.774	8085.97
502.143	8083.49
502.512	8185.86
502.88	8267.21
503.249	8187.21
503.618	8217.95
503.987	8224.95
504.356	8265.4
504.724	8325.29
505.093	8325.06
505.462	8334.55
505.83	8390.15
506.199	8404.38
506.567	8463.14
506.936	8500.43
507.304	8549.24
507.672	8536.36
508.041	8520.76
508.409	8532.06
508.777	8680.31
509.145	8655
509.514	8635.79
509.882	8652.74
510.25	8601.67
510.618	8716.01
510.986	8729.8
511.354	8789.23
511.722	8772.28
512.09	8910.81
512.458	8741.1
512.826	8888.21
513.193	8890.92
513.561	8827.42
513.929	8912.17
514.297	8946.52
514.664	8974.99
515.032	8986.97
515.4	9030.58
515.767	9004.59
516.135	9045.72
516.502	8980.19
516.869	9010.7
517.237	9052.5
517.604	9035.1
517.972	9032.62
518.339	9082.78
518.706	9071.71
519.073	9072.61
519.44	9090.92
519.808	9177.92
520.175	9082.56
520.542	9219.96
520.909	9169.79
521.276	9195.78
521.643	9274.87
522.009	9193.52
522.376	9216.11
522.743	9209.11
523.11	9266.96
523.477	9338.14
523.843	9311.7
524.21	9402.32
524.577	9413.85
524.943	9345.6
525.31	9355.32
525.676	9444.58
526.043	9473.51
526.409	9467.86
526.776	9496.78
527.142	9472.15
527.508	9482.77
527.874	9505.37
528.241	9474.64
528.607	9455.88
528.973	9570.45
529.339	9566.16
529.705	9513.73
530.071	9603.67
530.437	9511.25
530.803	9577.46
531.169	9605.93
531.535	9495.88
531.901	9495.88
532.267	9515.99
532.632	9567.06
532.998	9516.67
533.364	9557.35
533.73	9543.34
534.095	9574.07
534.461	9506.73
534.826	9566.61
535.192	9532.04
535.557	9570
535.923	9475.09
536.288	9539.04
536.653	9506.5
537.019	9353.96
537.384	9380.86
537.749	9491.36
538.114	9394.87
538.479	9369.1
538.845	9380.63
539.21	9344.47
539.575	9385.15
539.94	9390.35
540.305	9304.7
540.67	9304.92
541.034	9328.2
541.399	9316.22
541.764	9260.63
542.129	9254.53
542.494	9250.01
542.858	9261.08
543.223	9180.41
543.587	9268.99
543.952	9153.97
544.316	9163.46
544.681	9159.39
545.045	9148.77
545.41	9181.31
545.774	9067.19
546.138	9070.35
546.503	9106.29
546.867	9052.95
547.231	9037.81
547.595	9084.37
547.959	9036.01
548.324	9034.88
548.688	8942.45
549.052	8981.32
549.416	8984.03
549.779	8889.79
550.143	8958.95
550.507	8913.97
550.871	8898.38
551.235	8817.48
551.599	8862.22
551.962	8812.51
552.326	8851.6
552.689	8834.88
553.053	8799.18
553.417	8759.4
553.78	8854.99
554.143	8778.39
554.507	8774.09
554.87	8786.07
555.234	8770.48
555.597	8747.2
555.96	8697.03
556.323	8737.71
556.686	8677.37
557.05	8758.72
557.413	8754.88
557.776	8737.26
558.139	8682.57
558.502	8732.96
558.865	8759.63
559.228	8730.7
559.59	8711.95
559.953	8654.77
560.316	8782
560.679	8734.09
561.041	8752.62
561.404	8760.53
561.767	8831.72
562.129	8717.14
562.492	8821.77
562.854	8782
563.217	8810.02
563.579	8767.09
563.941	8826.52
564.304	8784.71
564.666	8856.58
565.028	8870.13
565.39	8882.56
565.753	8912.17
566.115	8842.11
566.477	8897.7
566.839	8885.5
567.201	8899.51
567.563	8942
567.925	9005.5
568.287	9012.96
568.648	9016.34
569.01	9017.93
569.372	9029.68
569.734	9008.21
570.095	9077.59
570.457	9068.55
570.819	9056.57
571.18	9088.89
571.542	9179.05
571.903	9122.33
572.265	9205.72
572.626	9198.03
572.987	9232.61
573.349	9210.92
573.71	9309.22
574.071	9240.97
574.432	9284.13
574.794	9381.08
575.155	9299.73
575.516	9268.54
575.877	9296.34
576.238	9410.91
576.599	9358.71
576.96	9409.33
577.32	9367.52
577.681	9521.19
578.042	9473.28
578.403	9504.47
578.763	9487.29
579.124	9437.12
579.485	9534.98
579.845	9581.53
580.206	9591.47
580.566	9567.29
580.927	9629.21
581.287	9648.87
581.648	9668.08
582.008	9647.51
582.368	9656.78
582.728	9719.15
583.089	9701.07
583.449	9685.93
583.809	9800.73
584.169	9793.73
584.529	9780.84
584.889	9800.51
585.249	9782.43
585.609	9774.52
585.969	9913.27
586.329	9816.78
586.688	9874.63
587.048	9865.14
587.408	9874.85
587.768	9929.54
588.127	9855.42
588.487	9873.95
588.846	10003.21
589.206	9919.82
589.565	9921.18
589.925	9962.08
590.284	9925.93
590.643	10006.6
591.003	10036.66
591.362	10089.09
591.721	10054.74
592.08	10049.09
592.44	10041.85
592.799	10135.19
593.158	10085.24
593.517	10029.2
593.876	10052.93
594.235	10096.09
594.593	10140.61
594.952	10114.4
595.311	10100.38
595.67	10108.97
596.029	10216.99
596.387	10183.77
596.746	10257.44
597.104	10226.03
597.463	10200.27
597.822	10277.78
598.18	10184.45
598.538	10136.77
598.897	10200.49
599.255	10102.42
599.613	10293.37
599.972	10285.69
600.33	10240.95
600.688	10205.92
601.046	10316.2
601.404	10308.51
601.762	10271.91
602.12	10322.98
602.478	10303.32
602.836	10310.77
603.194	10286.59
603.552	10331.56
603.91	10340.6
604.268	10396.42
604.625	10286.14
604.983	10384.44
605.341	10303.32
605.698	10378.57
606.056	10358.68
606.413	10284.79
606.771	10412.92
607.128	10411.79
607.485	10318.23
607.843	10364.33
608.2	10479.58
608.557	10452.01
608.914	10477.32
609.272	10463.76
609.629	10527.72
609.986	10488.4
610.343	10434.84
610.7	10522.75
611.057	10477.78
611.414	10448.85
611.771	10530.43
612.127	10613.59
612.484	10532.92
612.841	10589.64
613.198	10526.81
613.554	10583.54
613.911	10637.55
614.267	10540.37
614.624	10564.78
614.98	10606.59
615.337	10643.42
615.693	10604.78
616.05	10632.12
616.406	10693.59
616.762	10689.52
617.118	10639.35
617.475	10659.47
617.831	10717.77
618.187	10693.59
618.543	10675.51
618.899	10762.06
619.255	10746.02
619.611	10733.36
619.967	10673.48
620.323	10753.25
620.678	10753.7
621.034	10727.94
621.39	10745.56
621.746	10659.24
622.101	10831.89
622.457	10788.28
622.812	10761.61
623.168	10826.92
623.523	10716.41
623.879	10743.08
624.234	10749.63
624.589	10750.31
624.945	10767.71
625.3	10816.3
625.655	10765.68
626.01	10854.04
626.365	10740.37
626.72	10728.39
627.075	10760.48
627.43	10695.4
627.785	10681.84
628.14	10719.35
628.495	10726.58
628.85	10760.25
629.205	10722.97
629.559	10663.31
629.914	10663.76
630.269	10586.7
630.623	10736.75
630.978	10656.08
631.332	10696.3
631.687	10725.68
632.041	10601.84
632.396	10635.29
632.75	10619.24
633.104	10609.75
633.459	10582.86
633.813	10614.04
634.167	10560.71
634.521	10577.21
634.875	10601.84
635.229	10540.15
635.583	10550.32
635.937	10547.6
636.291	10524.1
636.645	10485.01
636.999	10441.39
637.352	10492.92
637.706	10442.97
638.06	10425.35
638.413	10386.93
638.767	10387.61
639.121	10449.3
639.474	10335.41
639.828	10396.2
640.181	10360.94
640.534	10410.88
640.888	10287.95
641.241	10281.85
641.594	10353.48
641.947	10353.94
642.301	10299.7
642.654	10359.13
643.007	10371.56
643.36	10292.02
643.713	10301.28
644.066	10344.9
644.419	10314.16
644.771	10214.05
645.124	10083.44
645.477	10101.06
645.83	10020.84
646.182	9980.61
646.535	9999.14
646.888	9979.48
647.24	9917.11
647.593	9965.92
647.945	9959.37
648.298	9917.11
648.65	9908.3
649.002	9884.57
649.355	9899.49
649.707	9912.59
650.059	9939.94
650.411	10113.49
650.763	10139.93
651.115	10120.04
651.467	10140.84
651.819	10102.87
652.171	10149.42
652.523	10164.34
652.875	10114.85
653.227	10087.73
653.578	10202.53
653.93	10226.48
654.282	10115.3
654.633	10072.81
654.985	10066.03
655.337	10099.03
655.688	10189.42
656.039	10200.49
656.391	10022.65
656.742	10150.1
657.094	10146.26
657.445	10184
657.796	10178.57
658.147	10079.59
658.498	10150.33
658.849	10170.89
659.2	10115.3
659.551	10135.41
659.902	10148.07
660.253	10172.92
660.604	10119.37
660.955	10057
661.306	10172.25
661.656	10137.22
662.007	10172.47
662.358	10184.68
662.708	10230.32
663.059	10265.13
663.409	10183.77
663.76	10220.61
664.11	10207.73
664.461	10189.2
664.811	10224
665.161	10182.87
665.511	10189.2
665.862	10164.11
666.212	10219.7
666.562	10232.13
666.912	10232.13
667.262	10196.43
667.612	10245.47
667.962	10229.19
668.312	10149.65
668.662	10275.75
669.011	10216.54
669.361	10220.16
669.711	10238.69
670.06	10191.23
670.41	10202.75
670.76	10175.18
671.109	10183.77
671.459	10108.97
671.808	10169.76
672.157	10165.24
672.507	10083.66
672.856	10074.85
673.205	10109.65
673.554	10160.04
673.904	10113.94
674.253	10079.37
674.602	10101.74
674.951	9961.18
675.3	9916.89
675.649	10025.81
675.998	10107.62
676.346	10058.58
676.695	10068.52
677.044	9991.69
677.393	10035.53
677.741	10000.73
678.09	10000.05
678.438	9949.43
678.787	9967.51
679.135	9966.15
679.484	9934.29
679.832	9959.6
680.181	9902.65
680.529	9922.99
680.877	9946.49
681.225	9918.02
681.573	9921.86
681.922	9843.89
682.27	9775.19
682.618	9816.78
682.966	9793.05
683.314	9818.58
683.661	9747.63
684.009	9654.29
684.357	9694.52
684.705	9689.1
685.053	9717.8
685.4	9712.37
685.748	9584.69
686.095	9635.31
686.443	9566.16
686.79	9588.08
687.138	9566.16
687.485	9602.32
687.832	9564.35
688.18	9522.09
688.527	9400.52
688.874	9413.62
689.221	9457.24
689.568	9379.27
689.915	9358.48
690.262	9384.02
690.609	9366.84
690.956	9254.53
691.303	9283
691.65	9249.11
691.997	9176.11
692.344	9148.54
692.69	9097.47
693.037	9143.12
693.383	9009.57
693.73	9109.68
694.077	9030.13
694.423	8956.46
694.769	8928.21
695.116	8924.6
695.462	8927.08
695.808	8865.16
696.155	8877.37
696.501	8796.01
696.847	8801.44
697.193	8667.43
697.539	8785.84
697.885	8649.8
698.231	8697.48
698.577	8610.03
698.923	8608.45
699.269	8574.55
699.614	8552.85
699.96	8520.76
700.306	8465.17
700.651	8521.44
700.997	8380.66
701.342	8461.33
701.688	8388.11
702.033	8315.12
702.379	8314.67
702.724	8185.41
703.069	8311.73
703.415	8308.34
703.76	8234.67
704.105	8224.95
704.45	8230.83
704.795	8124.84
705.14	8133.88
705.485	8092.75
705.83	8046.65
706.175	8080.32
706.52	8018.18
706.865	8036.03
707.209	7968.01
707.554	7904.06
707.899	7946.99
708.243	7942.7
708.588	7887.33
708.932	7820.22
709.277	7786.55
709.621	7835.81
709.966	7776.83
710.31	7808.02
710.654	7646.21
710.998	7730.5
711.342	7698.87
711.687	7737.28
712.031	7577.96
712.375	7638.3
712.719	7671.07
713.063	7636.27
713.407	7614.35
713.75	7599.66
714.094	7509.04
714.438	7528.7
714.782	7539.1
715.125	7513.33
715.469	7528.02
715.812	7454.8
716.156	7438.53
716.499	7456.39
716.843	7484.41
717.186	7447.57
717.53	7440.34
717.873	7417.06
718.216	7453.22
718.559	7379.1
718.902	7363.28
719.246	7360.57
719.589	7318.99
719.932	7279.89
720.275	7328.93
720.617	7274.92
720.96	7288.03
721.303	7297.52
721.646	7243.96
721.989	7257.52
722.331	7232.89
722.674	7265.66
723.016	7258.42
723.359	7234.92
723.701	7257.52
724.044	7306.33
724.386	7268.37
724.729	7231.98
725.071	7199.22
725.413	7227.92
725.755	7144.08
726.097	7191.53
726.439	7180.46
726.782	7137.52
727.124	7168.26
727.465	7143.17
727.807	7172.33
728.149	7134.13
728.491	7158.77
728.833	7164.87
729.175	7159.44
729.516	7115.15
729.858	7109.05
730.199	7146.56
730.541	7139.33
730.882	7140.91
731.224	7155.15
731.565	7058.43
731.906	7135.72
732.248	7154.02
732.589	7078.77
732.93	7088.94
733.271	7078.54
733.612	7075.15
733.953	7129.39
734.294	7149.5
734.635	7110.63
734.976	7107.47
735.317	7072.44
735.658	7133.23
735.999	7076.73
736.339	7127.35
736.68	7178.65
737.021	7126.9
737.361	7112.89
737.702	7186.11
738.042	7141.82
738.383	7158.99
738.723	7221.59
739.063	7137.98
739.404	7191.99
739.744	7181.14
740.084	7166.9
740.424	7143.63
740.764	7170.07
741.104	7242.38
741.444	7249.84
741.784	7197.18
742.124	7215.49
742.464	7264.3
742.804	7288.71
743.143	7259.55
743.483	7334.13
743.823	7312.66
744.162	7302.27
744.502	7434.47
744.841	7412.32
745.181	7453.22
745.52	7448.93
745.86	7505.42
746.199	7531.86
746.538	7540.9
746.877	7608.92
747.216	7635.36
747.556	7683.05
747.895	7766.21
748.234	7800.33
748.573	7830.84
748.911	7871.97
749.25	7983.6
749.589	7971.17
749.928	8019.31
750.267	8234.67
750.605	8169.59
750.944	8203.03
751.283	8315.35
751.621	8452.07
751.96	8463.59
752.298	8603.93
752.636	8675.11
752.975	8702.68
753.313	8815.67
753.651	9017.25
753.989	9029.68
754.327	9202.55
754.666	9301.99
755.004	9343.34
755.342	9482.32
755.679	9646.38
756.017	9756.66
756.355	9922.54
756.693	10026.26
757.031	10155.52
757.368	10247.5
757.706	10442.97
758.044	10544.44
758.381	10704.66
758.719	10901.72
759.056	11074.14
759.394	11275.04
759.731	11327.47
760.068	11510.06
760.405	11687.01
760.743	11841.81
761.08	12040.45
761.417	12120.22
761.754	12347.33
762.091	12604.05
762.428	12642.46
762.765	12849.92
763.102	13055.11
763.438	13223.01
763.775	13369.22
764.112	13618.03
