Data from hue_190_FLMS001491_00044.txt Node
Date: Tue Feb 07 16:45:20 GMT 2017
User: dcchb
Spectrometer: FLMS00149
Trigger mode: 0
Integration Time (sec): 2.000000E-2
Scans to average: 10
Electric dark correction enabled: true
Nonlinearity correction enabled: false
Boxcar width: 0
XAxis mode: Wavelengths
Number of Pixels in Spectrum: 2048
>>>>>Begin Spectral Data<<<<<
341.393	-11.33
341.776	-11.33
342.16	-11.33
342.543	-54.26
342.927	-74.15
343.31	-75.28
343.693	-69.4
344.077	-79.8
344.46	-50.2
344.843	-74.15
345.226	-26.92
345.61	-27.15
345.993	-17.88
346.376	-3.42
346.759	24.83
347.142	26.86
347.525	53.53
347.908	59.86
348.291	53.98
348.674	97.37
349.057	107.77
349.44	123.36
349.823	134.43
350.206	167.65
350.588	196.58
350.971	211.94
351.354	229.57
351.737	228.67
352.119	244.71
352.502	251.49
352.884	257.82
353.267	285.84
353.65	300.98
354.032	307.31
354.414	297.59
354.797	329.45
355.179	332.62
355.562	325.39
355.944	318.61
356.326	334.65
356.709	330.36
357.091	329
357.473	333.97
357.855	326.97
358.238	325.39
358.62	334.2
359.002	339.85
359.384	343.24
359.766	330.81
360.148	337.59
360.53	331.04
360.912	336.01
361.294	334.65
361.676	329
362.057	331.04
362.439	314.77
362.821	317.7
363.203	328.1
363.584	312.73
363.966	334.65
364.348	328.1
364.729	335.56
365.111	315.44
365.493	327.19
365.874	348.66
366.256	309.79
366.637	309.57
367.019	314.77
367.4	336.91
367.781	326.06
368.163	319.74
368.544	325.84
368.925	319.51
369.306	322.9
369.688	309.79
370.069	317.93
370.45	314.09
370.831	312.28
371.212	310.92
371.593	316.57
371.974	290.81
372.355	284.48
372.736	320.42
373.117	301.66
373.498	303.47
373.879	310.47
374.26	305.95
374.641	328.32
375.021	317.25
375.402	310.02
375.783	338.49
376.163	308.44
376.544	354.31
376.925	317.93
377.305	319.29
377.686	332.17
378.066	326.06
378.447	327.87
378.827	315.22
379.208	323.35
379.588	322.45
379.968	303.47
380.349	327.42
380.729	331.04
381.109	332.84
381.489	343.01
381.87	323.13
382.25	330.36
382.63	314.77
383.01	355.67
383.39	319.96
383.77	353.86
384.15	323.81
384.53	365.39
384.91	346.18
385.29	336.91
385.67	347.08
386.049	337.14
386.429	353.41
386.809	358.83
387.189	358.15
387.568	342.11
387.948	346.18
388.328	333.52
388.707	369.68
389.087	357.93
389.466	357.02
389.846	349.57
390.225	364.93
390.605	365.39
390.984	372.62
391.363	353.86
391.743	366.06
392.122	351.83
392.501	369
392.881	379.85
393.26	373.75
393.639	387.31
394.018	357.7
394.397	367.42
394.776	378.94
395.155	380.07
395.534	377.14
395.913	378.72
396.292	386.4
396.671	385.72
397.05	387.76
397.429	403.58
397.808	374.2
398.186	387.08
398.565	379.4
398.944	407.87
399.323	398.61
399.701	404.25
400.08	404.71
400.458	394.99
400.837	433.18
401.215	393.86
401.594	417.36
401.972	407.42
402.351	404.93
402.729	418.04
403.107	416.91
403.486	419.62
403.864	411.03
404.242	444.48
404.62	420.3
404.999	432.5
405.377	438.38
405.755	434.76
406.133	456.68
406.511	439.96
406.889	456.68
407.267	474.31
407.645	483.35
408.023	470.47
408.401	474.08
408.779	484.93
409.156	488.09
409.534	475.44
409.912	498.26
410.29	514.76
410.667	503.69
411.045	505.95
411.422	540.07
411.8	499.17
412.178	519.51
412.555	552.73
412.933	561.54
413.31	566.06
413.687	569.22
414.065	592.05
414.442	573.29
414.819	585.04
415.197	585.04
415.574	611.03
415.951	607.41
416.328	649.22
416.705	635.21
417.082	634.76
417.46	656.68
417.837	654.87
418.214	655.1
418.591	649.45
418.967	667.3
419.344	686.51
419.721	687.41
420.098	673.85
420.475	710.46
420.852	704.59
421.228	744.36
421.605	775.09
421.982	759.95
422.358	755.88
422.735	769.67
423.111	778.26
423.488	807.41
423.864	819.61
424.241	838.59
424.617	838.82
424.994	845.83
425.37	870.23
425.746	863.45
426.123	856.67
426.499	916.56
426.875	904.35
427.251	915.43
427.627	938.03
428.003	950.46
428.379	957.01
428.756	969.44
429.132	988.87
429.507	996.1
429.883	1005.6
430.259	1017.12
430.635	1028.87
431.011	1022.32
431.387	1057.35
431.763	1094.18
432.138	1064.58
432.514	1094.86
432.89	1100.28
433.265	1116.33
433.641	1147.51
434.016	1176.21
434.392	1186.83
434.767	1225.48
435.143	1229.09
435.518	1221.63
435.894	1262.09
436.269	1270.45
436.644	1309.77
437.02	1337.11
437.395	1343.67
437.77	1364.68
438.145	1399.71
438.52	1434.28
438.895	1435.19
439.271	1455.3
439.646	1519.03
440.021	1495.3
440.395	1527.84
440.77	1535.3
441.145	1549.54
441.52	1587.05
441.895	1579.37
442.27	1612.58
442.645	1607.16
443.019	1630.44
443.394	1716.54
443.769	1692.58
444.143	1692.58
444.518	1741.62
444.892	1751.34
445.267	1749.08
445.641	1736.88
446.016	1778.23
446.39	1787.27
446.764	1794.5
447.139	1818.68
447.513	1870.66
447.887	1822.97
448.262	1864.78
448.636	1856.87
449.01	1902.29
449.384	1913.14
449.758	1915.4
450.132	1945.01
450.506	1981.61
450.88	1994.72
451.254	1997.66
451.628	1982.29
452.002	2041.95
452.376	2072.91
452.75	2087.37
453.123	2085.79
453.497	2157.2
453.871	2161.95
454.244	2173.7
454.618	2229.29
454.992	2231.55
455.365	2237.43
455.739	2287.6
456.112	2303.64
456.486	2349.29
456.859	2326.01
457.232	2375.28
457.606	2417.54
457.979	2428.61
458.352	2481.49
458.725	2522.17
459.099	2481.49
459.472	2583.63
459.845	2594.48
460.218	2563.75
460.591	2649.62
460.964	2663.63
461.337	2708.15
461.71	2772.1
462.083	2780.01
462.456	2827.24
462.829	2818.2
463.201	2856.85
463.574	2922.83
463.947	2930.97
464.32	3022.49
464.692	3018.42
465.065	3007.35
465.438	3065.43
465.81	3110.4
466.183	3165.99
466.555	3235.14
466.928	3227.23
467.3	3258.64
467.672	3347.23
468.045	3367.57
468.417	3435.81
468.789	3407.34
469.161	3478.3
469.534	3539.09
469.906	3652.76
470.278	3624.51
470.65	3703.6
471.022	3776.14
471.394	3826.31
471.766	3845.52
472.138	3885.75
472.51	4005.52
472.882	4006.87
473.253	4121.45
473.625	4168.9
473.997	4254.1
474.369	4296.36
474.74	4351.27
475.112	4427.65
475.484	4514.66
475.855	4563.02
476.227	4584.94
476.598	4699.06
476.97	4763.69
477.341	4857.7
477.713	4923.91
478.084	4963.01
478.455	5111.02
478.827	5143.79
479.198	5319.61
479.569	5315.31
479.94	5462.43
480.311	5493.84
480.682	5680.95
481.053	5731.35
481.424	5809.76
481.795	5902.87
482.166	5981.74
482.537	6115.97
482.908	6242.75
483.279	6254.72
483.65	6398.45
484.021	6447.03
484.391	6613.13
484.762	6654.26
485.133	6752.79
485.503	6794.14
485.874	6974.93
486.244	6992.78
486.615	7183.29
486.985	7227.58
487.356	7344.41
487.726	7400
488.097	7583.95
488.467	7606.33
488.837	7737.17
489.207	7862.36
489.578	7925.19
489.948	8014.22
490.318	8143.49
490.688	8188.01
491.058	8281.34
491.428	8368.11
491.798	8444.04
492.168	8590.93
492.538	8728.33
492.908	8712.51
493.278	8836.12
493.648	8868.21
494.017	8923.8
494.387	9023.92
494.757	9081.77
495.126	9134.65
495.496	9159.96
495.866	9290.35
496.235	9299.39
496.605	9375.32
496.974	9417.58
497.344	9484.92
497.713	9556.56
498.082	9620.51
498.452	9707.74
498.821	9728.76
499.19	9735.76
499.559	9807.17
499.928	9837.23
500.298	9874.97
500.667	9945.02
501.036	9944.57
501.405	10008.97
501.774	10003.55
502.143	10116.09
502.512	10104.34
502.88	10169.87
503.249	10197.44
503.618	10245.13
503.987	10257.1
504.356	10276.54
504.724	10314.05
505.093	10324.45
505.462	10390.43
505.83	10441.28
506.199	10422.3
506.567	10472.01
506.936	10450.77
507.304	10575.96
507.672	10600.37
508.041	10594.04
508.409	10739.12
508.777	10703.87
509.145	10746.58
509.514	10773.7
509.882	10787.26
510.25	10814.38
510.618	10834.94
510.986	10751.33
511.354	10905.9
511.722	10931.44
512.09	10967.82
512.458	10855.28
512.826	10941.38
513.193	11034.71
513.561	10976.41
513.929	11032.22
514.297	11081.94
514.664	11095.05
515.032	11057.31
515.4	11133.69
515.767	11154.03
516.135	11164.42
516.502	11053.69
516.869	11135.05
517.237	11183.63
517.604	11082.39
517.972	11144.76
518.339	11203.29
518.706	11166.91
519.073	11144.76
519.44	11222.05
519.808	11227.02
520.175	11166.68
520.542	11258.88
520.909	11292.33
521.276	11165.78
521.643	11265.66
522.009	11293.69
522.376	11285.78
522.743	11312.44
523.11	11315.61
523.477	11459.78
523.843	11332.78
524.21	11465.43
524.577	11444.64
524.943	11361.93
525.31	11406.45
525.676	11450.74
526.043	11492.78
526.409	11531.65
526.776	11551.76
527.142	11396.28
527.508	11420.46
527.874	11481.7
528.241	11444.87
528.607	11458.88
528.973	11465.21
529.339	11410.29
529.705	11430.63
530.071	11436.96
530.437	11366.23
530.803	11402.84
531.169	11326.45
531.535	11273.35
531.901	11301.37
532.267	11293.01
532.632	11263.18
532.998	11235.61
533.364	11210.3
533.73	11166.91
534.095	11156.97
534.461	11110.19
534.826	11152.9
535.192	11092.34
535.557	11042.39
535.923	10904.09
536.288	10948.16
536.653	10923.98
537.019	10891.21
537.384	10840.59
537.749	10803.98
538.114	10735.73
538.479	10785.45
538.845	10664.78
539.21	10637.66
539.575	10546.81
539.94	10577.55
540.305	10556.53
540.67	10479.02
541.034	10441.51
541.399	10451.67
541.764	10314.28
542.129	10345.01
542.494	10264.79
542.858	10230.21
543.223	10250.55
543.587	10199.93
543.952	10095.75
544.316	9941.41
544.681	10011.91
545.045	9925.81
545.41	9937.79
545.774	9859.37
546.138	9860.96
546.503	9810.34
546.867	9711.81
547.231	9750.68
547.595	9702.77
547.959	9612.37
548.324	9613.05
548.688	9536.44
549.052	9509.33
549.416	9408.09
549.779	9486.95
550.143	9376.67
550.507	9346.39
550.871	9418.03
551.235	9214.19
551.599	9273.17
551.962	9180.97
552.326	9186.17
552.689	9161.76
553.053	9079.51
553.417	9037.93
553.78	9070.24
554.143	8946.86
554.507	8932.17
554.87	8954.54
555.234	8964.71
555.597	8798.38
555.96	8853.98
556.323	8828.44
556.686	8730.14
557.05	8765.39
557.413	8743.02
557.776	8672.96
558.139	8674.32
558.502	8630.48
558.865	8631.38
559.228	8577.6
559.59	8639.74
559.953	8593.87
560.316	8590.48
560.679	8543.25
561.041	8587.09
561.404	8580.54
561.767	8578.5
562.129	8535.11
562.492	8536.24
562.854	8458.51
563.217	8449.69
563.579	8447.21
563.941	8457.38
564.304	8418.96
564.666	8484.27
565.028	8383.48
565.39	8410.6
565.753	8449.24
566.115	8407.66
566.477	8392.07
566.839	8419.64
567.201	8418.73
567.563	8424.38
567.925	8437.26
568.287	8438.85
568.648	8454.21
569.01	8384.38
569.372	8436.81
569.734	8411.05
570.095	8440.88
570.457	8413.31
570.819	8415.34
571.18	8388.45
571.542	8499.18
571.903	8373.76
572.265	8462.12
572.626	8413.76
572.987	8417.6
573.349	8412.63
573.71	8436.59
574.071	8394.1
574.432	8416.02
574.794	8482.69
575.155	8385.06
575.516	8348.45
575.877	8471.61
576.238	8399.52
576.599	8440.88
576.96	8363.59
577.32	8391.84
577.681	8425.74
578.042	8338.74
578.403	8399.75
578.763	8410.82
579.124	8311.62
579.485	8381.22
579.845	8352.29
580.206	8365.85
580.566	8300.32
580.927	8316.14
581.287	8362.92
581.648	8377.38
582.008	8333.31
582.368	8318.62
582.728	8328.34
583.089	8294.89
583.449	8234.56
583.809	8262.58
584.169	8344.61
584.529	8272.07
584.889	8336.93
585.249	8211.73
585.609	8198.4
585.969	8263.26
586.329	8197.95
586.688	8267.32
587.048	8220.32
587.408	8185.97
587.768	8163.15
588.127	8159.76
588.487	8200.89
588.846	8174.67
589.206	8093.54
589.565	8134.22
589.925	8165.63
590.284	8151.62
590.643	8096.26
591.003	8133.54
591.362	8111.85
591.721	8057.84
592.08	8092.87
592.44	8057.61
592.799	8104.39
593.158	8073.43
593.517	8055.35
593.876	8030.04
594.235	8032.08
594.593	7998.63
594.952	8023.72
595.311	7943.94
595.67	8009.48
596.029	8001.12
596.387	7985.3
596.746	8002.25
597.104	8001.34
597.463	7966.99
597.822	8054.45
598.18	7967.9
598.538	7931.97
598.897	8012.42
599.255	7975.81
599.613	8084.73
599.972	7949.14
600.33	7991.63
600.688	7979.87
601.046	7978.52
601.404	8008.35
601.762	7897.84
602.12	7977.84
602.478	7978.75
602.836	7988.01
603.194	7967.22
603.552	7958.18
603.91	7917.96
604.268	7962.02
604.625	7862.82
604.983	7922.7
605.341	7845.42
605.698	7877.05
606.056	7996.15
606.413	7949.37
606.771	7954.56
607.128	7955.69
607.485	7971.74
607.843	7875.92
608.2	7981.68
608.557	7928.8
608.914	7960.89
609.272	7975.81
609.629	8019.87
609.986	8021.23
610.343	7953.43
610.7	8010.38
611.057	7960.67
611.414	8009.93
611.771	7969.03
612.127	7983.26
612.484	8017.84
612.841	8059.19
613.198	8001.57
613.554	8048.35
613.911	8021.23
614.267	7984.85
614.624	8014
614.98	8000.44
615.337	8078.63
615.693	8059.87
616.05	8069.59
616.406	8064.39
616.762	8049.48
617.118	8033.66
617.475	8037.5
617.831	8038.4
618.187	8049.7
618.543	8059.87
618.899	8099.65
619.255	8067.56
619.611	8076.82
619.967	8050.83
620.323	8065.07
620.678	8111.17
621.034	8065.52
621.39	8070.49
621.746	8043.6
622.101	8117.27
622.457	8048.12
622.812	8075.24
623.168	8117.5
623.523	8122.92
623.879	8115.46
624.234	8043.83
624.589	8058.97
624.945	8089.93
625.3	8018.07
625.655	8014.9
626.01	8052.42
626.365	8037.05
626.72	8059.19
627.075	8094.45
627.43	8066.88
627.785	8056.26
628.14	8049.25
628.495	8047.67
628.85	8017.16
629.205	7992.98
629.559	8075.01
629.914	7997.73
630.269	8060.1
630.623	7926.54
630.978	7986.43
631.332	8003.6
631.687	8049.93
632.041	7960.89
632.396	7935.36
632.75	7953.89
633.104	7959.08
633.459	7843.16
633.813	7918.41
634.167	7906.66
634.521	7939.65
634.875	7918.41
635.229	7916.6
635.583	7899.2
635.937	7836.6
636.291	7852.19
636.645	7872.08
636.999	7869.82
637.352	7880.67
637.706	7811.29
638.06	7814.23
638.413	7811.52
638.767	7804.96
639.121	7738.98
639.474	7727.23
639.828	7733.78
640.181	7746.21
640.534	7767.23
640.888	7721.8
641.241	7687.45
641.594	7665.08
641.947	7759.77
642.301	7690.84
642.654	7643.16
643.007	7719.09
643.36	7690.39
643.713	7645.42
644.066	7722.93
644.419	7652.65
644.771	7619.88
645.124	7509.83
645.477	7569.26
645.83	7508.47
646.182	7474.58
646.535	7421.7
646.888	7468.93
647.24	7360
647.593	7449.04
647.945	7468.25
648.298	7420.57
648.65	7374.92
649.002	7376.5
649.355	7409.04
649.707	7433.9
650.059	7437.74
650.411	7482.03
650.763	7527.91
651.115	7635.93
651.467	7622.82
651.819	7606.33
652.171	7626.21
652.523	7659.21
652.875	7613.56
653.227	7578.76
653.578	7573.33
653.93	7600.22
654.282	7657.4
654.633	7525.42
654.985	7564.74
655.337	7660.56
655.688	7653.78
656.039	7607.91
656.391	7564.52
656.742	7605.2
657.094	7608.59
657.445	7602.26
657.796	7624.4
658.147	7530.4
658.498	7622.37
658.849	7639.32
659.2	7667.34
659.551	7614.01
659.902	7699.43
660.253	7619.88
660.604	7655.36
660.955	7601.58
661.306	7605.65
661.656	7643.84
662.007	7691.97
662.358	7672.09
662.708	7665.53
663.059	7676.61
663.409	7705.98
663.76	7634.35
664.11	7687.23
664.461	7748.69
664.811	7721.12
665.161	7650.62
665.511	7661.01
665.862	7623.73
666.212	7655.59
666.562	7722.25
666.912	7679.32
667.262	7689.49
667.612	7686.55
667.962	7665.31
668.312	7674.12
668.662	7770.84
669.011	7664.18
669.361	7656.49
669.711	7681.58
670.06	7669.83
670.41	7681.13
670.76	7665.31
671.109	7672.09
671.459	7622.37
671.808	7664.63
672.157	7655.59
672.507	7564.97
672.856	7625.53
673.205	7628.7
673.554	7635.7
673.904	7616.49
674.253	7641.58
674.602	7618.75
674.951	7604.74
675.3	7494.92
675.649	7517.97
675.998	7614.23
676.346	7569.72
676.695	7587.79
677.044	7562.71
677.393	7535.37
677.741	7577.85
678.09	7555.25
678.438	7512.99
678.787	7541.92
679.135	7562.26
679.484	7489.72
679.832	7452.21
680.181	7383.28
680.529	7477.97
680.877	7437.74
681.225	7436.84
681.573	7457.85
681.922	7420.12
682.27	7398.42
682.618	7381.02
682.966	7399.78
683.314	7336.28
683.661	7315.03
684.009	7349.16
684.357	7314.81
684.705	7281.14
685.053	7270.29
685.4	7295.6
685.748	7223.06
686.095	7220.8
686.443	7174.7
686.79	7199.56
687.138	7203.17
687.485	7146.68
687.832	7132.89
688.18	7161.37
688.527	7068.26
688.874	7044.08
689.221	7029.62
689.568	7044.76
689.915	7015.38
690.262	7008.15
690.609	6955.72
690.956	6956.85
691.303	7001.37
691.65	6896.51
691.997	6900.36
692.344	6877.98
692.69	6839.79
693.037	6842.05
693.383	6711.89
693.73	6816.29
694.077	6754.37
694.423	6737.87
694.769	6727.03
695.116	6664.2
695.462	6625.11
695.808	6662.17
696.155	6626.92
696.501	6502.17
696.847	6551.89
697.193	6485.22
697.539	6529.74
697.885	6499.46
698.231	6413.36
698.577	6443.87
698.923	6448.16
699.269	6387.15
699.614	6384.44
699.96	6346.02
700.306	6321.39
700.651	6306.25
700.997	6259.47
701.342	6256.08
701.688	6226.7
702.033	6187.61
702.379	6194.84
702.724	6171.33
703.069	6178.11
703.415	6147.38
703.76	6165.01
704.105	6125.46
704.45	6098.34
704.795	6052.47
705.14	6030.1
705.485	6037.78
705.83	5947.84
706.175	5957.78
706.52	6005.46
706.865	5949.65
707.209	5932.7
707.554	5882.75
707.899	5888.86
708.243	5864.68
708.588	5807.95
708.932	5804.34
709.277	5784.23
709.621	5853.83
709.966	5779.48
710.31	5758.24
710.654	5735.41
710.998	5753.04
711.342	5734.51
711.687	5715.75
712.031	5660.16
712.375	5663.55
712.719	5683.89
713.063	5661.74
713.407	5712.59
713.75	5696.55
714.094	5649.31
714.438	5631.01
714.782	5652.93
715.125	5608.19
715.469	5600.05
715.812	5579.26
716.156	5572.93
716.499	5522.54
716.843	5584.91
717.186	5488.87
717.53	5557.34
717.873	5529.54
718.216	5506.27
718.559	5532.26
718.902	5515.08
719.246	5512.82
719.589	5504.23
719.932	5467.85
720.275	5520.5
720.617	5458.59
720.96	5440.96
721.303	5508.53
721.646	5437.34
721.989	5417.91
722.331	5433.28
722.674	5411.35
723.016	5448.64
723.359	5399.6
723.701	5406.38
724.044	5416.55
724.386	5361.41
724.729	5404.12
725.071	5396.44
725.413	5436.44
725.755	5387.17
726.097	5392.6
726.439	5352.6
726.782	5354.63
727.124	5393.73
727.465	5377.68
727.807	5353.05
728.149	5340.4
728.491	5330.23
728.833	5384.91
729.175	5343.56
729.516	5316.44
729.858	5326.61
730.199	5314.41
730.541	5361.64
730.882	5342.43
731.224	5372.94
731.565	5340.4
731.906	5325.71
732.248	5337.23
732.589	5321.19
732.93	5342.2
733.271	5331.58
733.612	5299.49
733.953	5350.57
734.294	5383.33
734.635	5323
734.976	5370
735.317	5321.19
735.658	5344.92
735.999	5364.35
736.339	5369.55
736.68	5414.52
737.021	5393.5
737.361	5383.33
737.702	5422.88
738.042	5394.63
738.383	5398.7
738.723	5469.43
739.063	5447.51
739.404	5455.2
739.744	5466.04
740.084	5445.48
740.424	5499.26
740.764	5486.61
741.104	5504.91
741.444	5522.31
741.784	5506.49
742.124	5543.78
742.464	5561.41
742.804	5548.98
743.143	5546.72
743.483	5592.37
743.823	5566.83
744.162	5622.87
744.502	5680.05
744.841	5722.53
745.181	5688.18
745.52	5741.06
745.86	5821.74
746.199	5794.17
746.538	5807.73
746.877	5905.35
747.216	5904.68
747.556	5980.15
747.895	5983.77
748.234	6024.45
748.573	6096.76
748.911	6147.61
749.25	6141.28
749.589	6231.22
749.928	6311.44
750.267	6354.15
750.605	6359.8
750.944	6427.6
751.283	6550.08
751.621	6595.28
751.96	6627.59
752.298	6762.96
752.636	6878.66
752.975	6940.35
753.313	7004.31
753.651	7162.04
753.989	7200.01
754.327	7340.34
754.666	7421.02
755.004	7527.68
755.342	7736.49
755.679	7778.3
756.017	7931.97
756.355	8048.35
756.693	8158.63
757.031	8318.17
757.368	8399.07
757.706	8582.34
758.044	8715.9
758.381	8933.07
758.719	8984.37
759.056	9211.93
759.394	9277.24
759.731	9437.46
760.068	9595.2
760.405	9766.49
760.743	9894.85
761.08	10164.68
761.417	10256.65
761.754	10478.57
762.091	10602.18
762.428	10737.32
762.765	10940.93
763.102	11099.57
763.438	11298.88
763.775	11395.83
764.112	11629.27
764.449	11799.21
764.785	11974.35
765.122	12065.87
765.458	12231.51
765.795	12483.03
766.131	12599.19
766.467	12756.02
