Data from hue_350_FLMS001491_94.txt Node
Date: Mon Feb 06 15:38:47 GMT 2017
User: dcchb
Spectrometer: FLMS00149
Trigger mode: 0
Integration Time (sec): 2.000000E-2
Scans to average: 10
Electric dark correction enabled: true
Nonlinearity correction enabled: false
Boxcar width: 0
XAxis mode: Wavelengths
Number of Pixels in Spectrum: 2048
>>>>>Begin Spectral Data<<<<<
341.393	1.43
341.776	1.43
342.16	1.43
342.543	-67.95
342.927	-55.52
343.31	-68.18
343.693	-75.86
344.077	-77.67
344.46	-51.68
344.843	-42.19
345.226	-50.32
345.61	-38.57
345.993	-9.42
346.376	-4.45
346.759	13.86
347.142	28.09
347.525	50.24
347.908	36.23
348.291	72.39
348.674	102.89
349.057	114.64
349.44	130.69
349.823	136.79
350.206	169.33
350.588	191.48
350.971	209.1
351.354	235.09
351.737	233.96
352.119	237.58
352.502	268.09
352.884	278.26
353.267	271.93
353.65	288.65
354.032	297.01
354.414	303.11
354.797	313.96
355.179	284.81
355.562	327.29
355.944	342.21
356.326	331.59
356.709	326.84
357.091	328.88
357.473	336.56
357.855	329.1
358.238	347.18
358.62	343.11
359.002	357.8
359.384	341.76
359.766	328.88
360.148	328.65
360.53	311.02
360.912	336.78
361.294	340.85
361.676	347.63
362.057	321.64
362.439	321.19
362.821	318.25
363.203	323.68
363.584	328.65
363.966	336.11
364.348	346.5
364.729	310.34
365.111	305.6
365.493	312.15
365.874	302.89
366.256	330.91
366.637	308.99
367.019	320.74
367.4	313.51
367.781	275.77
368.163	304.47
368.544	308.99
368.925	306.5
369.306	318.03
369.688	312.83
370.069	308.31
370.45	307.63
370.831	313.06
371.212	309.22
371.593	332.04
371.974	294.98
372.355	298.14
372.736	309.89
373.117	306.73
373.498	328.88
373.879	297.46
374.26	295.88
374.641	312.83
375.021	306.96
375.402	316.22
375.783	315.77
376.163	320.29
376.544	325.03
376.925	324.58
377.305	343.11
377.686	330.91
378.066	324.81
378.447	320.06
378.827	362.55
379.208	341.08
379.588	320.51
379.968	320.97
380.349	351.7
380.729	330.23
381.109	338.14
381.489	348.54
381.87	334.07
382.25	332.94
382.63	330.01
383.01	340.17
383.39	339.5
383.77	334.07
384.15	324.36
384.53	346.5
384.91	351.93
385.29	343.79
385.67	333.4
386.049	347.63
386.429	341.53
386.809	339.04
387.189	357.12
387.568	346.73
387.948	349.44
388.328	353.96
388.707	346.5
389.087	352.38
389.466	349.44
389.846	358.93
390.225	353.28
390.605	343.34
390.984	355.32
391.363	367.29
391.743	372.26
392.122	373.39
392.501	344.92
392.881	352.38
393.26	352.38
393.639	364.35
394.018	351.7
394.397	373.62
394.776	374.75
395.155	379.95
395.534	364.81
395.913	358.71
396.292	372.04
396.671	381.53
397.05	359.16
397.429	387.18
397.808	384.69
398.186	360.51
398.565	378.82
398.944	380.85
399.323	384.69
399.701	390.57
400.08	389.66
400.458	407.29
400.837	393.96
401.215	389.66
401.594	417.46
401.972	393.28
402.351	396.67
402.729	393.28
403.107	409.55
403.486	432.38
403.864	407.97
404.242	400.74
404.62	403.9
404.999	398.7
405.377	408.2
405.755	407.07
406.133	428.99
406.511	395.09
406.889	423.79
407.267	428.76
407.645	422.43
408.023	431.7
408.401	444.13
408.779	438.03
409.156	447.74
409.534	438.03
409.912	432.83
410.29	420.62
410.667	454.07
411.045	447.29
411.422	424.01
411.8	452.04
412.178	459.95
412.555	454.52
412.933	472.83
413.31	456.78
413.687	488.42
414.065	462.88
414.442	455.2
414.819	470.57
415.197	472.37
415.574	477.12
415.951	469.44
416.328	478.93
416.705	488.19
417.082	502.88
417.46	478.02
417.837	506.05
418.214	499.72
418.591	490.91
418.967	504.69
419.344	508.53
419.721	513.28
420.098	525.48
420.475	521.19
420.852	529.55
421.228	525.71
421.605	518.93
421.982	542.43
422.358	554.63
422.735	533.16
423.111	520.96
423.488	550.56
423.864	554.86
424.241	557.12
424.617	542.2
424.994	566.16
425.37	568.64
425.746	562.32
426.123	568.42
426.499	560.96
426.875	565.25
427.251	585.82
427.627	590.56
428.003	588.3
428.379	607.96
428.756	610.22
429.132	596.67
429.507	623.11
429.883	621.52
430.259	623.11
430.635	617.91
431.011	622.2
431.387	642.54
431.763	667.62
432.138	634.18
432.514	662.2
432.89	648.87
433.265	642.77
433.641	672.82
434.016	680.05
434.392	663.1
434.767	674.4
435.143	704.46
435.518	707.17
435.894	711.69
436.269	714.18
436.644	707.85
437.02	705.36
437.395	715.31
437.77	731.12
438.145	706.94
438.52	725.7
438.895	754.63
439.271	716.21
439.646	729.99
440.021	752.14
440.395	776.32
440.77	769.99
441.145	768.19
441.52	809.09
441.895	779.94
442.27	786.04
442.645	767.96
443.019	773.61
443.394	789.65
443.769	798.92
444.143	776.32
444.518	809.31
444.892	813.38
445.267	795.08
445.641	816.09
446.016	779.03
446.39	816.55
446.764	831.69
447.139	814.51
447.513	819.26
447.887	820.61
448.262	835.98
448.636	841.18
449.01	843.21
449.384	863.1
449.758	856.32
450.132	872.36
450.506	863.1
450.88	839.82
451.254	856.09
451.628	858.35
452.002	869.88
452.376	887.73
452.75	886.15
453.123	903.55
453.497	902.87
453.871	902.65
454.244	928.41
454.618	904.68
454.992	922.76
455.365	935.41
455.739	979.93
456.112	968.41
456.486	953.49
456.859	993.72
457.232	988.07
457.606	975.86
457.979	1006.82
458.352	1015.41
458.725	999.37
459.099	1036.65
459.472	1038.69
459.845	1059.25
460.218	1037.11
460.591	1049.99
460.964	1066.94
461.337	1117.56
461.71	1119.36
462.083	1104.45
462.456	1100.61
462.829	1126.37
463.201	1129.31
463.574	1134.28
463.947	1153.26
464.32	1155.75
464.692	1198.23
465.065	1184.45
465.438	1228.74
465.81	1216.08
466.183	1242.07
466.555	1218.34
466.928	1234.84
467.3	1260.6
467.672	1271.68
468.045	1278
468.417	1286.82
468.789	1332.01
469.161	1346.02
469.534	1353.71
469.906	1385.57
470.278	1374.5
470.65	1414.04
471.022	1428.96
471.394	1455.4
471.766	1423.54
472.138	1465.57
472.51	1493.14
472.882	1507.15
473.253	1542.63
473.625	1552.35
473.997	1596.64
474.369	1607.94
474.74	1598.22
475.112	1637.32
475.484	1679.12
475.855	1689.07
476.227	1698.78
476.598	1750.08
476.97	1743.08
477.341	1822.17
477.713	1820.59
478.084	1838.44
478.455	1876.63
478.827	1913.47
479.198	1953.01
479.569	1943.97
479.94	2044.31
480.311	2019.9
480.682	2059.9
481.053	2112.11
481.424	2165.21
481.795	2148.71
482.166	2199.33
482.537	2216.28
482.908	2298.54
483.279	2318.2
483.65	2366.34
484.021	2371.08
484.391	2446.56
484.762	2438.88
485.133	2464.41
485.503	2501.25
485.874	2554.13
486.244	2588.03
486.615	2625.76
486.985	2652.43
487.356	2687.68
487.726	2735.82
488.097	2774.01
488.467	2809.49
488.837	2852.2
489.207	2925.19
489.578	2943.5
489.948	2969.71
490.318	2994.34
490.688	2992.53
491.058	3057.39
491.428	3115.92
491.798	3122.7
492.168	3198.4
492.538	3199.08
492.908	3276.59
493.278	3284.28
493.648	3285.41
494.017	3363.15
494.387	3386.87
494.757	3429.81
495.126	3441.11
495.496	3443.37
495.866	3480.88
496.235	3506.87
496.605	3551.84
496.974	3575.34
497.344	3625.06
497.713	3622.35
498.082	3699.41
498.452	3679.52
498.821	3691.05
499.19	3707.09
499.559	3738.73
499.928	3750.93
500.298	3794.77
500.667	3827.77
501.036	3772.4
501.405	3849.01
501.774	3861.66
502.143	3895.34
502.512	3938.95
502.88	3938.72
503.249	3937.82
503.618	3994.99
503.987	4013.52
504.356	4022.79
504.724	4017.59
505.093	4056.46
505.462	4113.63
505.83	4089.91
506.199	4149.79
506.567	4188.66
506.936	4133.75
507.304	4217.81
507.672	4244.93
508.041	4248.77
508.409	4269.79
508.777	4246.29
509.145	4277.7
509.514	4305.95
509.882	4358.37
510.25	4349.79
510.618	4343.01
510.986	4415.1
511.354	4442.44
511.722	4427.98
512.09	4503.23
512.458	4462.33
512.826	4491.7
513.193	4534.19
513.561	4472.72
513.929	4545.04
514.297	4583.23
514.664	4597.01
515.032	4563.57
515.4	4607.63
515.767	4631.59
516.135	4654.19
516.502	4637.24
516.869	4701.87
517.237	4713.17
517.604	4701.87
517.972	4730.34
518.339	4780.74
518.706	4748.87
519.073	4804.24
519.44	4796.33
519.808	4794.97
520.175	4791.81
520.542	4871.35
520.909	4843.33
521.276	4867.97
521.643	4922.43
522.009	4930.56
522.376	4971.47
522.743	4954.06
523.11	5034.97
523.477	5069.32
523.843	5072.25
524.21	5122.87
524.577	5126.49
524.943	5144.57
525.31	5165.36
525.676	5216.66
526.043	5295.75
526.409	5220.5
526.776	5321.06
527.142	5331.68
527.508	5325.35
527.874	5360.83
528.241	5392.25
528.607	5399.7
528.973	5479.25
529.339	5448.29
529.705	5546.14
530.071	5586.36
530.437	5542.98
530.803	5586.36
531.169	5625.23
531.535	5608.28
531.901	5663.88
532.267	5686.02
532.632	5723.08
532.998	5736.42
533.364	5774.83
533.73	5800.37
534.095	5839.69
534.461	5823.19
534.826	5881.5
535.192	5891.67
535.557	5918.11
535.923	5909.52
536.288	5929.41
536.653	5986.13
537.019	5931.67
537.384	5999.01
537.749	6019.35
538.114	6014.38
538.479	6098.67
538.845	6112
539.21	6116.07
539.575	6146.12
539.94	6147.48
540.305	6203.52
540.67	6206.91
541.034	6208.49
541.399	6269.51
541.764	6249.4
542.129	6327.36
542.494	6365.55
542.858	6334.14
543.223	6399.9
543.587	6420.24
543.952	6422.5
544.316	6458.88
544.681	6458.88
545.045	6513.35
545.41	6539.11
545.774	6526.68
546.138	6584.76
546.503	6576.85
546.867	6630.4
547.231	6676.96
547.595	6672.44
547.959	6739.1
548.324	6728.71
548.688	6692.1
549.052	6740.23
549.416	6779.55
549.779	6811.19
550.143	6812.09
550.507	6884.64
550.871	6908.14
551.235	6853
551.599	6925.54
551.962	6933.9
552.326	6992.2
552.689	7012.99
553.053	6949.94
553.417	6996.27
553.78	7101.8
554.143	7055.25
554.507	7084.4
554.87	7147.68
555.234	7193.55
555.597	7140.9
555.96	7198.3
556.323	7240.33
556.686	7205.98
557.05	7219.09
557.413	7246.21
557.776	7306.32
558.139	7304.29
558.502	7362.81
558.865	7367.33
559.228	7398.07
559.59	7455.47
559.953	7475.13
560.316	7504.51
560.679	7530.04
561.041	7584.73
561.404	7572.75
561.767	7627.67
562.129	7591.74
562.492	7671.28
562.854	7692.75
563.217	7704.27
563.579	7699.76
563.941	7768
564.304	7773.2
564.666	7872.41
565.028	7864.72
565.39	7848.9
565.753	7881.45
566.115	7929.13
566.477	7968.67
566.839	7952.86
567.201	8012.74
567.563	8035.57
567.925	8101.78
568.287	8051.16
568.648	8145.85
569.01	8170.48
569.372	8254.77
569.734	8234.88
570.095	8237.37
570.457	8302.68
570.819	8306.29
571.18	8330.25
571.542	8384.93
571.903	8419.06
572.265	8453.86
572.626	8480.3
572.987	8497.02
573.349	8590.35
573.71	8621.31
574.071	8675.77
574.432	8733.4
574.794	8790.35
575.155	8840.06
575.516	8855.43
575.877	8926.62
576.238	8966.16
576.599	9067.85
576.96	9080.51
577.32	9176.55
577.681	9314.63
578.042	9350.33
578.403	9433.04
578.763	9493.61
579.124	9603.21
579.485	9671.23
579.845	9785.8
580.206	9859.02
580.566	9991.22
580.927	10094.95
581.287	10176.53
581.648	10289.07
582.008	10503.52
582.368	10564.99
582.728	10746.91
583.089	10785.1
583.449	10959.78
583.809	11138.99
584.169	11290.62
584.529	11402.26
584.889	11645.64
585.249	11766.31
585.609	11956.37
585.969	12171.5
586.329	12337.15
586.688	12498.73
587.048	12578.5
587.408	12947.07
587.768	13105.49
588.127	13310.91
588.487	13511.13
588.846	13763.78
589.206	13937.56
589.565	14170.55
589.925	14517.65
590.284	14616.86
590.643	14863.41
591.003	15171.2
591.362	15534.35
591.721	15753.1
592.08	15990.84
592.44	16254.56
592.799	16556.47
593.158	16776.8
593.517	17147.64
593.876	17398.26
594.235	17605.03
594.593	17831.01
594.952	18148.52
595.311	18356.88
595.67	18752.8
596.029	19103.07
596.387	19407.92
596.746	19707.8
597.104	19889.49
597.463	20201.57
597.822	20473.2
598.18	20619.64
598.538	20852.86
598.897	21399.73
599.255	21547.53
599.613	22092.37
599.972	22182.76
600.33	22476.54
600.688	22752.69
601.046	23144.32
601.404	23495.5
601.762	23544.08
602.12	24082.38
602.478	24177.51
602.836	24493.44
603.194	24657.28
603.552	25074.44
603.91	25221.55
604.268	25608.66
604.625	25653.63
604.983	26068.99
605.341	26167.97
605.698	26488.19
606.056	26804.56
606.413	26945.8
606.771	27320.03
607.128	27535.62
607.485	27684.54
607.843	27911.43
608.2	28303.28
608.557	28604.97
608.914	28685.19
609.272	28916.15
609.629	29282.01
609.986	29564.27
610.343	29593.42
610.7	30036.12
611.057	30129
611.414	30386.39
611.771	30500.96
612.127	30792.48
612.484	30921.07
612.841	31340.26
613.198	31351.34
613.554	31494.61
613.911	31773.92
614.267	31954.48
614.624	31949.29
614.98	32130.53
615.337	32552.66
615.693	32563.06
616.05	32800.34
616.406	32945.42
616.762	33022.03
617.118	33136.83
617.475	33456.82
617.831	33638.51
618.187	33657.72
618.543	33863.81
618.899	34246.63
619.255	34196.01
619.611	34235.33
619.967	34518.94
620.323	34623.34
620.678	34570.46
621.034	34618.6
621.39	34787.4
621.746	34807.97
622.101	35318.24
622.457	35208.64
622.812	35234.85
623.168	35525.69
623.523	35597.33
623.879	35714.39
624.234	35572.47
624.589	35845.68
624.945	35965.9
625.3	36064.89
625.655	36037.09
626.01	36246.12
626.365	36270.08
626.72	36298.55
627.075	36234.6
627.43	36296.97
627.785	36309.4
628.14	36475.72
628.495	36654.7
628.85	36624.87
629.205	36589.84
629.559	36761.82
629.914	36655.38
630.269	36812.21
630.623	36631.2
630.978	36757.52
631.332	36890.85
631.687	37104.63
632.041	36724.3
632.396	36925.88
632.75	36980.57
633.104	37037.97
633.459	36934.47
633.813	36921.59
634.167	36991.64
634.521	36925.88
634.875	37076.38
635.229	36857.18
635.583	36946.9
635.937	37097.63
636.291	36926.78
636.645	37024.63
636.999	36980.12
637.352	37113.22
637.706	36915.03
638.06	37139.43
638.413	36990.28
638.767	37029.61
639.121	37016.95
639.474	36890.63
639.828	36918.65
640.181	37116.16
640.534	37061.92
640.888	36829.84
641.241	36929.27
641.594	36765.88
641.947	37079.1
642.301	36918.42
642.654	36911.42
643.007	36973.34
643.36	36915.03
643.713	36894.47
644.066	37069.38
644.419	36859.67
644.771	36592.55
645.124	36287.25
645.477	36216.75
645.83	36035.96
646.182	35925
646.535	35795.06
646.888	35826.02
647.24	35659.47
647.593	35896.3
647.945	35769.75
648.298	35656.08
648.65	35607.95
649.002	35607.95
649.355	35658.79
649.707	35793.25
650.059	35756.87
650.411	36288.38
650.763	36257.2
651.115	36564.76
651.467	36524.53
651.819	36424.2
652.171	36383.07
652.523	36489.96
652.875	36437.76
653.227	36343.3
653.578	36548.49
653.93	36522.27
654.282	36366.57
654.633	36269.17
654.985	36359.57
655.337	36245.45
655.688	36334.71
656.039	36456.74
656.391	36089.97
656.742	36302.84
657.094	36237.31
657.445	36384.2
657.796	36340.13
658.147	36047.94
658.498	36150.76
658.849	36283.64
659.2	36237.54
659.551	36162.06
659.902	36374.71
660.253	36197.76
660.604	36174.03
660.955	36033.93
661.306	36272.79
661.656	36238.21
662.007	36065.79
662.358	36140.59
662.708	35931.78
663.059	36013.13
663.409	35888.84
663.76	36190.76
664.11	36062.4
664.461	36100.14
664.811	36102.4
665.161	36049.74
665.511	35982.18
665.862	36034.38
666.212	36077.09
666.562	36225.11
666.912	35957.77
667.262	35969.75
667.612	36078.44
667.962	36160.48
668.312	35987.15
668.662	36200.25
669.011	36103.53
669.361	35943.53
669.711	36012.46
670.06	35951.44
670.41	35885.68
670.76	35895.4
671.109	35983.76
671.459	36003.19
671.808	35907.83
672.157	35899.47
672.507	35669.42
672.856	35728.4
673.205	35897.43
673.554	36003.42
673.904	35697.89
674.253	35897.66
674.602	35769.75
674.951	35267.17
675.3	35218.81
675.649	35734.95
675.998	35709.19
676.346	35607.5
676.695	35783.99
677.044	35462.87
677.393	35635.52
677.741	35588.06
678.09	35459.93
678.438	35456.77
678.787	35536.54
679.135	35523.66
679.484	35259.03
679.832	35326.83
680.181	35220.61
680.529	35399.37
680.877	35199.37
681.225	35237.11
681.573	35500.38
681.922	35103.55
682.27	35114.63
682.618	35038.7
682.966	35037.79
683.314	35214.96
683.661	34886.84
684.009	34934.29
684.357	34768.2
684.705	34659.05
685.053	34817.69
685.4	34647.52
685.748	34436.45
686.095	34605.04
686.443	34469.22
686.79	34232.84
687.138	34277.36
687.485	34334.54
687.832	34257.93
688.18	34334.76
688.527	34104.03
688.874	33990.82
689.221	34072.62
689.568	33831.5
689.915	33751.05
690.262	33830.37
690.609	33719.18
690.956	33598.74
691.303	33698.62
691.65	33509.25
691.997	33547.44
692.344	33339.76
692.69	33240.33
693.037	33257.95
693.383	33058.86
693.73	33101.35
694.077	32956.27
694.423	32888.02
694.769	32738.19
695.116	32817.29
695.462	32676.95
695.808	32634.24
696.155	32653.68
696.501	32397.86
696.847	32372.1
697.193	32152.45
697.539	32319.45
697.885	32090.07
698.231	32000.81
698.577	31954.94
698.923	31906.35
699.269	31803.3
699.614	31673.14
699.96	31622.29
700.306	31550.88
700.651	31408.28
700.997	31409.19
701.342	31345.01
701.688	31239.7
702.033	31209.19
702.379	31118.57
702.724	31138.01
703.069	31124.68
703.415	30756.78
703.76	30784.35
704.105	30831.12
704.45	30660.96
704.795	30476.11
705.14	30475.88
705.485	30504.13
705.83	30263.46
706.175	30327.18
706.52	30032.5
706.865	30113.18
707.209	30115.66
707.554	30022.11
707.899	30041.54
708.243	29862.34
708.588	29833.64
708.932	29642.46
709.277	29616.92
709.621	29701.66
709.966	29559.07
710.31	29594.77
710.654	29357.04
710.998	29371.73
711.342	29452.18
711.687	29234.78
712.031	29265.29
712.375	29043.37
712.719	29253.09
713.063	29000.44
713.407	29077.5
713.75	28948.46
714.094	28898.07
714.438	28679.32
714.782	28723.38
715.125	28710.73
715.469	28639.09
715.812	28467.34
716.156	28345.99
716.499	28421.02
716.843	28488.81
717.186	28280.91
717.53	28329.5
717.873	28397.97
718.216	28305.99
718.559	28171.76
718.902	27906.91
719.246	28064.19
719.589	27950.75
719.932	27764.09
720.275	27846.34
720.617	27855.61
720.96	27706.69
721.303	27719.12
721.646	27736.06
721.989	27626.46
722.331	27745.78
722.674	27614.49
723.016	27634.6
723.359	27464.43
723.701	27576.29
724.044	27256.08
724.386	27266.47
724.729	27411.33
725.071	27327.04
725.413	27227.83
725.755	27200.49
726.097	27097.21
726.439	27012.47
726.782	26999.13
727.124	27075.97
727.465	27008.17
727.807	26861.29
728.149	26847.5
728.491	26852.25
728.833	26889.53
729.175	26746.71
729.516	26720.95
729.858	26672.36
730.199	26705.81
730.541	26616.77
730.882	26664
731.224	26553.72
731.565	26398.7
731.906	26454.06
732.248	26516.89
732.589	26249.32
732.93	26273.96
733.271	26325.03
733.612	26262.66
733.953	26407.29
734.294	26253.17
734.635	26171.13
734.976	26196.22
735.317	25992.61
735.658	26061.08
735.999	26012.04
736.339	25916.45
736.68	26109.67
737.021	25934.53
737.361	25859.96
737.702	26063.34
738.042	25912.38
738.383	25764.59
738.723	25852.72
739.063	25687.76
739.404	25605.95
739.744	25585.16
740.084	25494.77
740.424	25610.47
740.764	25566.63
741.104	25606.4
741.444	25425.39
741.784	25297.03
742.124	25415.22
742.464	25369.8
742.804	25396.69
743.143	25186.08
743.483	25266.52
743.823	25208.22
744.162	25110.14
744.502	25241.67
744.841	25020.43
745.181	25133.65
745.52	24976.59
745.86	25126.19
746.199	24970.26
746.538	24971.17
746.877	24919.19
747.216	24928.68
747.556	24908.79
747.895	24895.24
748.234	24740.66
748.573	24731.17
748.911	24687.11
749.25	24682.13
749.589	24622.7
749.928	24612.76
750.267	24680.78
750.605	24539.99
750.944	24457.05
751.283	24413.89
751.621	24465.87
751.96	24346.55
752.298	24463.38
752.636	24257.06
752.975	24153.79
753.313	24143.16
753.651	24189.94
753.989	24092.09
754.327	24074.92
754.666	23909.95
755.004	23909.05
755.342	23940.23
755.679	23917.18
756.017	23646.45
756.355	23782.27
756.693	23535.5
757.031	23792.44
757.368	23664.76
757.706	23605.33
758.044	23618.88
758.381	23403.52
758.719	23309.51
759.056	23420.02
759.394	23243.53
759.731	23235.39
760.068	23117.65
760.405	23123.3
760.743	22991.78
