Data from hue_340_FLMS001491_97.txt Node
Date: Mon Feb 06 15:43:54 GMT 2017
User: dcchb
Spectrometer: FLMS00149
Trigger mode: 0
Integration Time (sec): 2.000000E-2
Scans to average: 10
Electric dark correction enabled: true
Nonlinearity correction enabled: false
Boxcar width: 0
XAxis mode: Wavelengths
Number of Pixels in Spectrum: 2048
>>>>>Begin Spectral Data<<<<<
341.393	-27.32
341.776	-27.32
342.16	-27.32
342.543	-56.24
342.927	-62.57
343.31	-56.92
343.693	-86.52
344.077	-45.17
344.46	-59.86
344.843	-53.76
345.226	-38.39
345.61	-28.45
345.993	-20.08
346.376	-4.04
346.759	-1.55
347.142	27.82
347.525	42.74
347.908	49.97
348.291	58.11
348.674	104.88
349.057	111.21
349.44	121.83
349.823	144.66
350.206	162.74
350.588	189.18
350.971	226.24
351.354	226.01
351.737	229.17
352.119	223.98
352.502	230.08
352.884	270.76
353.267	281.15
353.65	280.92
354.032	291.09
354.414	308.72
354.797	313.92
355.179	310.08
355.562	315.27
355.944	310.08
356.326	319.34
356.709	323.41
357.091	320.92
357.473	343.52
357.855	320.25
358.238	351.88
358.62	335.61
359.002	345.56
359.384	350.75
359.766	318.89
360.148	334.03
360.53	327.48
360.912	304.43
361.294	336.52
361.676	306.91
362.057	337.19
362.439	293.58
362.821	306.23
363.203	305.78
363.584	310.75
363.966	328.16
364.348	322.28
364.729	315.5
365.111	333.8
365.493	306.23
365.874	322.28
366.256	302.17
366.637	339.91
367.019	306.46
367.4	300.81
367.781	287.93
368.163	308.95
368.544	324.54
368.925	300.13
369.306	304.88
369.688	302.85
370.069	298.33
370.45	303.3
370.831	303.07
371.212	310.53
371.593	309.17
371.974	317.53
372.355	307.36
372.736	301.49
373.117	333.13
373.498	306.01
373.879	332.22
374.26	314.82
374.641	314.82
375.021	307.36
375.402	322.96
375.783	304.88
376.163	319.34
376.544	313.69
376.925	323.64
377.305	321.15
377.686	309.85
378.066	322.96
378.447	332
378.827	325.9
379.208	292
379.588	313.01
379.968	299.91
380.349	346.91
380.729	314.82
381.109	311.66
381.489	340.81
381.87	329.29
382.25	332.45
382.63	315.5
383.01	339.45
383.39	327.03
383.77	339.68
384.15	329.74
384.53	311.43
384.91	352.56
385.29	342.17
385.67	341.49
386.049	346.69
386.429	340.36
386.809	333.8
387.189	341.26
387.568	347.14
387.948	350.08
388.328	342.17
388.707	338.55
389.087	320.25
389.466	352.34
389.846	334.48
390.225	354.6
390.605	336.97
390.984	353.69
391.363	356.63
391.743	349.17
392.122	360.7
392.501	367.02
392.881	349.4
393.26	348.49
393.639	335.84
394.018	361.6
394.397	356.4
394.776	359.57
395.155	364.09
395.534	374.48
395.913	357.76
396.292	360.92
396.671	347.82
397.05	373.13
397.429	355.05
397.808	361.6
398.186	369.96
398.565	352.79
398.944	363.18
399.323	371.09
399.701	362.05
400.08	392.56
400.458	385.55
400.837	368.61
401.215	379.68
401.594	382.17
401.972	380.81
402.351	388.04
402.729	397.76
403.107	394.14
403.486	381.94
403.864	377.19
404.242	375.39
404.62	402.96
404.999	385.33
405.377	382.17
405.755	391.66
406.133	396.85
406.511	426.91
406.889	392.56
407.267	396.4
407.645	427.14
408.023	410.86
408.401	427.36
408.779	421.49
409.156	428.94
409.534	441.6
409.912	436.63
410.29	438.21
410.667	441.15
411.045	418.1
411.422	430.3
411.8	440.24
412.178	449.73
412.555	462.39
412.933	441.6
413.31	456.74
413.687	455.38
414.065	444.54
414.442	458.32
414.819	457.64
415.197	473.01
415.574	473.01
415.951	511.65
416.328	507.59
416.705	471.43
417.082	491.31
417.46	491.54
417.837	488.6
418.214	517.53
418.591	490.41
418.967	526.34
419.344	508.26
419.721	503.07
420.098	537.19
420.475	522.73
420.852	528.6
421.228	534.48
421.605	553.23
421.982	556.4
422.358	538.32
422.735	549.17
423.111	537.64
423.488	540.8
423.864	559.56
424.241	544.19
424.617	568.6
424.994	568.15
425.37	580.13
425.746	585.78
426.123	573.8
426.499	581.93
426.875	604.31
427.251	615.15
427.627	615.15
428.003	607.24
428.379	620.35
428.756	630.75
429.132	638.2
429.507	637.98
429.883	642.72
430.259	645.89
430.635	626
431.011	641.59
431.387	658.54
431.763	672.55
432.138	700.8
432.514	670.29
432.89	685.21
433.265	683.17
433.641	692.44
434.016	694.02
434.392	675.72
434.767	698.54
435.143	723.85
435.518	703.29
435.894	734.47
436.269	726.79
436.644	747.58
437.02	740.8
437.395	742.16
437.77	746.45
438.145	763.4
438.52	750.52
438.895	779.67
439.271	767.47
439.646	784.87
440.021	786.67
440.395	776.28
440.77	820.12
441.145	801.14
441.52	810.18
441.895	812.89
442.27	807.24
442.645	810.85
443.019	841.14
443.394	824.19
443.769	815.15
444.143	829.84
444.518	829.84
444.892	830.06
445.267	816.05
445.641	864.41
446.016	833.45
446.39	834.13
446.764	859.67
447.139	841.59
447.513	841.36
447.887	887.01
448.262	882.26
448.636	868.71
449.01	871.19
449.384	876.16
449.758	842.72
450.132	896.95
450.506	882.26
450.88	895.82
451.254	906.22
451.628	884.98
452.002	917.07
452.376	906.9
452.75	922.04
453.123	929.04
453.497	941.92
453.871	925.2
454.244	936.05
454.618	937.18
454.992	971.3
455.365	934.92
455.739	985.54
456.112	973.11
456.486	988.7
456.859	976.27
457.232	1028.02
457.606	986.67
457.979	1017.4
458.352	1036.61
458.725	1048.59
459.099	1058.08
459.472	1045.88
459.845	1031.19
460.218	1037.06
460.591	1062.15
460.964	1089.94
461.337	1109.15
461.71	1100.56
462.083	1128.36
462.456	1101.02
462.829	1091.07
463.201	1121.13
463.574	1132.65
463.947	1131.07
464.32	1144.18
464.692	1152.31
465.065	1178.75
465.438	1199.09
465.81	1191.41
466.183	1200.67
466.555	1207.91
466.928	1210.62
467.3	1215.59
467.672	1230.28
468.045	1275.02
468.417	1279.54
468.789	1281.12
469.161	1281.12
469.534	1282.71
469.906	1306.43
470.278	1355.7
470.65	1341.69
471.022	1358.41
471.394	1378.75
471.766	1360.67
472.138	1398.41
472.51	1417.17
472.882	1442.25
473.253	1427.34
473.625	1479.31
473.997	1462.59
474.369	1496.94
474.74	1530.84
475.112	1534.45
475.484	1556.37
475.855	1583.72
476.227	1601.34
476.598	1609.03
476.97	1624.39
477.341	1655.13
477.713	1660.32
478.084	1692.41
478.455	1732.64
478.827	1743.26
479.198	1780.09
479.569	1779.19
479.94	1835.69
480.311	1825.07
480.682	1875.01
481.053	1909.13
481.424	1936.02
481.795	1931.73
482.166	2007.89
482.537	2019.64
482.908	2049.47
483.279	2055.34
483.65	2087.66
484.021	2139.41
484.391	2153.42
484.762	2170.37
485.133	2199.97
485.503	2217.6
485.874	2226.86
486.244	2280.65
486.615	2302.79
486.985	2356.58
487.356	2385.28
487.726	2380.3
488.097	2452.39
488.467	2448.78
488.837	2500.98
489.207	2537.36
489.578	2554.54
489.948	2556.35
490.318	2583.46
490.688	2598.15
491.058	2629.56
491.428	2685.83
491.798	2719.5
492.168	2716.12
492.538	2770.8
492.908	2803.34
493.278	2828.65
493.648	2865.72
494.017	2847.64
494.387	2889.44
494.757	2875.43
495.126	2919.05
495.496	2900.29
495.866	2956.79
496.235	2957.01
496.605	2988.42
496.974	2981.42
497.344	3012.15
497.713	3107.07
498.082	3081.08
498.452	3104.81
498.821	3129.89
499.19	3122.88
499.559	3156.1
499.928	3181.87
500.298	3184.58
500.667	3254.86
501.036	3210.34
501.405	3240.85
501.774	3241.75
502.143	3225.48
502.512	3256.44
502.88	3299.38
503.249	3310.45
503.618	3356.1
503.987	3318.13
504.356	3375.98
504.724	3362.88
505.093	3340.96
505.462	3394.97
505.83	3422.76
506.199	3392.93
506.567	3443.33
506.936	3448.53
507.304	3509.09
507.672	3468.41
508.041	3515.19
508.409	3536.66
508.777	3556.09
509.145	3551.8
509.514	3552.48
509.882	3573.95
510.25	3584.11
510.618	3617.56
510.986	3641.97
511.354	3660.27
511.722	3628.41
512.09	3657.79
512.458	3653.49
512.826	3663.89
513.193	3688.52
513.561	3720.83
513.929	3728.74
514.297	3733.49
514.664	3716.31
515.032	3732.59
515.4	3768.74
515.767	3750.44
516.135	3782.98
516.502	3795.86
516.869	3830.21
517.237	3840.15
517.604	3841.06
517.972	3851.23
518.339	3868.85
518.706	3897.1
519.073	3864.33
519.44	3858.91
519.808	3921.06
520.175	3914.28
520.542	3920.15
520.909	3949.75
521.276	3981.62
521.643	3986.59
522.009	3999.92
522.376	4002.18
522.743	3958.57
523.11	4026.59
523.477	4050.77
523.843	4069.07
524.21	4088.51
524.577	4105.01
524.943	4130.09
525.31	4165.34
525.676	4173.7
526.043	4188.39
526.409	4206.02
526.776	4197.21
527.142	4271.78
527.508	4251.89
527.874	4265
528.241	4296.86
528.607	4303.19
528.973	4358.33
529.339	4336.41
529.705	4354.49
530.071	4393.36
530.437	4446.01
530.803	4461.61
531.169	4484.66
531.535	4485.33
531.901	4505.67
532.267	4540.25
532.632	4523.07
532.998	4562.39
533.364	4579.12
533.73	4624.77
534.095	4638.78
534.461	4612.56
534.826	4636.06
535.192	4667.02
535.557	4695.05
535.923	4691.66
536.288	4758.32
536.653	4719.9
537.019	4723.52
537.384	4780.92
537.749	4752.45
538.114	4784.08
538.479	4798.55
538.845	4837.64
539.21	4851.2
539.575	4875.15
539.94	4883.52
540.305	4901.82
540.67	4910.18
541.034	4946.79
541.399	4984.08
541.764	5000.8
542.129	5038.77
542.494	5036.96
542.858	5086.22
543.223	5050.74
543.587	5110.85
543.952	5059.1
544.316	5164.86
544.681	5123.28
545.045	5136.62
545.41	5214.13
545.774	5180.68
546.138	5200.57
546.503	5230.85
546.867	5252.32
547.231	5260.91
547.595	5282.15
547.959	5319.21
548.324	5299.1
548.688	5339.1
549.052	5365.54
549.416	5398.08
549.779	5429.04
550.143	5371.64
550.507	5412.99
550.871	5461.81
551.235	5452.09
551.599	5467.46
551.962	5509.71
552.326	5515.82
552.689	5561.01
553.053	5549.26
553.417	5556.72
553.78	5638.07
554.143	5606.21
554.507	5603.72
554.87	5645.08
555.234	5707.9
555.597	5640.11
555.96	5672.42
556.323	5681.23
556.686	5717.17
557.05	5758.07
557.413	5714.91
557.776	5729.37
558.139	5824.96
558.502	5817.95
558.865	5836.26
559.228	5884.39
559.59	5862.47
559.953	5868.12
560.316	5941.34
560.679	5949.02
561.041	5912.64
561.404	5940.21
561.767	5986.76
562.129	6013.2
562.492	6016.82
562.854	6044.62
563.217	6027.67
563.579	6048.23
563.941	6112.86
564.304	6097.72
564.666	6141.79
565.028	6130.04
565.39	6198.74
565.753	6217.04
566.115	6226.53
566.477	6200.77
566.839	6259.3
567.201	6285.06
567.563	6289.13
567.925	6340.2
568.287	6335.91
568.648	6367.32
569.01	6401.67
569.372	6432.4
569.734	6409.35
570.095	6520.08
570.457	6521.44
570.819	6492.29
571.18	6540.2
571.542	6545.39
571.903	6621.1
572.265	6645.96
572.626	6682.56
572.987	6688.89
573.349	6764.14
573.71	6799.85
574.071	6869
574.432	6871.71
574.794	6967.08
575.155	6983.8
575.516	6968.88
575.877	7034.19
576.238	7143.34
576.599	7165.26
576.96	7257.46
577.32	7312.83
577.681	7379.95
578.042	7403.45
578.403	7479.83
578.763	7536.55
579.124	7646.83
579.485	7802.53
579.845	7846.38
580.206	7973.38
580.566	7984.9
580.927	8105.8
581.287	8278.68
581.648	8283.65
582.008	8455.85
582.368	8499.47
582.728	8731.32
583.089	8836.18
583.449	8958.66
583.809	9108.49
584.169	9198.66
584.529	9432.1
584.889	9596.84
585.249	9755.48
585.609	9862.59
585.969	10108.01
586.329	10275.46
586.688	10375.35
587.048	10632.07
587.408	10857.82
587.768	11017.59
588.127	11137.81
588.487	11349.33
588.846	11710.23
589.206	11792.26
589.565	12084.91
589.925	12296.65
590.284	12546.14
590.643	12784.78
591.003	13130.98
591.362	13326.01
591.721	13536.4
592.08	13877.4
592.44	14027.23
592.799	14286.21
593.158	14570.72
593.517	14886.87
593.876	15142.91
594.235	15446.4
594.593	15688.66
594.952	15875.32
595.311	16095.88
595.67	16457.67
596.029	16878.45
596.387	17145.34
596.746	17386.69
597.104	17560.02
597.463	17849.95
597.822	18169.04
598.18	18375.36
598.538	18725.86
598.897	19063.71
599.255	19132.63
599.613	19719.96
599.972	19838.6
600.33	20160.4
600.688	20392.49
601.046	20591.8
601.404	20915.86
601.762	21197.21
602.12	21601.72
602.478	21732.56
602.836	22077.19
603.194	22195.38
603.552	22488.93
603.91	22593.33
604.268	23024.73
604.625	23212.07
604.983	23488.45
605.341	23475.34
605.698	23899.74
606.056	24328.2
606.413	24473.28
606.771	24622.66
607.128	24908.75
607.485	24948.07
607.843	25264.45
608.2	25609.98
608.557	25911.44
608.914	25992.57
609.272	26384.42
609.629	26429.16
609.986	26732.88
610.343	26731.3
610.7	27150.27
611.057	27352.98
611.414	27521.56
611.771	27656.93
612.127	27925.85
612.484	28056.92
612.841	28339.17
613.198	28363.35
613.554	28534.42
613.911	28943.22
614.267	28983.9
614.624	29093.95
614.98	29329.43
615.337	29560.38
615.693	29655.97
616.05	29959.01
616.406	29996.98
616.762	30081.72
617.118	30206.24
617.475	30364.88
617.831	30646.23
618.187	30679
618.543	30785.66
618.899	31064.3
619.255	31170.73
619.611	31185.42
619.967	31373.67
620.323	31627.67
620.678	31600.55
621.034	31582.7
621.39	31828.8
621.746	31793.54
622.101	32185.17
622.457	31998.51
622.812	32099.07
623.168	32465.16
623.523	32452.51
623.879	32532.28
624.234	32497.93
624.589	32694.08
624.945	32874.42
625.3	32907.86
625.655	32903.8
626.01	33054.75
626.365	33113.96
626.72	33230.57
627.075	33328.19
627.43	33280.06
627.785	33225.37
628.14	33458.36
628.495	33498.36
628.85	33381.75
629.205	33403.67
629.559	33713.27
629.914	33600.27
630.269	33619.03
630.623	33674.4
630.978	33558.47
631.332	33666.49
631.687	33869.87
632.041	33762.76
632.396	33783.55
632.75	33750.78
633.104	33870.55
633.459	33735.41
633.813	33754.39
634.167	33711.01
634.521	33830.33
634.875	33890.89
635.229	33860.83
635.583	33821.51
635.937	33878.23
636.291	33838.91
636.645	33861.96
636.999	33946.03
637.352	33969.3
637.706	33737.9
638.06	34094.05
638.413	33796.88
638.767	33818.35
639.121	33884.56
639.474	33727.95
639.828	33867.84
640.181	33866.93
640.534	33866.71
640.888	33785.35
641.241	33769.54
641.594	33906.71
641.947	33895.86
642.301	33785.58
642.654	33887.27
643.007	34004.56
643.36	33850.44
643.713	33840.72
644.066	33979.25
644.419	33622.2
644.771	33562.76
645.124	33254.75
645.477	33238.02
645.83	33030.57
646.182	32981.76
646.535	32916.45
646.888	32949.22
647.24	32715.1
647.593	32894.98
647.945	32950.8
648.298	32774.99
648.65	32620.19
649.002	32567.76
649.355	32778.38
649.707	32716.46
650.059	32864.7
650.411	33250
650.763	33214.97
651.115	33706.26
651.467	33419.49
651.819	33504.91
652.171	33397.79
652.523	33492.71
652.875	33452.48
653.227	33285.71
653.578	33691.8
653.93	33489.54
654.282	33374.07
654.633	33321.41
654.985	33437.57
655.337	33286.84
655.688	33314.86
656.039	33464.91
656.391	33092.72
656.742	33276.44
657.094	33387.17
657.445	33336.33
657.796	33208.87
658.147	33210.91
658.498	33160.51
658.849	33280.74
659.2	33123.9
659.551	33174.3
659.902	33360.51
660.253	33189.44
660.604	33302.88
660.955	33081.87
661.306	33233.05
661.656	33051.14
662.007	33024.24
662.358	33069.44
662.708	33250.91
663.059	33113.51
663.409	32962.33
663.76	33290
664.11	33232.15
664.461	33171.36
664.811	33138.37
665.161	33133.39
665.511	33101.53
665.862	33193.96
666.212	33139.27
666.562	33137.01
666.912	33196.9
667.262	33181.53
667.612	33081.64
667.962	33097.69
668.312	33047.75
668.662	33167.52
669.011	33044.58
669.361	32997.35
669.711	32960.07
670.06	33047.97
670.41	32866.28
670.76	32971.36
671.109	33085.49
671.459	33130.91
671.808	32933.4
672.157	32964.13
672.507	32749
672.856	32885.94
673.205	32941.99
673.554	32907.86
673.904	32847.3
674.253	32942.89
674.602	32907.64
674.951	32386.07
675.3	32311.5
675.649	32746.29
675.998	32561.66
676.346	32840.52
676.695	32851.14
677.044	32630.13
677.393	32670.13
677.741	32733.63
678.09	32662.9
678.438	32445.05
678.787	32582.45
679.135	32666.29
679.484	32447.31
679.832	32477.37
680.181	32394.43
680.529	32446.41
680.877	32431.49
681.225	32309.24
681.573	32481.43
681.922	32304.04
682.27	32172.74
682.618	32312.4
682.966	32164.38
683.314	32232.63
683.661	32089.13
684.009	31939.53
684.357	31980.88
684.705	31843.26
685.053	31869.7
685.4	31887.78
685.748	31689.14
686.095	31703.83
686.443	31566.66
686.79	31648.91
687.138	31679.87
687.485	31704.51
687.832	31512.42
688.18	31601.68
688.527	31424.74
688.874	31329.83
689.221	31246.21
689.568	31226.1
689.915	31208.02
690.262	31101.81
690.609	31076.95
690.956	30888.71
691.303	30904.3
691.65	30625.66
691.997	30886.67
692.344	30660.24
692.69	30636.51
693.037	30504.31
693.383	30380.02
693.73	30516.51
694.077	30351.77
694.423	30239.01
694.769	30310.87
695.116	30176.64
695.462	30177.09
695.808	30000.37
696.155	30013.02
696.501	29828.17
696.847	29837.89
697.193	29598.35
697.539	29751.56
697.885	29344.79
698.231	29523.09
698.577	29426.6
698.923	29343.66
699.269	29317.68
699.614	29111.58
699.96	29105.03
700.306	29051.24
700.651	29094.18
700.997	28909.78
701.342	28930.34
701.688	28757.24
702.033	28757.01
702.379	28598.37
702.724	28815.54
703.069	28583.01
703.415	28381.43
703.76	28399.96
704.105	28372.84
704.45	28197.7
704.795	28100.98
705.14	28002.91
705.485	27989.12
705.83	27898.5
706.175	27947.99
706.52	27917.03
706.865	27799.07
707.209	27675.91
707.554	27542.13
707.899	27681.11
708.243	27497.16
708.588	27471.62
708.932	27354.34
709.277	27348.01
709.621	27326.99
709.966	27118.41
710.31	27218.07
710.654	26955.48
710.998	27078.86
711.342	27175.36
711.687	26951.41
712.031	26920.45
712.375	26701.25
712.719	26725.65
713.063	26654.69
713.407	26785.99
713.75	26639.33
714.094	26618.99
714.438	26571.76
714.782	26484.53
715.125	26383.06
715.469	26428.49
715.812	26215.84
716.156	26123.41
716.499	26272.56
716.843	26183.97
717.186	26101.71
717.53	26128.38
717.873	26026.91
718.216	26088.16
718.559	25928.39
718.902	25775.17
719.246	25793.02
719.589	25673.03
719.932	25784.89
720.275	25656.75
720.617	25616.76
720.96	25635.96
721.303	25549.86
721.646	25570.66
721.989	25392.13
722.331	25457.89
722.674	25356.42
723.016	25341.96
723.359	25291.57
723.701	25339.47
724.044	25225.35
724.386	25073.27
724.729	25119.14
725.071	25049.09
725.413	24981.52
725.755	25101.06
726.097	24986.49
726.439	24928.86
726.782	24900.39
727.124	24907.17
727.465	24810.22
727.807	24770.9
728.149	24793.05
728.491	24671.02
728.833	24775.87
729.175	24579.95
729.516	24528.2
729.858	24633.05
730.199	24790.11
730.541	24652.26
730.882	24480.06
731.224	24561.64
731.565	24406.39
731.906	24359.84
732.248	24376.34
732.589	24243.68
732.93	24140.18
733.271	24144.7
733.612	24210.92
733.953	24274.19
734.294	24141.09
734.635	24064.03
734.976	24062.22
735.317	23994.43
735.658	24011.6
735.999	24027.19
736.339	23831.94
736.68	23962.34
737.021	23903.35
737.361	23831.94
737.702	23881.66
738.042	23810.02
738.383	23598.5
738.723	23810.93
739.063	23709.91
739.404	23716.69
739.744	23655.68
740.084	23596.02
740.424	23500.65
740.764	23513.08
741.104	23564.61
741.444	23312.41
741.784	23311.73
742.124	23387.21
742.464	23362.8
742.804	23417.72
743.143	23286.42
743.483	23391.96
743.823	23086.43
744.162	23197.38
744.502	23160.78
744.841	23063.6
745.181	23174.11
745.52	23038.97
745.86	23042.13
746.199	23095.92
746.538	22951.29
746.877	23006.88
747.216	23077.84
747.556	22856.6
747.895	22984.06
748.234	22784.97
748.573	22751.07
748.911	22823.38
749.25	22725.31
749.589	22590.17
749.928	22687.34
750.267	22646.21
750.605	22518.53
750.944	22482.15
751.283	22419.1
751.621	22526.22
751.96	22350.18
752.298	22332.1
752.636	22380.91
752.975	22253.91
753.313	22348.82
753.651	22257.75
753.989	22192.21
754.327	22132.1
754.666	22108.6
755.004	22080.8
755.342	22098.88
755.679	22015.95
756.017	21809.17
756.355	21999
756.693	21780.02
757.031	21829.74
757.368	21770.53
757.706	21680.14
758.044	21481.95
758.381	21549.52
758.719	21518.11
759.056	21515.62
759.394	21370.54
759.731	21385.68
760.068	21192.24
760.405	21201.5
760.743	21151.34
761.08	21178.68
