Data from hue_24_FLMS001491_00082.txt Node
Date: Tue Feb 07 17:12:52 GMT 2017
User: dcchb
Spectrometer: FLMS00149
Trigger mode: 0
Integration Time (sec): 2.000000E-2
Scans to average: 10
Electric dark correction enabled: true
Nonlinearity correction enabled: false
Boxcar width: 0
XAxis mode: Wavelengths
Number of Pixels in Spectrum: 2048
>>>>>Begin Spectral Data<<<<<
341.393	-4.24
341.776	-4.24
342.16	-4.24
342.543	-62.31
342.927	-76.33
343.31	-60.73
343.693	-50.79
344.077	-78.81
344.46	-61.41
344.843	-55.31
345.226	-44.01
345.61	-37.23
345.993	-38.81
346.376	3.9
346.759	1.64
347.142	27.63
347.525	38.47
347.908	75.53
348.291	60.62
348.674	86.61
349.057	132.71
349.44	130.22
349.823	164.8
350.206	188.75
350.588	196.21
350.971	215.87
351.354	231.46
351.737	228.53
352.119	240.73
352.502	251.58
352.884	258.35
353.267	289.31
353.65	305.59
354.032	292.7
354.414	298.58
354.797	323.21
355.179	324.12
355.562	336.77
355.944	338.8
356.326	341.52
356.709	325.47
357.091	336.09
357.473	350.56
357.855	361.18
358.238	343.55
358.62	344
359.002	341.29
359.384	356.66
359.766	358.69
360.148	335.19
360.53	350.78
360.912	338.35
361.294	332.25
361.676	340.16
362.057	333.38
362.439	357.11
362.821	329.31
363.203	317.34
363.584	331.57
363.966	334.28
364.348	321.18
364.729	333.38
365.111	344
365.493	321.4
365.874	346.26
366.256	338.13
366.637	351.01
367.019	326.15
367.4	308.3
367.781	303.78
368.163	326.6
368.544	308.07
368.925	305.13
369.306	329.09
369.688	304
370.069	324.34
370.45	327.28
370.831	315.98
371.212	315.53
371.593	322.53
371.974	312.59
372.355	328.64
372.736	318.01
373.117	330.44
373.498	322.99
373.879	324.79
374.26	318.92
374.641	315.08
375.021	290.44
375.402	296.32
375.783	329.54
376.163	341.97
376.544	332.25
376.925	328.41
377.305	333.16
377.686	314.85
378.066	320.5
378.447	355.53
378.827	332.7
379.208	349.2
379.588	351.46
379.968	351.46
380.349	351.91
380.729	339.03
381.109	369.76
381.489	340.61
381.87	350.1
382.25	356.21
382.63	361.4
383.01	346.49
383.39	344
383.77	366.6
384.15	357.11
384.53	353.04
384.91	358.24
385.29	362.31
385.67	341.52
386.049	352.36
386.429	337
386.809	366.37
387.189	367.28
387.568	362.76
387.948	373.38
388.328	364.11
388.707	360.27
389.087	374.06
389.466	366.83
389.846	366.15
390.225	378.13
390.605	379.26
390.984	378.8
391.363	365.24
391.743	368.41
392.122	387.62
392.501	385.81
392.881	370.22
393.26	382.65
393.639	391.68
394.018	388.97
394.397	397.33
394.776	383.78
395.155	389.65
395.534	373.83
395.913	391.91
396.292	407.05
396.671	402.76
397.05	387.62
397.429	388.52
397.808	374.74
398.186	407.28
398.565	389.65
398.944	426.03
399.323	419.93
399.701	399.37
400.08	407.28
400.458	407.96
400.837	407.5
401.215	412.7
401.594	414.06
401.972	411.8
402.351	420.16
402.729	417.9
403.107	417.9
403.486	432.81
403.864	439.82
404.242	418.58
404.62	452.25
404.999	427.62
405.377	440.04
405.755	424
406.133	412.25
406.511	445.92
406.889	451.34
407.267	458.12
407.645	423.55
408.023	444.11
408.401	454.96
408.779	458.12
409.156	455.64
409.534	479.14
409.912	484.34
410.29	465.81
410.667	460.38
411.045	472.13
411.422	476.65
411.8	482.76
412.178	471.68
412.555	489.76
412.933	479.14
413.31	520.27
413.687	490.67
414.065	483.43
414.442	503.09
414.819	504.45
415.197	505.13
415.574	509.65
415.951	509.2
416.328	491.34
416.705	518.01
417.082	529.53
417.46	539.93
417.837	525.01
418.214	530.21
418.591	528.63
418.967	521.4
419.344	529.76
419.721	546.48
420.098	534.05
420.475	551
420.852	521.62
421.228	551.45
421.605	553.94
421.982	551.91
422.358	564.79
422.735	555.07
423.111	566.14
423.488	563.66
423.864	582.41
424.241	604.56
424.617	572.02
424.994	587.84
425.37	591.23
425.746	571.57
426.123	588.74
426.499	590.1
426.875	583.54
427.251	607.05
427.627	598.01
428.003	625.35
428.379	606.59
428.756	606.59
429.132	625.12
429.507	628.51
429.883	642.53
430.259	652.69
430.635	642.98
431.011	626.25
431.387	635.75
431.763	674.62
432.138	676.42
432.514	666.25
432.89	669.19
433.265	673.94
433.641	678.68
434.016	696.99
434.392	687.04
434.767	717.55
435.143	735.63
435.518	727.04
435.894	725.69
436.269	760.49
436.644	752.13
437.02	720.94
437.395	727.04
437.77	755.52
438.145	774.95
438.52	758
438.895	770.21
439.271	762.97
439.646	767.72
440.021	798.68
440.395	803.2
440.77	793.93
441.145	795.97
441.52	811.11
441.895	795.29
442.27	815.18
442.645	795.52
443.019	820.83
443.394	827.38
443.769	823.76
444.143	821.28
444.518	828.51
444.892	851.33
445.267	853.59
445.641	830.77
446.016	855.4
446.39	857.66
446.764	870.77
447.139	868.51
447.513	877.55
447.887	879.81
448.262	876.87
448.636	876.87
449.01	873.71
449.384	906.25
449.758	881.16
450.132	916.64
450.506	925.91
450.88	898.79
451.254	906.02
451.628	935.63
452.002	948.51
452.376	958.68
452.75	940.82
453.123	955.06
453.497	986.47
453.871	974.04
454.244	994.83
454.618	1013.36
454.992	1004.1
455.365	1036.87
455.739	1031.89
456.112	1059.01
456.486	1046.58
456.859	1058.79
457.232	1054.72
457.606	1075.73
457.979	1093.14
458.352	1119.12
458.725	1094.49
459.099	1107.37
459.472	1141.04
459.845	1146.47
460.218	1149.4
460.591	1169.07
460.964	1153.7
461.337	1198.44
461.71	1216.52
462.083	1212.91
462.456	1236.63
462.829	1228.27
463.201	1228.72
463.574	1260.59
463.947	1266.46
464.32	1285.22
464.692	1283.41
465.065	1306.91
465.438	1334.94
465.81	1329.06
466.183	1365.9
466.555	1361.6
466.928	1382.39
467.3	1397.76
467.672	1411.77
468.045	1430.53
468.417	1475.72
468.789	1468.04
469.161	1513.24
469.534	1492.67
469.906	1558.43
470.278	1559.34
470.65	1540.58
471.022	1636.62
471.394	1630.75
471.766	1638.88
472.138	1671.65
472.51	1656.06
472.882	1737.64
473.253	1729.5
473.625	1745.1
473.997	1798.88
474.369	1802.72
474.74	1840.91
475.112	1854.02
475.484	1926.56
475.855	1921.81
476.227	1951.42
476.598	2008.82
476.97	2033.22
477.341	2075.03
477.713	2119.1
478.084	2138.31
478.455	2205.2
478.827	2238.19
479.198	2265.31
479.569	2286.55
479.94	2347.34
480.311	2378.53
480.682	2457.39
481.053	2493.32
481.424	2507.11
481.795	2558.63
482.166	2589.59
482.537	2660.33
482.908	2697.39
483.279	2735.8
483.65	2781.9
484.021	2883.14
484.391	2901
484.762	2931.5
485.133	2953.43
485.503	3007.66
485.874	3085.17
486.244	3072.29
486.615	3210.82
486.985	3244.49
487.356	3310.7
487.726	3336.92
488.097	3427.54
488.467	3453.75
488.837	3538.49
489.207	3590.02
489.578	3607.42
489.948	3672.73
490.318	3720.18
490.688	3713.41
491.058	3786.17
491.428	3825.27
491.798	3871.59
492.168	3973.29
492.538	3959.5
492.908	4054.64
493.278	4131.25
493.648	4125.15
494.017	4196.56
494.387	4239.49
494.757	4270
495.126	4328.3
495.496	4383.9
495.866	4399.04
496.235	4486.72
496.605	4507.28
496.974	4510.67
497.344	4564.68
497.713	4608.75
498.082	4680.61
498.452	4724
498.821	4714.73
499.19	4743.89
499.559	4800.61
499.928	4820.72
500.298	4857.33
500.667	4867.27
501.036	4918.8
501.405	4953.37
501.774	4977.33
502.143	5038.57
502.512	5019.36
502.88	5065.01
503.249	5051.9
503.618	5130.09
503.987	5182.52
504.356	5142.29
504.724	5251.9
505.093	5253.25
505.462	5283.31
505.83	5253.48
506.199	5418.67
506.567	5431.1
506.936	5361.95
507.304	5453.92
507.672	5473.13
508.041	5471.78
508.409	5537.99
508.777	5579.34
509.145	5610.3
509.514	5630.42
509.882	5657.53
510.25	5646.91
510.618	5726.01
510.986	5684.43
511.354	5760.58
511.722	5750.87
512.09	5854.82
512.458	5847.13
512.826	5888.94
513.193	5914.7
513.561	5896.85
513.929	5961.26
514.297	6022.95
514.664	6056.39
515.032	6057.75
515.4	6119.22
515.767	6108.37
516.135	6084.42
516.502	6077.18
516.869	6191.08
517.237	6227.01
517.604	6223.85
517.972	6223.62
518.339	6301.81
518.706	6307.46
519.073	6311.98
519.44	6331.42
519.808	6432.43
520.175	6338.42
520.542	6442.6
520.909	6503.61
521.276	6480.11
521.643	6518.76
522.009	6559.43
522.376	6659.54
522.743	6653.44
523.11	6747.22
523.477	6735.7
523.843	6799.88
524.21	6857.73
524.577	6866.32
524.943	6851.4
525.31	6918.97
525.676	6967.78
526.043	6995.58
526.409	7082.58
526.776	7135.69
527.142	7147.21
527.508	7141.79
527.874	7209.13
528.241	7243.93
528.607	7276.25
528.973	7300.43
529.339	7276.48
529.705	7403.03
530.071	7439.63
530.437	7426.75
530.803	7568.67
531.169	7540.42
531.535	7558.05
531.901	7578.16
532.267	7655.67
532.632	7682.11
532.998	7724.15
533.364	7731.6
533.73	7751.49
534.095	7715.56
534.461	7798.27
534.826	7892.96
535.192	7890.24
535.557	7971.37
535.923	7973.41
536.288	8025.61
536.653	8008.66
537.019	8051.37
537.384	8069.45
537.749	8116.68
538.114	8171.59
538.479	8222.89
538.845	8246.39
539.21	8224.92
539.575	8256.79
539.94	8276.9
540.305	8360.06
540.67	8370.68
541.034	8386.73
541.399	8378.59
541.764	8466.95
542.129	8477.12
542.494	8489.55
542.858	8530
543.223	8579.04
543.587	8667.4
543.952	8623.56
544.316	8641.86
544.681	8706.49
545.045	8826.27
545.41	8779.49
545.774	8813.38
546.138	8825.14
546.503	8835.76
546.867	8877.56
547.231	9006.83
547.595	8999.14
547.959	8949.2
548.324	8965.7
548.688	9000.95
549.052	9056.99
549.416	9092.7
549.779	9142.87
550.143	9130.66
550.507	9229.87
550.871	9180.61
551.235	9300.38
551.599	9341.96
551.962	9341.28
552.326	9333.6
552.689	9362.75
553.053	9319.36
553.417	9348.74
553.78	9467.6
554.143	9483.42
554.507	9554.38
554.87	9598.9
555.234	9674.38
555.597	9626.24
555.96	9672.8
556.323	9725.45
556.686	9719.57
557.05	9779.91
557.413	9783.3
557.776	9819.46
558.139	9819.46
558.502	9887.93
558.865	9894.71
559.228	9948.95
559.59	9985.33
559.953	10006.8
560.316	10086.8
560.679	10115.95
561.041	10150.52
561.404	10223.74
561.767	10242.05
562.129	10142.61
562.492	10297.19
562.854	10351.2
563.217	10310.97
563.579	10303.97
563.941	10424.87
564.304	10388.48
564.666	10546.9
565.028	10502.38
565.39	10570.17
565.753	10610.85
566.115	10625.54
566.477	10655.37
566.839	10765.2
567.201	10769.72
567.563	10799.09
567.925	10816.5
568.287	10890.62
568.648	10931.29
569.01	10971.07
569.372	11031.63
569.734	10974.23
570.095	11103.72
570.457	11124.51
570.819	11160.67
571.18	11212.64
571.542	11253.09
571.903	11318.63
572.265	11365.41
572.626	11415.12
572.987	11430.04
573.349	11496.7
573.71	11546.19
574.071	11536.25
574.432	11641.56
574.794	11804.27
575.155	11809.01
575.516	11747.09
575.877	11901.44
576.238	11900.53
576.599	12046.07
576.96	12095.56
577.32	12153.86
577.681	12350.47
578.042	12441.54
578.403	12471.82
578.763	12522.44
579.124	12599.95
579.485	12792.26
579.845	12846.95
580.206	13082.2
580.566	13072.48
580.927	13157.45
581.287	13402.42
581.648	13399.03
582.008	13595.18
582.368	13719.7
582.728	13907.94
583.089	14014.83
583.449	14187.03
583.809	14285.78
584.169	14487.59
584.529	14695.94
584.889	14996.5
585.249	15026.78
585.609	15227.45
585.969	15499.54
586.329	15636.93
586.688	15958.73
587.048	16145.85
587.408	16311.49
587.768	16499.51
588.127	16744.47
588.487	16883.68
588.846	17360.05
589.206	17452.48
589.565	17713.26
589.925	18002.07
590.284	18287.49
590.643	18649.06
591.003	18914.59
591.362	19166.11
591.721	19392.99
592.08	19643.83
592.44	19929.93
592.799	20267.77
593.158	20489.01
593.517	20796.8
593.876	21095.1
594.235	21416.89
594.593	21674.51
594.952	22093.94
595.311	22280.37
595.67	22711.55
596.029	23042.84
596.387	23402.38
596.746	23724.18
597.104	23911.97
597.463	24132.53
597.822	24646.41
598.18	24721.44
598.538	25110.58
598.897	25471.48
599.255	25631.02
599.613	26339.7
599.972	26422.19
600.33	26755.96
600.688	26960.93
601.046	27439.34
601.404	27765.65
601.762	27972.43
602.12	28384.85
602.478	28593.65
602.836	28939.41
603.194	29051.27
603.552	29321.55
603.91	29735.55
604.268	30123.78
604.625	30157.68
604.983	30601.29
605.341	30737.55
605.698	31340.48
606.056	31444.2
606.413	31615.95
606.771	31938.88
607.128	32259.77
607.485	32345.19
607.843	32662.02
608.2	33099.75
608.557	33396.92
608.914	33514.88
609.272	33936.34
609.629	34214.3
609.986	34495.87
610.343	34499.04
610.7	35011.34
611.057	35037.55
611.414	35225.57
611.771	35500.82
612.127	35839.11
612.484	35832.33
612.841	36148.48
613.198	36191.65
613.554	36449.27
613.911	36892.19
614.267	37078.18
614.624	37260.09
614.98	37322.24
615.337	37658.5
615.693	37679.52
616.05	38025.5
616.406	38211.48
616.762	38337.13
617.118	38363.79
617.475	38448.54
617.831	38811.01
618.187	38903.44
618.543	39229.53
618.899	39433.82
619.255	39510.66
619.611	39589.98
619.967	39679.69
620.323	40011.89
620.678	39972.79
621.034	40037.87
621.39	40074.93
621.746	40250.07
622.101	40680.79
622.457	40425.21
622.812	40641.02
623.168	40823.84
623.523	41033.55
623.879	41253.66
624.234	41086.66
624.589	41125.3
624.945	41314.9
625.3	41436.93
625.655	41456.82
626.01	41506.76
626.365	41774.33
626.72	41636.48
627.075	41778.62
627.43	41836.47
627.785	41657.72
628.14	41895.45
628.495	42044.15
628.85	42032.17
629.205	41957.15
629.559	42269
629.914	42031.72
630.269	42218.61
630.623	42155.78
630.978	42204.37
631.332	42448.21
631.687	42515.32
632.041	42362.11
632.396	42367.3
632.75	42458.83
633.104	42455.44
633.459	42409.11
633.813	42448.88
634.167	42400.52
634.521	42497.7
634.875	42473.29
635.229	42523.91
635.583	42332.95
635.937	42426.29
636.291	42403.24
636.645	42564.59
636.999	42349.45
637.352	42545.6
637.706	42358.26
638.06	42626.96
638.413	42386.96
638.767	42470.8
639.121	42454.08
639.474	42296.12
639.828	42402.11
640.181	42468.09
640.534	42482.56
640.888	42419.51
641.241	42139.29
641.594	42362.33
641.947	42475.1
642.301	42202.79
642.654	42341.09
643.007	42304.93
643.36	42285.72
643.713	42339.28
644.066	42444.59
644.419	42192.62
644.771	41900.88
645.124	41599.87
645.477	41649.36
645.83	41428.12
646.182	41226.09
646.535	41066.1
646.888	41189.26
647.24	41085.98
647.593	41348.12
647.945	41107.68
648.298	41011.63
648.65	41080.33
649.002	40935.25
649.355	41142.48
649.707	41180.89
650.059	41243.94
650.411	41624.72
650.763	41656.59
651.115	42214.77
651.467	41960.08
651.819	41848.45
652.171	41762.12
652.523	41857.04
652.875	41830.37
653.227	41720.54
653.578	41982.68
653.93	41866.98
654.282	41741.11
654.633	41620.43
654.985	41696.59
655.337	41645.06
655.688	41850.03
656.039	41991.04
656.391	41573.43
656.742	41668.79
657.094	41610.49
657.445	41848.67
657.796	41760.31
658.147	41615.69
658.498	41681.45
658.849	41719.19
659.2	41633.31
659.551	41476.25
659.902	41613.2
660.253	41532.52
660.604	41614.78
660.955	41493.65
661.306	41622.01
661.656	41579.98
662.007	41603.26
662.358	41523.26
662.708	41600.77
663.059	41573.88
663.409	41412.3
663.76	41667.44
664.11	41673.31
664.461	41713.76
664.811	41561.9
665.161	41495.46
665.511	41354.68
665.862	41511.96
666.212	41537.5
666.562	41521.22
666.912	41398.74
667.262	41439.87
667.612	41516.93
667.962	41467.44
668.312	41456.37
668.662	41541.34
669.011	41382.02
669.361	41339.08
669.711	41460.89
670.06	41464.5
670.41	41347.67
670.76	41283.04
671.109	41368.69
671.459	41171.18
671.808	41165.53
672.157	41288.46
672.507	41070.39
672.856	41196.49
673.205	41218.18
673.554	41318.97
673.904	41247.79
674.253	41432.87
674.602	41162.59
674.951	40640.34
675.3	40431.76
675.649	41199.88
675.998	41080.33
676.346	41162.36
676.695	41232.42
677.044	40832.2
677.393	41077.39
677.741	41088.92
678.09	41003.72
678.438	40823.16
678.787	40969.83
679.135	40998.53
679.484	40728.48
679.832	40741.81
680.181	40573.45
680.529	40773
680.877	40660
681.225	40509.27
681.573	40792.43
681.922	40435.15
682.27	40417.98
682.618	40433.8
682.966	40173.01
683.314	40320.13
683.661	40248.72
684.009	39954.03
684.357	40007.59
684.705	40029.29
685.053	40024.77
685.4	40075.61
685.748	39859.12
686.095	39847.37
686.443	39684.66
686.79	39616.87
687.138	39651.67
687.485	39621.84
687.832	39582.07
688.18	39686.92
688.527	39424.56
688.874	39231.12
689.221	39269.98
689.568	39154.96
689.915	39143.89
690.262	39178.46
690.609	39147.5
690.956	39007.17
691.303	38882.42
691.65	38783.44
691.997	38731.02
692.344	38635.65
692.69	38392.49
693.037	38501.87
693.383	38076.12
693.73	38375.77
694.077	37999.51
694.423	38179.84
694.769	38020.3
695.116	37743.24
695.462	37884.26
695.808	37584.6
696.155	37709.12
696.501	37394.55
696.847	37485.4
697.193	37307.78
697.539	37420.99
697.885	37017.61
698.231	36989.14
698.577	36779.88
698.923	36983.49
699.269	36845.87
699.614	36538.3
699.96	36446.1
700.306	36465.99
700.651	36406.33
700.997	36310.06
701.342	36244.08
701.688	36270.06
702.033	36029.17
702.379	36028.71
702.724	35945.78
703.069	36019
703.415	35642.06
703.76	35661.27
704.105	35650.87
704.45	35493.59
704.795	35353.25
705.14	35290.2
705.485	35311.67
705.83	35111.9
706.175	35248.62
706.52	35068.74
706.865	34976.76
707.209	34988.29
707.554	34817.67
707.899	34885.24
708.243	34630.56
708.588	34659.48
708.932	34339.04
709.277	34350.57
709.621	34365.93
709.966	34142.21
710.31	34318.93
710.654	33909.45
710.998	33973.63
711.342	33970.01
711.687	33900.41
712.031	33772.95
712.375	33671.71
712.719	33724.82
713.063	33589.46
713.407	33755.55
713.75	33534.09
714.094	33523.92
714.438	33423.81
714.782	33375
715.125	33111.28
715.469	33236.92
715.812	33038.96
716.156	33028.34
716.499	32766.43
716.843	32939.08
717.186	32777.27
717.53	32991.96
717.873	32820.89
718.216	32780.66
718.559	32583.15
718.902	32493.21
719.246	32636.03
719.589	32434.01
719.932	32198.98
720.275	32355.59
720.617	32302.03
720.96	32293.22
721.303	32297.96
721.646	32205.76
721.989	32158.31
722.331	32093.22
722.674	32084.64
723.016	32064.98
723.359	31930.74
723.701	31951.53
724.044	31736.62
724.386	31540.02
724.729	31701.6
725.071	31780.46
725.413	31677.64
725.755	31715.61
726.097	31488.72
726.439	31344.32
726.782	31299.57
727.124	31441.49
727.465	31232.68
727.807	31362.17
728.149	31106.13
728.491	31050.31
728.833	31163.76
729.175	31038.79
729.516	30992.91
729.858	31075.85
730.199	30946.14
730.541	30969.86
730.882	30723.99
731.224	30824.33
731.565	30595.18
731.906	30803.99
732.248	30725.12
732.589	30521.29
732.93	30556.32
733.271	30465.24
733.612	30601.06
733.953	30475.41
734.294	30444.68
734.635	30368.75
734.976	30411.01
735.317	30252.14
735.658	30149.32
735.999	30239.49
736.339	30117.68
736.68	30236.55
737.021	30109.1
737.361	30021.19
737.702	30100.06
738.042	29975.31
738.383	29867.52
738.723	29962.88
739.063	29865.03
739.404	29979.83
739.744	29696.22
740.084	29714.76
740.424	29718.15
740.764	29639.96
741.104	29710.69
741.444	29545.95
741.784	29526.74
742.124	29655.77
742.464	29550.69
742.804	29498.94
743.143	29450.81
743.483	29393.41
743.823	29215.33
744.162	29247.65
744.502	29276.35
744.841	29191.38
745.181	29286.97
745.52	29211.94
745.86	29185.28
746.199	29227.54
746.538	29052.85
746.877	29103.7
747.216	29100.76
747.556	28962.68
747.895	29004.94
748.234	28851.5
748.573	28823.25
748.911	28817.83
749.25	28793.65
749.589	28676.14
749.928	28780.09
750.267	28799.07
750.605	28603.82
750.944	28515.46
751.283	28495.35
751.621	28511.17
751.96	28366.32
752.298	28307.56
752.636	28364.51
752.975	28263.95
753.313	28131.52
753.651	28192.54
753.989	28017.85
754.327	27933.11
754.666	27928.14
755.004	27978.3
755.342	27854.92
755.679	27952.09
756.017	27769.04
756.355	27873.22
756.693	27699.22
757.031	27670.52
757.368	27558.43
757.706	27546.45
758.044	27385.55
758.381	27557.98
758.719	27382.39
759.056	27381.94
759.394	27234.14
759.731	27095.62
