Data from hue_30_FLMS001491_89.txt Node
Date: Mon Feb 06 15:06:13 GMT 2017
User: dcchb
Spectrometer: FLMS00149
Trigger mode: 0
Integration Time (sec): 2.000000E-2
Scans to average: 10
Electric dark correction enabled: true
Nonlinearity correction enabled: false
Boxcar width: 0
XAxis mode: Wavelengths
Number of Pixels in Spectrum: 2048
>>>>>Begin Spectral Data<<<<<
341.393	-20.24
341.776	-20.24
342.16	-20.24
342.543	-58.43
342.927	-68.15
343.31	-63.18
343.693	-77.41
344.077	-66.79
344.46	-69.05
344.843	-51.43
345.226	-47.36
345.61	-26.57
345.993	-5.55
346.376	-18.88
346.759	10.04
347.142	22.02
347.525	60.44
347.908	58.4
348.291	61.11
348.674	85.52
349.057	128.68
349.44	114.9
349.823	142.24
350.206	174.56
350.588	204.39
350.971	219.3
351.354	228.57
351.737	223.14
352.119	252.97
352.502	258.85
352.884	268.34
353.267	287.1
353.65	268.79
354.032	309.47
354.414	302.92
354.797	302.24
355.179	328.45
355.562	324.84
355.944	331.84
356.326	325.74
356.709	328.68
357.091	333.65
357.473	338.62
357.855	328.45
358.238	360.32
358.62	354.89
359.002	324.38
359.384	343.14
359.766	361.67
360.148	346.3
360.53	349.92
360.912	343.82
361.294	344.27
361.676	335.46
362.057	326.64
362.439	318.51
362.821	346.08
363.203	344.27
363.584	343.37
363.966	340.88
364.348	339.52
364.729	315.8
365.111	314.21
365.493	333.88
365.874	303.82
366.256	311.05
366.637	320.32
367.019	317.6
367.4	318.06
367.781	321.67
368.163	313.99
368.544	325.06
368.925	323.48
369.306	315.57
369.688	337.27
370.069	342.91
370.45	317.6
370.831	314.89
371.212	330.03
371.593	324.38
371.974	318.51
372.355	333.2
372.736	333.65
373.117	310.83
373.498	313.08
373.879	330.49
374.26	314.67
374.641	323.93
375.021	316.7
375.402	339.98
375.783	345.85
376.163	346.98
376.544	340.65
376.925	332.29
377.305	344.27
377.686	319.64
378.066	328.9
378.447	317.15
378.827	333.2
379.208	336.36
379.588	356.25
379.968	349.24
380.349	340.65
380.729	330.71
381.109	339.07
381.489	334.33
381.87	320.54
382.25	350.15
382.63	357.15
383.01	363.25
383.39	332.29
383.77	330.26
384.15	355.34
384.53	347.89
384.91	354.89
385.29	344.27
385.67	375.91
386.049	366.19
386.429	359.41
386.809	343.37
387.189	360.09
387.568	373.42
387.948	357.15
388.328	372.07
388.707	379.3
389.087	374.78
389.466	379.75
389.846	408.9
390.225	389.69
390.605	357.6
390.984	360.77
391.363	382.91
391.743	386.98
392.122	380.65
392.501	390.6
392.881	399.18
393.26	379.3
393.639	383.82
394.018	368.68
394.397	390.37
394.776	422.69
395.155	374.1
395.534	390.15
395.913	399.86
396.292	381.56
396.671	393.76
397.05	417.49
397.429	406.64
397.808	404.38
398.186	386.08
398.565	396.25
398.944	396.25
399.323	401.9
399.701	396.7
400.08	417.49
400.458	416.59
400.837	411.61
401.215	434.21
401.594	427.43
401.972	402.57
402.351	433.08
402.729	422.23
403.107	422.91
403.486	439.18
403.864	429.01
404.242	457.94
404.62	427.66
404.999	440.99
405.377	440.54
405.755	467.43
406.133	458.39
406.511	436.7
406.889	448.22
407.267	446.41
407.645	485.28
408.023	468.56
408.401	446.41
408.779	467.88
409.156	475.79
409.534	475.34
409.912	489.35
410.29	481.67
410.667	490.93
411.045	488.22
411.422	496.58
411.8	489.58
412.178	492.97
412.555	495
412.933	494.55
413.31	527.09
413.687	495.91
414.065	510.59
414.442	502.23
414.819	517.6
415.197	515.34
415.574	523.93
415.951	518.05
416.328	527.77
416.705	541.78
417.082	541.1
417.46	536.81
417.837	549.46
418.214	543.81
418.591	552.17
418.967	557.37
419.344	570.48
419.721	577.48
420.098	555.34
420.475	587.2
420.852	561.44
421.228	579.29
421.605	603.47
421.982	572.51
422.358	584.04
422.735	607.31
423.111	592.85
423.488	602.57
423.864	607.31
424.241	601.44
424.617	603.02
424.994	630.14
425.37	630.36
425.746	628.1
426.123	629.46
426.499	616.81
426.875	620.42
427.251	668.1
427.627	639.4
428.003	649.35
428.379	655.45
428.756	663.36
429.132	679.4
429.507	675.11
429.883	677.37
430.259	684.37
430.635	680.31
431.011	713.75
431.387	717.59
431.763	728.44
432.138	716.69
432.514	751.49
432.89	723.47
433.265	710.14
433.641	712.62
434.016	741.32
434.392	739.51
434.767	757.82
435.143	773.64
435.518	771.15
435.894	771.83
436.269	780.42
436.644	798.5
437.02	800.3
437.395	801.43
437.77	818.61
438.145	830.59
438.52	812.05
438.895	838.95
439.271	832.17
439.646	838.95
440.021	850.25
440.395	837.59
440.77	836.91
441.145	867.19
441.52	872.39
441.895	869.91
442.27	874.65
442.645	869.91
443.019	892.96
443.394	877.82
443.769	906.97
444.143	878.95
444.518	932.28
444.892	931.6
445.267	919.62
445.641	915.33
446.016	939.28
446.39	936.35
446.764	939.28
447.139	953.97
447.513	959.62
447.887	956.01
448.262	936.8
448.636	949
449.01	968.21
449.384	971.37
449.758	991.03
450.132	989.68
450.506	1003.46
450.88	986.29
451.254	997.36
451.628	1009.56
452.002	1038.04
452.376	1032.16
452.75	1052.73
453.123	1050.92
453.497	1043.46
453.871	1068.55
454.244	1087.75
454.618	1086.4
454.992	1099.96
455.365	1094.31
455.739	1125.94
456.112	1123.91
456.486	1118.94
456.859	1143.57
457.232	1173.18
457.606	1173.4
457.979	1221.54
458.352	1201.42
458.725	1188.54
459.099	1210.46
459.472	1272.16
459.845	1292.72
460.218	1256.56
460.591	1287.52
460.964	1290.46
461.337	1305.38
461.71	1308.31
462.083	1348.54
462.456	1344.24
462.829	1373.85
463.201	1382.21
463.574	1390.34
463.947	1409.33
464.32	1448.87
464.692	1438.25
465.065	1461.98
465.438	1465.6
465.81	1506.95
466.183	1524.13
466.555	1529.55
466.928	1537.23
467.3	1580.62
467.672	1597.8
468.045	1620.4
468.417	1623.33
468.789	1646.84
469.161	1665.82
469.534	1695.2
469.906	1692.48
470.278	1727.06
470.65	1750.79
471.022	1789.66
471.394	1811.58
471.766	1852.48
472.138	1881.63
472.51	1893.83
472.882	1949.65
473.253	1947.62
473.625	1974.51
473.997	2027.39
474.369	2037.11
474.74	2064.23
475.112	2113.26
475.484	2146.71
475.855	2222.64
476.227	2227.16
476.598	2318.68
476.97	2306.03
477.341	2358.91
477.713	2410.66
478.084	2423.31
478.455	2518
478.827	2525.46
479.198	2634.38
479.569	2615.85
479.94	2670.54
480.311	2749.86
480.682	2813.36
481.053	2846.8
481.424	2919.57
481.795	2991.66
482.166	3028.04
482.537	3078.21
482.908	3147.13
483.279	3235.04
483.65	3300.8
484.021	3368.6
484.391	3428.03
484.762	3449.05
485.133	3473.91
485.503	3567.01
485.874	3635.26
486.244	3730.17
486.615	3785.08
486.985	3883.16
487.356	3938.75
487.726	4008.13
488.097	4101.91
488.467	4103.95
488.837	4232.98
489.207	4269.14
489.578	4356.59
489.948	4428.91
490.318	4499.64
490.688	4546.19
491.058	4632.07
491.428	4720.2
491.798	4729.47
492.168	4874.77
492.538	4933.53
492.908	5025.73
493.278	5086.74
493.648	5147.08
494.017	5202
494.387	5246.29
494.757	5384.82
495.126	5410.58
495.496	5401.54
495.866	5437.24
496.235	5558.6
496.605	5656
496.974	5675.88
497.344	5746.61
497.713	5810.34
498.082	5839.95
498.452	5935.99
498.821	5952.48
499.19	5970.56
499.559	6093.27
499.928	6122.42
500.298	6196.77
500.667	6220.27
501.036	6233.61
501.405	6355.86
501.774	6363.77
502.143	6402.87
502.512	6472.02
502.88	6504.11
503.249	6535.97
503.618	6582.52
503.987	6611.22
504.356	6701.84
504.724	6758.11
505.093	6779.36
505.462	6779.81
505.83	6840.6
506.199	6928.96
506.567	7020.71
506.936	7015.06
507.304	7111.1
507.672	7147.26
508.041	7184.32
508.409	7287.59
508.777	7232.23
509.145	7339.34
509.514	7348.83
509.882	7414.59
510.25	7391.99
510.618	7469.06
510.986	7525.78
511.354	7519
511.722	7619.79
512.09	7672.89
512.458	7658.88
512.826	7702.95
513.193	7804.41
513.561	7759.44
513.929	7867.01
514.297	7944.97
514.664	7905.65
515.032	7977.97
515.4	8043.05
515.767	8059.77
516.135	8125.53
516.502	8096.61
516.869	8232.42
517.237	8249.6
517.604	8182.03
517.972	8317.17
518.339	8329.37
518.706	8358.98
519.073	8438.97
519.44	8419.09
519.808	8572.08
520.175	8525.52
520.542	8684.62
520.909	8687.1
521.276	8684.84
521.643	8776.82
522.009	8772.98
522.376	8869.7
522.743	8894.33
523.11	8992.4
523.477	9071.72
523.843	9063.59
524.21	9156.92
524.577	9196.69
524.943	9275.56
525.31	9291.61
525.676	9386.29
526.043	9448.89
526.409	9490.02
526.776	9558.27
527.142	9560.98
527.508	9605.27
527.874	9695.21
528.241	9728.2
528.607	9745.83
528.973	9810.01
529.339	9855.21
529.705	9978.37
530.071	10003.23
530.437	10095.88
530.803	10099.95
531.169	10152.6
531.535	10108.53
531.901	10242.54
532.267	10285.25
532.632	10316.66
532.998	10345.36
533.364	10449.77
533.73	10495.19
534.095	10497
534.461	10511.23
534.826	10647.5
535.192	10654.96
535.557	10732.25
535.923	10776.09
536.288	10791.45
536.653	10857.89
537.019	10857.89
537.384	10975.4
537.749	10958.45
538.114	11005.91
538.479	11022.63
538.845	11101.95
539.21	11040.26
539.575	11139.47
539.94	11199.8
540.305	11345.34
540.67	11296.07
541.034	11254.04
541.399	11411.1
541.764	11410.65
542.129	11494.03
542.494	11534.94
542.858	11556.18
543.223	11582.17
543.587	11639.79
543.952	11701.49
544.316	11690.86
544.681	11721.6
545.045	11816.96
545.41	11848.15
545.774	11883.18
546.138	11858.32
546.503	11963.63
546.867	11981.7
547.231	12115.71
547.595	12162.94
547.959	12164.3
548.324	12188.93
548.688	12201.81
549.052	12283.84
549.416	12330.17
549.779	12349.6
550.143	12399.55
550.507	12459.66
550.871	12536.94
551.235	12525.65
551.599	12654.46
551.962	12614.46
552.326	12705.75
552.689	12858.74
553.053	12698.07
553.417	12817.16
553.78	12920.44
554.143	12898.29
554.507	12922.7
554.87	13011.51
555.234	13084.5
555.597	13023.71
555.96	12985.29
556.323	13133.99
556.686	13128.12
557.05	13249.02
557.413	13261.22
557.776	13345.96
558.139	13425.06
558.502	13380.54
558.865	13442.91
559.228	13520.42
559.59	13632.96
559.953	13622.79
560.316	13728.1
560.679	13742.79
561.041	13858.94
561.404	13836.12
561.767	13875.44
562.129	13853.97
562.492	14018.71
562.854	13983.46
563.217	14020.3
563.579	14090.12
563.941	14138.26
564.304	14225.26
564.666	14301.42
565.028	14267.75
565.39	14355.43
565.753	14489.89
566.115	14468.42
566.477	14574.4
566.839	14582.77
567.201	14653.95
567.563	14644.23
567.925	14738.92
568.287	14805.13
568.648	14790.44
569.01	14865.24
569.372	15029.08
569.734	14925.81
570.095	15028.63
570.457	15150.66
570.819	15194.05
571.18	15277.66
571.542	15385.23
571.903	15439.24
572.265	15496.19
572.626	15526.47
572.987	15573.93
573.349	15631.1
573.71	15759.91
574.071	15809.63
574.432	15841.94
574.794	16040.36
575.155	16067.47
575.516	16019.11
575.877	16166.45
576.238	16315.15
576.599	16415.03
576.96	16493.68
577.32	16571.87
577.681	16796.49
578.042	16773.44
578.403	16827.9
578.763	17053.66
579.124	17185.86
579.485	17265.41
579.845	17474.89
580.206	17527.77
580.566	17604.16
580.927	17805.51
581.287	17994.2
581.648	18119.85
582.008	18351.71
582.368	18535.66
582.728	18606.16
583.089	18698.36
583.449	18976.1
583.809	19219.25
584.169	19415.41
584.529	19504.44
584.889	19889.07
585.249	19983.53
585.609	20221.71
585.969	20520.92
586.329	20677.07
586.688	20877.97
587.048	21134.01
587.408	21403.6
587.768	21584.84
588.127	21792.52
588.487	21970.14
588.846	22484.48
589.206	22486.51
589.565	22886.05
589.925	23120.39
590.284	23357
590.643	23575.75
591.003	23988.85
591.362	24262.96
591.721	24513.35
592.08	24846.9
592.44	25014.81
592.799	25330.73
593.158	25590.16
593.517	25905.18
593.876	26285.28
594.235	26546.75
594.593	26823.12
594.952	27146.5
595.311	27385.14
595.67	27688.18
596.029	28052.02
596.387	28374.95
596.746	28707.59
597.104	28856.74
597.463	29133.8
597.822	29470.74
598.18	29621.24
598.538	30094
598.897	30501.44
599.255	30441.33
599.613	31130.13
599.972	31226.4
600.33	31611.92
600.688	31504.81
601.046	32106.37
601.404	32415.29
601.762	32522.86
602.12	33033.35
602.478	33156.52
602.836	33395.83
603.194	33547.01
603.552	33944.74
603.91	33963.5
604.268	34394
604.625	34581.79
604.983	34780.65
605.341	34861.33
605.698	35249.79
606.056	35509.67
606.413	35717.13
606.771	36064.24
607.128	36283.44
607.485	36414.96
607.843	36595.52
608.2	36969.3
608.557	37364.77
608.914	37454.71
609.272	37790.74
609.629	37897.86
609.986	38228.47
610.343	38207.23
610.7	38681.57
611.057	38700.1
611.414	38849.92
611.771	39155.91
612.127	39247.65
612.484	39423.7
612.841	39714.53
613.198	39738.94
613.554	39757.92
613.911	40290.34
614.267	40268.42
614.624	40318.81
614.98	40437.23
615.337	40871.57
615.693	40969.42
616.05	41004.22
616.406	41344.55
616.762	41320.37
617.118	41434.49
617.475	41609.4
617.831	41738.89
618.187	41951.54
618.543	42226.11
618.899	42385.43
619.255	42345.88
619.611	42621.35
619.967	42688.24
620.323	42756.94
620.678	42797.84
621.034	42776.15
621.39	42963.04
621.746	42932.53
622.101	43398.73
622.457	43147.66
622.812	43358.28
623.168	43508.11
623.523	43486.41
623.879	43746.29
624.234	43419.97
624.589	43687.54
624.945	43822.45
625.3	43924.59
625.655	43974.76
626.01	43970.69
626.365	44145.83
626.72	44088.43
627.075	44128.66
627.43	44214.53
627.785	44110.8
628.14	44342.89
628.495	44307.63
628.85	44333.85
629.205	44278.48
629.559	44647.29
629.914	44375.43
630.269	44672.82
630.623	44521.19
630.978	44315.09
631.332	44691.81
631.687	44688.19
632.041	44532.49
632.396	44592.15
632.75	44540.4
633.104	44591.02
633.459	44584.24
633.813	44652.71
634.167	44534.07
634.521	44555.31
634.875	44568.87
635.229	44669.88
635.583	44445.94
635.937	44562.77
636.291	44460.17
636.645	44434.64
636.999	44480.29
637.352	44480.74
637.706	44376.11
638.06	44676.44
638.413	44559.61
638.767	44527.29
639.121	44576.33
639.474	44230.8
639.828	44411.36
640.181	44402.1
640.534	44454.3
640.888	44420.63
641.241	44189.22
641.594	44309.89
641.947	44366.16
642.301	44336.33
642.654	44311.25
643.007	44224.02
643.36	44239.16
643.713	44160.29
644.066	44269.9
644.419	44103.12
644.771	43817.25
645.124	43521.67
645.477	43529.35
645.83	43237.15
646.182	42952.19
646.535	42950.38
646.888	42906.54
647.24	42967.1
647.593	42938.63
647.945	42911.51
648.298	42887.56
648.65	42733.44
649.002	42534.35
649.355	42877.62
649.707	42747.9
650.059	42986.99
650.411	43336.59
650.763	43419.52
651.115	43892.96
651.467	43736.12
651.819	43755.78
652.171	43633.08
652.523	43653.87
652.875	43595.79
653.227	43448.45
653.578	43704.71
653.93	43546.75
654.282	43553.53
654.633	43395.12
654.985	43534.55
655.337	43476.24
655.688	43498.39
656.039	43558.05
656.391	43310.82
656.742	43323.71
657.094	43324.38
657.445	43510.59
657.796	43484.61
658.147	43400.09
658.498	43277.38
658.849	43401.9
659.2	43317.6
659.551	43139.98
659.902	43486.19
660.253	43172.52
660.604	43302.24
660.955	43100.43
661.306	43291.16
661.656	43131.62
662.007	43324.16
662.358	43270.15
662.708	43213.65
663.059	43221.34
663.409	43113.09
663.76	43246.19
664.11	43307.21
664.461	43169.13
664.811	43192.41
665.161	43158.96
665.511	43074.45
665.862	43179.08
666.212	43231.73
666.562	43306.3
666.912	43066.54
667.262	43173.43
667.612	43018.18
667.962	43170.26
668.312	43048.68
668.662	43253.65
669.011	43074.67
669.361	42949.03
669.711	42912.19
670.06	42883.49
670.41	42750.61
670.76	42784.51
671.109	42932.3
671.459	42847.11
671.808	42855.24
672.157	42955.13
672.507	42485.08
672.856	42768.01
673.205	42694.12
673.554	42794.45
673.904	42627.45
674.253	42949.25
674.602	42861.12
674.951	42130.74
675.3	42120.57
675.649	42733.89
675.998	42749.94
676.346	42622.03
676.695	42750.16
677.044	42497.06
677.393	42673.78
677.741	42614.8
678.09	42484.18
678.438	42441.47
678.787	42537.06
679.135	42516.04
679.484	42201.93
679.832	42400.79
680.181	42201.25
680.529	42241.93
680.877	42080.8
681.225	42207.35
681.573	42380.68
681.922	41900.47
682.27	41950.18
682.618	41993.8
682.966	41867.02
683.314	41934.82
683.661	41831.09
684.009	41507.71
684.357	41560.36
684.705	41558.78
685.053	41532.11
685.4	41532.57
685.748	41353.14
686.095	41406.69
686.443	41120.15
686.79	41173.25
687.138	41303.65
687.485	41099.58
687.832	40978
688.18	40914.73
688.527	40896.88
688.874	40860.49
689.221	40646.49
689.568	40683.55
689.915	40597.22
690.262	40525.81
690.609	40514.06
690.956	40433.16
691.303	40314.29
691.65	40119.04
691.997	40183
692.344	39967.41
692.69	39870.91
693.037	39946.17
693.383	39493.07
693.73	39663.24
694.077	39573.3
694.423	39508.89
694.769	39323.58
695.116	39171.95
695.462	39270.7
695.808	39176.02
696.155	39225.73
696.501	38826.87
696.847	38906.19
697.193	38530.84
697.539	38759.31
697.885	38421.91
698.231	38403.38
698.577	38328.36
698.923	38331.97
699.269	38100.11
699.614	37959.78
699.96	37897.41
700.306	38074.8
700.651	37804.08
700.997	37741.48
701.342	37574.25
701.688	37508.49
702.033	37529.73
702.379	37565.21
702.724	37121.16
703.069	37277.08
703.415	36922.07
703.76	36917.32
704.105	36965.23
704.45	36941.73
704.795	36688.4
705.14	36607.95
705.485	36571.79
705.83	36479.37
706.175	36415.86
706.52	36365.47
706.865	36241.63
707.209	36222.42
707.554	36030.79
707.899	36222.2
708.243	35840.06
708.588	35857.46
708.932	35671.93
709.277	35680.74
709.621	35588.32
709.966	35522.55
710.31	35523.46
710.654	35180.87
710.998	35409.56
711.342	35325.95
711.687	35165.95
712.031	35091.61
712.375	34873.31
712.719	34880.99
713.063	34824.04
713.407	34909.01
713.75	34764.16
714.094	34769.81
714.438	34623.6
714.782	34640.32
715.125	34492.3
715.469	34597.83
715.812	34284.62
716.156	34024.51
716.499	34206.66
716.843	34216.6
717.186	34032.2
717.53	34076.94
717.873	34164.4
718.216	33966.66
718.559	33777.06
718.902	33660.91
719.246	33754.92
719.589	33587.01
719.932	33456.39
720.275	33472.67
720.617	33509.95
720.96	33433.12
721.303	33405.77
721.646	33461.14
721.989	33125.56
722.331	33275.83
722.674	33176.4
723.016	33200.81
723.359	33240.13
723.701	33147.48
724.044	32933.92
724.386	32723.31
724.729	32863.64
725.071	32726.7
725.413	32637.43
725.755	32778.22
726.097	32621.16
726.439	32436.08
726.782	32504.1
727.124	32463.88
727.465	32329.64
727.807	32400.15
728.149	32292.58
728.491	32217.56
728.833	32255.3
729.175	32116.99
729.516	32082.42
729.858	32005.59
730.199	32079.93
730.541	32086.94
730.882	32029.77
731.224	32009.43
731.565	31822.09
731.906	31836.1
732.248	31823.67
732.589	31653.5
732.93	31606.27
733.271	31647.4
733.612	31615.54
733.953	31655.76
734.294	31510.68
734.635	31286.73
734.976	31452.83
735.317	31322.44
735.658	31331.03
735.999	31346.39
736.339	31198.37
736.68	31288.77
737.021	31112.28
737.361	30949.79
737.702	31195.89
738.042	31157.47
738.383	30914.99
738.723	31047.19
739.063	30897.59
739.404	30921.77
739.744	30917.03
740.084	30738.95
740.424	30769.46
740.764	30680.2
741.104	30702.79
741.444	30538.5
741.784	30472.07
742.124	30557.04
742.464	30330.83
742.804	30406.08
743.143	30374.22
743.483	30416.02
743.823	30152.53
744.162	30237.95
744.502	30371.96
744.841	30095.35
745.181	30121.79
745.52	30108.46
745.86	30117.05
746.199	29923.61
746.538	29903.27
746.877	30021.68
747.216	29985.53
747.556	29854.46
747.895	29872.99
748.234	29872.99
748.573	29727.9
748.911	29647.91
749.25	29666.66
749.589	29476.39
749.928	29478.65
750.267	29561.13
750.605	29421.7
750.944	29431.64
751.283	29458.08
751.621	29362.49
751.96	29207.92
752.298	29177.18
752.636	29257.41
752.975	29151.65
753.313	28921.15
753.651	29080.92
753.989	28864.2
754.327	28823.97
754.666	28739.91
755.004	28821.26
755.342	28651.77
755.679	28734.48
756.017	28554.6
756.355	28695.62
756.693	28551.21
757.031	28616.3
757.368	28366.36
757.706	28383.99
758.044	28220.15
