Data from hue_280_FLMS001491_00047.txt Node
Date: Tue Feb 07 15:55:20 GMT 2017
User: dcchb
Spectrometer: FLMS00149
Trigger mode: 0
Integration Time (sec): 2.000000E-2
Scans to average: 10
Electric dark correction enabled: true
Nonlinearity correction enabled: false
Boxcar width: 0
XAxis mode: Wavelengths
Number of Pixels in Spectrum: 2048
>>>>>Begin Spectral Data<<<<<
341.393	-5.93
341.776	-5.93
342.16	-5.93
342.543	-72.82
342.927	-64.46
343.31	-82.99
343.693	-67.17
344.077	-66.5
344.46	-66.72
344.843	-53.39
345.226	-32.15
345.61	-15.2
345.993	-10.45
346.376	-15.2
346.759	9.21
347.142	29.77
347.525	31.81
347.908	43.11
348.291	99.15
348.674	110.45
349.057	86.27
349.44	124.69
349.823	130.34
350.206	163.78
350.588	190
350.971	203.55
351.354	200.39
351.737	213.72
352.119	244.91
352.502	251.24
352.884	228.86
353.267	262.08
353.65	278.13
354.032	279.03
354.414	307.51
354.797	323.55
355.179	315.64
355.562	317.9
355.944	317.45
356.326	323.78
356.709	324
357.091	325.13
357.473	334.4
357.855	329.88
358.238	326.94
358.62	353.38
359.002	327.62
359.384	352.25
359.766	333.72
360.148	335.3
360.53	321.29
360.912	309.54
361.294	319.94
361.676	329.2
362.057	315.87
362.439	327.84
362.821	334.85
363.203	318.13
363.584	336.43
363.966	315.19
364.348	296.43
364.729	301.63
365.111	314.51
365.493	317.45
365.874	311.8
366.256	329.65
366.637	304.34
367.019	301.18
367.4	301.63
367.781	288.98
368.163	319.94
368.544	308.41
368.925	306.83
369.306	312.25
369.688	301.18
370.069	314.96
370.45	278.13
370.831	286.49
371.212	306.38
371.593	307.51
371.974	313.83
372.355	279.26
372.736	298.01
373.117	309.31
373.498	308.18
373.879	289.2
374.26	288.3
374.641	305.02
375.021	292.14
375.402	310.9
375.783	286.72
376.163	318.35
376.544	307.28
376.925	317.9
377.305	300.5
377.686	312.93
378.066	341.4
378.447	317
378.827	297.34
379.208	311.8
379.588	331.01
379.968	319.26
380.349	343.44
380.729	339.6
381.109	317.45
381.489	322.87
381.87	325.58
382.25	328.52
382.63	338.92
383.01	330.56
383.39	343.89
383.77	329.2
384.15	348.86
384.53	331.01
384.91	328.75
385.29	335.98
385.67	333.95
386.049	365.13
386.429	338.69
386.809	326.26
387.189	332.14
387.568	321.29
387.948	340.05
388.328	354.74
388.707	345.02
389.087	369.88
389.466	368.52
389.846	337.56
390.225	344.12
390.605	375.07
390.984	368.3
391.363	367.17
391.743	377.11
392.122	363.78
392.501	371.01
392.881	366.49
393.26	380.72
393.639	366.49
394.018	383.66
394.397	355.19
394.776	362.65
395.155	371.23
395.534	374.4
395.913	385.02
396.292	378.69
396.671	399.26
397.05	388.63
397.429	391.12
397.808	400.84
398.186	402.64
398.565	393.38
398.944	389.54
399.323	392.48
399.701	391.57
400.08	406.71
400.458	389.31
400.837	399.93
401.215	394.96
401.594	405.81
401.972	388.86
402.351	414.17
402.729	385.92
403.107	411.68
403.486	415.75
403.864	416.66
404.242	429.31
404.62	429.76
404.999	439.48
405.377	452.14
405.755	422.53
406.133	419.82
406.511	435.41
406.889	449.42
407.267	440.38
407.645	460.04
408.023	450.33
408.401	484.68
408.779	473.83
409.156	485.35
409.534	482.87
409.912	492.59
410.29	474.96
410.667	488.07
411.045	505.92
411.422	513.83
411.8	518.8
412.178	505.92
412.555	526.71
412.933	520.38
413.31	538.23
413.687	533.26
414.065	539.82
414.442	547.73
414.819	567.84
415.197	566.71
415.574	554.96
415.951	585.69
416.328	585.92
416.705	574.17
417.082	617.78
417.46	588.4
417.837	612.13
418.214	596.09
418.591	616.2
418.967	632.7
419.344	602.87
419.721	632.02
420.098	644.67
420.475	666.37
420.852	653.49
421.228	684.67
421.605	679.25
421.982	669.76
422.358	685.35
422.735	719.7
423.111	725.35
423.488	728.96
423.864	726.93
424.241	742.07
424.617	763.31
424.994	774.61
425.37	781.62
425.746	779.58
426.123	783.43
426.499	779.36
426.875	791.79
427.251	794.05
427.627	814.16
428.003	805.57
428.379	836.53
428.756	860.03
429.132	843.76
429.507	878.11
429.883	880.82
430.259	891.9
430.635	916.98
431.011	906.13
431.387	928.96
431.763	930.54
432.138	933.93
432.514	956.53
432.89	957.43
433.265	948.17
433.641	1006.02
434.016	988.62
434.392	1009.63
434.767	1037.43
435.143	1021.61
435.518	1050.31
435.894	1079.92
436.269	1082.85
436.644	1083.53
437.02	1102.29
437.395	1076.98
437.77	1111.55
438.145	1173.47
438.52	1150.2
438.895	1180.25
439.271	1192.91
439.646	1189.29
440.021	1193.36
440.395	1227.03
440.77	1194.71
441.145	1214.37
441.52	1247.37
441.895	1251.89
442.27	1274.71
442.645	1262.96
443.019	1275.39
443.394	1279.68
443.769	1313.58
444.143	1304.09
444.518	1319.68
444.892	1306.12
445.267	1355.84
445.641	1332.56
446.016	1340.25
446.39	1322.39
446.764	1360.59
447.139	1369.17
447.513	1358.33
447.887	1395.16
448.262	1378.66
448.636	1385.22
449.01	1406.69
449.384	1405.1
449.758	1423.41
450.132	1448.49
450.506	1432.67
450.88	1448.94
451.254	1434.26
451.628	1455.5
452.002	1469.51
452.376	1463.41
452.75	1511.32
453.123	1479.68
453.497	1517.64
453.871	1517.64
454.244	1517.64
454.618	1530.98
454.992	1543.63
455.365	1587.02
455.739	1607.58
456.112	1594.93
456.486	1583.4
456.859	1640.58
457.232	1646
457.606	1635.61
457.979	1678.09
458.352	1675.83
458.725	1675.15
459.099	1729.62
459.472	1707.47
459.845	1765.32
460.218	1748.6
460.591	1776.62
460.964	1753.12
461.337	1806
461.71	1814.81
462.083	1856.84
462.456	1845.09
462.829	1842.15
463.201	1865.66
463.574	1881.48
463.947	1873.34
464.32	1915.83
464.692	1943.17
465.065	1947.24
465.438	1966.22
465.81	1952.89
466.183	1993.34
466.555	2041.7
466.928	2067.23
467.3	2049.38
467.672	2059.78
468.045	2116.05
468.417	2090.96
468.789	2138.42
469.161	2150.62
469.534	2163.28
469.906	2223.16
470.278	2205.99
470.65	2232.2
471.022	2239.88
471.394	2302.71
471.766	2308.58
472.138	2355.81
472.51	2374.8
472.882	2421.57
473.253	2416.15
473.625	2433.33
473.997	2455.02
474.369	2463.38
474.74	2512.65
475.112	2559.65
475.484	2544.28
475.855	2623.83
476.227	2592.64
476.598	2677.61
476.97	2685.3
477.341	2681.91
477.713	2748.57
478.084	2745.18
478.455	2818.4
478.827	2831.96
479.198	2878.74
479.569	2883.71
479.94	3013.88
480.311	3004.16
480.682	3029.47
481.053	3078.96
481.424	3118.51
481.795	3098.62
482.166	3131.84
482.537	3185.4
482.908	3241.89
483.279	3276.24
483.65	3322.12
484.021	3376.8
484.391	3370.02
484.762	3425.62
485.133	3440.98
485.503	3449.8
485.874	3491.15
486.244	3552.84
486.615	3614.54
486.985	3645.05
487.356	3637.36
487.726	3669.45
488.097	3736.79
488.467	3720.52
488.837	3800.97
489.207	3845.94
489.578	3888.88
489.948	3887.07
490.318	3940.86
490.688	3951.7
491.058	4000.97
491.428	4016.56
491.798	4018.82
492.168	4146.73
492.538	4095.66
492.908	4114.86
493.278	4211.13
493.648	4178.36
494.017	4268.53
494.387	4290.9
494.757	4317.12
495.126	4327.06
495.496	4316.89
495.866	4358.25
496.235	4430.79
496.605	4423.1
496.974	4428.98
497.344	4476.21
497.713	4472.59
498.082	4512.82
498.452	4523.89
498.821	4555.08
499.19	4564.57
499.559	4584.23
499.928	4590.56
500.298	4657
500.667	4652.7
501.036	4622.65
501.405	4698.58
501.774	4645.47
502.143	4649.54
502.512	4737.9
502.88	4738.58
503.249	4743.77
503.618	4788.07
503.987	4827.61
504.356	4796.65
504.724	4858.8
505.093	4826.48
505.462	4843.66
505.83	4862.64
506.199	4914.16
506.567	4942.19
506.936	4936.76
507.304	4986.48
507.672	4996.87
508.041	5020.83
508.409	5006.37
508.777	5033.94
509.145	5067.61
509.514	5079.36
509.882	5083.43
510.25	5124.33
510.618	5089.75
510.986	5090.66
511.354	5176.3
511.722	5158
512.09	5176.08
512.458	5164.33
512.826	5205.23
513.193	5197.55
513.561	5232.12
513.929	5306.92
514.297	5301.27
514.664	5295.4
515.032	5288.62
515.4	5307.15
515.767	5312.57
516.135	5328.84
516.502	5310.31
516.869	5382.17
517.237	5342.18
517.604	5339.92
517.972	5388.73
518.339	5455.17
518.706	5361.38
519.073	5453.13
519.44	5396.19
519.808	5493.81
520.175	5489.29
520.542	5528.84
520.909	5513.02
521.276	5466.47
521.643	5595.5
522.009	5542.17
522.376	5582.17
522.743	5640.25
523.11	5636.86
523.477	5645.67
523.843	5632.56
524.21	5708.95
524.577	5750.07
524.943	5743.3
525.31	5747.14
525.676	5805.44
526.043	5790.07
526.409	5767.7
526.776	5895.38
527.142	5871.43
527.508	5922.05
527.874	5957.98
528.241	5929.05
528.607	5907.13
528.973	6028.26
529.339	6000.24
529.705	6028.71
530.071	6063.06
530.437	6056.06
530.803	6042.04
531.169	6118.2
531.535	6097.41
531.901	6078.2
532.267	6092.89
532.632	6126.11
532.998	6166.34
533.364	6176.96
533.73	6164.3
534.095	6236.62
534.461	6200.01
534.826	6270.29
535.192	6316.84
535.557	6289.95
535.923	6273.68
536.288	6338.76
536.653	6311.87
537.019	6303.05
537.384	6341.92
537.749	6359.32
538.114	6369.72
538.479	6378.08
538.845	6384.86
539.21	6354.35
539.575	6383.05
539.94	6396.39
540.305	6451.98
540.67	6437.74
541.034	6427.57
541.399	6489.94
541.764	6505.99
542.129	6538.08
542.494	6490.39
542.858	6513.67
543.223	6511.41
543.587	6579.43
543.952	6519.09
544.316	6586.44
544.681	6544.4
545.045	6610.17
545.41	6629.15
545.774	6648.13
546.138	6640.67
546.503	6674.8
546.867	6673.67
547.231	6687.9
547.595	6668.92
547.959	6674.12
548.324	6649.49
548.688	6672.99
549.052	6654.91
549.416	6739.43
549.779	6760.22
550.143	6738.75
550.507	6775.13
550.871	6773.32
551.235	6807.67
551.599	6774.68
551.962	6855.13
552.326	6778.3
552.689	6854.9
553.053	6803.83
553.417	6892.87
553.78	6948.91
554.143	6870.72
554.507	6833.44
554.87	6851.29
555.234	6980.1
555.597	6931.96
555.96	6944.62
556.323	6964.05
556.686	6974.9
557.05	6986.88
557.413	7006.99
557.776	6968.12
558.139	7040.21
558.502	7101
558.865	7078.85
559.228	7081.34
559.59	7157.5
559.953	7088.34
560.316	7129.93
560.679	7143.26
561.041	7237.27
561.404	7158.17
561.767	7239.75
562.129	7232.52
562.492	7321.33
562.854	7199.53
563.217	7258.74
563.579	7305.29
563.941	7386.42
564.304	7418.05
564.666	7377.15
565.028	7467.32
565.39	7430.48
565.753	7516.36
566.115	7489.69
566.477	7517.26
566.839	7565.62
567.201	7587.77
567.563	7645.17
567.925	7659.18
568.287	7656.24
568.648	7654.88
569.01	7749.8
569.372	7720.42
569.734	7762.9
570.095	7728.1
570.457	7807.87
570.819	7827.76
571.18	7865.73
571.542	7950.47
571.903	7853.3
572.265	7965.38
572.626	7953.41
572.987	7986.85
573.349	7998.83
573.71	7961.54
574.071	8114.53
574.432	8050.13
574.794	8147.75
575.155	8155.89
575.516	8127.87
575.877	8199.73
576.238	8197.24
576.599	8249.67
576.96	8257.81
577.32	8334.87
577.681	8350.68
578.042	8472.26
578.403	8357.24
578.763	8428.2
579.124	8573.73
579.485	8533.96
579.845	8591.81
580.206	8567.4
580.566	8631.13
580.927	8654.63
581.287	8751.13
581.648	8756.1
582.008	8811.92
582.368	8814.18
582.728	8932.36
583.089	8946.6
583.449	8924.68
583.809	9070.21
584.169	9141.85
584.529	9099.82
584.889	9206.93
585.249	9221.4
585.609	9330.32
585.969	9341.62
586.329	9372.35
586.688	9480.82
587.048	9482.63
587.408	9564.66
587.768	9607.15
588.127	9669.07
588.487	9727.37
588.846	9804.66
589.206	9730.31
589.565	9946.35
589.925	10014.82
590.284	9996.52
590.643	10023.41
591.003	10189.28
591.362	10255.49
591.721	10289.62
592.08	10290.97
592.44	10326.45
592.799	10475.6
593.158	10533.23
593.517	10522.83
593.876	10582.49
594.235	10667.46
594.593	10702.71
594.952	10835.14
595.311	10803.28
595.67	10871.07
596.029	11065.42
596.387	11102.25
596.746	11138.86
597.104	11188.8
597.463	11208.69
597.822	11311.96
598.18	11268.57
598.538	11268.35
598.897	11388.34
599.255	11371.62
599.613	11495.46
599.972	11509.02
600.33	11647.77
600.688	11534.1
601.046	11645.96
601.404	11823.36
601.762	11765.51
602.12	11815.9
602.478	11875.56
602.836	11923.02
603.194	11902.91
603.552	11933.64
603.91	11958.05
604.268	12046.18
604.625	11996.46
604.983	12085.28
605.341	12042.56
605.698	12169.79
606.056	12169.12
606.413	12200.53
606.771	12318.04
607.128	12342.44
607.485	12237.36
607.843	12349.22
608.2	12444.59
608.557	12461.54
608.914	12514.64
609.272	12563.23
609.629	12665.15
609.986	12646.62
610.343	12574.98
610.7	12718.25
611.057	12684.81
611.414	12827.63
611.771	12713.28
612.127	12817.01
612.484	12802.09
612.841	12941.07
613.198	12845.93
613.554	12829.44
613.911	12997.57
614.267	12930.22
614.624	12901.98
614.98	13044.57
615.337	13133.61
615.693	13055.65
616.05	12983.33
616.406	13086.38
616.762	13089.54
617.118	13096.1
617.475	13079.83
617.831	13154.17
618.187	13223.32
618.543	13221.29
618.899	13332.02
619.255	13214.74
619.611	13337.67
619.967	13278.69
620.323	13258.8
620.678	13301.51
621.034	13316.88
621.39	13383.09
621.746	13315.98
622.101	13471.23
622.457	13416.09
622.812	13352.13
623.168	13418.12
623.523	13466.48
623.879	13431
624.234	13430.1
624.589	13485.92
624.945	13361.85
625.3	13459.93
625.655	13403.66
626.01	13507.84
626.365	13477.33
626.72	13465.35
627.075	13447.95
627.43	13564.33
627.785	13393.26
628.14	13482.07
628.495	13513.49
628.85	13489.31
629.205	13523.88
629.559	13585.8
629.914	13442.3
630.269	13414.96
630.623	13408.63
630.978	13339.71
631.332	13450.44
631.687	13458.12
632.041	13340.61
632.396	13419.03
632.75	13330.89
633.104	13442.53
633.459	13318.24
633.813	13335.41
634.167	13344.68
634.521	13304.9
634.875	13403.88
635.229	13376.31
635.583	13263.78
635.937	13323.43
636.291	13330.21
636.645	13249.31
636.999	13250.67
637.352	13316.88
637.706	13201.18
638.06	13204.34
638.413	13251.8
638.767	13236.43
639.121	13228.52
639.474	13119.6
639.828	13104.46
640.181	13231.23
640.534	13107.4
640.888	13135.42
641.241	13069.66
641.594	13132.48
641.947	13074.4
642.301	13100.16
642.654	13168.41
643.007	13164.12
643.36	13073.27
643.713	13051.58
644.066	13061.97
644.419	13038.02
644.771	13007.74
645.124	12866.05
645.477	12751.25
645.83	12711.47
646.182	12806.16
646.535	12708.99
646.888	12742.21
647.24	12613.4
647.593	12688.65
647.945	12732.49
648.298	12644.81
648.65	12633.74
649.002	12581.76
649.355	12727.74
649.707	12646.62
650.059	12737.24
650.411	12913.05
650.763	12871.92
651.115	13064.91
651.467	12961.41
651.819	12996.44
652.171	13002.77
652.523	12942.65
652.875	12939.72
653.227	12939.26
653.578	13010.22
653.93	12989.43
654.282	12964.12
654.633	12930
654.985	12939.26
655.337	12938.59
655.688	12988.53
656.039	13019.26
656.391	12856.1
656.742	12967.74
657.094	13012.93
657.445	13027.4
657.796	13042.09
658.147	12948.08
658.498	13026.04
658.849	12964.35
659.2	12937.23
659.551	13006.61
659.902	13116.43
660.253	12976.78
660.604	13110.11
660.955	13056.32
661.306	13068.98
661.656	13038.47
662.007	13045.7
662.358	13097.45
662.708	13090.9
663.059	13034.63
663.409	13023.33
663.76	13089.99
664.11	13041.41
664.461	13091.35
664.811	13143.78
665.161	13134.74
665.511	13091.12
665.862	13096.1
666.212	13131.58
666.562	13139.26
666.912	13072.82
667.262	13098.13
667.612	13067.17
667.962	13118.69
668.312	13094.51
668.662	13148.75
669.011	13123.44
669.361	13111.01
669.711	13090.22
670.06	13079.15
670.41	13028.53
670.76	13018.81
671.109	13132.03
671.459	13047.96
671.808	13019.49
672.157	13103.78
672.507	12919.6
672.856	13037.34
673.205	13001.18
673.554	12982.65
673.904	12980.62
674.253	13027.85
674.602	12987.17
674.951	12810.68
675.3	12678.93
675.649	12976.33
675.998	12966.16
676.346	12932.03
676.695	12936.1
677.044	12797.8
677.393	12935.65
677.741	12897.01
678.09	12880.96
678.438	12772.26
678.787	12810.68
679.135	12839.15
679.484	12742.21
679.832	12706.05
680.181	12652.94
680.529	12781.98
680.877	12725.26
681.225	12647.75
681.573	12743.11
681.922	12710.34
682.27	12616.79
682.618	12633.06
682.966	12620.4
683.314	12671.47
683.661	12534.08
684.009	12520.07
684.357	12539.95
684.705	12449.79
685.053	12504.7
685.4	12460.18
685.748	12480.75
686.095	12425.38
686.443	12447.75
686.79	12339.51
687.138	12319.62
687.485	12344.03
687.832	12286.4
688.18	12322.11
688.527	12183.58
688.874	12109.91
689.221	12130.02
689.568	12136.8
689.915	12018.61
690.262	12087.76
690.609	12039.63
690.956	11896.81
691.303	11976.8
691.65	11954.21
691.997	11804.15
692.344	11733.42
692.69	11807.32
693.037	11742.91
693.383	11591.96
693.73	11682.8
694.077	11564.84
694.423	11558.96
694.769	11511.73
695.116	11548.57
695.462	11484.39
695.808	11492.07
696.155	11420.43
696.501	11306.31
696.847	11363.94
697.193	11219.08
697.539	11237.39
697.885	11251.17
698.231	11115.36
698.577	11083.49
698.923	11074.91
699.269	11101.35
699.614	10968.02
699.96	10918.98
700.306	10895.7
700.651	10895.02
700.997	10853.22
701.342	10833.56
701.688	10791.75
702.033	10776.38
702.379	10735.03
702.724	10684.18
703.069	10761.47
703.415	10579.1
703.76	10564.64
704.105	10547.69
704.45	10500.01
704.795	10497.29
705.14	10410.97
705.485	10428.6
705.83	10346.79
706.175	10304.76
706.52	10329.84
706.865	10225.44
707.209	10226.57
707.554	10169.85
707.899	10238.54
708.243	10181.82
708.588	10205.78
708.932	10096.85
709.277	10116.74
709.621	10093.46
709.966	9961.04
710.31	9970.98
710.654	9919.91
710.998	9919.46
711.342	9974.37
711.687	9868.84
712.031	9872.45
712.375	9785.67
712.719	9822.51
713.063	9822.74
713.407	9851.66
713.75	9753.59
714.094	9786.8
714.438	9683.76
714.782	9668.62
715.125	9642.85
715.469	9718.33
715.812	9618.9
716.156	9509.3
716.499	9659.8
716.843	9574.16
717.186	9584.78
717.53	9532.8
717.873	9489.41
718.216	9523.99
718.559	9439.02
718.902	9425.23
719.246	9402.86
719.589	9444.89
719.932	9433.82
720.275	9396.76
720.617	9327.38
720.96	9360.83
721.303	9404.89
721.646	9344.78
721.989	9340.71
722.331	9347.72
722.674	9369.64
723.016	9330.32
723.359	9391.56
723.701	9296.42
724.044	9309.08
724.386	9245.58
724.729	9300.26
725.071	9263.2
725.413	9285.12
725.755	9272.92
726.097	9239.02
726.439	9214.39
726.782	9220.72
727.124	9228.4
727.465	9230.66
727.807	9203.77
728.149	9195.86
728.491	9232.24
728.833	9224.33
729.175	9239.47
729.516	9136.88
729.858	9182.53
730.199	9196.31
730.541	9173.26
730.882	9145.24
731.224	9161.96
731.565	9138.01
731.906	9163.32
732.248	9168.52
732.589	9112.47
732.93	9133.71
733.271	9172.13
733.612	9179.36
733.953	9186.59
734.294	9131.45
734.635	9111.57
734.976	9224.79
735.317	9097.56
735.658	9139.36
735.999	9189.31
736.339	9192.92
736.68	9145.47
737.021	9214.39
737.361	9138.69
737.702	9201.96
738.042	9155.41
738.383	9248.51
738.723	9161.96
739.063	9155.18
739.404	9199.93
739.744	9234.5
740.084	9246.71
740.424	9241.28
740.764	9193.6
741.104	9268.17
741.444	9239.7
741.784	9230.21
742.124	9270.89
742.464	9383.2
742.804	9317.89
743.143	9349.75
743.483	9359.25
743.823	9421.39
744.162	9448.28
744.502	9479.02
744.841	9542.97
745.181	9497.77
745.52	9609.18
745.86	9628.39
746.199	9580.26
746.538	9665.23
746.877	9694.6
747.216	9785.45
747.556	9784.54
747.895	9860.48
748.234	9892.56
748.573	9964.43
748.911	9982.51
749.25	10070.87
749.589	10140.02
749.928	10161.03
750.267	10289.62
750.605	10297.98
750.944	10283.74
751.283	10491.19
751.621	10524.64
751.96	10563.06
752.298	10678.76
752.636	10821.35
752.975	10819.32
753.313	10954.46
753.651	11145.87
753.989	11157.84
754.327	11203.72
754.666	11376.14
755.004	11475.12
755.342	11564.61
755.679	11808.67
756.017	11857.94
756.355	11960.53
756.693	12042.56
757.031	12236.91
757.368	12252.95
757.706	12378.15
758.044	12493.17
758.381	12716.9
758.719	12687.75
759.056	12953.28
759.394	13017.23
759.731	13178.58
760.068	13332.02
760.405	13516.2
760.743	13670.32
761.08	13799.58
761.417	13819.92
761.754	14061.04
762.091	14287.48
762.428	14303.97
