Data from hue_110_FLMS001491_00045.txt Node
Date: Tue Feb 07 17:01:22 GMT 2017
User: dcchb
Spectrometer: FLMS00149
Trigger mode: 0
Integration Time (sec): 2.000000E-2
Scans to average: 10
Electric dark correction enabled: true
Nonlinearity correction enabled: false
Boxcar width: 0
XAxis mode: Wavelengths
Number of Pixels in Spectrum: 2048
>>>>>Begin Spectral Data<<<<<
341.393	-8.62
341.776	-8.62
342.16	-8.62
342.543	-48.39
342.927	-64.89
343.31	-57.65
343.693	-80.03
344.077	-76.41
344.46	-42.06
344.843	-68.28
345.226	-29.63
345.61	-47.94
345.993	-24.89
346.376	-14.04
346.759	-1.38
347.142	35.68
347.525	43.59
347.908	77.48
348.291	77.48
348.674	96.69
349.057	111.38
349.44	129.91
349.823	135.79
350.206	162.68
350.588	201.32
350.971	232.28
351.354	216.01
351.737	226.18
352.119	252.62
352.502	249.68
352.884	264.6
353.267	296.91
353.65	299.85
354.032	287.87
354.414	303.69
354.797	315.22
355.179	313.18
355.562	328.55
355.944	335.56
356.326	331.49
356.709	357.25
357.091	345.5
357.473	355.22
357.855	344.82
358.238	351.83
358.62	357.7
359.002	332.17
359.384	339.62
359.766	344.37
360.148	342.11
360.53	353.86
360.912	350.47
361.294	328.1
361.676	347.08
362.057	347.08
362.439	336.01
362.821	334.88
363.203	342.56
363.584	344.82
363.966	324.48
364.348	328.1
364.729	331.04
365.111	322.45
365.493	311.38
365.874	317.93
366.256	313.41
366.637	312.73
367.019	308.44
367.4	298.72
367.781	310.47
368.163	315.67
368.544	307.76
368.925	327.87
369.306	324.71
369.688	340.3
370.069	315.9
370.45	337.36
370.831	317.48
371.212	340.75
371.593	321.32
371.974	320.19
372.355	343.47
372.736	313.64
373.117	321.09
373.498	340.98
373.879	318.61
374.26	339.85
374.641	310.92
375.021	320.87
375.402	354.31
375.783	336.46
376.163	333.52
376.544	313.64
376.925	345.73
377.305	340.08
377.686	324.93
378.066	333.97
378.447	342.79
378.827	349.34
379.208	334.2
379.588	340.3
379.968	328.78
380.349	338.95
380.729	347.08
381.109	361.54
381.489	347.08
381.87	358.15
382.25	353.41
382.63	370.36
383.01	349.12
383.39	372.39
383.77	351.15
384.15	339.17
384.53	357.02
384.91	372.39
385.29	345.95
385.67	348.66
386.049	366.52
386.429	337.14
386.809	363.35
387.189	368.32
387.568	386.63
387.948	363.13
388.328	372.17
388.707	368.55
389.087	353.86
389.466	364.48
389.846	382.79
390.225	382.56
390.605	364.26
390.984	380.75
391.363	371.49
391.743	382.79
392.122	364.03
392.501	390.02
392.881	397.25
393.26	381.88
393.639	399.51
394.018	388.89
394.397	418.04
394.776	396.57
395.155	387.08
395.534	392.73
395.913	416.01
396.292	435.89
396.671	419.17
397.05	388.21
397.429	411.49
397.808	406.74
398.186	403.8
398.565	414.2
398.944	409.68
399.323	420.98
399.701	428.66
400.08	439.28
400.458	430.24
400.837	428.89
401.215	429.79
401.594	432.28
401.972	429.79
402.351	428.21
402.729	430.24
403.107	436.34
403.486	432.05
403.864	446.06
404.242	459.17
404.62	460.07
404.999	436.34
405.377	452.16
405.755	451.94
406.133	455.33
406.511	469.79
406.889	460.52
407.267	461.65
407.645	478.6
408.023	479.96
408.401	482.44
408.779	471.6
409.156	474.76
409.534	476.8
409.912	485.61
410.29	481.32
410.667	491.03
411.045	492.39
411.422	488.77
411.8	489.22
412.178	498.94
412.555	499.62
412.933	504.37
413.31	535.78
413.687	524.48
414.065	530.13
414.442	527.87
414.819	527.87
415.197	522.44
415.574	546.4
415.951	549.34
416.328	533.74
416.705	550.01
417.082	519.51
417.46	551.14
417.837	585.49
418.214	573.06
418.591	575.55
418.967	568.32
419.344	561.31
419.721	584.14
420.098	581.2
420.475	584.59
420.852	590.24
421.228	618.03
421.605	583.69
421.982	598.83
422.358	596.11
422.735	598.6
423.111	593.63
423.488	633.18
423.864	620.07
424.241	647.41
424.617	617.36
424.994	636.34
425.37	644.93
425.746	641.99
426.123	655.1
426.499	670.01
426.875	677.92
427.251	670.24
427.627	672.95
428.003	653.51
428.379	684.47
428.756	677.24
429.132	697.13
429.507	697.58
429.883	705.49
430.259	701.42
430.635	703
431.011	688.77
431.387	731.03
431.763	724.02
432.138	750.01
432.514	734.42
432.89	751.14
433.265	764.7
433.641	762.66
434.016	764.92
434.392	790.23
434.767	789.78
435.143	791.14
435.518	800.63
435.894	792.49
436.269	818.93
436.644	841.76
437.02	827.29
437.395	834.07
437.77	824.36
438.145	854.86
438.52	867.52
438.895	855.99
439.271	844.24
439.646	887.86
440.021	880.17
440.395	899.61
440.77	909.1
441.145	919.72
441.52	914.07
441.895	916.78
442.27	910.46
442.645	904.58
443.019	918.37
443.394	968.99
443.769	962.21
444.143	934.64
444.518	970.12
444.892	964.47
445.267	1001.53
445.641	964.24
446.016	992.71
446.39	991.58
446.764	1022.32
447.139	993.39
447.513	1004.92
447.887	1020.51
448.262	1016.22
448.636	1018.93
449.01	1034.07
449.384	1063.22
449.758	1071.58
450.132	1085.14
450.506	1097.57
450.88	1085.14
451.254	1060.06
451.628	1093.95
452.002	1103.9
452.376	1100.51
452.75	1117.91
453.123	1114.52
453.497	1107.29
453.871	1157
454.244	1184.35
454.618	1171.01
454.992	1175.31
455.365	1187.96
455.739	1239.94
456.112	1246.49
456.486	1259.37
456.859	1282.2
457.232	1278.13
457.606	1316.1
457.979	1301.41
458.352	1326.04
458.725	1357.68
459.099	1337.34
459.472	1368.3
459.845	1417.34
460.218	1405.36
460.591	1394.06
460.964	1433.61
461.337	1450.1
461.71	1479.71
462.083	1524.23
462.456	1497.56
462.829	1537.11
463.201	1563.55
463.574	1569.65
463.947	1598.8
464.32	1617.78
464.692	1634.28
465.065	1636.31
465.438	1679.02
465.81	1716.76
466.183	1750.21
466.555	1792.02
466.928	1765.35
467.3	1794.05
467.672	1812.13
468.045	1903.2
468.417	1928.28
468.789	1916.31
469.161	1950.2
469.534	1998.56
469.906	2047.6
470.278	2068.84
470.65	2088.96
471.022	2149.52
471.394	2207.82
471.766	2201.27
472.138	2238.33
472.51	2314.94
472.882	2367.37
473.253	2409.4
473.625	2459.79
473.997	2539.34
474.369	2571.66
474.74	2600.58
475.112	2708.83
475.484	2721.71
475.855	2823.63
476.227	2877.64
476.598	2992.44
476.97	3041.93
477.341	3101.81
477.713	3217.74
478.084	3252.54
478.455	3351.97
478.827	3448.02
479.198	3570.73
479.569	3588.35
479.94	3752.87
480.311	3845.52
480.682	3963.71
481.053	4075.12
481.424	4169.58
481.795	4255.91
482.166	4398.27
482.537	4518.27
482.908	4618.83
483.279	4755.1
483.65	4838.71
484.021	5050.01
484.391	5098.82
484.762	5222.89
485.133	5353.05
485.503	5523.89
485.874	5700.84
486.244	5753.04
486.615	6019.93
486.985	6140.6
487.356	6268.28
487.726	6377.21
488.097	6571.32
488.467	6727.03
488.837	6831.2
489.207	7023.52
489.578	7216.96
489.948	7320.68
490.318	7499.89
490.688	7675.48
491.058	7889.93
491.428	8082.7
491.798	8230.26
492.168	8460.77
492.538	8607.88
492.908	8690.82
493.278	8930.13
493.648	9015.1
494.017	9180.97
494.387	9407.18
494.757	9485.15
495.126	9672.94
495.496	9796.78
495.866	9934.4
496.235	10142.98
496.605	10279.02
496.974	10415.29
497.344	10603.31
497.713	10742.29
498.082	10875.17
498.452	11052.79
498.821	11119.91
499.19	11246
499.559	11466.11
499.928	11490.97
500.298	11648.03
500.667	11743.84
501.036	11853.22
501.405	12005.76
501.774	12102.25
502.143	12171.63
502.512	12334.34
502.88	12506.31
503.249	12468.57
503.618	12745.85
503.987	12813.65
504.356	12899.97
504.724	12960.99
505.093	13146.29
505.462	13128.89
505.83	13341.99
506.199	13440.75
506.567	13565.49
506.936	13608.43
507.304	13760.74
507.672	13769.33
508.041	13845.03
508.409	14013.39
508.777	14058.59
509.145	14238.02
509.514	14181.07
509.882	14342.65
510.25	14380.84
510.618	14493.15
510.986	14646.37
511.354	14633.26
511.722	14769.53
512.09	14884.1
512.458	14859.02
512.826	15006.58
513.193	15092
513.561	15100.82
513.929	15150.31
514.297	15275.28
514.664	15342.39
515.032	15469.62
515.4	15464.42
515.767	15609.96
516.135	15513.46
516.502	15549.39
516.869	15719.33
517.237	15706
517.604	15708.49
517.972	15836.17
518.339	15953.9
518.706	15905.77
519.073	15918.65
519.44	15998.42
519.808	16166.55
520.175	16018.99
520.542	16294.46
520.909	16231.64
521.276	16230.51
521.643	16384.63
522.009	16380.11
522.376	16463.95
522.743	16518.63
523.11	16532.19
523.477	16755.46
523.843	16754.79
524.21	16867.78
524.577	17010.6
524.943	16992.07
525.31	17030.48
525.676	17067.55
526.043	17126.08
526.409	17107.54
526.776	17250.37
527.142	17242.68
527.508	17273.42
527.874	17282.23
528.241	17317.03
528.607	17259.18
528.973	17377.14
529.339	17369.46
529.705	17410.81
530.071	17538.27
530.437	17485.84
530.803	17596.57
531.169	17544.14
531.535	17399.29
531.901	17430.25
532.267	17524.26
532.632	17479.06
532.998	17496.91
533.364	17555.67
533.73	17476.57
534.095	17585.72
534.461	17576.23
534.826	17619.62
535.192	17642.45
535.557	17602.67
535.923	17515.22
536.288	17545.95
536.653	17579.85
537.019	17460.76
537.384	17384.37
537.749	17491.72
538.114	17388.67
538.479	17372.4
538.845	17411.49
539.21	17310.25
539.575	17368.78
539.94	17312.06
540.305	17325.17
540.67	17192.51
541.034	17195.23
541.399	17162.68
541.764	17205.62
542.129	17117.49
542.494	17044.72
542.858	17083.14
543.223	17061.44
543.587	17060.54
543.952	17056.25
544.316	16989.58
544.681	16849.92
545.045	16902.35
545.41	16965.18
545.774	16926.08
546.138	16876.14
546.503	16816.03
546.867	16715.24
547.231	16754.56
547.595	16741.68
547.959	16721.34
548.324	16631.4
548.688	16648.57
549.052	16594.56
549.416	16508.69
549.779	16539.2
550.143	16512.98
550.507	16488.13
550.871	16441.12
551.235	16408.58
551.599	16417.17
551.962	16300.79
552.326	16353.44
552.689	16380.11
553.053	16255.14
553.417	16290.16
553.78	16448.58
554.143	16268.02
554.507	16282.93
554.87	16209.49
555.234	16405.87
555.597	16195.93
555.96	16140.79
556.323	16210.84
556.686	16141.02
557.05	16198.64
557.413	16145.76
557.776	16098.53
558.139	16178.3
558.502	16128.14
558.865	16066.89
559.228	16113.45
559.59	16173.56
559.953	16143.5
560.316	16207.91
560.679	16150.96
561.041	16305.53
561.404	16213.33
561.767	16243.39
562.129	16232.09
562.492	16222.37
562.854	16244.52
563.217	16240.45
563.579	16219.43
563.941	16258.08
564.304	16235.25
564.666	16273.22
565.028	16345.3
565.39	16319.09
565.753	16374.23
566.115	16327.68
566.477	16337.62
566.839	16373.78
567.201	16481.57
567.563	16336.04
567.925	16456.26
568.287	16423.04
568.648	16388.24
569.01	16512.76
569.372	16550.5
569.734	16520.89
570.095	16566.54
570.457	16592.53
570.819	16534.45
571.18	16519.99
571.542	16655.13
571.903	16597.05
572.265	16538.97
572.626	16684.28
572.987	16647.22
573.349	16671.4
573.71	16727.44
574.071	16722.7
574.432	16757.05
574.794	16790.94
575.155	16841.34
575.516	16776.71
575.877	16740.1
576.238	16824.61
576.599	16916.36
576.96	16825.29
577.32	16752.98
577.681	16900.09
578.042	16855.57
578.403	16785.52
578.763	16867.32
579.124	16933.31
579.485	16841.34
579.845	16902.8
580.206	16784.16
580.566	16833.2
580.927	16815.8
581.287	16964.95
581.648	16878.4
582.008	16901.22
582.368	16833.65
582.728	16820.55
583.089	16827.33
583.449	16741.45
583.809	16871.17
584.169	16773.32
584.529	16682.02
584.889	16897.83
585.249	16679.08
585.609	16707.78
585.969	16795.91
586.329	16712.75
586.688	16683.6
587.048	16669.82
587.408	16674.56
587.768	16661.45
588.127	16566.32
588.487	16682.02
588.846	16754.56
589.206	16569.93
589.565	16641.34
589.925	16669.36
590.284	16570.61
590.643	16702.36
591.003	16539.88
591.362	16750.27
591.721	16583.49
592.08	16530.84
592.44	16697.16
592.799	16539.2
593.158	16568.8
593.517	16523.38
593.876	16617.16
594.235	16522.25
594.593	16540.78
594.952	16455.13
595.311	16508.24
595.67	16554.11
596.029	16681.57
596.387	16537.62
596.746	16651.29
597.104	16502.14
597.463	16472.76
597.822	16520.89
598.18	16493.78
598.538	16449.71
598.897	16532.19
599.255	16378.52
599.613	16658.52
599.972	16383.72
600.33	16479.76
600.688	16430.27
601.046	16514.34
601.404	16467.11
601.762	16402.03
602.12	16610.16
602.478	16576.03
602.836	16551.17
603.194	16324.06
603.552	16449.03
603.91	16424.85
604.268	16493.55
604.625	16404.96
604.983	16457.39
605.341	16324.74
605.698	16482.93
606.056	16458.07
606.413	16420.33
606.771	16545.07
607.128	16551.85
607.485	16476.37
607.843	16445.87
608.2	16508.46
608.557	16663.04
608.914	16557.28
609.272	16599.31
609.629	16500.55
609.986	16653.55
610.343	16573.55
610.7	16710.49
611.057	16514.79
611.414	16601.12
611.771	16589.14
612.127	16684.28
612.484	16666.88
612.841	16737.16
613.198	16639.31
613.554	16719.31
613.911	16700.78
614.267	16761.34
614.624	16695.35
614.98	16750.04
615.337	16805.41
615.693	16709.81
616.05	16816.25
616.406	16910.26
616.762	16753.66
617.118	16775.58
617.475	16811.96
617.831	16884.05
618.187	16790.04
618.543	16828.68
618.899	16928.34
619.255	16829.36
619.611	16842.24
619.967	16900.32
620.323	16947.55
620.678	16883.37
621.034	16844.05
621.39	16835.69
621.746	16884.27
622.101	17025.51
622.457	16887.66
622.812	16998.39
623.168	16971.95
623.523	16986.64
623.879	17042.01
624.234	16858.29
624.589	16908.91
624.945	16856.03
625.3	16956.14
625.655	16885.63
626.01	16950.49
626.365	16959.07
626.72	16931.96
627.075	16941.45
627.43	16900.77
627.785	16891.28
628.14	16911.84
628.495	16936.93
628.85	16915.91
629.205	16905.06
629.559	16927.89
629.914	16880.21
630.269	16841.56
630.623	16892.86
630.978	16804.73
631.332	16918.85
631.687	16738.74
632.041	16823.26
632.396	16876.36
632.75	16739.19
633.104	16778.97
633.459	16707.56
633.813	16699.19
634.167	16686.31
634.521	16679.53
634.875	16714.11
635.229	16637.73
635.583	16564.06
635.937	16495.58
636.291	16555.02
636.645	16529.93
636.999	16531.06
637.352	16513.89
637.706	16461.46
638.06	16441.8
638.413	16405.64
638.767	16382.37
639.121	16429.82
639.474	16282.48
639.828	16339.43
640.181	16297.85
640.534	16274.8
640.888	16384.63
641.241	16292.65
641.594	16307.57
641.947	16261.24
642.301	16241.35
642.654	16303.27
643.007	16305.31
643.36	16249.26
643.713	16219.43
644.066	16321.8
644.419	16147.57
644.771	16113.22
645.124	16001.81
645.477	15922.49
645.83	15800.46
646.182	15846.56
646.535	15692.67
646.888	15757.98
647.24	15689.28
647.593	15806.11
647.945	15738.77
648.298	15575.61
648.65	15586.91
649.002	15550.07
649.355	15686.11
649.707	15685.89
650.059	15781.93
650.411	15923.85
650.763	15892.21
651.115	16071.64
651.467	15983.51
651.819	15998.42
652.171	16085.88
652.523	16003.62
652.875	16015.37
653.227	15931.76
653.578	16135.59
653.93	16044.97
654.282	16004.75
654.633	15944.41
654.985	15937.18
655.337	15989.16
655.688	16114.58
656.039	16040
656.391	16012.66
656.742	15940.12
657.094	15991.19
657.445	16017.18
657.796	15999.55
658.147	15992.32
658.498	15975.37
658.849	16019.89
659.2	15973.79
659.551	15924.52
659.902	16093.33
660.253	16041.36
660.604	16002.94
660.955	15935.82
661.306	16133.78
661.656	16107.34
662.007	16004.3
662.358	16047.91
662.708	16122.71
663.059	16057.18
663.409	15942.83
663.76	16098.76
664.11	16066.44
664.461	16110.28
664.811	16139.21
665.161	16157.74
665.511	16030.51
665.862	16053.11
666.212	16194.57
666.562	16086.78
666.912	16122.94
667.262	16141.24
667.612	16071.64
667.962	16157.06
668.312	16096.5
668.662	16210.84
669.011	16171.98
669.361	16156.38
669.711	16067.57
670.06	16053.79
670.41	16051.53
670.76	15932.21
671.109	16151.19
671.459	15997.29
671.808	15944.64
672.157	16074.35
672.507	15908.48
672.856	15887.01
673.205	15939.67
673.554	15952.32
673.904	15954.58
674.253	16005.2
674.602	15868.71
674.951	15594.14
675.3	15630.07
675.649	15800.01
675.998	15802.49
676.346	15797.07
676.695	15891.98
677.044	15757.98
677.393	15913.23
677.741	15753.91
678.09	15764.08
678.438	15709.16
678.787	15718.65
679.135	15679.56
679.484	15622.84
679.832	15761.37
680.181	15661.25
680.529	15511.2
680.877	15473.01
681.225	15545.78
681.573	15616.96
681.922	15455.84
682.27	15460.36
682.618	15384.2
682.966	15407.48
683.314	15445.89
683.661	15406.12
684.009	15389.62
684.357	15244.54
684.705	15253.13
685.053	15259.23
685.4	15252.68
685.748	15255.39
686.095	15202.51
686.443	15061.27
686.79	15120.48
687.138	15142.62
687.485	15054.27
687.832	14971.1
688.18	15116.41
688.527	14903.08
688.874	14885.23
689.221	14846.14
689.568	14850.2
689.915	14875.06
690.262	14725.46
690.609	14670.77
690.956	14679.36
691.303	14611.79
691.65	14587.38
691.997	14495.18
692.344	14469.42
692.69	14413.83
693.037	14392.36
693.383	14253.16
693.73	14348.75
694.077	14245.7
694.423	14135.42
694.769	14106.04
695.116	14051.81
695.462	14048.64
695.808	14053.84
696.155	14055.42
696.501	13868.99
696.847	13894.75
697.193	13841.42
697.539	13838.48
697.885	13665.15
698.231	13710.35
698.577	13588.77
698.923	13573.63
699.269	13527.07
699.614	13419.05
699.96	13418.83
700.306	13388.55
700.651	13275.33
700.997	13298.83
701.342	13193.3
701.688	13247.31
702.033	13140.19
702.379	13150.36
702.724	13077.59
703.069	13100.19
703.415	12961.21
703.76	12910.37
704.105	12920.08
704.45	12877.83
704.795	12831.05
705.14	12756.02
705.485	12752.63
705.83	12651.39
706.175	12694.55
706.52	12570.26
706.865	12628.11
707.209	12591.51
707.554	12419.76
707.899	12516.03
708.243	12441.23
708.588	12414.33
708.932	12226.09
709.277	12317.84
709.621	12353.55
709.966	12230.61
710.31	12228.58
710.654	12095.7
710.998	12130.5
711.342	12198.52
711.687	12088.92
712.031	12010.28
712.375	12037.85
712.719	12035.36
713.063	11923.27
713.407	12018.86
713.75	11850.51
714.094	11963.27
714.438	11856.61
714.782	11875.82
715.125	11812.09
715.469	11831.98
715.812	11743.62
716.156	11669.72
716.499	11712.88
716.843	11649.83
717.186	11598.54
717.53	11717.63
717.873	11652.77
718.216	11688.93
718.559	11592.21
718.902	11467.47
719.246	11531.42
719.589	11489.84
719.932	11530.29
720.275	11466.11
720.617	11505.43
720.96	11469.5
721.303	11494.81
721.646	11478.31
721.989	11433.34
722.331	11431.99
722.674	11424.53
723.016	11408.26
723.359	11377.53
723.701	11430.63
724.044	11284.87
724.386	11338.2
724.729	11398.77
725.071	11353.57
725.413	11359
725.755	11319.9
726.097	11221.6
726.439	11169.85
726.782	11241.94
727.124	11253.69
727.465	11174.37
727.807	11281.71
728.149	11261.37
728.491	11163.75
728.833	11215.72
729.175	11159.45
729.516	11181.15
729.858	11167.14
730.199	11186.57
730.541	11080.58
730.882	11169.17
731.224	11181.82
731.565	11096.18
731.906	11102.5
732.248	11176.85
732.589	11102.05
732.93	11123.75
733.271	11101.83
733.612	11040.13
733.953	11201.71
734.294	11099.57
734.635	11089.4
734.976	11119.23
735.317	11081.26
735.658	11080.36
735.999	11095.95
736.339	11130.07
736.68	11200.36
737.021	11133.92
737.361	11101.37
737.702	11198.32
738.042	11188.15
738.383	11219.34
738.723	11185.44
739.063	11133.92
739.404	11253.69
739.744	11259.79
740.084	11230.86
740.424	11268.83
740.764	11262.5
741.104	11301.82
741.444	11262.27
741.784	11255.27
742.124	11262.95
742.464	11351.31
742.804	11286.23
743.143	11310.41
743.483	11404.19
743.823	11344.76
744.162	11396.06
744.502	11471.76
744.841	11463.4
745.181	11529.39
745.52	11560.35
745.86	11608.71
746.199	11617.97
746.538	11746.1
746.877	11777.74
747.216	11855.71
747.556	11867.91
747.895	11972.76
748.234	11963.95
748.573	12077.85
748.911	12121.46
749.25	12184.06
749.589	12163.27
749.928	12250.05
750.267	12402.58
750.605	12495.01
750.944	12620.66
751.283	12570.71
751.621	12873.53
751.96	12778.17
752.298	12945.39
752.636	13116.46
752.975	13149
753.313	13280.3
753.651	13470.8
753.989	13513.29
754.327	13633.51
754.666	13719.84
755.004	13901.75
755.342	14001.19
