Data from hue_180_FLMS001491_00029.txt Node
Date: Tue Feb 07 16:46:46 GMT 2017
User: dcchb
Spectrometer: FLMS00149
Trigger mode: 0
Integration Time (sec): 2.000000E-2
Scans to average: 10
Electric dark correction enabled: true
Nonlinearity correction enabled: false
Boxcar width: 0
XAxis mode: Wavelengths
Number of Pixels in Spectrum: 2048
>>>>>Begin Spectral Data<<<<<
341.393	-7.49
341.776	-7.49
342.16	-7.49
342.543	-71.89
342.927	-62.63
343.31	-68.73
343.693	-74.83
344.077	-59.91
344.46	-60.37
344.843	-52.46
345.226	-46.81
345.61	-33.7
345.993	-17.88
346.376	-0.03
346.759	11.04
347.142	20.99
347.525	52.85
347.908	73.19
348.291	66.86
348.674	85.85
349.057	103.92
349.44	126.07
349.823	143.02
350.206	166.3
350.588	216.46
350.971	216.46
351.354	220.3
351.737	250.13
352.119	238.16
352.502	248.33
352.884	272.96
353.267	297.37
353.65	294.43
354.032	315.67
354.414	313.64
354.797	326.74
355.179	318.83
355.562	320.19
355.944	341.43
356.326	343.92
356.709	317.7
357.091	344.14
357.473	347.31
357.855	329.68
358.238	327.19
358.62	340.53
359.002	341.88
359.384	342.11
359.766	330.36
360.148	356.57
360.53	331.94
360.912	337.82
361.294	347.99
361.676	329.68
362.057	344.6
362.439	326.74
362.821	319.74
363.203	320.87
363.584	323.81
363.966	320.42
364.348	328.55
364.729	326.29
365.111	332.17
365.493	297.59
365.874	319.96
366.256	329
366.637	325.84
367.019	319.74
367.4	312.96
367.781	298.04
368.163	310.47
368.544	303.69
368.925	302.34
369.306	324.03
369.688	317.03
370.069	313.41
370.45	307.53
370.831	299.85
371.212	300.3
371.593	323.13
371.974	309.12
372.355	311.83
372.736	317.03
373.117	308.21
373.498	303.47
373.879	320.87
374.26	320.64
374.641	326.97
375.021	329
375.402	304.14
375.783	340.3
376.163	324.48
376.544	329.45
376.925	301.43
377.305	314.54
377.686	331.04
378.066	352.96
378.447	317.7
378.827	331.26
379.208	317.48
379.588	334.2
379.968	314.09
380.349	341.21
380.729	332.17
381.109	311.38
381.489	299.4
381.87	341.21
382.25	330.81
382.63	333.97
383.01	342.34
383.39	326.52
383.77	342.11
384.15	370.58
384.53	364.03
384.91	339.17
385.29	329.68
385.67	341.88
386.049	357.02
386.429	334.65
386.809	348.66
387.189	359.28
387.568	350.7
387.948	352.05
388.328	342.34
388.707	352.5
389.087	364.26
389.466	352.28
389.846	362.45
390.225	359.96
390.605	338.27
390.984	344.82
391.363	365.61
391.743	363.8
392.122	342.34
392.501	350.7
392.881	374.88
393.26	358.83
393.639	362
394.018	392.96
394.397	384.14
394.776	387.98
395.155	364.93
395.534	346.4
395.913	376.91
396.292	399.96
396.671	394.99
397.05	397.02
397.429	376.23
397.808	395.67
398.186	381.2
398.565	406.29
398.944	395.22
399.323	408.77
399.701	401.32
400.08	386.85
400.458	395.89
400.837	421.88
401.215	418.04
401.594	390.47
401.972	416.46
402.351	426.4
402.729	411.94
403.107	419.85
403.486	439.96
403.864	432.05
404.242	425.72
404.62	432.05
404.999	446.97
405.377	445.61
405.755	432.05
406.133	433.86
406.511	431.37
406.889	440.64
407.267	459.39
407.645	466.17
408.023	498.72
408.401	476.8
408.779	464.14
409.156	493.52
409.534	495.1
409.912	486.96
410.29	498.72
410.667	506.63
411.045	498.94
411.422	500.75
411.8	519.96
412.178	523.8
412.555	546.62
412.933	544.14
413.31	546.62
413.687	543.01
414.065	560.63
414.442	582.33
414.819	580.3
415.197	580.52
415.574	601.99
415.951	630.69
416.328	602.44
416.705	616
417.082	608.32
417.46	620.07
417.837	639.95
418.214	646.73
418.591	646.28
418.967	656.23
419.344	657.13
419.721	672.04
420.098	654.87
420.475	714.76
420.852	683.8
421.228	685.15
421.605	716.34
421.982	734.19
422.358	733.06
422.735	731.48
423.111	747.07
423.488	751.82
423.864	779.61
424.241	764.7
424.617	769.67
424.994	789.33
425.37	828.88
425.746	820.06
426.123	830.91
426.499	822.32
426.875	834.53
427.251	838.14
427.627	882.89
428.003	877.91
428.379	917.69
428.756	890.8
429.132	916.78
429.507	921.3
429.883	924.69
430.259	934.18
430.635	943
431.011	958.14
431.387	954.97
431.763	992.94
432.138	1015.09
432.514	1030.68
432.89	1050.79
433.265	1070.23
433.641	1057.8
434.016	1073.39
434.392	1107.06
434.767	1098.7
435.143	1131.02
435.518	1146.38
435.894	1148.19
436.269	1198.81
436.644	1182.99
437.02	1212.6
437.395	1220.05
437.77	1242.65
438.145	1275.19
438.52	1299.82
438.895	1274.74
439.271	1300.95
439.646	1360.61
440.021	1352.7
440.395	1371.91
440.77	1380.73
441.145	1396.77
441.52	1430.67
441.895	1412.59
442.27	1451.91
442.645	1448.97
443.019	1468.86
443.394	1499.14
443.769	1474.06
444.143	1495.07
444.518	1527.84
444.892	1495.3
445.267	1530.33
445.641	1557.67
446.016	1568.52
446.39	1584.11
446.764	1586.82
447.139	1584.34
447.513	1604.22
447.887	1608.07
448.262	1624.34
448.636	1658.01
449.01	1671.34
449.384	1670.44
449.758	1695.07
450.132	1704.79
450.506	1727.16
450.88	1738.68
451.254	1737.33
451.628	1754.5
452.002	1796.08
452.376	1773.26
452.75	1822.75
453.123	1852.35
453.497	1858.68
453.871	1866.82
454.244	1937.77
454.618	1948.17
454.992	1963.31
455.365	1945.46
455.739	1997.21
456.112	2013.7
456.486	2046.92
456.859	2033.14
457.232	2078.34
457.606	2097.32
457.979	2127.6
458.352	2170.08
458.725	2206.92
459.099	2209.18
459.472	2279.01
459.845	2253.92
460.218	2281.72
460.591	2345.67
460.964	2338.67
461.337	2364.2
461.71	2453.92
462.083	2446.01
462.456	2461.15
462.829	2491.43
463.201	2529.17
463.574	2510.87
463.947	2577.53
464.32	2620.02
464.692	2655.27
465.065	2698.66
465.438	2716.96
465.81	2746.57
466.183	2780.24
466.555	2851.2
466.928	2887.13
467.3	2896.17
467.672	2926.67
468.045	2982.72
468.417	3013.68
468.789	3052.55
469.161	3105.88
469.534	3129.83
469.906	3213.45
470.278	3243.28
470.65	3288.47
471.022	3361.92
471.394	3437.4
471.766	3435.59
472.138	3511.74
472.51	3573.89
472.882	3622.02
473.253	3671.06
473.625	3763.94
473.997	3842.81
474.369	3879.64
474.74	3922.35
475.112	4008.23
475.484	4063.59
475.855	4141.11
476.227	4241.22
476.598	4316.02
476.97	4343.36
477.341	4477.14
477.713	4516.69
478.084	4545.61
478.455	4681.66
478.827	4755.78
479.198	4913.29
479.569	4947.64
479.94	5094.53
480.311	5142.44
480.682	5244.35
481.053	5412.26
481.424	5488.19
481.795	5560.96
482.166	5605.7
482.537	5720.05
482.908	5828.52
483.279	5946.71
483.65	6058.34
484.021	6165.01
484.391	6255.63
484.762	6302.18
485.133	6419.69
485.503	6566.35
485.874	6660.81
486.244	6763.64
486.615	6914.59
486.985	6993.91
487.356	7150.07
487.726	7152.33
488.097	7327.69
488.467	7393
488.837	7544.18
489.207	7661.47
489.578	7806.09
489.948	7861.91
490.318	8038.86
490.688	7996.37
491.058	8125.63
491.428	8350.03
491.798	8363.14
492.168	8510.03
492.538	8529.46
492.908	8653.3
493.278	8830.47
493.648	8775.33
494.017	8902.79
494.387	9018.72
494.757	9114.31
495.126	9193.63
495.496	9233.85
495.866	9279.5
496.235	9360.18
496.605	9431.59
496.974	9593.62
497.344	9568.08
497.713	9667.29
498.082	9766.27
498.452	9788.87
498.821	9853.05
499.19	9896.66
499.559	9956.32
499.928	9998.8
500.298	10141.17
500.667	10185.24
501.036	10184.79
501.405	10290.1
501.774	10241.28
502.143	10338.91
502.512	10291.23
502.88	10403.54
503.249	10455.29
503.618	10459.13
503.987	10494.61
504.356	10494.61
504.724	10591.78
505.093	10575.29
505.462	10681.05
505.83	10755.4
506.199	10739.35
506.567	10867.93
506.936	10800.82
507.304	10910.87
507.672	10949.74
508.041	10980.47
508.409	10952.68
508.777	11133.69
509.145	11163.07
509.514	11100.7
509.882	11211.65
510.25	11166.46
510.618	11211.88
510.986	11204.87
511.354	11261.14
511.722	11310.86
512.09	11305.89
512.458	11345.89
512.826	11368.71
513.193	11414.81
513.561	11384.08
513.929	11487.35
514.297	11507.24
514.664	11576.16
515.032	11595.6
515.4	11546.33
515.767	11608.03
516.135	11639.44
516.502	11535.94
516.869	11639.21
517.237	11629.27
517.604	11527.35
517.972	11674.24
518.339	11651.64
518.706	11699.33
519.073	11646.45
519.44	11694.13
519.808	11716.5
520.175	11664.75
520.542	11829.72
520.909	11782.03
521.276	11797.4
521.643	11835.14
522.009	11809.83
522.376	11850.51
522.743	11897.74
523.11	11984.29
523.477	11893.9
523.843	11922.82
524.21	11955.59
524.577	11986.78
524.943	11975.02
525.31	12023.61
525.676	12093.44
526.043	12052.08
526.409	12018.19
526.776	12124.4
527.142	12034.46
527.508	12045.08
527.874	12082.59
528.241	12147.45
528.607	11985.87
528.973	12121.01
529.339	12046.21
529.705	12081.69
530.071	12045.76
530.437	12073.78
530.803	12076.94
531.169	12082.59
531.535	11979.09
531.901	11938.19
532.267	11911.52
532.632	11916.49
532.998	11963.95
533.364	11870.85
533.73	11862.03
534.095	11911.97
534.461	11902.71
534.826	11861.81
535.192	11867.46
535.557	11804.86
535.923	11742.04
536.288	11754.46
536.653	11655.48
537.019	11590.4
537.384	11603.51
537.749	11517.64
538.114	11531.87
538.479	11457.52
538.845	11494.36
539.21	11450.97
539.575	11392.21
539.94	11346.34
540.305	11415.72
540.67	11244.42
541.034	11261.82
541.399	11210.75
541.764	11187.47
542.129	11161.03
542.494	10989.51
542.858	11116.97
543.223	11023.41
543.587	10984.54
543.952	10893.47
544.316	10929.18
544.681	10886.47
545.045	10794.72
545.41	10795.85
545.774	10768.73
546.138	10683.98
546.503	10687.37
546.867	10640.6
547.231	10692.35
547.595	10620.26
547.959	10491.9
548.324	10454.61
548.688	10424.78
549.052	10466.82
549.416	10352.24
549.779	10307.27
550.143	10286.48
550.507	10274.05
550.871	10253.04
551.235	10195.41
551.599	10162.64
551.962	10142.53
552.326	10057.56
552.689	10076.77
553.053	9945.47
553.417	9930.33
553.78	10005.13
554.143	9860.73
554.507	9896.89
554.87	9849.2
555.234	9918.81
555.597	9775.99
555.96	9776.66
556.323	9760.39
556.686	9647.63
557.05	9730.34
557.413	9662.99
557.776	9693.05
558.139	9650.57
558.502	9497.8
558.865	9620.28
559.228	9595.2
559.59	9642.66
559.953	9570.79
560.316	9612.15
560.679	9556.1
561.041	9601.3
561.404	9578.48
561.767	9587.97
562.129	9466.84
562.492	9508.2
562.854	9518.14
563.217	9480.85
563.579	9489.89
563.941	9469.1
564.304	9446.95
564.666	9522.21
565.028	9477.24
565.39	9519.27
565.753	9541.87
566.115	9440.63
566.477	9512.49
566.839	9432.72
567.201	9520.63
567.563	9531.02
567.925	9515.65
568.287	9477.69
568.648	9501.64
569.01	9547.29
569.372	9577.57
569.734	9505.71
570.095	9572.15
570.457	9561.75
570.819	9499.38
571.18	9463
571.542	9489.44
571.903	9512.49
572.265	9553.84
572.626	9505.71
572.987	9489.67
573.349	9528.53
573.71	9570.79
574.071	9502.77
574.432	9531.25
574.794	9524.69
575.155	9547.52
575.516	9509.1
575.877	9525.15
576.238	9495.99
576.599	9578.7
576.96	9513.62
577.32	9464.36
577.681	9524.02
578.042	9525.37
578.403	9479.27
578.763	9482.89
579.124	9504.35
579.485	9502.32
579.845	9530.34
580.206	9495.99
580.566	9495.54
580.927	9588.87
581.287	9567.86
581.648	9473.85
582.008	9512.26
582.368	9472.94
582.728	9524.92
583.089	9459.38
583.449	9425.49
583.809	9391.14
584.169	9459.84
584.529	9400.63
584.889	9406.28
585.249	9398.37
585.609	9279.5
585.969	9373.06
586.329	9405.6
586.688	9346.84
587.048	9349.33
587.408	9298.94
587.768	9298.03
588.127	9255.77
588.487	9295.77
588.846	9368.76
589.206	9248.77
589.565	9239.28
589.925	9280.63
590.284	9213.51
590.643	9256.45
591.003	9311.59
591.362	9270.91
591.721	9267.3
592.08	9207.19
592.44	9238.82
592.799	9240.86
593.158	9256.9
593.517	9145.27
593.876	9242.21
594.235	9204.02
594.593	9174.19
594.952	9191.14
595.311	9182.78
595.67	9215.32
596.029	9153.4
596.387	9162.89
596.746	9158.15
597.104	9112.05
597.463	9067.98
597.822	9173.74
598.18	9132.61
598.538	9122.67
598.897	9206.51
599.255	9071.15
599.613	9170.13
599.972	9080.18
600.33	9146.62
600.688	9036.57
601.046	9098.26
601.404	9092.39
601.762	9109.11
602.12	9097.36
602.478	9053.52
602.836	9091.03
603.194	9014.2
603.552	9009.23
603.91	8988.21
604.268	9059.85
604.625	9036.12
604.983	9034.31
605.341	8951.37
605.698	9049.23
606.056	9075.89
606.413	9002.45
606.771	9044.25
607.128	9068.89
607.485	9044.93
607.843	8980.98
608.2	9038.15
608.557	9072.73
608.914	9096.91
609.272	9080.64
609.629	9016.23
609.986	9127.64
610.343	9100.07
610.7	9195.89
611.057	9097.36
611.414	9039.06
611.771	9121.09
612.127	9105.5
612.484	9123.35
612.841	9178.26
613.198	9123.57
613.554	9058.94
613.911	9157.02
614.267	9142.1
614.624	9189.56
614.98	9168.09
615.337	9208.54
615.693	9214.87
616.05	9137.58
616.406	9270.24
616.762	9125.61
617.118	9145.72
617.475	9246.51
617.831	9198.6
618.187	9231.59
618.543	9181.2
618.899	9216.68
619.255	9245.15
619.611	9206.96
619.967	9237.47
620.323	9275.66
620.678	9168.54
621.034	9199.96
621.39	9172.16
621.746	9174.65
622.101	9251.03
622.457	9131.71
622.812	9229.11
623.168	9263.68
623.523	9212.16
623.879	9290.57
624.234	9167.64
624.589	9226.4
624.945	9210.35
625.3	9206.06
625.655	9217.36
626.01	9235.21
626.365	9222.33
626.72	9154.76
627.075	9224.81
627.43	9274.98
627.785	9190.46
628.14	9216.9
628.495	9245.6
628.85	9194.53
629.205	9158.83
629.559	9225.04
629.914	9146.17
630.269	9192.5
630.623	9145.95
630.978	9072.95
631.332	9077.47
631.687	9150.24
632.041	9112.95
632.396	9151.37
632.75	9039.73
633.104	9074.76
633.459	9023.69
633.813	9087.87
634.167	9063.46
634.521	9044.71
634.875	9058.94
635.229	9052.39
635.583	9016.01
635.937	9016.68
636.291	8963.58
636.645	8995.67
636.999	8942.11
637.352	8964.71
637.706	8916.12
638.06	8958.38
638.413	8995.22
638.767	8885.84
639.121	8925.84
639.474	8857.14
639.828	8872.96
640.181	8867.08
640.534	8884.71
640.888	8829.57
641.241	8849.91
641.594	8811.49
641.947	8798.16
642.301	8858.04
642.654	8809.91
643.007	8835.9
643.36	8901.88
643.713	8755
644.066	8854.43
644.419	8791.83
644.771	8718.16
645.124	8629.35
645.477	8624.6
645.83	8564.49
646.182	8491.05
646.535	8542.35
646.888	8551.39
647.24	8453.53
647.593	8551.16
647.945	8534.21
648.298	8426.64
648.65	8466.87
649.002	8423.48
649.355	8503.03
649.707	8467.09
650.059	8580.76
650.411	8641.55
650.763	8709.8
651.115	8691.04
651.467	8714.77
651.819	8680.2
652.171	8655.11
652.523	8637.03
652.875	8646.3
653.227	8702.34
653.578	8732.62
653.93	8634.55
654.282	8575.79
654.633	8672.96
654.985	8680.2
655.337	8680.42
655.688	8703.7
656.039	8732.85
656.391	8654.21
656.742	8750.25
657.094	8733.08
657.445	8749.12
657.796	8732.62
658.147	8755
658.498	8741.21
658.849	8762
659.2	8727.65
659.551	8760.42
659.902	8662.79
660.253	8756.58
660.604	8771.94
660.955	8732.4
661.306	8789.8
661.656	8704.6
662.007	8770.59
662.358	8721.78
662.708	8752.06
663.059	8732.85
663.409	8742.11
663.76	8817.37
664.11	8787.76
664.461	8813.53
664.811	8811.94
665.161	8810.81
665.511	8761.1
665.862	8817.82
666.212	8823.69
666.562	8769.23
666.912	8830.93
667.262	8730.14
667.612	8823.69
667.962	8836.58
668.312	8770.81
668.662	8779.18
669.011	8770.36
669.361	8817.14
669.711	8813.75
670.06	8797.03
670.41	8832.06
670.76	8758.61
671.109	8771.04
671.459	8729.69
671.808	8732.85
672.157	8837.93
672.507	8732.62
672.856	8762.91
673.205	8667.54
673.554	8737.6
673.904	8656.47
674.253	8774.2
674.602	8723.58
674.951	8601.55
675.3	8559.29
675.649	8673.19
675.998	8658.05
676.346	8683.59
676.695	8700.76
677.044	8671.83
677.393	8666.86
677.741	8673.87
678.09	8655.34
678.438	8542.35
678.787	8575.57
679.135	8677.71
679.484	8551.39
679.832	8547.77
680.181	8506.87
680.529	8463.03
680.877	8540.09
681.225	8513.42
681.573	8500.99
681.922	8471.39
682.27	8370.6
682.618	8449.92
682.966	8450.82
683.314	8458.05
683.661	8390.94
684.009	8332.18
684.357	8322.24
684.705	8292.64
685.053	8310.94
685.4	8305.74
685.748	8268.23
686.095	8294.44
686.443	8154.79
686.79	8167.44
687.138	8242.24
687.485	8245.63
687.832	8182.13
688.18	8208.12
688.527	8130.15
688.874	8083.38
689.221	8060.55
689.568	8095.8
689.915	7999.08
690.262	8016.71
690.609	7946.43
690.956	7931.51
691.303	7974
691.65	7883.61
691.997	7913.89
692.344	7864.17
692.69	7751.86
693.037	7850.61
693.383	7743.72
693.73	7772.42
694.077	7765.87
694.423	7708.47
694.769	7676.61
695.116	7632.09
695.462	7630.96
695.808	7553.22
696.155	7636.38
696.501	7530.17
696.847	7519.32
697.193	7471.64
697.539	7501.24
697.885	7403.39
698.231	7420.34
698.577	7409.95
698.923	7344.41
699.269	7335.15
699.614	7309.84
699.96	7251.53
700.306	7225.09
700.651	7201.36
700.997	7216.96
701.342	7157.75
701.688	7133.8
702.033	7114.59
702.379	7124.08
702.724	7149.84
703.069	7029.84
703.415	7035.49
703.76	6988.71
704.105	6937.87
704.45	6971.31
704.795	6897.87
705.14	6868.72
705.485	6864.88
705.83	6868.49
706.175	6816.74
706.52	6817.42
706.865	6807.48
707.209	6723.41
707.554	6741.04
707.899	6718.89
708.243	6707.37
708.588	6678.21
708.932	6605.67
709.277	6595.96
709.621	6596.86
709.966	6572
710.31	6620.36
710.654	6534.49
710.998	6501.27
711.342	6563.41
711.687	6548.95
712.031	6530.2
712.375	6443.42
712.719	6478.67
713.063	6489.29
713.407	6481.84
713.75	6403.65
714.094	6395.06
714.438	6356.19
714.782	6371.33
715.125	6366.58
715.469	6323.2
715.812	6372.69
716.156	6309.18
716.499	6323.87
716.843	6308.96
717.186	6312.35
717.53	6269.19
717.873	6275.74
718.216	6366.13
718.559	6256.98
718.902	6214.27
719.246	6263.54
719.589	6220.6
719.932	6160.71
720.275	6235.74
720.617	6142.64
720.96	6136.08
721.303	6167.72
721.646	6232.58
721.989	6189.41
722.331	6182.41
722.674	6131.56
723.016	6192.13
723.359	6120.71
723.701	6151.45
724.044	6133.14
724.386	6073.26
724.729	6171.33
725.071	6134.27
725.413	6122.75
725.755	6139.7
726.097	6105.8
726.439	6040.72
726.782	6104.9
727.124	6115.52
727.465	6090.66
727.807	6072.58
728.149	6073.03
728.491	6110.09
728.833	6134.5
729.175	6114.39
729.516	6071.9
729.858	6069.87
730.199	6098.34
730.541	6086.37
730.882	6078.46
731.224	6066.03
731.565	6087.95
731.906	6065.12
732.248	6061.96
732.589	6056.76
732.93	6080.72
733.271	6065.12
733.612	6087.72
733.953	6095.63
734.294	6108.06
734.635	6097.44
734.976	6060.83
735.317	6004.79
735.658	6094.05
735.999	6122.07
736.339	6096.76
736.68	6115.52
737.021	6110.09
737.361	6118.91
737.702	6134.05
738.042	6122.52
738.383	6193.48
738.723	6140.83
739.063	6173.37
739.404	6232.58
739.744	6145.12
740.084	6210.66
740.424	6201.84
740.764	6170.88
741.104	6238.9
741.444	6206.14
741.784	6250.88
742.124	6275.96
742.464	6280.26
742.804	6287.26
743.143	6273.25
743.483	6353.25
743.823	6340.14
744.162	6406.58
744.502	6410.65
744.841	6412.23
745.181	6509.86
745.52	6460.82
745.86	6538.78
746.199	6548.73
746.538	6576.52
746.877	6620.36
747.216	6655.62
747.556	6748.27
747.895	6707.82
748.234	6788.72
748.573	6846.8
748.911	6892.45
749.25	6970.86
749.589	6978.55
749.928	7089.73
750.267	7214.7
750.605	7204.08
750.944	7293.34
751.283	7318.88
751.621	7426.9
751.96	7436.84
752.298	7625.53
752.636	7706.89
752.975	7684.06
753.313	7824.62
753.651	7973.32
753.989	8059.19
754.327	8238.85
754.666	8257.83
755.004	8371.96
755.342	8506.41
755.679	8679.52
756.017	8696.47
756.355	8951.15
756.693	9057.59
757.031	9173.97
757.368	9363.34
757.706	9421.19
758.044	9561.08
758.381	9694.63
758.719	9862.31
759.056	10065.47
759.394	10120.38
759.731	10292.58
760.068	10446.25
760.405	10599.69
760.743	10862.51
761.08	10966.92
761.417	11070.19
761.754	11289.62
762.091	11476.28
762.428	11580.91
762.765	11743.17
763.102	11923.95
763.438	12054.57
763.775	12216.37
764.112	12426.31
764.449	12613.88
764.785	12836.02
765.122	12825.4
765.458	12949.69
765.795	13160.98
766.131	13311.49
766.467	13459.28
