Data from hue_280_FLMS001491_00017.txt Node
Date: Tue Feb 07 15:54:55 GMT 2017
User: dcchb
Spectrometer: FLMS00149
Trigger mode: 0
Integration Time (sec): 2.000000E-2
Scans to average: 10
Electric dark correction enabled: true
Nonlinearity correction enabled: false
Boxcar width: 0
XAxis mode: Wavelengths
Number of Pixels in Spectrum: 2048
>>>>>Begin Spectral Data<<<<<
341.393	-20.28
341.776	-20.28
342.16	-20.28
342.543	-59.6
342.927	-57.57
343.31	-76.78
343.693	-55.54
344.077	-61.64
344.46	-66.38
344.843	-56.67
345.226	-39.72
345.61	-22.99
345.993	-12.6
346.376	-11.24
346.759	-6.5
347.142	42.77
347.525	29.89
347.908	58.13
348.291	77.34
348.674	103.1
349.057	98.81
349.44	103.78
349.823	131.58
350.206	165.48
350.588	181.29
350.971	190.56
351.354	218.36
351.737	205.7
352.119	252.48
352.502	252.93
352.884	263.33
353.267	260.39
353.65	258.58
354.032	279.6
354.414	292.93
354.797	312.14
355.179	324.12
355.562	311.91
355.944	326.6
356.326	310.33
356.709	333.61
357.091	313.04
357.473	319.82
357.855	315.08
358.238	343.32
358.62	345.36
359.002	343.55
359.384	349.43
359.766	345.58
360.148	319.82
360.53	333.83
360.912	342.19
361.294	327.73
361.676	321.4
362.057	328.18
362.439	319.82
362.821	319.82
363.203	336.32
363.584	336.32
363.966	329.31
364.348	321.18
364.729	318.69
365.111	314.4
365.493	318.01
365.874	313.95
366.256	313.49
366.637	318.92
367.019	300.61
367.4	309.43
367.781	292.03
368.163	325.92
368.544	304.23
368.925	303.78
369.306	299.71
369.688	303.33
370.069	314.17
370.45	322.53
370.831	299.71
371.212	308.3
371.593	318.47
371.974	315.08
372.355	299.03
372.736	312.82
373.117	317.11
373.498	306.72
373.879	304
374.26	313.72
374.641	304.46
375.021	300.39
375.402	314.62
375.783	320.27
376.163	318.69
376.544	313.04
376.925	332.25
377.305	332.48
377.686	324.34
378.066	334.74
378.447	317.11
378.827	343.1
379.208	332.03
379.588	305.36
379.968	333.83
380.349	344.68
380.729	319.14
381.109	338.58
381.489	323.21
381.87	315.3
382.25	328.18
382.63	353.49
383.01	346.94
383.39	335.64
383.77	341.52
384.15	346.49
384.53	336.32
384.91	351.69
385.29	353.49
385.67	334.96
386.049	351.46
386.429	347.17
386.809	339.26
387.189	337.67
387.568	344.23
387.948	331.12
388.328	369.76
388.707	372.25
389.087	369.31
389.466	365.7
389.846	366.6
390.225	351.69
390.605	377.67
390.984	380.84
391.363	387.16
391.743	390.55
392.122	382.87
392.501	374.51
392.881	412.7
393.26	384.23
393.639	384.23
394.018	372.7
394.397	379.71
394.776	404.79
395.155	401.85
395.534	391.91
395.913	394.62
396.292	401.63
396.671	406.15
397.05	383.55
397.429	411.35
397.808	385.81
398.186	400.05
398.565	409.31
398.944	400.95
399.323	418.58
399.701	418.12
400.08	405.92
400.458	399.14
400.837	417.45
401.215	414.28
401.594	435.98
401.972	422.64
402.351	429.88
402.729	413.38
403.107	439.82
403.486	447.05
403.864	439.59
404.242	451.57
404.62	435.3
404.999	452.93
405.377	486.37
405.755	445.69
406.133	465.35
406.511	478.69
406.889	453.38
407.267	468.74
407.645	497.9
408.023	500.38
408.401	485.69
408.779	500.61
409.156	505.35
409.534	499.93
409.912	518.46
410.29	528.4
410.667	534.73
411.045	551.68
411.422	538.57
411.8	532.25
412.178	554.39
412.555	552.13
412.933	585.58
413.31	588.97
413.687	602.75
414.065	588.29
414.442	602.98
414.819	592.81
415.197	600.94
415.574	610.66
415.951	620.15
416.328	625.35
416.705	644.11
417.082	664.22
417.46	677.33
417.837	655.41
418.214	682.07
418.591	679.59
418.967	690.89
419.344	700.6
419.721	705.12
420.098	728.17
420.475	709.87
420.852	749.64
421.228	746.93
421.605	751.22
421.982	752.81
422.358	755.06
422.735	789.87
423.111	762.75
423.488	809.3
423.864	786.7
424.241	815.4
424.617	833.71
424.994	828.74
425.37	845.23
425.746	863.54
426.123	867.6
426.499	899.02
426.875	871.22
427.251	894.04
427.627	869.41
428.003	934.27
428.379	932.91
428.756	932.91
429.132	943.31
429.507	955.06
429.883	949.64
430.259	985.57
430.635	947.6
431.011	1012.91
431.387	999.13
431.763	1022.18
432.138	1026.24
432.514	1052.68
432.89	1055.17
433.265	1082.29
433.641	1092.68
434.016	1104.43
434.392	1138.78
434.767	1132.91
435.143	1151.44
435.518	1167.03
435.894	1180.14
436.269	1181.49
436.644	1211.55
437.02	1241.15
437.395	1219.69
437.77	1259.01
438.145	1304.2
438.52	1283.19
438.895	1280.93
439.271	1311.89
439.646	1327.71
440.021	1332.22
440.395	1359.57
440.77	1357.76
441.145	1355.28
441.52	1388.27
441.895	1402.96
442.27	1383.3
442.645	1425.33
443.019	1407.7
443.394	1437.53
443.769	1433.69
444.143	1443.63
444.518	1449.96
444.892	1458.55
445.267	1436.63
445.641	1459.91
446.016	1458.78
446.39	1480.24
446.764	1496.06
447.139	1488.38
447.513	1521.6
447.887	1505.1
448.262	1544.87
448.636	1520.92
449.01	1538.55
449.384	1576.74
449.758	1592.33
450.132	1632.33
450.506	1596.17
450.88	1595.27
451.254	1601.82
451.628	1612.44
452.002	1623.97
452.376	1642.05
452.75	1676.4
453.123	1677.53
453.497	1681.37
453.871	1673.91
454.244	1724.3
454.618	1744.19
454.992	1759.78
455.365	1769.95
455.739	1816.51
456.112	1805.88
456.486	1806.79
456.859	1813.79
457.232	1842.04
457.606	1855.37
457.979	1856.5
458.352	1894.24
458.725	1922.49
459.099	1902.38
459.472	1931.76
459.845	1963.17
460.218	2004.52
460.591	2010.17
460.964	2000
461.337	1991.87
461.71	2058.08
462.083	2099.89
462.456	2064.63
462.829	2062.6
463.201	2100.11
463.574	2116.84
463.947	2145.31
464.32	2176.04
464.692	2191.64
465.065	2225.31
465.438	2214.46
465.81	2248.13
466.183	2306.44
466.555	2330.39
466.928	2330.84
467.3	2323.61
467.672	2349.15
468.045	2377.62
468.417	2371.29
468.789	2405.42
469.161	2423.5
469.534	2491.06
469.906	2504.62
470.278	2527.67
470.65	2537.62
471.022	2564.28
471.394	2607.9
471.766	2644.51
472.138	2630.27
472.51	2654.22
472.882	2713.21
473.253	2729.7
473.625	2738.74
473.997	2815.12
474.369	2818.51
474.74	2871.39
475.112	2939.41
475.484	2929.92
475.855	2951.84
476.227	3018.73
476.598	2999.3
476.97	3049.92
477.341	3129.01
477.713	3158.17
478.084	3186.41
478.455	3230.25
478.827	3246.3
479.198	3328.1
479.569	3336.92
479.94	3391.15
480.311	3410.36
480.682	3500.53
481.053	3519.74
481.424	3572.62
481.795	3629.57
482.166	3639.28
482.537	3640.19
482.908	3743.69
483.279	3790.92
483.65	3797.47
484.021	3852.38
484.391	3853.51
484.762	3900.07
485.133	3951.37
485.503	3978.93
485.874	4068.65
486.244	4081.08
486.615	4141.64
486.985	4181.42
487.356	4256.22
487.726	4309.77
488.097	4333.95
488.467	4321.98
488.837	4399.26
489.207	4447.85
489.578	4532.14
489.948	4549.09
490.318	4579.37
490.688	4573.5
491.058	4669.76
491.428	4686.03
491.798	4724.68
492.168	4832.92
492.538	4806.26
492.908	4861.17
493.278	4904.56
493.648	4906.59
494.017	4956.99
494.387	4966.48
494.757	5057.78
495.126	5068.85
495.496	5090.54
495.866	5082.63
496.235	5188.17
496.605	5200.82
496.974	5216.87
497.344	5274.27
497.713	5253.93
498.082	5284.89
498.452	5318.11
498.821	5303.87
499.19	5305
499.559	5384.55
499.928	5411.89
500.298	5424.77
500.667	5476.3
501.036	5416.19
501.405	5451.66
501.774	5500.7
502.143	5486.69
502.512	5547.26
502.88	5595.84
503.249	5595.39
503.618	5632.9
503.987	5644.88
504.356	5678.33
504.724	5672
505.093	5695.05
505.462	5712
505.83	5691.21
506.199	5802.84
506.567	5816.17
506.936	5808.72
507.304	5893.69
507.672	5903.86
508.041	5885.33
508.409	5903.86
508.777	5951.31
509.145	5970.07
509.514	5942.05
509.882	5973.01
510.25	5983.85
510.618	6026.11
510.986	5960.58
511.354	6062.27
511.722	6111.53
512.09	6153.12
512.458	6117.86
512.826	6210.51
513.193	6143.85
513.561	6252.55
513.929	6198.31
514.297	6221.36
514.664	6333.45
515.032	6312.43
515.4	6337.74
515.767	6297.52
516.135	6326.22
516.502	6291.87
516.869	6420.9
517.237	6406.22
517.604	6372.32
517.972	6491.41
518.339	6459.55
518.706	6464.29
519.073	6519.66
519.44	6492.54
519.808	6509.04
520.175	6518.53
520.542	6557.85
520.909	6631.07
521.276	6609.6
521.643	6637.85
522.009	6664.51
522.376	6703.16
522.743	6651.86
523.11	6771.4
523.477	6823.38
523.843	6805.75
524.21	6875.36
524.577	6898.41
524.943	6918.97
525.31	6989.03
525.676	6969.14
526.043	6976.37
526.409	6982.7
526.776	7052.07
527.142	7088.68
527.508	7088.91
527.874	7173.88
528.241	7154.22
528.607	7147.44
528.973	7193.77
529.339	7253.65
529.705	7261.11
530.071	7341.11
530.437	7292.75
530.803	7308.11
531.169	7361.22
531.535	7370.03
531.901	7378.39
532.267	7420.2
532.632	7454.1
532.998	7499.97
533.364	7496.36
533.73	7534.77
534.095	7573.42
534.461	7567.99
534.826	7611.16
535.192	7625.62
535.557	7661.1
535.923	7583.59
536.288	7659.74
536.653	7687.54
537.019	7587.88
537.384	7687.76
537.749	7746.29
538.114	7751.04
538.479	7758.95
538.845	7799.4
539.21	7782.45
539.575	7815.22
539.94	7875.56
540.305	7844.82
540.67	7808.44
541.034	7913.29
541.399	7930.24
541.764	7885.95
542.129	7929.34
542.494	7950.13
542.858	7986.06
543.223	7975.44
543.587	8033.52
543.952	8049.79
544.316	7985.84
544.681	8012.05
545.045	8071.71
545.41	8091.82
545.774	8094.98
546.138	8067.87
546.503	8114.19
546.867	8165.27
547.231	8165.27
547.595	8142.67
547.959	8127.3
548.324	8156
548.688	8252.72
549.052	8280.06
549.416	8188.09
549.779	8261.53
550.143	8240.74
550.507	8291.14
550.871	8295.88
551.235	8283
551.599	8330.23
551.962	8358.48
552.326	8341.31
552.689	8385.82
553.053	8406.62
553.417	8416.11
553.78	8417.91
554.143	8430.12
554.507	8446.39
554.87	8468.99
555.234	8587.4
555.597	8498.59
555.96	8548.31
556.323	8516.44
556.686	8543.11
557.05	8588.98
557.413	8542.88
557.776	8578.36
558.139	8666.72
558.502	8690.22
558.865	8667.63
559.228	8696.33
559.59	8691.35
559.953	8741.52
560.316	8794.18
560.679	8828.07
561.041	8935.87
561.404	8846.38
561.767	8986.26
562.129	8937.9
562.492	8947.84
562.854	8973.61
563.217	8986.26
563.579	9006.83
563.941	9066.48
564.304	9095.64
564.666	9140.16
565.028	9074.39
565.39	9188.97
565.753	9221.73
566.115	9286.37
566.477	9297.67
566.839	9287.95
567.201	9353.48
567.563	9361.17
567.925	9398.23
568.287	9417.66
568.648	9424.89
569.01	9547.6
569.372	9496.3
569.734	9515.06
570.095	9538.79
570.457	9654.94
570.819	9672.8
571.18	9614.49
571.542	9710.54
571.903	9728.16
572.265	9757.31
572.626	9756.41
572.987	9835.73
573.349	9796.41
573.71	9897.65
574.071	9921.38
574.432	10008.38
574.794	10015.16
575.155	10021.04
575.516	9988.04
575.877	10075.5
576.238	10137.87
576.599	10226.91
576.96	10194.59
577.32	10219.67
577.681	10350.52
578.042	10355.49
578.403	10357.07
578.763	10386.9
579.124	10418.31
579.485	10551.42
579.845	10591.87
580.206	10632.77
580.566	10626.67
580.927	10645.43
581.287	10791.19
581.648	10751.41
582.008	10841.81
582.368	10800.45
582.728	10893.56
583.089	10871.64
583.449	10962.25
583.809	11037.96
584.169	11131.97
584.529	11117.96
584.889	11289.7
585.249	11305.3
585.609	11260.78
585.969	11366.76
586.329	11465.74
586.688	11513.88
587.048	11543.93
587.408	11568.34
587.768	11692.4
588.127	11709.58
588.487	11772.4
588.846	11938.27
589.206	11963.58
589.565	11937.14
589.925	12098.27
590.284	12087.87
590.643	12193.63
591.003	12314.53
591.362	12305.04
591.721	12439.96
592.08	12393.63
592.44	12561.53
592.799	12641.76
593.158	12695.77
593.517	12693.28
593.876	12799.27
594.235	12887.63
594.593	12939.15
594.952	12976.66
595.311	13002.88
595.67	13086.49
596.029	13203.78
596.387	13273.83
596.746	13302.98
597.104	13314.73
597.463	13372.36
597.822	13548.4
598.18	13502.75
598.538	13570.77
598.897	13626.36
599.255	13630.43
599.613	13807.83
599.972	13852.57
600.33	13898.9
600.688	13839.24
601.046	13996.52
601.404	13988.39
601.762	14091.44
602.12	14135.28
602.478	14204.65
602.836	14135.73
603.194	14156.75
603.552	14321.71
603.91	14325.56
604.268	14359
604.625	14459.11
604.983	14462.05
605.341	14431.99
605.698	14529.17
606.056	14535.04
606.413	14576.62
606.771	14697.52
607.128	14768.93
607.485	14627.02
607.843	14657.3
608.2	14816.62
608.557	14872.89
608.914	14757.63
609.272	14915.6
609.629	14972.09
609.986	14974.35
610.343	14916.27
610.7	15066.55
611.057	15022.94
611.414	15075.14
611.771	15179.09
612.127	15221.35
612.484	15218.41
612.841	15368.01
613.198	15235.81
613.554	15303.38
613.911	15431.06
614.267	15374.79
614.624	15434.23
614.98	15330.73
615.337	15526.88
615.693	15518.07
616.05	15568.91
616.406	15631.96
616.762	15523.49
617.118	15561.46
617.475	15604.17
617.831	15733.88
618.187	15730.26
618.543	15791.05
618.899	15764.61
619.255	15701.34
619.611	15717.84
619.967	15766.65
620.323	15814.1
620.678	15781.56
621.034	15744.95
621.39	15779.3
621.746	15826.98
622.101	15966.64
622.457	15835.57
622.812	15843.93
623.168	15929.58
623.523	15885.29
623.879	15965.51
624.234	15890.26
624.589	15976.36
624.945	15983.82
625.3	16026.3
625.655	15947.66
626.01	16019.07
626.365	16040.31
626.72	15923.48
627.075	16013.42
627.43	16037.83
627.785	16045.28
628.14	15966.64
628.495	16007.55
628.85	15954.67
629.205	15998.05
629.559	15990.14
629.914	15947.66
630.269	15935.46
630.623	15894.33
630.978	15734.11
631.332	15942.91
631.687	15946.08
632.041	15952.86
632.396	15912.86
632.75	15826.08
633.104	15909.02
633.459	15830.15
633.813	15805.52
634.167	15791.05
634.521	15723.03
634.875	15769.59
635.229	15819.75
635.583	15715.35
635.937	15711.28
636.291	15690.72
636.645	15741.56
636.999	15634.45
637.352	15717.61
637.706	15613.66
638.06	15648.46
638.413	15663.6
638.767	15581.57
639.121	15568.91
639.474	15621.79
639.828	15534.34
640.181	15571.62
640.534	15635.35
640.888	15549.7
641.241	15479.2
641.594	15529.59
641.947	15561
642.301	15522.13
642.654	15519.2
643.007	15632.64
643.36	15439.42
643.713	15445.75
644.066	15545.86
644.419	15271.29
644.771	15318.75
645.124	15225.87
645.477	15058.42
645.83	15112.2
646.182	14928.03
646.535	14966.22
646.888	14932.32
647.24	14933
647.593	14946.1
647.945	14940.45
648.298	14875.37
648.65	14825.2
649.002	14898.65
649.355	14895.26
649.707	14858.2
650.059	14964.41
650.411	15238.75
650.763	15213.22
651.115	15507.67
651.467	15312.2
651.819	15353.1
652.171	15270.39
652.523	15297.51
652.875	15332.31
653.227	15257.73
653.578	15340.44
653.93	15288.47
654.282	15283.5
654.633	15289.82
654.985	15203.5
655.337	15267.9
655.688	15347.22
656.039	15350.61
656.391	15282.37
656.742	15285.53
657.094	15300.22
657.445	15298.41
657.796	15309.48
658.147	15331.4
658.498	15343.38
658.849	15311.97
659.2	15280.11
659.551	15271.07
659.902	15278.07
660.253	15346.55
660.604	15269.03
660.955	15202.59
661.306	15257.73
661.656	15319.65
662.007	15375.7
662.358	15307.9
662.708	15363.49
663.059	15346.09
663.409	15275.36
663.76	15450.05
664.11	15367.11
664.461	15367.79
664.811	15327.56
665.161	15381.35
665.511	15381.12
665.862	15357.62
666.212	15385.87
666.562	15440.1
666.912	15416.6
667.262	15371.63
667.612	15307.45
667.962	15410.05
668.312	15403.04
668.662	15423.61
669.011	15412.53
669.361	15381.12
669.711	15383.38
670.06	15333.21
670.41	15335.02
670.76	15340.22
671.109	15339.99
671.459	15266.1
671.808	15201.01
672.157	15355.58
672.507	15195.36
672.856	15258.41
673.205	15186.55
673.554	15332.08
673.904	15203.5
674.253	15295.02
674.602	15164.86
674.951	15022.94
675.3	14945.65
675.649	15120.11
675.998	15166.21
676.346	15224.74
676.695	15220
677.044	15089.83
677.393	15090.06
677.741	15108.81
678.09	15088.25
678.438	15139.09
678.787	15071.52
679.135	15016.16
679.484	14963.05
679.832	15023.84
680.181	14938.42
680.529	15002.37
680.877	14888.03
681.225	14843.96
681.573	15091.19
681.922	14873.56
682.27	14893.9
682.618	14754.02
682.966	14800.8
683.314	14789.5
683.661	14642.61
684.009	14659.56
684.357	14678.31
684.705	14590.63
685.053	14593.35
685.4	14620.46
685.748	14532.1
686.095	14641.93
686.443	14533.01
686.79	14436.74
687.138	14490.97
687.485	14441.71
687.832	14422.5
688.18	14444.65
688.527	14280.81
688.874	14329.85
689.221	14243.75
689.568	14232.22
689.915	14237.42
690.262	14144.54
690.609	14092.12
690.956	14022.06
691.303	13997.43
691.65	13912.01
691.997	13969.63
692.344	13834.49
692.69	13833.37
693.037	13912.69
693.383	13707.27
693.73	13728.51
694.077	13620.04
694.423	13651.45
694.769	13526.25
695.116	13590.89
695.462	13541.4
695.808	13409.87
696.155	13483.77
696.501	13387.95
696.847	13266.6
697.193	13294.62
697.539	13220.95
697.885	13199.71
698.231	13055.76
698.577	13113.84
698.923	13057.79
699.269	12943.44
699.614	12945.03
699.96	12825.48
700.306	12778.25
700.651	12768.31
700.997	12799.72
701.342	12708.2
701.688	12713.85
702.033	12629.78
702.379	12620.29
702.724	12487.86
703.069	12601.31
703.415	12331.94
703.76	12381.88
704.105	12355.89
704.45	12378.26
704.795	12217.59
705.14	12242.9
705.485	12231.37
705.83	12158.83
706.175	12119.74
706.52	12186.18
706.865	12049.91
707.209	12099.17
707.554	12017.59
707.899	12019.18
708.243	11973.3
708.588	11982.79
708.932	11864.38
709.277	11816.24
709.621	11904.15
709.966	11679.3
710.31	11830.48
710.654	11664.16
710.998	11687.66
711.342	11605.18
711.687	11649.69
712.031	11610.15
712.375	11520.66
712.719	11590.03
713.063	11509.13
713.407	11545.74
713.75	11562.24
714.094	11518.17
714.438	11372.19
714.782	11417.16
715.125	11336.93
715.469	11337.39
715.812	11294.67
716.156	11227.56
716.499	11279.31
716.843	11273.43
717.186	11264.17
717.53	11263.04
717.873	11332.64
718.216	11254.68
718.559	11287.9
718.902	11070.5
719.246	11182.81
719.589	11141.91
719.932	11078.86
720.275	11052.2
720.617	11035.25
720.96	11033.89
721.303	11026.21
721.646	11047.22
721.989	10976.27
722.331	10973.1
722.674	10910.28
723.016	10964.51
723.359	10921.13
723.701	10924.74
724.044	10882.93
724.386	10909.37
724.729	10936.94
725.071	10954.12
725.413	10945.98
725.755	10926.1
726.097	10779.21
726.439	10774.69
726.782	10848.36
727.124	10853.78
727.465	10795.7
727.807	10863.73
728.149	10784.18
728.491	10881.58
728.833	10823.73
729.175	10728.81
729.516	10707.57
729.858	10670.06
730.199	10794.12
730.541	10810.39
730.882	10756.61
731.224	10781.02
731.565	10731.53
731.906	10672.54
732.248	10724.07
732.589	10633
732.93	10700.11
733.271	10710.96
733.612	10677.06
733.953	10781.92
734.294	10739.89
734.635	10661.7
734.976	10723.39
735.317	10703.28
735.658	10649.95
735.999	10697.85
736.339	10659.21
736.68	10683.17
737.021	10698.31
737.361	10691.53
737.702	10778.08
738.042	10729.72
738.383	10771.3
738.723	10781.47
739.063	10725.2
739.404	10772.88
739.744	10782.82
740.084	10742.15
740.424	10783.28
740.764	10799.09
741.104	10752.77
741.444	10807.68
741.784	10748.47
742.124	10842.03
742.464	10865.76
742.804	10769.72
743.143	10871.41
743.483	10915.48
743.823	10881.13
744.162	10942.59
744.502	11031.86
744.841	10974.68
745.181	11073.89
745.52	10996.38
745.86	11064.17
746.199	11124.74
746.538	11200.89
746.877	11245.41
747.216	11353.2
747.556	11260.33
747.895	11468.46
748.234	11464.84
748.573	11497.61
748.911	11603.14
749.25	11630.26
749.589	11692.86
749.928	11759.3
750.267	11797.94
750.605	11898.27
750.944	11905.05
751.283	11994.32
751.621	12097.82
751.96	12111.38
752.298	12355.66
752.636	12452.61
752.975	12513.17
753.313	12488.99
753.651	12759.95
753.989	12833.17
754.327	12846.5
754.666	12959.72
755.004	13091.24
755.342	13208.75
755.679	13385.69
756.017	13425.47
756.355	13569.64
756.693	13644.67
757.031	13855.29
757.368	13987.03
757.706	14084.88
758.044	14252.79
758.381	14434.48
758.719	14470.64
759.056	14723.29
759.394	14782.94
