Data from hue_140_FLMS001491_00072.txt Node
Date: Tue Feb 07 16:56:23 GMT 2017
User: dcchb
Spectrometer: FLMS00149
Trigger mode: 0
Integration Time (sec): 2.000000E-2
Scans to average: 10
Electric dark correction enabled: true
Nonlinearity correction enabled: false
Boxcar width: 0
XAxis mode: Wavelengths
Number of Pixels in Spectrum: 2048
>>>>>Begin Spectral Data<<<<<
341.393	-6.65
341.776	-6.65
342.16	-6.65
342.543	-66.54
342.927	-89.81
343.31	-67.44
343.693	-85.97
344.077	-78.29
344.46	-59.31
344.843	-56.14
345.226	-19.76
345.61	-34.45
345.993	-37.16
346.376	-6.2
346.759	25.89
347.142	23.4
347.525	37.41
347.908	55.04
348.291	79.45
348.674	97.3
349.057	126.23
349.44	133.46
349.823	144.76
350.206	162.83
350.588	204.19
350.971	212.1
351.354	221.36
351.737	254.36
352.119	265.66
352.502	289.39
352.884	278.76
353.267	297.75
353.65	287.58
354.032	300.01
354.414	292.32
354.797	309.5
355.179	330.51
355.562	312.66
355.944	335.94
356.326	325.09
356.709	325.32
357.091	366.22
357.473	325.54
357.855	350.85
358.238	333
358.62	317.63
359.002	323.73
359.384	347.01
359.766	356.73
360.148	326.67
360.53	335.49
360.912	344.52
361.294	321.7
361.676	304.07
362.057	329.84
362.439	324.41
362.821	325.77
363.203	323.73
363.584	330.06
363.966	314.92
364.348	292.55
364.729	314.47
365.111	312.66
365.493	311.76
365.874	318.54
366.256	332.77
366.637	323.28
367.019	316.5
367.4	313.11
367.781	313.11
368.163	318.76
368.544	304.75
368.925	324.64
369.306	322.15
369.688	305.43
370.069	316.95
370.45	294.81
370.831	309.95
371.212	304.53
371.593	313.34
371.974	302.94
372.355	321.25
372.736	318.99
373.117	325.09
373.498	303.62
373.879	332.32
374.26	308.14
374.641	307.92
375.021	315.15
375.402	304.75
375.783	319.67
376.163	338.65
376.544	324.41
376.925	316.5
377.305	336.39
377.686	335.49
378.066	328.71
378.447	339.33
378.827	335.49
379.208	332.55
379.588	325.09
379.968	338.88
380.349	341.36
380.729	351.53
381.109	349.95
381.489	347.01
381.87	363.73
382.25	347.24
382.63	362.6
383.01	352.21
383.39	340.23
383.77	358.99
384.15	347.01
384.53	354.24
384.91	371.64
385.29	358.76
385.67	350.17
386.049	358.54
386.429	356.05
386.809	349.04
387.189	366.9
387.568	351.3
387.948	364.41
388.328	358.99
388.707	360.34
389.087	363.06
389.466	368.48
389.846	350.4
390.225	354.24
390.605	383.17
390.984	379.33
391.363	373.9
391.743	368.48
392.122	357.86
392.501	372.55
392.881	381.81
393.26	377.74
393.639	369.16
394.018	380.91
394.397	372.32
394.776	381.81
395.155	373.45
395.534	387.91
395.913	394.24
396.292	389.5
396.671	401.02
397.05	388.14
397.429	400.34
397.808	400.34
398.186	411.19
398.565	397.4
398.944	399.21
399.323	374.58
399.701	410.96
400.08	396.95
400.458	418.65
400.837	408.48
401.215	429.95
401.594	431.08
401.972	434.01
402.351	429.27
402.729	405.77
403.107	418.42
403.486	422.26
403.864	430.85
404.242	434.01
404.62	404.64
404.999	408.93
405.377	442.6
405.755	436.95
406.133	435.82
406.511	425.2
406.889	453
407.267	431.75
407.645	442.83
408.023	446.9
408.401	424.75
408.779	450.28
409.156	438.99
409.534	435.6
409.912	470.62
410.29	483.28
410.667	458.42
411.045	469.49
411.422	468.36
411.8	477.4
412.178	452.54
412.555	472.43
412.933	486.67
413.31	476.05
413.687	463.62
414.065	515.37
414.442	496.84
414.819	495.93
415.197	498.65
415.574	503.39
415.951	494.35
416.328	509.49
416.705	508.59
417.082	505.88
417.46	537.51
417.837	522.37
418.214	511.98
418.591	533.67
418.967	544.75
419.344	529.38
419.721	533.22
420.098	539.1
420.475	548.36
420.852	549.49
421.228	546.55
421.605	552.65
421.982	556.95
422.358	566.89
422.735	581.13
423.111	578.19
423.488	559.89
423.864	559.66
424.241	597.63
424.617	584.29
424.994	581.81
425.37	585.87
425.746	590.17
426.123	610.28
426.499	617.51
426.875	604.86
427.251	622.03
427.627	617.51
428.003	609.6
428.379	666.78
428.756	621.81
429.132	655.7
429.507	640.11
429.883	664.06
430.259	659.54
430.635	643.95
431.011	654.8
431.387	679.21
431.763	685.76
432.138	680.79
432.514	693.22
432.89	699.54
433.265	690.96
433.641	716.72
434.016	714.46
434.392	699.09
434.767	726.21
435.143	729.6
435.518	732.09
435.894	748.36
436.269	761.24
436.644	750.16
437.02	777.51
437.395	748.81
437.77	789.94
438.145	777.51
438.52	771.18
438.895	806.43
439.271	814.57
439.646	799.65
440.021	819.99
440.395	805.08
440.77	801.24
441.145	815.02
441.52	849.82
441.895	845.98
442.27	841.01
442.645	843.72
443.019	839.65
443.394	838.52
443.769	866.32
444.143	849.6
444.518	901.57
444.892	875.81
445.267	889.6
445.641	899.54
446.016	884.4
446.39	881.69
446.764	887.79
447.139	910.39
447.513	929.14
447.887	923.27
448.262	934.57
448.636	937.28
449.01	950.16
449.384	950.38
449.758	937.28
450.132	974.34
450.506	969.14
450.88	1001.23
451.254	958.52
451.628	998.97
452.002	1000.1
452.376	1002.81
452.75	1024.28
453.123	1020.44
453.497	1043.72
453.871	1044.62
454.244	1054.34
454.618	1048.69
454.992	1065.64
455.365	1076.71
455.739	1105.41
456.112	1120.1
456.486	1123.26
456.859	1123.04
457.232	1105.18
457.606	1122.58
457.979	1161
458.352	1181.56
458.725	1187.89
459.099	1195.12
459.472	1234.22
459.845	1234.22
460.218	1240.77
460.591	1261.79
460.964	1263.6
461.337	1294.78
461.71	1318.06
462.083	1347.66
462.456	1330.04
462.829	1331.84
463.201	1361.45
463.574	1377.27
463.947	1401.67
464.32	1417.04
464.692	1441.22
465.065	1473.76
465.438	1493.65
465.81	1481.22
466.183	1485.51
466.555	1570.03
466.928	1549.92
467.3	1575.68
467.672	1585.62
468.045	1612.29
468.417	1657.71
468.789	1687.09
469.161	1705.62
469.534	1698.61
469.906	1728.44
470.278	1776.58
470.65	1831.27
471.022	1825.62
471.394	1890.7
471.766	1926.86
472.138	1936.8
472.51	2021.54
472.882	2010.92
473.253	2065.16
473.625	2115.33
473.997	2162.78
474.369	2201.88
474.74	2254.31
475.112	2307.64
475.484	2346.73
475.855	2400.97
476.227	2426.5
476.598	2508.08
476.97	2561.42
477.341	2660.85
477.713	2713.73
478.084	2719.6
478.455	2843.67
478.827	2884.12
479.198	3004.12
479.569	3064.45
479.94	3171.57
480.311	3196.2
480.682	3326.59
481.053	3388.74
481.424	3523.42
481.795	3536.76
482.166	3684.32
482.537	3774.49
482.908	3845
483.279	3965.22
483.65	4056.97
484.021	4165.89
484.391	4289.51
484.762	4374.48
485.133	4411.99
485.503	4596.16
485.874	4715.26
486.244	4798.87
486.615	4954.57
486.985	5098.98
487.356	5221.23
487.726	5339.65
488.097	5495.35
488.467	5536.03
488.837	5750.71
489.207	5868
489.578	5987.99
489.948	6147.08
490.318	6287.65
490.688	6345.27
491.058	6508.66
491.428	6668.43
491.798	6762.66
492.168	6984.12
492.538	7091.47
492.908	7247.85
493.278	7415.07
493.648	7444.45
494.017	7600.61
494.387	7779.13
494.757	7888.51
495.126	8051.21
495.496	8123.3
495.866	8245.56
496.235	8406.91
496.605	8495.72
496.974	8635.38
497.344	8768.26
497.713	8876.05
498.082	8965.09
498.452	9152.88
498.821	9272.2
499.19	9239.88
499.559	9471.97
499.928	9579.08
500.298	9658.86
500.667	9751.51
501.036	9836.25
501.405	9926.19
501.774	10057.94
502.143	10164.83
502.512	10204.6
502.88	10328.44
503.249	10375.22
503.618	10482.56
503.987	10593.97
504.356	10593.07
504.724	10749.9
505.093	10868.09
505.462	10936.34
505.83	10973.85
506.199	11069.21
506.567	11178.36
506.936	11246.84
507.304	11356.44
507.672	11418.36
508.041	11468.98
508.409	11496.1
508.777	11683.44
509.145	11768.63
509.514	11758.01
509.882	11856.76
510.25	11875.3
510.618	11893.83
510.986	11965.91
511.354	12107.38
511.722	12194.83
512.09	12215.4
512.458	12276.64
512.826	12296.75
513.193	12423.3
513.561	12380.82
513.929	12537.65
514.297	12634.6
514.664	12639.34
515.032	12687.93
515.4	12809.28
515.767	12749.85
516.135	12824.2
516.502	12720.47
516.869	12973.8
517.237	12935.15
517.604	12908.71
517.972	13000.92
518.339	13057.64
518.706	13085.43
519.073	13120.69
519.44	13135.15
519.808	13167.92
520.175	13131.76
520.542	13229.16
520.909	13339.44
521.276	13284.52
521.643	13322.26
522.009	13455.82
522.376	13494.01
522.743	13501.92
523.11	13568.58
523.477	13621.46
523.843	13671.18
524.21	13737.62
524.577	13774.23
524.943	13807.67
525.31	13872.76
525.676	13856.49
526.043	13904.62
526.409	13895.58
526.776	13975.13
527.142	13948.46
527.508	13969.03
527.874	13964.51
528.241	14035.01
528.607	14001.34
528.973	14106.42
529.339	14151.85
529.705	14129.25
530.071	14249.24
530.437	14184.61
530.803	14209.47
531.169	14229.81
531.535	14092.64
531.901	14164.73
532.267	14079.08
532.632	14258.96
532.998	14124.28
533.364	14198.85
533.73	14211.96
534.095	14247.44
534.461	14105.97
534.826	14198.17
535.192	14137.38
535.557	14210.37
535.923	14046.76
536.288	14189.13
536.653	14145.74
537.019	14032.53
537.384	14011.06
537.749	14043.37
538.114	14021.23
538.479	14013.77
538.845	14035.92
539.21	13998.18
539.575	13981.68
539.94	13875.24
540.305	13907.56
540.67	13796.15
541.034	13828.92
541.399	13764.51
541.764	13798.41
542.129	13791.85
542.494	13716.38
542.858	13632.76
543.223	13640.9
543.587	13622.14
543.952	13651.07
544.316	13618.75
544.681	13515.93
545.045	13682.93
545.41	13632.09
545.774	13515.25
546.138	13496.5
546.503	13463.05
546.867	13381.92
547.231	13398.87
547.595	13383.5
547.959	13409.94
548.324	13395.03
548.688	13328.59
549.052	13226.45
549.416	13308.25
549.779	13171.08
550.143	13171.08
550.507	13244.07
550.871	13132.89
551.235	13212.66
551.599	13114.36
551.962	13065.09
552.326	13083.4
552.689	13181.48
553.053	12992.33
553.417	13046.11
553.78	13115.26
554.143	13021.25
554.507	13036.39
554.87	12938.32
555.234	13013.8
555.597	12918.88
555.96	12925.66
556.323	12907.36
556.686	12967.92
557.05	12909.39
557.413	12904.87
557.776	12871.65
558.139	13008.15
558.502	12867.36
558.865	12891.54
559.228	12977.19
559.59	12906.68
559.953	12895.83
560.316	12982.61
560.679	12906.45
561.041	12895.83
561.404	12985.1
561.767	13028.03
562.129	12927.02
562.492	13037.52
562.854	13053.34
563.217	12883.86
563.579	12995.27
563.941	13032.33
564.304	13012.67
564.666	13063.74
565.028	13053.12
565.39	13042.95
565.753	13116.84
566.115	12965.21
566.477	13092.44
566.839	13099.67
567.201	13066.45
567.563	13111.42
567.925	13169.5
568.287	13157.97
568.648	13143.74
569.01	13191.87
569.372	13318.2
569.734	13228.48
570.095	13280.46
570.457	13291.3
570.819	13242.94
571.18	13193
571.542	13327.69
571.903	13375.14
572.265	13370.85
572.626	13303.28
572.987	13341.02
573.349	13389.83
573.71	13391.87
574.071	13429.83
574.432	13447.46
574.794	13510.05
575.155	13454.91
575.516	13346.44
575.877	13464.18
576.238	13492.65
576.599	13561.8
576.96	13468.7
577.32	13505.76
577.681	13465.08
578.042	13540.79
578.403	13547.79
578.763	13537.62
579.124	13498.53
579.485	13569.49
579.845	13506.66
580.206	13446.55
580.566	13562.93
580.927	13507.12
581.287	13530.84
581.648	13501.02
582.008	13640.45
582.368	13555.02
582.728	13544.63
583.089	13578.98
583.449	13519.32
583.809	13555.02
584.169	13429.83
584.529	13544.18
584.889	13585.53
585.249	13469.38
585.609	13408.36
585.969	13540.11
586.329	13413.33
586.688	13538.3
587.048	13404.52
587.408	13531.75
587.768	13373.79
588.127	13369.95
588.487	13417.63
588.846	13405.65
589.206	13311.42
589.565	13423.73
589.925	13450.85
590.284	13314.58
590.643	13413.11
591.003	13367.69
591.362	13377.18
591.721	13410.17
592.08	13361.81
592.44	13351.87
592.799	13381.92
593.158	13338.53
593.517	13310.51
593.876	13341.25
594.235	13280
594.593	13270.29
594.952	13360.45
595.311	13239.78
595.67	13254.69
596.029	13360.23
596.387	13365.2
596.746	13262.15
597.104	13291.53
597.463	13291.98
597.822	13337.86
598.18	13301.25
598.538	13284.75
598.897	13334.24
599.255	13154.13
599.613	13437.06
599.972	13307.12
600.33	13316.16
600.688	13200.23
601.046	13310.06
601.404	13375.59
601.762	13254.69
602.12	13368.82
602.478	13353.22
602.836	13309.16
603.194	13313
603.552	13302.38
603.91	13266.22
604.268	13282.49
604.625	13300.12
604.983	13322.49
605.341	13235.26
605.698	13243.62
606.056	13303.28
606.413	13292.21
606.771	13396.16
607.128	13265.77
607.485	13296.73
607.843	13284.07
608.2	13353
608.557	13338.76
608.914	13337.63
609.272	13381.47
609.629	13426.21
609.986	13473.9
610.343	13381.02
610.7	13426.21
611.057	13414.01
611.414	13421.24
611.771	13391.64
612.127	13405.88
612.484	13462.6
612.841	13565.87
613.198	13550.05
613.554	13492.43
613.911	13587.57
614.267	13552.54
614.624	13517.51
614.98	13529.94
615.337	13589.15
615.693	13585.98
616.05	13532.2
616.406	13662.82
616.762	13576.27
617.118	13610.39
617.475	13589.37
617.831	13611.97
618.187	13642.03
618.543	13546.66
618.899	13694.23
619.255	13707.11
619.611	13626.89
619.967	13736.94
620.323	13687
620.678	13729.94
621.034	13651.97
621.39	13722.93
621.746	13600
622.101	13807.67
622.457	13629.15
622.812	13741.23
623.168	13681.35
623.523	13741.69
623.879	13775.36
624.234	13647.45
624.589	13750.27
624.945	13688.58
625.3	13706.43
625.655	13714.34
626.01	13717.05
626.365	13694.68
626.72	13680.45
627.075	13756.38
627.43	13630.05
627.785	13600.67
628.14	13692.87
628.495	13734.23
628.85	13721.57
629.205	13702.82
629.559	13746.66
629.914	13662.14
630.269	13722.25
630.623	13675.7
630.978	13597.06
631.332	13666.43
631.687	13630.5
632.041	13563.84
632.396	13524.52
632.75	13463.05
633.104	13503.05
633.459	13459.66
633.813	13439.1
634.167	13497.85
634.521	13423.73
634.875	13506.44
635.229	13503.27
635.583	13353
635.937	13433.45
636.291	13315.94
636.645	13326.78
636.999	13290.4
637.352	13305.99
637.706	13314.13
638.06	13372.2
638.413	13328.36
638.767	13312.09
639.121	13262.6
639.474	13236.16
639.828	13241.81
640.181	13209.5
640.534	13183.96
640.888	13154.58
641.241	13101.7
641.594	13125.88
641.947	13155.04
642.301	13162.72
642.654	13197.29
643.007	13165.66
643.36	13135.6
643.713	13108.03
644.066	13118.88
644.419	13038.2
644.771	13003.18
645.124	12935.61
645.477	12866.46
645.83	12809.51
646.182	12791.66
646.535	12686.8
646.888	12765.89
647.24	12665.33
647.593	12652.45
647.945	12699
648.298	12629.4
648.65	12607.03
649.002	12593.24
649.355	12611.32
649.707	12628.27
650.059	12692
650.411	12898.09
650.763	12891.09
651.115	13038.65
651.467	12974.7
651.819	12921.37
652.171	12927.24
652.523	12930.18
652.875	12936.28
653.227	12825.78
653.578	12949.84
653.93	13066.45
654.282	12864.87
654.633	12904.65
654.985	12921.37
655.337	12878.66
655.688	12880.92
656.039	12946.23
656.391	12943.52
656.742	12807.7
657.094	12891.77
657.445	12955.04
657.796	12972.44
658.147	12923.63
658.498	12920.92
658.849	12982.16
659.2	12910.07
659.551	12933.8
659.902	12958.43
660.253	12908.71
660.604	12963.63
660.955	12903.74
661.306	12935.38
661.656	12960.92
662.007	12960.24
662.358	12916.17
662.708	12956.4
663.059	12946.23
663.409	12899.67
663.76	13008.37
664.11	12984.64
664.461	12948.71
664.811	13010.41
665.161	12993.23
665.511	12981.03
665.862	12966.57
666.212	12998.66
666.562	13071.42
666.912	13024.64
667.262	12951.2
667.612	13004.53
667.962	12954.59
668.312	12960.92
668.662	12965.89
669.011	12980.8
669.361	12970.86
669.711	12903.97
670.06	12875.27
670.41	12901.26
670.76	12871.43
671.109	12916.4
671.459	12801.37
671.808	12936.96
672.157	12906.45
672.507	12832.33
672.856	12752.11
673.205	12846.34
673.554	12852.9
673.904	12876.85
674.253	12830.75
674.602	12844.99
674.951	12739.45
675.3	12655.39
675.649	12864.65
675.998	12784.42
676.346	12810.19
676.695	12803.63
677.044	12706.46
677.393	12765.22
677.741	12716.63
678.09	12735.39
678.438	12674.82
678.787	12676.18
679.135	12699.68
679.484	12583.98
679.832	12598.89
680.181	12587.82
680.529	12715.05
680.877	12518.89
681.225	12543.07
681.573	12614.71
681.922	12419.69
682.27	12525
682.618	12487.26
682.966	12415.39
683.314	12406.13
683.661	12361.84
684.009	12332.46
684.357	12322.74
684.705	12350.54
685.053	12276.87
685.4	12247.04
685.748	12240.48
686.095	12173.59
686.443	12148.06
686.79	12110.77
687.138	12180.37
687.485	12094.5
687.832	12064.44
688.18	12127.49
688.527	12006.37
688.874	11996.42
689.221	11978.34
689.568	11938.8
689.915	11858.12
690.262	11957.55
690.609	11823.09
690.956	11792.59
691.303	11798.23
691.65	11743.55
691.997	11744
692.344	11666.49
692.69	11613.61
693.037	11685.7
693.383	11513.04
693.73	11556.43
694.077	11505.59
694.423	11448.19
694.769	11386.72
695.116	11393.73
695.462	11397.34
695.808	11334.74
696.155	11351.02
696.501	11284.8
696.847	11209.55
697.193	11087.75
697.539	11173.84
697.885	11090.68
698.231	11085.26
698.577	11023.79
698.923	10993.74
699.269	10913.96
699.614	10896.11
699.96	10881.65
700.306	10825.61
700.651	10781.09
700.997	10714.42
701.342	10760.07
701.688	10719.85
702.033	10634.42
702.379	10688.66
702.724	10640.75
703.069	10615.89
703.415	10475.11
703.76	10453.64
704.105	10485.5
704.45	10466.97
704.795	10404.83
705.14	10378.16
705.485	10366.18
705.83	10249.35
706.175	10288.44
706.52	10284.6
706.865	10177.71
707.209	10142.23
707.554	10114.89
707.899	10157.6
708.243	10088
708.588	10109.01
708.932	9926.42
709.277	9998.06
709.621	10052.97
709.966	9899.3
710.31	9995.12
710.654	9861.34
710.998	9865.63
711.342	9936.81
711.687	9805.07
712.031	9872.18
712.375	9824.28
712.719	9794.67
713.063	9763.71
713.407	9760.55
713.75	9693.88
714.094	9717.84
714.438	9728.23
714.782	9700.66
715.125	9639.65
715.469	9578.18
715.812	9617.73
716.156	9509.26
716.499	9572.76
716.843	9545.41
717.186	9439.2
717.53	9473.55
717.873	9519.88
718.216	9513.32
718.559	9491.4
718.902	9400.33
719.246	9415.92
719.589	9403.72
719.932	9357.4
720.275	9430.61
720.617	9416.15
720.96	9394.91
721.303	9347.9
721.646	9317.4
721.989	9320.11
722.331	9301.35
722.674	9290.96
723.016	9319.88
723.359	9253.67
723.701	9279.88
724.044	9192.43
724.386	9164.86
724.729	9245.76
725.071	9221.13
725.413	9206.66
725.755	9220.9
726.097	9162.82
726.439	9230.62
726.782	9120.34
727.124	9157.63
727.465	9131.41
727.807	9166.89
728.149	9107.68
728.491	9109.27
728.833	9152.65
729.175	9097.29
729.516	9090.96
729.858	9115.59
730.199	9051.19
730.541	9059.32
730.882	9052.54
731.224	9094.13
731.565	9038.31
731.906	8990.63
732.248	9123.5
732.589	9046.67
732.93	9037.18
733.271	9004.41
733.612	9072.2
733.953	9069.95
734.294	8995.6
734.635	9071.53
734.976	9029.49
735.317	8960.57
735.658	9000.12
735.999	8997.18
736.339	9060.23
736.68	9044.64
737.021	9085.54
737.361	9003.96
737.702	9136.38
738.042	9064.97
738.383	9030.4
738.723	9093.9
739.063	9084.18
739.404	9054.58
739.744	9095.71
740.084	9130.73
740.424	9079.44
740.764	9075.59
741.104	9194.01
741.444	9151.52
741.784	9149.27
742.124	9181.81
742.464	9197.17
742.804	9135.25
743.143	9194.24
743.483	9192.65
743.823	9179.55
744.162	9276.27
744.502	9330.5
744.841	9340.45
745.181	9421.12
745.52	9406.89
745.86	9446.21
746.199	9488.47
746.538	9444.85
746.877	9489.6
747.216	9594.23
747.556	9591.97
747.895	9654.34
748.234	9642.36
748.573	9683.71
748.911	9795.12
749.25	9783.6
749.589	9834.22
749.928	9897.04
750.267	10035.8
750.605	10021.56
750.944	10090.03
751.283	10224.72
751.621	10304.94
751.96	10281.21
752.298	10461.55
752.636	10575.67
752.975	10618.38
753.313	10720.98
753.651	10868.77
753.989	10882.78
754.327	10986.73
754.666	11048.2
755.004	11206.61
755.342	11429.88
755.679	11521.18
756.017	11506.49
756.355	11801.4
756.693	11879.14
757.031	12039.36
757.368	12109.19
757.706	12282.06
758.044	12326.58
758.381	12585.78
758.719	12675.27
759.056	12845.21
