Data from hue_270_FLMS001491_00025.txt Node
Date: Tue Feb 07 15:56:58 GMT 2017
User: dcchb
Spectrometer: FLMS00149
Trigger mode: 0
Integration Time (sec): 2.000000E-2
Scans to average: 10
Electric dark correction enabled: true
Nonlinearity correction enabled: false
Boxcar width: 0
XAxis mode: Wavelengths
Number of Pixels in Spectrum: 2048
>>>>>Begin Spectral Data<<<<<
341.393	-14.62
341.776	-14.62
342.16	-14.62
342.543	-73.15
342.927	-65.24
343.31	-61.62
343.693	-71.34
344.077	-75.63
344.46	-55.52
344.843	-67.05
345.226	-41.06
345.61	-14.39
345.993	-9.87
346.376	-3.32
346.759	15.44
347.142	30.58
347.525	24.7
347.908	56.57
348.291	63.8
348.674	103.57
349.057	105.15
349.44	125.94
349.823	126.62
350.206	182.89
350.588	189.22
350.971	208.2
351.354	197.35
351.737	219.27
352.119	245.04
352.502	252.72
352.884	286.39
353.267	261.08
353.65	271.93
354.032	287.52
354.414	324.81
354.797	304.02
355.179	321.87
355.562	289.1
355.944	324.58
356.326	324.58
356.709	323
357.091	340.17
357.473	334.3
357.855	333.85
358.238	348.08
358.62	339.04
359.002	359.84
359.384	330.68
359.766	336.33
360.148	355.54
360.53	324.81
360.912	322.55
361.294	331.14
361.676	341.08
362.057	317.12
362.439	342.43
362.821	322.32
363.203	339.04
363.584	330.91
363.966	320.97
364.348	308.54
364.729	307.41
365.111	320.06
365.493	337.46
365.874	329.33
366.256	298.37
366.637	299.5
367.019	312.15
367.4	326.62
367.781	288.65
368.163	322.32
368.544	318.03
368.925	287.97
369.306	322.1
369.688	320.97
370.069	311.93
370.45	334.98
370.831	309.67
371.212	299.5
371.593	308.99
371.974	323.9
372.355	300.18
372.736	313.96
373.117	316.9
373.498	311.47
373.879	327.29
374.26	318.48
374.641	313.28
375.021	334.98
375.402	320.97
375.783	312.6
376.163	330.01
376.544	335.2
376.925	320.51
377.305	327.52
377.686	328.42
378.066	308.09
378.447	324.13
378.827	309.89
379.208	351.7
379.588	332.04
379.968	351.93
380.349	341.53
380.729	325.26
381.109	338.14
381.489	324.81
381.87	338.14
382.25	338.37
382.63	334.75
383.01	355.32
383.39	337.24
383.77	344.69
384.15	363.68
384.53	342.66
384.91	350.12
385.29	351.47
385.67	342.43
386.049	365.71
386.429	352.83
386.809	376.78
387.189	353.06
387.568	367.74
387.948	364.58
388.328	374.75
388.707	348.76
389.087	356.67
389.466	367.29
389.846	363.9
390.225	352.83
390.605	381.3
390.984	390.57
391.363	360.74
391.743	379.5
392.122	380.63
392.501	375.43
392.881	385.6
393.26	385.6
393.639	398.7
394.018	392.15
394.397	381.3
394.776	381.98
395.155	385.6
395.534	423.11
395.913	392.83
396.292	398.25
396.671	408.65
397.05	393.28
397.429	425.14
397.808	421.08
398.186	414.3
398.565	424.24
398.944	420.4
399.323	415.88
399.701	445.93
400.08	433.05
400.458	409.1
400.837	417.91
401.215	431.92
401.594	437.12
401.972	440.51
402.351	412.94
402.729	432.38
403.107	443.9
403.486	439.16
403.864	449.55
404.242	439.83
404.62	455.2
404.999	448.42
405.377	474.18
405.755	443.22
406.133	465.37
406.511	459.49
406.889	499.94
407.267	487.06
407.645	482.54
408.023	493.16
408.401	492.71
408.779	482.77
409.156	513.96
409.534	524.12
409.912	516.67
410.29	527.06
410.667	526.61
411.045	522.32
411.422	560.28
411.8	558.25
412.178	557.8
412.555	572.26
412.933	555.31
413.31	567.06
413.687	568.64
414.065	589.66
414.442	577
414.819	617.68
415.197	607.74
415.574	630.56
415.951	642.31
416.328	625.59
416.705	644.8
417.082	630.79
417.46	645.93
417.837	649.77
418.214	661.75
418.591	661.75
418.967	675.08
419.344	681.86
419.721	677.79
420.098	730.45
420.475	712.14
420.852	695.42
421.228	725.25
421.605	736.1
421.982	752.14
422.358	762.99
422.735	753.05
423.111	760.5
423.488	759.82
423.864	783.1
424.241	816.55
424.617	812.03
424.994	811.12
425.37	838.69
425.746	819.94
426.123	863.78
426.499	861.74
426.875	879.14
427.251	896.77
427.627	891.12
428.003	887.05
428.379	910.1
428.756	941.51
429.132	935.64
429.507	950.33
429.883	951.91
430.259	972.47
430.635	992.81
431.011	990.1
431.387	1005.02
431.763	1024.68
432.138	1040.72
432.514	1041.85
432.89	1062.42
433.265	1078.46
433.641	1103.77
434.016	1098.57
434.392	1136.54
434.767	1157.1
435.143	1146.71
435.518	1180.6
435.894	1191.45
436.269	1198.91
436.644	1190.77
437.02	1220.6
437.395	1252.69
437.77	1258.34
438.145	1276.87
438.52	1306.48
438.895	1299.02
439.271	1329.53
439.646	1356.87
440.021	1359.36
440.395	1385.34
440.77	1362.52
441.145	1421.28
441.52	1407.72
441.895	1421.5
442.27	1463.99
442.645	1449.75
443.019	1457.21
443.394	1454.72
443.769	1506.25
444.143	1476.19
444.518	1499.47
444.892	1505.34
445.267	1515.74
445.641	1533.14
446.016	1536.53
446.39	1551.44
446.764	1586.47
447.139	1562.06
447.513	1597.54
447.887	1579.01
448.262	1600.25
448.636	1582.18
449.01	1621.5
449.384	1614.49
449.758	1648.61
450.132	1650.42
450.506	1671.21
450.88	1663.3
451.254	1679.12
451.628	1714.6
452.002	1706.69
452.376	1735.62
452.75	1750.99
453.123	1740.59
453.497	1800.48
453.871	1781.49
454.244	1817.42
454.618	1842.28
454.992	1862.17
455.365	1851.55
455.739	1849.06
456.112	1917.99
456.486	1926.57
456.859	1924.54
457.232	1942.62
457.606	1924.31
457.979	1977.87
458.352	2010.87
458.725	2018.32
459.099	2032.33
459.472	2077.08
459.845	2126.12
460.218	2125.66
460.591	2143.29
460.964	2123.18
461.337	2175.83
461.71	2214.48
462.083	2251.54
462.456	2219.67
462.829	2227.58
463.201	2257.86
463.574	2289.05
463.947	2288.82
464.32	2352.78
464.692	2342.61
465.065	2360.23
465.438	2411.53
465.81	2430.29
466.183	2479.1
466.555	2490.4
466.928	2504.41
467.3	2494.69
467.672	2507.35
468.045	2600.45
468.417	2634.35
468.789	2612.21
469.161	2649.72
469.534	2656.72
469.906	2735.14
470.278	2722.26
470.65	2763.39
471.022	2814.46
471.394	2811.75
471.766	2873.89
472.138	2889.71
472.51	2938.3
472.882	2985.98
473.253	2978.98
473.625	3051.74
473.997	3151.63
474.369	3138.07
474.74	3158.63
475.112	3185.52
475.484	3219.2
475.855	3254.9
476.227	3295.58
476.598	3375.8
476.97	3372.64
477.341	3421.45
477.713	3450.6
478.084	3491.5
478.455	3576.7
478.827	3609.47
479.198	3700.99
479.569	3655.57
479.94	3767.88
480.311	3810.82
480.682	3877.03
481.053	3917.26
481.424	3988.89
481.795	3969.68
482.166	4023.24
482.537	4105.73
482.908	4162.9
483.279	4180.3
483.65	4227.98
484.021	4299.62
484.391	4372.61
484.762	4383.46
485.133	4388.43
485.503	4476.11
485.874	4539.39
486.244	4574.41
486.615	4623.45
486.985	4660.06
487.356	4759.04
487.726	4808.76
488.097	4858.93
488.467	4855.08
488.837	4946.38
489.207	4941.64
489.578	5046.27
489.948	5077.9
490.318	5169.43
490.688	5162.19
491.058	5211.01
491.428	5263.89
491.798	5340.72
492.168	5379.59
492.538	5385.01
492.908	5470.66
493.278	5576.65
493.648	5501.39
494.017	5577.33
494.387	5643.09
494.757	5650.09
495.126	5688.51
495.496	5640.37
495.866	5780.26
496.235	5798.79
496.605	5827.49
496.974	5904.32
497.344	5869.75
497.713	5917.66
498.082	5917.2
498.452	6033.81
498.821	6013.7
499.19	6014.15
499.559	6060.48
499.928	6098.44
500.298	6155.39
500.667	6149.06
501.036	6208.49
501.405	6220.02
501.774	6181.38
502.143	6248.95
502.512	6244.43
502.88	6299.57
503.249	6311.77
503.618	6369.17
503.987	6322.62
504.356	6423.86
504.724	6366
505.093	6386.12
505.462	6424.31
505.83	6414.59
506.199	6514.02
506.567	6492.1
506.936	6560.12
507.304	6609.84
507.672	6601.48
508.041	6619.33
508.409	6671.76
508.777	6720.8
509.145	6747.69
509.514	6765.54
509.882	6732.32
510.25	6756.28
510.618	6815.71
510.986	6816.39
511.354	6851.42
511.722	6879.44
512.09	6883.51
512.458	6877.63
512.826	6956.72
513.193	6969.15
513.561	6999.66
513.929	7064.07
514.297	7028.59
514.664	7065.65
515.032	7001.02
515.4	7073.33
515.767	7112.2
516.135	7154.68
516.502	7029.04
516.869	7164.18
517.237	7161.46
517.604	7127.34
517.972	7224.06
518.339	7284.85
518.706	7265.42
519.073	7268.58
519.44	7202.82
519.808	7292.53
520.175	7257.51
520.542	7421.34
520.909	7375.24
521.276	7335.24
521.643	7409.14
522.009	7479.42
522.376	7516.94
522.743	7446.65
523.11	7524.62
523.477	7554.22
523.843	7613.88
524.21	7621.11
524.577	7673.09
524.943	7700.66
525.31	7728.23
525.676	7773.65
526.043	7745.63
526.409	7785.18
526.776	7871.73
527.142	7843.71
527.508	7880.32
527.874	7887.32
528.241	7949.47
528.607	7965.28
528.973	8003.48
529.339	7968.67
529.705	8036.47
530.071	8059.29
530.437	8003.02
530.803	8080.31
531.169	8219.52
531.535	8155.56
531.901	8128.22
532.267	8179.06
532.632	8207.76
532.998	8250.7
533.364	8219.97
533.73	8266.75
534.095	8303.81
534.461	8294.54
534.826	8293.64
535.192	8276.01
535.557	8334.09
535.923	8358.04
536.288	8307.65
536.653	8356.91
537.019	8374.09
537.384	8316.01
537.749	8350.36
538.114	8362.56
538.479	8392.17
538.845	8480.3
539.21	8397.82
539.575	8438.49
539.94	8469.45
540.305	8462.45
540.67	8450.24
541.034	8466.29
541.399	8481.43
541.764	8498.6
542.129	8499.51
542.494	8476.68
542.858	8591.71
543.223	8551.48
543.587	8608.43
543.952	8574.99
544.316	8641.2
544.681	8618.83
545.045	8630.58
545.41	8629.67
545.774	8660.41
546.138	8639.17
546.503	8665.38
546.867	8646.85
547.231	8671.93
547.595	8699.28
547.959	8666.06
548.324	8734.3
548.688	8711.71
549.052	8724.36
549.416	8746.06
549.779	8767.3
550.143	8797.81
550.507	8800.97
550.871	8814.3
551.235	8744.25
551.599	8859.27
551.962	8912.83
552.326	8818.6
552.689	8899.27
553.053	8835.09
553.417	8858.37
553.78	8975.2
554.143	8894.3
554.507	8978.82
554.87	9000.96
555.234	8971.36
555.597	8992.38
555.96	9031.02
556.323	9047.52
556.686	9112.37
557.05	9061.53
557.413	9038.93
557.776	9086.84
558.139	9206.83
558.502	9171.58
558.865	9223.78
559.228	9178.36
559.59	9298.81
559.953	9280.73
560.316	9347.85
560.679	9310.33
561.041	9364.34
561.404	9384.23
561.767	9482.31
562.129	9437.56
562.492	9486.15
562.854	9545.13
563.217	9480.27
563.579	9515.75
563.941	9574.28
564.304	9640.27
564.666	9710.78
565.028	9645.69
565.39	9730.89
565.753	9764.56
566.115	9770.89
566.477	9815.18
566.839	9843.88
567.201	9916.65
567.563	9861.28
567.925	9979.47
568.287	9941.05
568.648	9989.19
569.01	10040.94
569.372	10052.46
569.734	10063.76
570.095	10113.25
570.457	10174.04
570.819	10240.25
571.18	10204.32
571.542	10296.52
571.903	10272.12
572.265	10346.01
572.626	10396.86
572.987	10386.69
573.349	10350.31
573.71	10474.82
574.071	10378.1
574.432	10466.46
574.794	10600.24
575.155	10568.61
575.516	10592.33
575.877	10628.49
576.238	10654.71
576.599	10678.21
576.96	10723.4
577.32	10725.89
577.681	10790.75
578.042	10785.78
578.403	10844.98
578.763	10854.25
579.124	10902.61
579.485	10929.05
579.845	10926.56
580.206	10933.79
580.566	11020.8
580.927	11073.9
581.287	11104.64
581.648	11044.53
582.008	11125.2
582.368	11136.05
582.728	11216.27
583.089	11227.57
583.449	11211.75
583.809	11210.85
584.169	11315.71
584.529	11348.02
584.889	11384.63
585.249	11336.95
585.609	11319.1
585.969	11457.4
586.329	11460.33
586.688	11426.44
587.048	11470.73
587.408	11522.93
587.768	11468.7
588.127	11537.85
588.487	11449.26
588.846	11629.14
589.206	11541.01
589.565	11604.51
589.925	11700.78
590.284	11620.33
590.643	11717.73
591.003	11819.19
591.362	11773.09
591.721	11771.06
592.08	11837.95
592.44	11793.88
592.799	11798.4
593.158	11807.22
593.517	11871.4
593.876	11918.4
594.235	11913.43
594.593	11940.32
594.952	11945.75
595.311	11929.93
595.67	11992.3
596.029	11990.94
596.387	12072.97
596.746	12006.53
597.104	12119.53
597.463	12065.06
597.822	12177.6
598.18	12039.75
598.538	12108.45
598.897	12237.94
599.255	12117.27
599.613	12323.36
599.972	12130.15
600.33	12206.3
600.688	12281.1
601.046	12251.05
601.404	12311.39
601.762	12167.66
602.12	12359.97
602.478	12322.23
602.836	12365.62
603.194	12304.15
603.552	12338.28
603.91	12277.71
604.268	12409.91
604.625	12399.07
604.983	12383.25
605.341	12339.41
605.698	12399.52
606.056	12410.82
606.413	12451.72
606.771	12466.86
607.128	12487.65
607.485	12438.39
607.843	12364.27
608.2	12502.34
608.557	12502.11
608.914	12477.71
609.272	12546.86
609.629	12442.23
609.986	12581.43
610.343	12529.46
610.7	12604.03
611.057	12634.54
611.414	12572.62
611.771	12669.34
612.127	12646.52
612.484	12693.75
612.841	12713.18
613.198	12735.1
613.554	12655.56
613.911	12762.67
614.267	12759.28
614.624	12732.39
614.98	12768.55
615.337	12808.1
615.693	12835.89
616.05	12827.98
616.406	12888.32
616.762	12806.51
617.118	12801.77
617.475	12790.47
617.831	12893.97
618.187	12848.77
618.543	12919.96
618.899	12991.14
619.255	12911.6
619.611	12884.03
619.967	12973.06
620.323	12987.75
620.678	12884.7
621.034	12875.66
621.39	12926.96
621.746	12920.18
622.101	13014.19
622.457	12902.78
622.812	12912.27
623.168	12897.36
623.523	12926.28
623.879	13052.61
624.234	12897.58
624.589	12963.8
624.945	13027.07
625.3	12979.84
625.655	12926.51
626.01	12947.98
626.365	12997.47
626.72	12989.56
627.075	12914.53
627.43	13011.93
627.785	12981.88
628.14	12927.87
628.495	12961.31
628.85	12957.7
629.205	12865.04
629.559	12944.14
629.914	12862.78
630.269	12927.87
630.623	12894.42
630.978	12829.34
631.332	12868.43
631.687	12812.62
632.041	12828.89
632.396	12825.5
632.75	12757.93
633.104	12807.42
633.459	12773.75
633.813	12785.72
634.167	12682.22
634.521	12793.18
634.875	12807.87
635.229	12651.49
635.583	12614.43
635.937	12743.46
636.291	12621.66
636.645	12691.49
636.999	12638.38
637.352	12639.74
637.706	12582.79
638.06	12647.42
638.413	12516.35
638.767	12521.78
639.121	12575.33
639.474	12462.12
639.828	12565.16
640.181	12513.64
640.534	12539.85
640.888	12497.14
641.241	12481.32
641.594	12433.87
641.947	12523.58
642.301	12433.19
642.654	12489.69
643.007	12431.38
643.36	12397.71
643.713	12328.11
644.066	12406.98
644.419	12364.72
644.771	12320.88
645.124	12189.58
645.477	12243.14
645.83	12122.24
646.182	12006.08
646.535	12092.41
646.888	12025.29
647.24	11977.16
647.593	12051.28
647.945	11965.18
648.298	11944.16
648.65	11912.75
649.002	11895.13
649.355	11914.56
649.707	11931.73
650.059	11985.52
650.411	12093.54
650.763	12165.63
651.115	12243.59
651.467	12206.98
651.819	12247.88
652.171	12204.04
652.523	12145.29
652.875	12186.42
653.227	12195.91
653.578	12207.43
653.93	12168.79
654.282	12155.91
654.633	12108.9
654.985	12133.99
655.337	12128.57
655.688	12169.24
656.039	12211.27
656.391	12145.06
656.742	12145.74
657.094	12166.76
657.445	12162.46
657.796	12065.74
658.147	12141.22
658.498	12169.47
658.849	12131.28
659.2	12197.26
659.551	12118.17
659.902	12245.85
660.253	12167.21
660.604	12147.1
660.955	12155.23
661.306	12182.58
661.656	12201.78
662.007	12208.79
662.358	12200.88
662.708	12214.89
663.059	12136.02
663.409	12120.66
663.76	12204.04
664.11	12198.85
664.461	12170.15
664.811	12154.55
665.161	12101.67
665.511	12141.22
665.862	12166.76
666.212	12240.43
666.562	12275
666.912	12184.16
667.262	12146.87
667.612	12206.08
667.962	12152.29
668.312	12102.8
668.662	12235.46
669.011	12187.77
669.361	12176.93
669.711	12151.84
670.06	12100.32
670.41	12131.73
670.76	12132.18
671.109	12192.97
671.459	12133.08
671.808	12155.23
672.157	12117.04
672.507	12103.48
672.856	12045.86
673.205	12066.65
673.554	12090.6
673.904	12090.15
674.253	12051.73
674.602	12030.26
674.951	11867.33
675.3	11715.24
675.649	12019.42
675.998	11948.91
676.346	11934.22
676.695	11992.3
677.044	11905.29
677.393	11978.51
677.741	11924.5
678.09	11903.03
678.438	11856.26
678.787	11896.25
679.135	11847.44
679.484	11903.03
679.832	11854.67
680.181	11749.14
680.529	11904.84
680.877	11798.86
681.225	11671.4
681.573	11857.39
681.922	11735.36
682.27	11641.12
682.618	11705.53
682.966	11651.06
683.314	11716.37
683.661	11634.34
684.009	11536.72
684.357	11579.43
684.705	11569.26
685.053	11578.52
685.4	11572.2
685.748	11447.91
686.095	11488.36
686.443	11416.49
686.79	11436.15
687.138	11406.55
687.485	11364.74
687.832	11279.55
688.18	11393.67
688.527	11278.19
688.874	11249.04
689.221	11234.58
689.568	11210.85
689.915	11231.41
690.262	11208.82
690.609	11201.81
690.956	11110.51
691.303	11091.53
691.65	11075.94
691.997	11074.13
692.344	10976.96
692.69	10949.61
693.037	11048.37
693.383	10832.1
693.73	10793.69
694.077	10822.61
694.423	10760.47
694.769	10731.09
695.116	10679.79
695.462	10682.95
695.808	10675.27
696.155	10630.98
696.501	10530.64
696.847	10594.14
697.193	10505.11
697.539	10595.5
697.885	10441.83
698.231	10388.05
698.577	10360.7
698.923	10360.7
699.269	10347.14
699.614	10271.21
699.96	10211.1
700.306	10170.88
700.651	10178.79
700.997	10132.46
701.342	10125
701.688	10072.8
702.033	9974.27
702.379	10054.27
702.724	9938.79
703.069	9958
703.415	9863.54
703.76	9796.88
704.105	9802.75
704.45	9837.78
704.795	9755.97
705.14	9725.69
705.485	9747.16
705.83	9638.24
706.175	9654.28
706.52	9654.73
706.865	9566.6
707.209	9579.48
707.554	9545.13
707.899	9564.56
708.243	9508.3
708.588	9444.79
708.932	9453.16
709.277	9401.63
709.621	9422.2
709.966	9400.28
710.31	9388.98
710.654	9259.49
710.998	9341.75
711.342	9316.44
711.687	9260.62
712.031	9296.1
712.375	9212.71
712.719	9281.86
713.063	9156.67
713.407	9195.99
713.75	9179.04
714.094	9184.24
714.438	9110.57
714.782	9138.59
715.125	9045.48
715.469	9069.89
715.812	9038.7
716.156	9008.65
716.499	9050.45
716.843	9016.33
717.186	9000.96
717.53	9054.3
717.873	9006.84
718.216	8953.96
718.559	8904.47
718.902	8871.93
719.246	8923.45
719.589	8883.45
719.932	8886.84
720.275	8798.48
720.617	8864.24
720.96	8801.2
721.303	8822.21
721.646	8805.26
721.989	8792.61
722.331	8892.27
722.674	8732.95
723.016	8767.3
723.359	8760.52
723.701	8749.45
724.044	8722.55
724.386	8750.35
724.729	8729.78
725.071	8728.65
725.413	8764.59
725.755	8679.16
726.097	8669.45
726.439	8652.27
726.782	8634.19
727.124	8700.18
727.465	8634.42
727.807	8640.52
728.149	8553.29
728.491	8560.52
728.833	8666.74
729.175	8576.34
729.516	8523.69
729.858	8561.2
730.199	8548.09
730.541	8574.31
730.882	8526.63
731.224	8596.23
731.565	8506.06
731.906	8527.53
732.248	8527.08
732.589	8509.45
732.93	8436.23
733.271	8514.2
733.612	8472.16
733.953	8523.01
734.294	8488.21
734.635	8498.38
734.976	8457.93
735.317	8491.15
735.658	8443.69
735.999	8510.36
736.339	8499.73
736.68	8511.49
737.021	8450.24
737.361	8465.16
737.702	8514.87
738.042	8484.82
738.383	8495.44
738.723	8492.28
739.063	8478.04
739.404	8512.84
739.744	8525.5
740.084	8546.51
740.424	8530.92
740.764	8557.81
741.104	8537.02
741.444	8469.9
741.784	8541.99
742.124	8584.7
742.464	8615.89
742.804	8551.03
743.143	8571.14
743.483	8559.39
743.823	8546.74
744.162	8605.95
744.502	8652.05
744.841	8715.55
745.181	8686.17
745.52	8701.54
745.86	8777.24
746.199	8746.96
746.538	8779.5
746.877	8843.45
747.216	8938.82
747.556	8888.2
747.895	8938.14
748.234	8941.98
748.573	8972.94
748.911	9067.4
749.25	9086.84
749.589	9109.21
749.928	9172.71
750.267	9269.88
750.605	9281.63
750.944	9344.46
751.283	9377.68
751.621	9499.03
751.96	9471.01
752.298	9599.14
752.636	9675.07
752.975	9727.05
753.313	9809.76
753.651	10012.69
753.989	9975.18
754.327	10069.18
754.666	10190.31
755.004	10315.05
755.342	10351.66
755.679	10520.92
756.017	10575.84
756.355	10701.71
756.693	10848.82
757.031	10964.53
757.368	11022.61
757.706	11227.8
758.044	11283.62
758.381	11442.93
758.719	11522.71
759.056	11732.64
759.394	11954.56
759.731	11924.28
760.068	12127.89
760.405	12269.35
760.743	12257.38
761.08	12515.9
761.417	12649.68
761.754	12835.89
