Data from hue_130_FLMS001491_00074.txt Node
Date: Tue Feb 07 16:58:04 GMT 2017
User: dcchb
Spectrometer: FLMS00149
Trigger mode: 0
Integration Time (sec): 2.000000E-2
Scans to average: 10
Electric dark correction enabled: true
Nonlinearity correction enabled: false
Boxcar width: 0
XAxis mode: Wavelengths
Number of Pixels in Spectrum: 2048
>>>>>Begin Spectral Data<<<<<
341.393	-2.91
341.776	-2.91
342.16	-2.91
342.543	-60.54
342.927	-68.22
343.31	-73.19
343.693	-72.51
344.077	-48.11
344.46	-63.47
344.843	-46.52
345.226	-67.99
345.61	-23.7
345.993	-11.5
346.376	10.65
346.759	15.62
347.142	4.77
347.525	32.8
347.908	65.34
348.291	80.48
348.674	92.46
349.057	104.88
349.44	132.23
349.823	143.08
350.206	162.51
350.588	190.98
350.971	200.02
351.354	214.03
351.737	236.63
352.119	246.12
352.502	256.97
352.884	272.34
353.267	269.17
353.65	300.59
354.032	301.04
354.414	303.07
354.797	311.43
355.179	317.76
355.562	321.83
355.944	312.79
356.326	333.58
356.709	336.52
357.091	356.18
357.473	328.83
357.855	347.82
358.238	325.9
358.62	346.91
359.002	334.03
359.384	343.07
359.766	344.43
360.148	345.33
360.53	346.69
360.912	353.47
361.294	324.09
361.676	315.05
362.057	337.87
362.439	332.45
362.821	330.42
363.203	335.39
363.584	310.08
363.966	335.16
364.348	309.62
364.729	318.21
365.111	326.12
365.493	310.53
365.874	322.96
366.256	300.59
366.637	315.95
367.019	308.72
367.4	308.49
367.781	299.68
368.163	302.17
368.544	316.86
368.925	323.18
369.306	305.56
369.688	317.31
370.069	312.34
370.45	315.27
370.831	319.79
371.212	311.88
371.593	300.81
371.974	313.01
372.355	314.82
372.736	341.71
373.117	308.27
373.498	307.82
373.879	304.65
374.26	321.6
374.641	317.53
375.021	321.83
375.402	324.77
375.783	340.58
376.163	318.66
376.544	311.66
376.925	318.89
377.305	333.13
377.686	335.16
378.066	325.44
378.447	332.22
378.827	350.98
379.208	332.9
379.588	321.38
379.968	327.25
380.349	334.03
380.729	332
381.109	332.9
381.489	335.16
381.87	336.06
382.25	330.42
382.63	344.2
383.01	330.19
383.39	324.99
383.77	342.62
384.15	357.08
384.53	366.12
384.91	336.29
385.29	343.97
385.67	346.69
386.049	349.4
386.429	354.14
386.809	346.69
387.189	359.34
387.568	338.78
387.948	345.78
388.328	350.98
388.707	367.7
389.087	370.87
389.466	349.62
389.846	357.76
390.225	348.49
390.605	359.11
390.984	367.02
391.363	379.68
391.743	362.5
392.122	354.6
392.501	363.63
392.881	367.48
393.26	360.7
393.639	368.38
394.018	366.57
394.397	367.93
394.776	374.48
395.155	376.97
395.534	387.36
395.913	381.49
396.292	395.95
396.671	371.32
397.05	381.94
397.429	378.1
397.808	402.28
398.186	389.17
398.565	387.14
398.944	376.52
399.323	391.2
399.701	380.58
400.08	396.18
400.458	408.38
400.837	411.99
401.215	416.74
401.594	398.44
401.972	395.72
402.351	412.22
402.729	403.18
403.107	411.09
403.486	404.54
403.864	404.99
404.242	400.7
404.62	424.42
404.999	405.22
405.377	415.38
405.755	418.77
406.133	416.06
406.511	433.92
406.889	438.89
407.267	424.42
407.645	424.2
408.023	431.43
408.401	419.68
408.779	418.1
409.156	423.75
409.534	450.41
409.912	432.11
410.29	465.55
410.667	464.65
411.045	441.37
411.422	442.05
411.8	466.46
412.178	485.89
412.555	469.62
412.933	475.04
413.31	471.2
413.687	471.2
414.065	455.38
414.442	468.72
414.819	488.15
415.197	489.73
415.574	499.68
415.951	475.72
416.328	498.32
416.705	504.65
417.082	497.87
417.46	484.08
417.837	508.49
418.214	493.12
418.591	512.33
418.967	523.18
419.344	512.78
419.721	502.61
420.098	520.69
420.475	509.17
420.852	523.86
421.228	514.82
421.605	513.24
421.982	516.4
422.358	536.74
422.735	526.34
423.111	544.42
423.488	514.37
423.864	559.34
424.241	548.94
424.617	556.4
424.994	544.65
425.37	557.3
425.746	555.27
426.123	577.41
426.499	592.33
426.875	580.13
427.251	571.99
427.627	565.66
428.003	605.89
428.379	595.94
428.756	594.36
429.132	592.56
429.507	610.63
429.883	609.28
430.259	615.38
430.635	601.82
431.011	603.85
431.387	622.84
431.763	634.36
432.138	636.4
432.514	644.98
432.89	649.95
433.265	659.67
433.641	675.94
434.016	655.15
434.392	642.95
434.767	676.85
435.143	670.75
435.518	687.02
435.894	695.15
436.269	688.37
436.644	696.96
437.02	692.21
437.395	702.61
437.77	721.14
438.145	721.82
438.52	721.59
438.895	753.23
439.271	722.72
439.646	742.38
440.021	739.44
440.395	754.36
440.77	755.26
441.145	755.04
441.52	787.58
441.895	762.27
442.27	774.92
442.645	779.22
443.019	795.49
443.394	773.57
443.769	792.55
444.143	795.71
444.518	798.2
444.892	817.18
445.267	795.71
445.641	834.58
446.016	806.56
446.39	825.54
446.764	821.25
447.139	845.66
447.513	833.9
447.887	842.04
448.262	840.01
448.636	824.87
449.01	878.42
449.384	857.18
449.758	878.88
450.132	891.53
450.506	886.78
450.88	887.91
451.254	895.6
451.628	907.12
452.002	918.65
452.376	914.13
452.75	922.26
453.123	902.38
453.497	928.82
453.871	964.3
454.244	960.68
454.618	981.7
454.992	978.31
455.365	980.57
455.739	987.35
456.112	1034.58
456.486	1031.19
456.859	1044.97
457.232	1047.91
457.606	1052.2
457.979	1044.29
458.352	1097.85
458.725	1110.28
459.099	1094.24
459.472	1127.68
459.845	1118.19
460.218	1143.5
460.591	1134.01
460.964	1141.02
461.337	1171.52
461.71	1187.57
462.083	1210.39
462.456	1212.2
462.829	1235.25
463.201	1241.13
463.574	1230.73
463.947	1273.44
464.32	1275.25
464.692	1301.24
465.065	1319.54
465.438	1363.83
465.81	1340.33
466.183	1379.2
466.555	1404.96
466.928	1399.54
467.3	1435.7
467.672	1462.59
468.045	1481.8
468.417	1516.82
468.789	1527.22
469.161	1560.44
469.534	1602.7
469.906	1597.5
470.278	1621
470.65	1689.02
471.022	1690.61
471.394	1727.89
471.766	1743.71
472.138	1786.42
472.51	1813.99
472.882	1850.83
473.253	1882.01
473.625	1937.15
473.997	1973.08
474.369	1986.42
474.74	2032.52
475.112	2101.67
475.484	2155.45
475.855	2205.85
476.227	2233.19
476.598	2285.39
476.97	2334.43
477.341	2450.59
477.713	2498.04
478.084	2557.02
478.455	2629.11
478.827	2635.89
479.198	2770.12
479.569	2790.69
479.94	2895.77
480.311	2958.14
480.682	3038.37
481.053	3131.25
481.424	3247.17
481.795	3306.38
482.166	3377.34
482.537	3453.04
482.908	3632.93
483.279	3651.68
483.65	3771.68
484.021	3865.46
484.391	3946.59
484.762	4052.58
485.133	4154.27
485.503	4294.15
485.874	4429.52
486.244	4508.61
486.615	4589.74
486.985	4707.25
487.356	4853.46
487.726	4980.46
488.097	5102.27
488.467	5184.98
488.837	5350.4
489.207	5398.76
489.578	5659.31
489.948	5742.7
490.318	5889.82
490.688	5948.12
491.058	6100.88
491.428	6210.03
491.798	6351.5
492.168	6542.91
492.538	6588.56
492.908	6726.41
493.278	6886.17
493.648	6937.25
494.017	7097.69
494.387	7247.3
494.757	7381.98
495.126	7523.22
495.496	7562.77
495.866	7671.46
496.235	7835.3
496.605	7946.71
496.974	8132.47
497.344	8172.92
497.713	8239.13
498.082	8378.11
498.452	8477.77
498.821	8646.13
499.19	8698.33
499.559	8840.7
499.928	8906.23
500.298	9029.85
500.667	9149.39
501.036	9161.14
501.405	9275.49
501.774	9330.18
502.143	9486.11
502.512	9542.83
502.88	9712.32
503.249	9728.36
503.618	9803.61
503.987	9846.32
504.356	9965.19
504.724	10055.58
505.093	10129.93
505.462	10131.74
505.83	10216.71
506.199	10378.29
506.567	10488.57
506.936	10391.39
507.304	10574.89
507.672	10566.53
508.041	10677.94
508.409	10729.46
508.777	10842.68
509.145	10991.83
509.514	10997.48
509.882	11044.71
510.25	11079.06
510.618	11133.07
510.986	11124.93
511.354	11272.5
511.722	11365.15
512.09	11422.78
512.458	11361.54
512.826	11558.37
513.193	11455.77
513.561	11622.1
513.929	11642.89
514.297	11631.59
514.664	11712.04
515.032	11728.76
515.4	11877.23
515.767	11789.77
516.135	11928.75
516.502	11813.05
516.869	11962.2
517.237	11979.15
517.604	11978.92
517.972	12045.36
518.339	12193.15
518.706	12157.9
519.073	12175.3
519.44	12155.19
519.808	12301.85
520.175	12237.45
520.542	12368.97
520.909	12393.6
521.276	12367.61
521.643	12479.47
522.009	12396.09
522.376	12474.73
522.743	12547.49
523.11	12603.99
523.477	12655.29
523.843	12764.89
524.21	12744.78
524.577	12788.39
524.943	12758.79
525.31	12795.4
525.676	12857.09
526.043	12879.69
526.409	12839.24
526.776	12983.19
527.142	12991.1
527.508	12930.76
527.874	13033.13
528.241	12955.39
528.607	13018.89
528.973	13067.26
529.339	13009.86
529.705	13128.04
530.071	13085.11
530.437	13172.56
530.803	13064.77
531.169	13075.84
531.535	13106.8
531.901	13138.67
532.267	13053.02
532.632	13130.3
532.998	13151.55
533.364	13124.2
533.73	13056.86
534.095	13154.71
534.461	13099.34
534.826	13104.32
535.192	13058.44
535.557	13082.85
535.923	13083.75
536.288	13043.75
536.653	13012.57
537.019	12980.25
537.384	13057.09
537.749	12950.87
538.114	12940.03
538.479	12816.41
538.845	12896.41
539.21	12858.67
539.575	12808.05
539.94	12861.84
540.305	12837.88
540.67	12809.18
541.034	12717.21
541.399	12726.25
541.764	12619.58
542.129	12666.81
542.494	12647.38
542.858	12619.36
543.223	12531.68
543.587	12633.14
543.952	12586.14
544.316	12531.45
544.681	12492.13
545.045	12468.4
545.41	12506.59
545.774	12469.08
546.138	12289.42
546.503	12345.24
546.867	12293.26
547.231	12320.61
547.595	12291
547.959	12270.67
548.324	12239.25
548.688	12151.35
549.052	12116.32
549.416	12163.32
549.779	12045.59
550.143	12079.48
550.507	12095.3
550.871	12002.65
551.235	11936.89
551.599	12095.76
551.962	11936.66
552.326	11877.46
552.689	11945.93
553.053	11864.35
553.417	11792.26
553.78	11908.42
554.143	11769.66
554.507	11728.99
554.87	11824.8
555.234	11833.84
555.597	11706.84
555.96	11722.66
556.323	11803.11
556.686	11655.77
557.05	11768.98
557.413	11691.47
557.776	11632.72
558.139	11691.7
558.502	11662.32
558.865	11656.67
559.228	11724.24
559.59	11677.91
559.953	11674.3
560.316	11695.31
560.679	11736.44
561.041	11689.21
561.404	11709.78
561.767	11712.26
562.129	11643.79
562.492	11757.01
562.854	11661.19
563.217	11698.7
563.579	11642.21
563.941	11735.76
564.304	11726.27
564.666	11732.6
565.028	11788.42
565.39	11786.84
565.753	11791.81
566.115	11739.38
566.477	11733.73
566.839	11788.19
567.201	11857.34
567.563	11839.04
567.925	11809.44
568.287	11828.87
568.648	11892.82
569.01	11852.82
569.372	11843.78
569.734	11879.72
570.095	11895.53
570.457	11941.18
570.819	11961.75
571.18	11908.19
571.542	11938.25
571.903	11962.65
572.265	11937.79
572.626	11969.88
572.987	12030.67
573.349	12039.03
573.71	11942.31
574.071	12012.59
574.432	11969.66
574.794	12100.05
575.155	12111.35
575.516	11963.56
575.877	12067.51
576.238	12112.25
576.599	12076.55
576.96	12046.72
577.32	12062.99
577.681	12067.96
578.042	12086.72
578.403	12080.39
578.763	11983.67
579.124	12013.72
579.485	12100.28
579.845	12130.78
580.206	12064.57
580.566	12063.44
580.927	12121.97
581.287	12091.91
581.648	12033.61
582.008	12095.08
582.368	11981.41
582.728	12035.42
583.089	12152.25
583.449	12060.05
583.809	12095.53
584.169	12113.61
584.529	12076.55
584.889	12098.24
585.249	12001.97
585.609	11984.8
585.969	12028.41
586.329	12026.15
586.688	11990.45
587.048	12042.42
587.408	11945.02
587.768	11934.4
588.127	11882.43
588.487	11953.39
588.846	11982.31
589.206	11910.45
589.565	11899.38
589.925	11945.7
590.284	11877.91
590.643	11921.52
591.003	11977.34
591.362	11961.75
591.721	11848.76
592.08	11926.27
592.44	11868.42
592.799	11870.9
593.158	11814.86
593.517	11808.53
593.876	11869.77
594.235	11864.35
594.593	11927.17
594.952	11842.88
595.311	11786.61
595.67	11854.63
596.029	11860.06
596.387	11825.03
596.746	11894.86
597.104	11805.37
597.463	11800.17
597.822	11851.02
598.18	11814.41
598.538	11768.31
598.897	11792.71
599.255	11725.14
599.613	11862.77
599.972	11824.35
600.33	11738.25
600.688	11790.9
601.046	11782.54
601.404	11811.92
601.762	11831.36
602.12	11832.26
602.478	11823.22
602.836	11781.64
603.194	11792.26
603.552	11762.2
603.91	11731.7
604.268	11766.05
604.625	11763.79
604.983	11755.2
605.341	11725.37
605.698	11813.05
606.056	11821.64
606.413	11841.75
606.771	11808.98
607.128	11855.31
607.485	11825.25
607.843	11716.78
608.2	11824.8
608.557	11837.91
608.914	11812.37
609.272	11873.61
609.629	11932.6
609.986	11898.02
610.343	11902.09
610.7	12024.57
611.057	11853.05
611.414	11874.07
611.771	11831.36
612.127	11892.6
612.484	11939.83
612.841	11937.34
613.198	11927.4
613.554	11853.73
613.911	11950
614.267	11977.34
614.624	11965.82
614.98	12008.53
615.337	12066.38
615.693	12022.31
616.05	11957
616.406	11994.74
616.762	11984.57
617.118	12003.33
617.475	12048.3
617.831	12046.04
618.187	12119.03
618.543	12047.4
618.899	12196.09
619.255	12161.52
619.611	12114.74
619.967	12088.98
620.323	12187.5
620.678	12174.4
621.034	12043.55
621.39	12136.43
621.746	12105.02
622.101	12166.71
622.457	12098.69
622.812	12143.66
623.168	12184.57
623.523	12135.75
623.879	12192.25
624.234	12116.55
624.589	12215.53
624.945	12151.8
625.3	12137.34
625.655	12093.27
626.01	12037.23
626.365	12079.26
626.72	12084.68
627.075	12050.78
627.43	12128.07
627.785	12081.97
628.14	12039.26
628.495	12075.19
628.85	12097.56
629.205	12058.47
629.559	12127.84
629.914	12052.37
630.269	12050.56
630.623	12064.57
630.978	11962.43
631.332	11978.92
631.687	12054.63
632.041	11980.96
632.396	12002.65
632.75	11950.22
633.104	12026.38
633.459	11884.24
633.813	11914.07
634.167	11911.35
634.521	11961.75
634.875	11966.72
635.229	11885.37
635.583	11870
635.937	11888.3
636.291	11832.94
636.645	11872.94
636.999	11865.25
637.352	11898.7
637.706	11732.15
638.06	11710.23
638.413	11806.27
638.767	11742.54
639.121	11751.81
639.474	11686.95
639.828	11681.08
640.181	11738.25
640.534	11680.63
640.888	11628.88
641.241	11632.72
641.594	11620.97
641.947	11689.44
642.301	11575.09
642.654	11627.07
643.007	11633.39
643.36	11641.3
643.713	11617.58
644.066	11614.64
644.419	11505.94
644.771	11502.1
645.124	11416.45
645.477	11339.17
645.83	11312.73
646.182	11217.59
646.535	11244.48
646.888	11228.66
647.24	11237.7
647.593	11329.45
647.945	11268.88
648.298	11256.68
648.65	11175.55
649.002	11097.36
649.355	11244.93
649.707	11202.45
650.059	11280.41
650.411	11403.8
650.763	11440.18
651.115	11525.83
651.467	11445.6
651.819	11451.7
652.171	11463.91
652.523	11367.19
652.875	11434.08
653.227	11380.97
653.578	11443.8
653.93	11478.6
654.282	11397.02
654.633	11418.49
654.985	11482.44
655.337	11495.77
655.688	11408.99
656.039	11509.78
656.391	11424.59
656.742	11437.69
657.094	11431.14
657.445	11495.55
657.796	11434.76
658.147	11446.28
658.498	11443.8
658.849	11425.72
659.2	11440.41
659.551	11408.32
659.902	11513.4
660.253	11476.11
660.604	11566.73
660.955	11516.79
661.306	11518.14
661.656	11434.53
662.007	11584.13
662.358	11528.76
662.708	11529.89
663.059	11533.06
663.409	11406.28
663.76	11461.2
664.11	11508.65
664.461	11536.22
664.811	11513.4
665.161	11518.82
665.511	11496.9
665.862	11493.74
666.212	11546.17
666.562	11513.85
666.912	11491.7
667.262	11438.15
667.612	11543.23
667.962	11538.26
668.312	11498.71
668.662	11614.41
669.011	11524.7
669.361	11449.44
669.711	11479.5
670.06	11454.42
670.41	11505.71
670.76	11451.03
671.109	11511.59
671.459	11502.55
671.808	11490.8
672.157	11505.94
672.507	11450.35
672.856	11353.63
673.205	11469.56
673.554	11435.43
673.904	11535.77
674.253	11487.41
674.602	11429.56
674.951	11374.19
675.3	11214.2
675.649	11382.78
675.998	11388.66
676.346	11311.6
676.695	11369.67
677.044	11307.75
677.393	11340.97
677.741	11315.21
678.09	11247.42
678.438	11265.27
678.787	11239.28
679.135	11244.48
679.484	11201.99
679.832	11234.31
680.181	11124.03
680.529	11190.92
680.877	11201.32
681.225	11140.98
681.573	11264.36
681.922	11188.66
682.27	11093.07
682.618	11095.1
682.966	11039.96
683.314	11004.26
683.661	11036.12
684.009	10933.3
684.357	10948.44
684.705	10901.44
685.053	10943.47
685.4	10876.8
685.748	10811.27
686.095	10814.89
686.443	10829.12
686.79	10766.52
687.138	10745.06
687.485	10824.15
687.832	10784.6
688.18	10812.63
688.527	10709.35
688.874	10653.08
689.221	10626.87
689.568	10574.21
689.915	10543.03
690.262	10601.56
690.609	10508.68
690.956	10509.36
691.303	10479.53
691.65	10472.52
691.997	10420.77
692.344	10354.56
692.69	10277.05
693.037	10293.32
693.383	10241.79
693.73	10240.89
694.077	10206.54
694.423	10171.06
694.769	10202.02
695.116	10063.49
695.462	10057.16
695.808	10022.14
696.155	10075.24
696.501	9965.42
696.847	9986.21
697.193	9865.98
697.539	9931.29
697.885	9818.98
698.231	9791.41
698.577	9867.11
698.923	9707.34
699.269	9691.98
699.614	9716.38
699.96	9655.59
700.306	9585.54
700.651	9552.77
700.997	9557.97
701.342	9506.22
701.688	9447.92
702.033	9446.33
702.379	9483.62
702.724	9398.88
703.069	9372.44
703.415	9291.08
703.76	9243.18
704.105	9320.91
704.45	9264.19
704.795	9254.02
705.14	9134.93
705.485	9156.85
705.83	9127.92
706.175	9117.53
706.52	9096.74
706.865	9090.86
707.209	9029.62
707.554	9035.95
707.899	8967.25
708.243	8936.29
708.588	8899.23
708.932	8804.09
709.277	8804.32
709.621	8825.11
709.966	8785.79
710.31	8763.87
710.654	8714.15
710.998	8732.91
711.342	8703.75
711.687	8702.17
712.031	8648.16
712.375	8666.92
712.719	8610.2
713.063	8657.2
713.407	8628.95
713.75	8574.94
714.094	8565.23
714.438	8522.74
714.782	8508.51
715.125	8499.01
715.469	8548.73
715.812	8413.59
716.156	8457.88
716.499	8473.48
716.843	8384.44
717.186	8451.78
717.53	8468.73
717.873	8401.39
718.216	8391.9
718.559	8357.32
718.902	8321.17
719.246	8358.45
719.589	8347.15
719.932	8290.66
720.275	8315.06
720.617	8253.82
720.96	8267.83
721.303	8273.26
721.646	8261.73
721.989	8200.04
722.331	8306.25
722.674	8186.71
723.016	8219.25
723.359	8255.63
723.701	8229.87
724.044	8183.09
724.386	8168.18
724.729	8157.33
725.071	8110.78
725.413	8165.92
725.755	8178.57
726.097	8204.78
726.439	8133.37
726.782	8127.72
727.124	8169.98
727.465	8113.49
727.807	8148.06
728.149	8086.37
728.491	8057.9
728.833	8103.09
729.175	8078.69
729.516	8047.27
729.858	8065.8
730.199	8115.52
730.541	8076.88
730.882	7984.45
731.224	8047.5
731.565	8012.02
731.906	8065.13
732.248	8070.55
732.589	7962.3
732.93	8002.53
733.271	8063.09
733.612	8083.88
733.953	8064
734.294	8026.26
734.635	7963.21
734.976	8018.35
735.317	7974.51
735.658	8002.53
735.999	8030.55
736.339	8006.82
736.68	8057.22
737.021	8014.96
737.361	7989.2
737.702	7964.34
738.042	8044.79
738.383	8045.47
738.723	8142.41
739.063	8105.35
739.404	8110.32
739.744	8082.98
740.084	8080.27
740.424	8074.17
740.764	8104.45
741.104	8156.65
741.444	8172.47
741.784	8155.97
742.124	8223.99
742.464	8163.43
742.804	8183.54
743.143	8181.51
743.483	8263.77
743.823	8182.19
744.162	8326.14
744.502	8295.18
744.841	8338.34
745.181	8400.03
745.52	8430.09
745.86	8402.29
746.199	8440.94
746.538	8497.88
746.877	8554.61
747.216	8561.84
747.556	8593.02
747.895	8699.46
748.234	8660.82
748.573	8701.72
748.911	8782.4
749.25	8890.64
749.589	8873.47
749.928	9037.98
750.267	9011.77
750.605	9098.55
750.944	9179.9
751.283	9179.9
751.621	9351.65
751.96	9345.55
752.298	9517.74
752.636	9600.91
752.975	9651.98
753.313	9702.6
753.651	9905.53
753.989	9933.33
754.327	10012.42
754.666	10080.44
755.004	10209.7
755.342	10421.22
755.679	10471.17
756.017	10563.59
756.355	10823.92
756.693	10904.83
757.031	11043.35
757.368	11094.2
757.706	11200.19
758.044	11314.08
758.381	11551.81
758.719	11667.97
759.056	11837.01
759.394	11989.09
759.731	12029.77
760.068	12206.03
