Data from hue_290_FLMS001491_00077.txt Node
Date: Tue Feb 07 15:53:13 GMT 2017
User: dcchb
Spectrometer: FLMS00149
Trigger mode: 0
Integration Time (sec): 2.000000E-2
Scans to average: 10
Electric dark correction enabled: true
Nonlinearity correction enabled: false
Boxcar width: 0
XAxis mode: Wavelengths
Number of Pixels in Spectrum: 2048
>>>>>Begin Spectral Data<<<<<
341.393	1.74
341.776	1.74
342.16	1.74
342.543	-58.6
342.927	-68.54
343.31	-68.09
343.693	-56.11
344.077	-60.41
344.46	-44.59
344.843	-54.08
345.226	-45.72
345.61	-44.14
345.993	-32.61
346.376	2.42
346.759	4.45
347.142	25.47
347.525	36.54
347.908	51.45
348.291	85.8
348.674	99.36
349.057	100.27
349.44	129.42
349.823	126.71
350.206	147.27
350.588	188.85
350.971	205.35
351.354	220.94
351.737	227.72
352.119	251.9
352.502	271.11
352.884	271.56
353.267	283.99
353.65	301.16
354.032	299.58
354.414	293.48
354.797	310.66
355.179	316.98
355.562	315.63
355.944	313.37
356.326	333.48
356.709	333.71
357.091	336.64
357.473	340.71
357.855	332.8
358.238	341.39
358.62	353.37
359.002	354.5
359.384	336.19
359.766	356.53
360.148	323.08
360.53	322.63
360.912	330.32
361.294	333.48
361.676	333.48
362.057	311.11
362.439	303.2
362.821	328.96
363.203	316.31
363.584	325.12
363.966	334.38
364.348	320.82
364.729	346.81
365.111	320.82
365.493	342.75
365.874	320.82
366.256	333.48
366.637	321.5
367.019	313.14
367.4	314.5
367.781	333.25
368.163	311.33
368.544	306.14
368.925	304.1
369.306	311.33
369.688	315.4
370.069	293.71
370.45	296.19
370.831	309.98
371.212	318.11
371.593	316.53
371.974	309.3
372.355	309.53
372.736	312.69
373.117	281.05
373.498	311.79
373.879	312.92
374.26	325.57
374.641	330.32
375.021	319.02
375.402	315.4
375.783	324.89
376.163	331.67
376.544	329.41
376.925	318.79
377.305	340.94
377.686	343.88
378.066	327.38
378.447	328.06
378.827	321.5
379.208	346.13
379.588	324.89
379.968	337.1
380.349	341.84
380.729	319.92
381.109	330.99
381.489	354.04
381.87	322.18
382.25	340.94
382.63	346.36
383.01	339.36
383.39	334.16
383.77	343.2
384.15	343.88
384.53	348.85
384.91	340.71
385.29	336.87
385.67	334.16
386.049	352.01
386.429	347.94
386.809	356.76
387.189	335.51
387.568	359.92
387.948	348.85
388.328	344.55
388.707	367.6
389.087	345.68
389.466	378
389.846	362.41
390.225	368.73
390.605	363.31
390.984	373.25
391.363	363.76
391.743	377.32
392.122	362.41
392.501	377.32
392.881	382.07
393.26	378
393.639	388.85
394.018	368.96
394.397	371.45
394.776	393.82
395.155	391.78
395.534	392.91
395.913	373.48
396.292	390.2
396.671	393.59
397.05	371.45
397.429	385.91
397.808	419.81
398.186	401.5
398.565	415.74
398.944	406.47
399.323	405.34
399.701	432.46
400.08	414.38
400.458	396.3
400.837	389.98
401.215	429.97
401.594	410.99
401.972	426.36
402.351	413.93
402.729	435.4
403.107	439.24
403.486	422.29
403.864	425.45
404.242	440.6
404.62	454.38
404.999	440.37
405.377	435.85
405.755	444.89
406.133	461.84
406.511	458.9
406.889	460.93
407.267	479.69
407.645	487.37
408.023	476.3
408.401	497.77
408.779	478.11
409.156	484.44
409.534	490.54
409.912	501.84
410.29	510.42
410.667	512.23
411.045	541.38
411.422	533.47
411.8	531.21
412.178	550.88
412.555	524.66
412.933	549.97
413.31	566.24
413.687	568.73
414.065	566.24
414.442	579.12
414.819	598.78
415.197	600.82
415.574	617.54
415.951	607.82
416.328	635.84
416.705	623.64
417.082	630.2
417.46	640.82
417.837	676.52
418.214	653.7
418.591	664.54
418.967	669.74
419.344	698.89
419.721	673.81
420.098	700.02
420.475	705
420.852	702.06
421.228	738.22
421.605	729.85
421.982	711.1
422.358	772.79
422.735	744.99
423.111	780.25
423.488	770.76
423.864	779.12
424.241	776.86
424.617	785.67
424.994	805.56
425.37	825.9
425.746	846.01
426.123	838.33
426.499	846.01
426.875	849.85
427.251	850.08
427.627	878.1
428.003	883.3
428.379	906.57
428.756	895.95
429.132	927.59
429.507	925.78
429.883	967.14
430.259	931.88
430.635	951.09
431.011	971.43
431.387	1012.33
431.763	1009.85
432.138	996.29
432.514	1018.43
432.89	1045.78
433.265	1053.24
433.641	1048.72
434.016	1060.01
434.392	1123.74
434.767	1061.82
435.143	1104.76
435.518	1121.71
435.894	1150.18
436.269	1135.72
436.644	1156.96
437.02	1184.76
437.395	1182.27
437.77	1217.3
438.145	1210.97
438.52	1224.08
438.895	1241.48
439.271	1249.84
439.646	1234.25
440.021	1264.98
440.395	1272.21
440.77	1270.63
441.145	1273.79
441.52	1318.76
441.895	1284.42
442.27	1323.51
442.645	1332.78
443.019	1333.23
443.394	1358.09
443.769	1324.87
444.143	1356.96
444.518	1372.32
444.892	1387.46
445.267	1388.14
445.641	1371.64
446.016	1391.76
446.39	1393.34
446.764	1402.15
447.139	1419.78
447.513	1429.04
447.887	1419.78
448.262	1413.68
448.636	1418.42
449.01	1431.53
449.384	1449.61
449.758	1482.83
450.132	1490.29
450.506	1473.34
450.88	1508.59
451.254	1488.7
451.628	1500.68
452.002	1518.76
452.376	1538.19
452.75	1496.61
453.123	1533.67
453.497	1557.4
453.871	1562.6
454.244	1579.77
454.618	1602.83
454.992	1617.74
455.365	1612.54
455.739	1635.14
456.112	1648.25
456.486	1657.96
456.859	1675.59
457.232	1670.39
457.606	1697.74
457.979	1733.9
458.352	1739.54
458.725	1732.54
459.099	1758.08
459.472	1791.29
459.845	1803.05
460.218	1822.93
460.591	1801.24
460.964	1842.59
461.337	1830.84
461.71	1878.98
462.083	1888.24
462.456	1894.12
462.829	1895.7
463.201	1919.88
463.574	1923.27
463.947	1949.93
464.32	1965.3
464.692	1982.02
465.065	1988.8
465.438	2015.7
465.81	2053.66
466.183	2042.81
466.555	2088.01
466.928	2087.56
467.3	2040.33
467.672	2122.59
468.045	2153.09
468.417	2148.35
468.789	2142.7
469.161	2169.59
469.534	2243.26
469.906	2269.7
470.278	2278.74
470.65	2271.96
471.022	2289.13
471.394	2361.9
471.766	2334.56
472.138	2364.16
472.51	2391.05
472.882	2417.94
473.253	2488.9
473.625	2467.89
473.997	2513.99
474.369	2523.93
474.74	2581.1
475.112	2553.99
475.484	2617.94
475.855	2640.54
476.227	2666.53
476.598	2709.46
476.97	2740.42
477.341	2796.47
477.713	2784.04
478.084	2789.91
478.455	2877.82
478.827	2919.4
479.198	2962.56
479.569	2950.36
479.94	3045.95
480.311	3010.92
480.682	3094.31
481.053	3101.99
481.424	3182.22
481.795	3182.22
482.166	3228.09
482.537	3240.3
482.908	3330.69
483.279	3362.33
483.65	3381.08
484.021	3442.32
484.391	3465.6
484.762	3440.06
485.133	3462.89
485.503	3522.77
485.874	3586.73
486.244	3583.79
486.615	3647.29
486.985	3671.47
487.356	3708.76
487.726	3779.49
488.097	3806.83
488.467	3842.09
488.837	3886.61
489.207	3868.75
489.578	3910.79
489.948	4000.05
490.318	4003.89
490.688	3983.78
491.058	4067.85
491.428	4137.67
491.798	4118.92
492.168	4229.87
492.538	4241.4
492.908	4272.59
493.278	4276.2
493.648	4294.28
494.017	4375.18
494.387	4377.44
494.757	4389.19
495.126	4467.38
495.496	4467.38
495.866	4480.94
496.235	4507.61
496.605	4511.9
496.974	4577.44
497.344	4546.7
497.713	4547.15
498.082	4609.07
498.452	4652.01
498.821	4662.63
499.19	4685
499.559	4708.51
499.928	4737.88
500.298	4761.61
500.667	4767.04
501.036	4762.29
501.405	4822.18
501.774	4794.83
502.143	4811.55
502.512	4830.08
502.88	4882.96
503.249	4865.34
503.618	4926.35
503.987	4889.74
504.356	4974.26
504.724	4971.32
505.093	4977.65
505.462	5047.25
505.83	5044.77
506.199	5056.97
506.567	5099.46
506.936	5054.94
507.304	5108.5
507.672	5147.36
508.041	5205.89
508.409	5191.43
508.777	5168.38
509.145	5230.07
509.514	5230.98
509.882	5232.56
510.25	5205.67
510.618	5294.03
510.986	5259
511.354	5304.65
511.722	5324.08
512.09	5422.16
512.458	5374.25
512.826	5407.47
513.193	5379.45
513.561	5441.82
513.929	5485.21
514.297	5478.88
514.664	5485.66
515.032	5478.43
515.4	5580.35
515.767	5556.39
516.135	5570.4
516.502	5455.83
516.869	5531.31
517.237	5602.72
517.604	5553.46
517.972	5673.9
518.339	5618.76
518.706	5672.77
519.073	5677.29
519.44	5669.38
519.808	5732.43
520.175	5704.19
520.542	5775.14
520.909	5800.23
521.276	5766.33
521.643	5801.58
522.009	5810.4
522.376	5861.92
522.743	5886.33
523.11	5926.1
523.477	5961.13
523.843	5962.48
524.21	6006.78
524.577	6012.2
524.943	6057.85
525.31	6016.72
525.676	6119.54
526.043	6175.81
526.409	6166.77
526.776	6203.16
527.142	6197.51
527.508	6239.31
527.874	6278.18
528.241	6293.78
528.607	6345.07
528.973	6330.16
529.339	6360.21
529.705	6395.02
530.071	6395.92
530.437	6446.99
530.803	6483.6
531.169	6465.75
531.535	6503.94
531.901	6482.7
532.267	6518.85
532.632	6598.17
532.998	6621.68
533.364	6626.65
533.73	6616.48
534.095	6695.8
534.461	6663.71
534.826	6733.31
535.192	6744.16
535.557	6732.63
535.923	6776.25
536.288	6829.13
536.653	6820.09
537.019	6755.01
537.384	6795.23
537.749	6870.48
538.114	6909.35
538.479	6882.01
538.845	6938.05
539.21	6878.62
539.575	6969.69
539.94	6987.32
540.305	6948.22
540.67	6996.58
541.034	6979.86
541.399	7007.43
541.764	7017.37
542.129	7097.14
542.494	7074.09
542.858	7086.97
543.223	7071.38
543.587	7185.5
543.952	7147.76
544.316	7172.17
544.681	7131.27
545.045	7284.71
545.41	7267.08
545.774	7227.08
546.138	7220.76
546.503	7272.96
546.867	7336.46
547.231	7385.5
547.595	7340.3
547.959	7388.66
548.324	7437.93
548.688	7439.06
549.052	7350.47
549.416	7413.97
549.779	7459.62
550.143	7477.47
550.507	7474.76
550.871	7480.86
551.235	7498.94
551.599	7544.82
551.962	7575.55
552.326	7524.7
552.689	7595.66
553.053	7615.1
553.417	7561.76
553.78	7708.65
554.143	7661.87
554.507	7773.74
554.87	7688.77
555.234	7793.4
555.597	7719.05
555.96	7737.81
556.323	7763.79
556.686	7792.04
557.05	7820.97
557.413	7827.07
557.776	7820.06
558.139	7910.68
558.502	7794.75
558.865	7838.82
559.228	7929.44
559.59	7872.26
559.953	7941.19
560.316	7954.07
560.679	7967.4
561.041	8027.51
561.404	8123.56
561.767	8168.3
562.129	8102.09
562.492	8148.87
562.854	8151.58
563.217	8141.64
563.579	8168.3
563.941	8262.54
564.304	8309.54
564.666	8286.94
565.028	8374.85
565.39	8339.15
565.753	8334.63
566.115	8376.43
566.477	8383.21
566.839	8399.03
567.201	8435.19
567.563	8537.78
567.925	8553.15
568.287	8514.28
568.648	8535.52
569.01	8545.24
569.372	8642.87
569.734	8604.22
570.095	8674.96
570.457	8753.6
570.819	8737.33
571.18	8767.83
571.542	8819.58
571.903	8846.02
572.265	8897.55
572.626	8868.17
572.987	8910.66
573.349	9038.11
573.71	8962.18
574.071	9020.03
574.432	9083.76
574.794	9129.86
575.155	9178.45
575.516	9146.36
575.877	9234.04
576.238	9305.45
576.599	9309.97
576.96	9376.63
577.32	9453.47
577.681	9542.73
578.042	9611.88
578.403	9639.45
578.763	9604.87
579.124	9739.56
579.485	9745.66
579.845	9890.97
580.206	9859.11
580.566	9994.02
580.927	10026.78
581.287	10172.77
581.648	10133.45
582.008	10359.88
582.368	10343.61
582.728	10481.46
583.089	10483.95
583.449	10668.8
583.809	10711.74
584.169	10795.58
584.529	10911.73
584.889	11080.54
585.249	11112.18
585.609	11138.62
585.969	11344.49
586.329	11376.13
586.688	11539.29
587.048	11641.88
587.408	11766.85
587.768	11933.63
588.127	12005.26
588.487	12165.71
588.846	12286.39
589.206	12397.34
589.565	12528.19
589.925	12675.75
590.284	12786.49
590.643	12955.52
591.003	13084.11
591.362	13243.65
591.721	13264.89
592.08	13438.9
592.44	13672.56
592.799	13752.79
593.158	13899
593.517	14041.59
593.876	14225.09
594.235	14253.57
594.593	14466.67
594.952	14581.69
595.311	14642.48
595.67	14799.77
596.029	15043.15
596.387	15081.79
596.746	15261.22
597.104	15358.85
597.463	15524.49
597.822	15721.32
598.18	15723.36
598.538	15837.48
598.897	15994.31
599.255	16010.58
599.613	16275.43
599.972	16286.96
600.33	16559.95
600.688	16513.17
601.046	16689.66
601.404	16892.37
601.762	16873.61
602.12	17093.94
602.478	17078.58
602.836	17186.82
603.194	17236.76
603.552	17438.57
603.91	17528.06
604.268	17684.44
604.625	17709.29
604.983	17817.54
605.341	17780.03
605.698	18055.05
606.056	18126.23
606.413	18278.54
606.771	18392.21
607.128	18361.25
607.485	18448.26
607.843	18510.4
608.2	18661.36
608.557	18777.29
608.914	18734.8
609.272	18930.73
609.629	18965.98
609.986	19214.11
610.343	19124.85
610.7	19299.31
611.057	19269.93
611.414	19366.43
611.771	19512.64
612.127	19597.83
612.484	19665.4
612.841	19712.63
613.198	19774.1
613.554	19825.4
613.911	19940.2
614.267	20009.8
614.624	20072.17
614.98	19901.33
615.337	20057.48
615.693	20247.76
616.05	20229.45
616.406	20377.7
616.762	20342.22
617.118	20281.88
617.475	20424.93
617.831	20512.61
618.187	20572.72
618.543	20633.74
618.899	20730.46
619.255	20704.7
619.611	20777.24
619.967	20835.31
620.323	20902.66
620.678	20940.17
621.034	20876.67
621.39	20901.53
621.746	20889.1
622.101	21207.28
622.457	21005.03
622.812	20998.25
623.168	21165.25
623.523	21186.94
623.879	21348.52
624.234	21103.78
624.589	21296.09
624.945	21205.7
625.3	21382.19
625.655	21294.74
626.01	21342.87
626.365	21289.77
626.72	21423.55
627.075	21368.41
627.43	21378.58
627.785	21330.89
628.14	21449.31
628.495	21487.5
628.85	21429.65
629.205	21409.76
629.559	21602.98
629.914	21407.95
630.269	21436.65
630.623	21426.03
630.978	21336.77
631.332	21467.16
631.687	21497.22
632.041	21514.39
632.396	21548.06
632.75	21410.44
633.104	21421.29
633.459	21206.15
633.813	21321.18
634.167	21282.76
634.521	21277.56
634.875	21437.78
635.229	21364.57
635.583	21311.46
635.937	21250.9
636.291	21299.26
636.645	21286.38
636.999	21261.97
637.352	21300.39
637.706	21196.21
638.06	21251.12
638.413	21307.62
638.767	21225.81
639.121	21320.72
639.474	21115.53
639.828	21207.96
640.181	21196.21
640.534	21088.64
640.888	21090.9
641.241	21068.08
641.594	21111.46
641.947	21081.18
642.301	21047.96
642.654	21093.16
643.007	21047.96
643.36	21128.87
643.713	21015.2
644.066	21118.24
644.419	20922.54
644.771	20801.87
645.124	20701.53
645.477	20697.01
645.83	20607.75
646.182	20420.18
646.535	20402.33
646.888	20443.69
647.24	20388.09
647.593	20480.97
647.945	20433.06
648.298	20326.4
648.65	20362.33
649.002	20210.7
649.355	20392.39
649.707	20385.16
650.059	20618.82
650.411	20744.02
650.763	20678.48
651.115	20884.8
651.467	20814.07
651.819	20853.39
652.171	20814.07
652.523	20720.29
652.875	20849.55
653.227	20788.54
653.578	20989.43
653.93	20895.88
654.282	20847.29
654.633	20820.17
654.985	20740.63
655.337	20818.82
655.688	20826.73
656.039	20960.06
656.391	20770.68
656.742	20820.17
657.094	20834.18
657.445	20869.21
657.796	20883
658.147	20977
658.498	20893.39
658.849	20948.76
659.2	20896.56
659.551	20866.27
659.902	20974.52
660.253	20912.15
660.604	20927.06
660.955	20794.64
661.306	20860.62
661.656	20937.91
662.007	20874.86
662.358	20903.11
662.708	20898.59
663.059	20989.21
663.409	20874.18
663.76	21034.63
664.11	21042.77
664.461	21058.13
664.811	20983.11
665.161	21025.82
665.511	20810.23
665.862	20987.4
666.212	20976.33
666.562	20927.97
666.912	20953.95
667.262	20922.77
667.612	20975.2
667.962	20943.79
668.312	20901.3
668.662	21030.34
669.011	20944.46
669.361	20944.46
669.711	20950.56
670.06	20920.06
670.41	20975.65
670.76	20864.92
671.109	20863.56
671.459	20860.4
671.808	20844.81
672.157	20955.76
672.507	20675.54
672.856	20713.74
673.205	20762.1
673.554	20843.9
673.904	20733.17
674.253	20860.17
674.602	20786.28
674.951	20539.73
675.3	20447.53
675.649	20743.11
675.998	20682.55
676.346	20798.93
676.695	20782.89
677.044	20647.75
677.393	20596.22
677.741	20665.15
678.09	20619.5
678.438	20554.64
678.787	20594.19
679.135	20677.35
679.484	20406.4
679.832	20574.3
680.181	20435.55
680.529	20485.27
680.877	20349.45
681.225	20281.66
681.573	20581.99
681.922	20251.6
682.27	20116.69
682.618	20192.39
682.966	20092.51
683.314	20223.35
683.661	20128.21
684.009	20003.25
684.357	20022
684.705	20022.45
685.053	20000.53
685.4	19991.95
685.748	19840.09
686.095	19858.39
686.443	19803.25
686.79	19749.01
687.138	19764.38
687.485	19751.73
687.832	19608
688.18	19595.57
688.527	19519.19
688.874	19509.25
689.221	19527.55
689.568	19381.34
689.915	19353.09
690.262	19423.15
690.609	19255.92
690.956	19194
691.303	19207.56
691.65	19132.76
691.997	19083.5
692.344	18971.63
692.69	18945.42
693.037	18960.11
693.383	18786.55
693.73	18875.14
694.077	18803.73
694.423	18602.15
694.769	18565.77
695.116	18592.89
695.462	18569.38
695.808	18512.66
696.155	18575.49
696.501	18326.45
696.847	18405.55
697.193	18143.63
697.539	18184.54
697.885	18169.85
698.231	18129.4
698.577	18003.98
698.923	17972.79
699.269	17971.21
699.614	17832.91
699.96	17842.17
700.306	17896.63
700.651	17647.83
700.997	17668.39
701.342	17595.62
701.688	17530.32
702.033	17552.46
702.379	17431.56
702.724	17480.83
703.069	17473.59
703.415	17209.19
703.76	17209.19
704.105	17154.96
704.45	17108.18
704.795	17006.26
705.14	16913.83
705.485	16916.77
705.83	16945.7
706.175	16874.74
706.52	16800.84
706.865	16766.95
707.209	16715.65
707.554	16648.08
707.899	16726.27
708.243	16656.89
708.588	16604.92
708.932	16398.14
709.277	16434.3
709.621	16396.11
709.966	16359.73
710.31	16309.78
710.654	16162.89
710.998	16244.47
711.342	16129.22
711.687	16130.58
712.031	16128.54
712.375	16039.28
712.719	16043.58
713.063	15946.4
713.407	16032.05
713.75	15963.13
714.094	15903.01
714.438	15872.28
714.782	15879.29
715.125	15777.14
715.469	15789.34
715.812	15720.19
716.156	15595.23
716.499	15651.04
716.843	15706.41
717.186	15574.66
717.53	15684.94
717.873	15669.35
718.216	15624.38
718.559	15434.1
718.902	15488.11
719.246	15488.11
719.589	15425.74
719.932	15275.46
720.275	15421.67
720.617	15333.76
720.96	15341.9
721.303	15342.8
721.646	15312.97
721.989	15239.08
722.331	15265.29
722.674	15260.32
723.016	15237.72
723.359	15167.89
723.701	15167.21
724.044	15131.73
724.386	15045.64
724.729	15131.51
725.071	15121.34
725.413	15043.6
725.755	15123.6
726.097	15014.22
726.439	15042.25
726.782	14987.78
727.124	15079.08
727.465	15063.71
727.807	14964.96
728.149	14952.98
728.491	14968.12
728.833	14917.28
729.175	15004.28
729.516	14894.23
729.858	14864.4
730.199	14936.71
730.541	14870.95
730.882	14830.5
731.224	14964.06
731.565	14805.64
731.906	14790.73
732.248	14845.19
732.589	14822.14
732.93	14661.92
733.271	14738.3
733.612	14826.66
733.953	14770.61
734.294	14793.44
734.635	14738.75
734.976	14803.38
735.317	14713.44
735.658	14755.25
735.999	14792.99
736.339	14726.55
736.68	14783.95
737.021	14779.43
737.361	14724.97
737.702	14828.69
738.042	14761.35
738.383	14722.71
738.723	14802.93
739.063	14725.64
739.404	14785.98
739.744	14818.52
740.084	14696.72
740.424	14808.58
740.764	14805.64
741.104	14830.27
741.444	14689.03
741.784	14734.91
742.124	14811.52
742.464	14814.68
742.804	14823.49
743.143	14820.1
743.483	14786.43
743.823	14836.6
744.162	14958.41
744.502	14970.84
744.841	14927.22
745.181	15096.48
745.52	14955.47
745.86	15060.32
746.199	15077.95
746.538	15204.95
746.877	15226.2
747.216	15263.03
747.556	15246.99
747.895	15286.31
748.234	15254.9
748.573	15332.63
748.911	15402.24
749.25	15498.5
749.589	15442.01
749.928	15536.7
750.267	15581.44
750.605	15628.45
750.944	15758.39
751.283	15777.14
751.621	15917.7
751.96	15990.92
752.298	15969.45
752.636	16178.26
752.975	16182.1
753.313	16164.7
753.651	16421.19
753.989	16306.85
754.327	16481.3
754.666	16662.32
755.004	16659.83
755.342	16801.3
755.679	16876.32
756.017	16929.43
756.355	17027.96
756.693	17146.6
757.031	17315.63
757.368	17292.81
757.706	17485.8
758.044	17559.47
758.381	17792.23
758.719	17775.73
759.056	17949.74
759.394	17973.47
759.731	17901.15
760.068	18096.4
