Data from hue_120_FLMS001491_00095.txt Node
Date: Tue Feb 07 17:00:17 GMT 2017
User: dcchb
Spectrometer: FLMS00149
Trigger mode: 0
Integration Time (sec): 2.000000E-2
Scans to average: 10
Electric dark correction enabled: true
Nonlinearity correction enabled: false
Boxcar width: 0
XAxis mode: Wavelengths
Number of Pixels in Spectrum: 2048
>>>>>Begin Spectral Data<<<<<
341.393	-0.76
341.776	-0.76
342.16	-0.76
342.543	-45.73
342.927	-50.03
343.31	-79.4
343.693	-70.14
344.077	-68.78
344.46	-62.68
344.843	-51.16
345.226	-61.33
345.61	-39.18
345.993	-14.77
346.376	1.72
346.759	-1.89
347.142	24.1
347.525	36.98
347.908	76.75
348.291	77.88
348.674	99.12
349.057	132.79
349.44	133.92
349.823	148.39
350.206	168.27
350.588	189.29
350.971	210.08
351.354	237.88
351.737	242.17
352.119	259.57
352.502	259.8
352.884	258.21
353.267	281.72
353.65	296.4
354.032	292.11
354.414	284.2
354.797	298.66
355.179	323.52
355.562	320.58
355.944	310.64
356.326	332.79
356.709	337.31
357.091	338.44
357.473	327.82
357.855	343.64
358.238	335.95
358.62	313.13
359.002	326.23
359.384	335.73
359.766	360.81
360.148	331.88
360.53	332.11
360.912	333.47
361.294	332.11
361.676	335.5
362.057	333.24
362.439	341.83
362.821	348.83
363.203	336.4
363.584	315.39
363.966	319
364.348	328.04
364.729	314.48
365.111	313.35
365.493	332.56
365.874	313.81
366.256	326.91
366.637	316.29
367.019	326.69
367.4	323.07
367.781	307.25
368.163	304.54
368.544	328.04
368.925	308.38
369.306	302.73
369.688	300.92
370.069	293.69
370.45	308.61
370.831	311.77
371.212	299.57
371.593	299.79
371.974	299.57
372.355	293.01
372.736	319.91
373.117	322.84
373.498	311.32
373.879	325.56
374.26	318.55
374.641	316.52
375.021	327.36
375.402	321.26
375.783	319.45
376.163	345.89
376.544	350.41
376.925	341.83
377.305	314.48
377.686	320.58
378.066	325.56
378.447	327.59
378.827	370.75
379.208	326.46
379.588	321.94
379.968	333.47
380.349	363.07
380.729	328.95
381.109	344.76
381.489	335.27
381.87	354.26
382.25	350.19
382.63	305.9
383.01	356.97
383.39	341.83
383.77	332.79
384.15	343.41
384.53	341.83
384.91	330.3
385.29	344.76
385.67	353.8
386.049	349.06
386.429	340.92
386.809	359.45
387.189	332.79
387.568	351.32
387.948	347.02
388.328	379.57
388.707	359.91
389.087	356.97
389.466	358.1
389.846	361.49
390.225	377.08
390.605	378.89
390.984	348.61
391.363	360.36
391.743	370.53
392.122	365.56
392.501	375.27
392.881	384.31
393.26	376.85
393.639	380.7
394.018	369.17
394.397	377.76
394.776	386.8
395.155	389.51
395.534	393.35
395.913	376.18
396.292	386.8
396.671	380.02
397.05	365.33
397.429	378.44
397.808	393.13
398.186	386.35
398.565	384.09
398.944	397.42
399.323	416.63
399.701	408.72
400.08	407.59
400.458	412.56
400.837	405.1
401.215	395.84
401.594	391.09
401.972	426.34
402.351	405.33
402.729	419.57
403.107	417.98
403.486	409.62
403.864	430.19
404.242	407.14
404.62	410.98
404.999	404.88
405.377	413.24
405.755	408.04
406.133	426.34
406.511	427.93
406.889	445.55
407.267	437.42
407.645	430.41
408.023	441.94
408.401	449.17
408.779	452.56
409.156	466.12
409.534	470.64
409.912	449.17
410.29	456.63
410.667	465.21
411.045	448.04
411.422	468.15
411.8	464.54
412.178	474.48
412.555	487.36
412.933	460.69
413.31	483.29
413.687	486.23
414.065	481.71
414.442	461.37
414.819	490.3
415.197	506.34
415.574	483.97
415.951	498.43
416.328	500.02
416.705	508.6
417.082	491.88
417.46	535.95
417.837	520.58
418.214	516.51
418.591	530.75
418.967	537.08
419.344	532.33
419.721	524.65
420.098	537.3
420.475	530.52
420.852	528.71
421.228	539.56
421.605	545.44
421.982	537.3
422.358	551.31
422.735	543.63
423.111	541.6
423.488	583.4
423.864	575.49
424.241	590.41
424.617	582.72
424.994	578.88
425.37	593.8
425.746	578.88
426.123	599.67
426.499	584.76
426.875	581.14
427.251	597.87
427.627	616.62
428.003	620.01
428.379	621.37
428.756	636.51
429.132	627.02
429.507	620.24
429.883	641.48
430.259	642.84
430.635	628.83
431.011	656.85
431.387	651.2
431.763	670.86
432.138	664.76
432.514	664.98
432.89	680.12
433.265	701.37
433.641	713.57
434.016	702.27
434.392	693.91
434.767	720.12
435.143	711.08
435.518	714.7
435.894	731.2
436.269	732.78
436.644	751.76
437.02	743.62
437.395	749.73
437.77	738.43
438.145	764.41
438.52	757.18
438.895	798.31
439.271	795.6
439.646	781.82
440.021	787.01
440.395	789.5
440.77	811.65
441.145	812.55
441.52	836.73
441.895	805.77
442.27	833.11
442.645	833.34
443.019	842.83
443.394	852.32
443.769	885.54
444.143	857.29
444.518	885.09
444.892	871.98
445.267	883.51
445.641	878.54
446.016	872.21
446.39	880.57
446.764	881.7
447.139	892.55
447.513	898.2
447.887	904.3
448.262	894.58
448.636	911.08
449.01	938.42
449.384	917.41
449.758	930.51
450.132	950.17
450.506	946.78
450.88	941.81
451.254	973.67
451.628	969.83
452.002	983.39
452.376	989.04
452.75	1000.57
453.123	1030.62
453.497	1014.35
453.871	1001.47
454.244	1030.4
454.618	1057.97
454.992	1044.18
455.365	1065.88
455.739	1100.23
456.112	1110.17
456.486	1110.85
456.859	1090.96
457.232	1123.95
457.606	1113.56
457.979	1149.04
458.352	1191.52
458.725	1170.73
459.099	1172.54
459.472	1195.59
459.845	1218.19
460.218	1203.73
460.591	1241.24
460.964	1255.25
461.337	1252.76
461.71	1294.57
462.083	1314.46
462.456	1305.64
462.829	1327.34
463.201	1344.51
463.574	1353.55
463.947	1379.77
464.32	1381.8
464.692	1414.57
465.065	1433.1
465.438	1452.08
465.81	1460.89
466.183	1495.47
466.555	1511.74
466.928	1521.68
467.3	1551.29
467.672	1563.94
468.045	1629.48
468.417	1628.12
468.789	1623.6
469.161	1694.11
469.534	1694.79
469.906	1755.58
470.278	1740.21
470.65	1792.64
471.022	1855.69
471.394	1878.28
471.766	1910.6
472.138	1941.33
472.51	1981.78
472.882	2024.04
473.253	2032.63
473.625	2094.78
473.997	2149.46
474.369	2151.95
474.74	2205.28
475.112	2276.47
475.484	2336.13
475.855	2350.14
476.227	2422
476.598	2489.57
476.97	2544.26
477.341	2595.78
477.713	2702.67
478.084	2733.18
478.455	2781.09
478.827	2873.06
479.198	2963.45
479.569	2991.02
479.94	3120.06
480.311	3170.91
480.682	3308.98
481.053	3385.36
481.424	3477.56
481.795	3558.01
482.166	3614.74
482.537	3746.48
482.908	3836.2
483.279	3914.61
483.65	3993.48
484.021	4161.16
484.391	4268.5
484.762	4321.16
485.133	4456.75
485.503	4501.04
485.874	4637.53
486.244	4805.89
486.615	4938.77
486.985	5053.12
487.356	5174.92
487.726	5243.62
488.097	5448.81
488.467	5485.65
488.837	5730.39
489.207	5839.54
489.578	5935.13
489.948	6097.16
490.318	6219.86
490.688	6267.55
491.058	6465.73
491.428	6626.63
491.798	6776.23
492.168	6969.9
492.538	7027.75
492.908	7159.73
493.278	7346.84
493.648	7449.66
494.017	7554.29
494.387	7670.67
494.757	7843.32
495.126	7960.38
495.496	8056.65
495.866	8127.61
496.235	8330.54
496.605	8404.21
496.974	8561.27
497.344	8699.8
497.713	8854.37
498.082	8876.97
498.452	9123.29
498.821	9178.43
499.19	9205.1
499.559	9357.18
499.928	9488.48
500.298	9502.49
500.667	9696.84
501.036	9829.26
501.405	9894.12
501.774	9933.21
502.143	10094.34
502.512	10156.48
502.88	10288.68
503.249	10288.01
503.618	10411.62
503.987	10437.83
504.356	10579.75
504.724	10656.13
505.093	10773.87
505.462	10843.25
505.83	10870.82
506.199	11014.31
506.567	11153.75
506.936	11227.87
507.304	11305.61
507.672	11301.31
508.041	11431.71
508.409	11439.39
508.777	11572.04
509.145	11705.6
509.514	11714.86
509.882	11704.69
510.25	11791.24
510.618	11851.36
510.986	11932.71
511.354	12061.52
511.722	12082.76
512.09	12156.66
512.458	12190.78
512.826	12233.49
513.193	12238.24
513.561	12351.45
513.929	12464.45
514.297	12462.64
514.664	12550.32
515.032	12667.38
515.4	12720.48
515.767	12676.64
516.135	12739.24
516.502	12644.78
516.869	12856.3
517.237	12847.71
517.604	12845.68
517.972	12897.66
518.339	12930.65
518.706	12979.23
519.073	13007.03
519.44	13070.53
519.808	13123.41
520.175	13159.34
520.542	13266.69
520.909	13342.39
521.276	13191.88
521.643	13303.97
522.009	13327.25
522.376	13413.8
522.743	13424.87
523.11	13433.91
523.477	13655.6
523.843	13634.81
524.21	13656.28
524.577	13723.85
524.943	13761.36
525.31	13800.46
525.676	13849.49
526.043	13787.58
526.409	13889.72
526.776	14001.36
527.142	13985.31
527.508	13982.37
527.874	14082.48
528.241	14015.14
528.607	13916.61
528.973	14093.1
529.339	13994.35
529.705	14163.16
530.071	14088.13
530.437	14113.67
530.803	14201.58
531.169	14225.3
531.535	14119.09
531.901	14186.21
532.267	14195.02
532.632	14203.61
532.998	14179.2
533.364	14203.16
533.73	14191.86
534.095	14225.76
534.461	14221.91
534.826	14132.2
535.192	14178.98
535.557	14153.44
535.923	14125.65
536.288	14158.41
536.653	14172.65
537.019	14033.9
537.384	14066.66
537.749	14042.94
538.114	14035.48
538.479	14070.28
538.845	14096.04
539.21	13902.83
539.575	13929.27
539.94	13927.46
540.305	13936.05
540.67	13889.49
541.034	13860.79
541.399	13946.89
541.764	13845.2
542.129	13832.55
542.494	13859.44
542.858	13797.74
543.223	13796.16
543.587	13742.38
543.952	13697.18
544.316	13722.49
544.681	13612.66
545.045	13669.84
545.41	13668.03
545.774	13634.13
546.138	13529.05
546.503	13536.96
546.867	13458.09
547.231	13552.55
547.595	13502.61
547.959	13492.67
548.324	13410.18
548.688	13300.13
549.052	13415.61
549.416	13343.52
549.779	13297.87
550.143	13234.37
550.507	13273.24
550.871	13257.65
551.235	13137.2
551.599	13319.11
551.962	13171.09
552.326	13213.81
552.689	13230.98
553.053	13065.79
553.417	13098.33
553.78	13186.91
554.143	13070.76
554.507	13060.14
554.87	13020.59
555.234	13194.37
555.597	13047.03
555.96	13006.13
556.323	12988.73
556.686	13013.58
557.05	13046.8
557.413	13026.92
557.776	13013.58
558.139	13077.76
558.502	13022.85
558.865	12986.47
559.228	13058.78
559.59	12965.9
559.953	12942.4
560.316	13066.24
560.679	13062.85
561.041	13102.62
561.404	13047.26
561.767	13152.56
562.129	13057.88
562.492	13091.1
562.854	13028.95
563.217	13020.14
563.579	13095.84
563.941	13110.76
564.304	13182.17
564.666	13149.63
565.028	13135.62
565.39	13222.17
565.753	13231.88
566.115	13190.98
566.477	13231.88
566.839	13188.95
567.201	13250.87
567.563	13212.9
567.925	13352.33
568.287	13276.85
568.648	13222.17
569.01	13413.35
569.372	13369.28
569.734	13317.53
570.095	13420.81
570.457	13397.76
570.819	13385.33
571.18	13347.36
571.542	13464.42
571.903	13413.12
572.265	13353.24
572.626	13514.36
572.987	13522.5
573.349	13454.93
573.71	13447.02
574.071	13538.09
574.432	13530.86
574.794	13574.47
575.155	13628.94
575.516	13581.71
575.877	13520.92
576.238	13506
576.599	13636.17
576.96	13556.85
577.32	13614.92
577.681	13662.15
578.042	13637.07
578.403	13537.86
578.763	13586.68
579.124	13532.67
579.485	13694.47
579.845	13654.7
580.206	13622.83
580.566	13684.53
580.927	13648.14
581.287	13597.07
581.648	13574.93
582.008	13702.15
582.368	13567.69
582.728	13626
583.089	13575.38
583.449	13554.81
583.809	13604.53
584.169	13598.88
584.529	13526.79
584.889	13658.77
585.249	13641.36
585.609	13500.13
585.969	13550.75
586.329	13528.6
586.688	13537.41
587.048	13483.63
587.408	13522.27
587.768	13450.41
588.127	13441.82
588.487	13474.59
588.846	13543.06
589.206	13463.74
589.565	13536.73
589.925	13528.6
590.284	13409.51
590.643	13376.51
591.003	13406.57
591.362	13507.36
591.721	13410.64
592.08	13407.25
592.44	13553.23
592.799	13508.94
593.158	13420.35
593.517	13443.86
593.876	13391.43
594.235	13476.17
594.593	13411.54
594.952	13338.32
595.311	13367.47
595.67	13440.47
596.029	13420.58
596.387	13509.16
596.746	13411.77
597.104	13299.45
597.463	13348.26
597.822	13338.1
598.18	13320.92
598.538	13364.08
598.897	13367.47
599.255	13272.33
599.613	13463.06
599.972	13451.76
600.33	13372.67
600.688	13284.99
601.046	13363.86
601.404	13397.3
601.762	13377.87
602.12	13469.84
602.478	13465.32
602.836	13424.2
603.194	13258.78
603.552	13354.37
603.91	13240.02
604.268	13336.97
604.625	13239.79
604.983	13401.37
605.341	13301.49
605.698	13345.33
606.056	13352.78
606.413	13338.55
606.771	13475.95
607.128	13394.82
607.485	13362.05
607.843	13389.85
608.2	13405.89
608.557	13526.57
608.914	13413.8
609.272	13395.27
609.629	13508.26
609.986	13501.03
610.343	13414.25
610.7	13527.24
611.057	13520.69
611.414	13501.03
611.771	13518.2
612.127	13541.48
612.484	13551.65
612.841	13520.69
613.198	13483.4
613.554	13566.56
613.911	13576.06
614.267	13594.81
614.624	13502.16
614.98	13661.7
615.337	13673
615.693	13645.21
616.05	13634.36
616.406	13688.37
616.762	13709.16
617.118	13676.84
617.475	13619.44
617.831	13742.15
618.187	13743.06
618.543	13720.46
618.899	13729.72
619.255	13756.16
619.611	13769.72
619.967	13798.2
620.323	13790.97
620.678	13775.82
621.034	13715.71
621.39	13794.58
621.746	13696.28
622.101	13948.93
622.457	13691.31
622.812	13734.7
623.168	13759.33
623.523	13760.91
623.879	13857.63
624.234	13645.43
624.589	13751.87
624.945	13758.88
625.3	13771.76
625.655	13747.12
626.01	13794.81
626.365	13836.39
626.72	13791.19
627.075	13686.11
627.43	13794.13
627.785	13757.75
628.14	13691.08
628.495	13792.09
628.85	13777.63
629.205	13658.09
629.559	13757.07
629.914	13687.01
630.269	13790.29
630.623	13628.26
630.978	13706.67
631.332	13654.47
631.687	13755.71
632.041	13628.71
632.396	13685.66
632.75	13569.73
633.104	13676.84
633.459	13521.37
633.813	13581.93
634.167	13618.31
634.521	13508.26
634.875	13613.12
635.229	13484.76
635.583	13583.51
635.937	13490.86
636.291	13460.35
636.645	13604.76
636.999	13411.31
637.352	13438.66
637.706	13361.82
638.06	13451.76
638.413	13386
638.767	13251.54
639.121	13383.52
639.474	13221.04
639.828	13316.63
640.181	13296.97
640.534	13306.68
640.888	13282.73
641.241	13242.96
641.594	13280.24
641.947	13227.59
642.301	13188.04
642.654	13257.65
643.007	13274.59
643.36	13164.31
643.713	13194.14
644.066	13176.74
644.419	13218.32
644.771	13109.4
645.124	13024.43
645.477	12962.74
645.83	12899.92
646.182	12828.05
646.535	12895.62
646.888	12849.52
647.24	12701.73
647.593	12826.47
647.945	12800.03
648.298	12748.05
648.65	12749.64
649.002	12718.68
649.355	12817.21
649.707	12715.29
650.059	12761.16
650.411	12916.41
650.763	12942.63
651.115	13024.66
651.467	13019.23
651.819	12997.99
652.171	12993.02
652.523	12954.6
652.875	12940.82
653.227	12947.37
653.578	13096.97
653.93	13006.13
654.282	12915.28
654.633	12895.4
654.985	12909.41
655.337	12941.72
655.688	13021.49
656.039	13053.13
656.391	12959.8
656.742	12937.65
657.094	12978.33
657.445	13062.85
657.796	12984.66
658.147	12930.65
658.498	12994.6
658.849	13054.26
659.2	13051.32
659.551	12941.5
659.902	13035.73
660.253	13031.66
660.604	13039.57
660.955	12950.76
661.306	13067.82
661.656	12962.29
662.007	13001.38
662.358	12922.74
662.708	13007.71
663.059	12991.66
663.409	12873.02
663.76	13042.96
664.11	13034.83
664.461	13035.05
664.811	13093.81
665.161	13022.62
665.511	13027.14
665.862	13011.1
666.212	13006.8
666.562	13047.48
666.912	12949.86
667.262	13069.85
667.612	13078.67
667.962	13063.07
668.312	12990.53
668.662	13018.1
669.011	13095.84
669.361	12976.52
669.711	13046.13
670.06	13026.69
670.41	12994.38
670.76	12992.57
671.109	12997.77
671.459	12914.15
671.808	12970.42
672.157	12999.8
672.507	12925.68
672.856	12892.46
673.205	12971.78
673.554	13006.8
673.904	12851.33
674.253	12968.39
674.602	12909.86
674.951	12770.65
675.3	12668.73
675.649	12894.04
675.998	12842.97
676.346	12841.39
676.695	12873.25
677.044	12732.01
677.393	12782.63
677.741	12775.85
678.09	12828.5
678.438	12748.96
678.787	12760.48
679.135	12774.27
679.484	12667.83
679.832	12751.67
680.181	12615.18
680.529	12739.02
680.877	12535.86
681.225	12575.4
681.573	12674.16
681.922	12521.62
682.27	12563.2
682.618	12610.66
682.966	12477.1
683.314	12481.17
683.661	12461.28
684.009	12362.75
684.357	12350.55
684.705	12324.11
685.053	12403.88
685.4	12277.11
685.748	12287.5
686.095	12301.51
686.443	12301.74
686.79	12297.67
687.138	12159.14
687.485	12243.21
687.832	12117.34
688.18	12139.26
688.527	12086.38
688.874	12094.74
689.221	12034.85
689.568	11964.35
689.915	11904.01
690.262	11945.82
690.609	11935.87
690.956	11905.59
691.303	11828.76
691.65	11819.49
691.997	11848.42
692.344	11755.54
692.69	11702.88
693.037	11716.22
693.383	11681.64
693.73	11664.24
694.077	11533.62
694.423	11581.53
694.769	11451.14
695.116	11418.82
695.462	11405.94
695.808	11386.51
696.155	11365.72
696.501	11270.35
696.847	11250.92
697.193	11231.03
697.539	11166.4
697.885	11131.15
698.231	11101.77
698.577	11069.91
698.923	11082.34
699.269	10951.49
699.614	10939.74
699.96	10874.88
700.306	10867.2
700.651	10808.67
700.997	10752.17
701.342	10754.43
701.688	10750.59
702.033	10688
702.379	10640.09
702.724	10596.92
703.069	10639.64
703.415	10489.81
703.76	10537.04
704.105	10453.2
704.45	10438.74
704.795	10373.65
705.14	10350.15
705.485	10320.77
705.83	10271.51
706.175	10290.72
706.52	10274.22
706.865	10234.22
707.209	10197.39
707.554	10150.83
707.899	10165.52
708.243	10095.24
708.588	10132.98
708.932	10001.01
709.277	10049.82
709.621	9961.46
709.966	9962.82
710.31	9998.07
710.654	9867.45
710.998	9913.78
711.342	9862.25
711.687	9807.12
712.031	9804.63
712.375	9710.39
712.719	9824.97
713.063	9743.16
713.407	9746.78
713.75	9721.24
714.094	9657.74
714.438	9613.22
714.782	9707.23
715.125	9627.91
715.469	9667.68
715.812	9632.43
716.156	9540
716.499	9565.09
716.843	9591.08
717.186	9492.1
717.53	9565.31
717.873	9538.65
718.216	9574.13
718.559	9507.91
718.902	9473.56
719.246	9432.89
719.589	9423.4
719.932	9380.23
720.275	9375.04
720.617	9388.37
720.96	9410.74
721.303	9427.01
721.646	9336.84
721.989	9323.96
722.331	9318.31
722.674	9297.07
723.016	9301.37
723.359	9301.82
723.701	9277.86
724.044	9230.18
724.386	9173.46
724.729	9288.03
725.071	9251.65
725.413	9263.63
725.755	9238.09
726.097	9257.3
726.439	9171.43
726.782	9192.89
727.124	9203.52
727.465	9117.42
727.807	9199
728.149	9105.21
728.491	9181.59
728.833	9152.44
729.175	9053.01
729.516	9043.52
729.858	9095.27
730.199	9097.76
730.541	9147.92
730.882	9045.55
731.224	9123.29
731.565	9053.24
731.906	9095.95
732.248	9055.04
732.589	9017.98
732.93	9018.89
733.271	9080.35
733.612	9095.72
733.953	9100.47
734.294	8987.02
734.635	9031.77
734.976	9065.89
735.317	9050.07
735.658	9065.89
735.999	9122.16
736.339	9098.21
736.68	9085.33
737.021	9075.83
737.361	9090.75
737.702	9127.58
738.042	9120.35
738.383	9078.77
738.723	9061.82
739.063	9137.75
739.404	9183.85
739.744	9108.15
740.084	9122.16
740.424	9125.1
740.764	9176.4
741.104	9211.2
741.444	9148.6
741.784	9140.92
742.124	9241.25
742.464	9214.14
742.804	9249.39
743.143	9189.28
743.483	9211.88
743.823	9227.24
744.162	9321.03
744.502	9356.96
744.841	9290.52
745.181	9302.72
745.52	9404.41
745.86	9409.39
746.199	9478.54
746.538	9517.86
746.877	9544.98
747.216	9556.73
747.556	9649.38
747.895	9648.25
748.234	9751.3
748.573	9805.08
748.911	9865.64
749.25	9895.25
749.589	9964.4
749.928	10039.65
750.267	10104.28
750.605	10158.97
750.944	10135.92
751.283	10233.09
751.621	10333.65
751.96	10368.68
752.298	10441
752.636	10637.83
752.975	10631.73
753.313	10710.37
753.651	10875.34
753.989	10932.28
754.327	10970.7
754.666	11117.59
755.004	11290.69
755.342	11300.86
755.679	11464.02
756.017	11649.78
756.355	11720.96
756.693	11853.61
757.031	12085.02
757.368	12138.58
757.706	12298.8
758.044	12347.16
758.381	12508.29
