Data from hue_10_FLMS001491_45.txt Node
Date: Mon Feb 06 15:31:58 GMT 2017
User: dcchb
Spectrometer: FLMS00149
Trigger mode: 0
Integration Time (sec): 2.000000E-2
Scans to average: 10
Electric dark correction enabled: true
Nonlinearity correction enabled: false
Boxcar width: 0
XAxis mode: Wavelengths
Number of Pixels in Spectrum: 2048
>>>>>Begin Spectral Data<<<<<
341.393	-27.78
341.776	-27.78
342.16	-27.78
342.543	-61.68
342.927	-77.27
343.31	-62.81
343.693	-83.37
344.077	-62.13
344.46	-65.29
344.843	-54.22
345.226	-45.41
345.61	-54.9
345.993	-5.41
346.376	-2.47
346.759	11.77
347.142	17.41
347.525	54.7
347.908	61.71
348.291	80.24
348.674	102.16
349.057	108.03
349.44	126.79
349.823	140.35
350.206	160.01
350.588	190.97
350.971	229.61
351.354	253.34
351.737	214.7
352.119	237.75
352.502	262.38
352.884	267.8
353.267	281.36
353.65	288.82
354.032	292.44
354.414	309.61
354.797	313.23
355.179	303.51
355.562	313
355.944	341.02
356.326	326.56
356.709	308.25
357.091	333.11
357.473	341.93
357.855	347.58
358.238	329.27
358.62	309.61
359.002	343.51
359.384	331.53
359.766	338.76
360.148	319.33
360.53	323.17
360.912	352.55
361.294	330.17
361.676	321.14
362.057	327.01
362.439	330.63
362.821	328.37
363.203	336.73
363.584	317.97
363.966	321.14
364.348	297.63
364.729	326.79
365.111	322.49
365.493	319.33
365.874	311.87
366.256	316.39
366.637	303.96
367.019	283.62
367.4	322.27
367.781	304.64
368.163	298.99
368.544	290.4
368.925	310.74
369.306	326.11
369.688	325.43
370.069	311.19
370.45	284.07
370.831	298.31
371.212	320.01
371.593	324.75
371.974	327.24
372.355	314.58
372.736	304.41
373.117	303.06
373.498	305.54
373.879	314.58
374.26	302.83
374.641	291.31
375.021	319.1
375.402	320.23
375.783	336.28
376.163	316.16
376.544	334.92
376.925	308.93
377.305	313.9
377.686	316.84
378.066	324.75
378.447	303.28
378.827	334.02
379.208	325.88
379.588	327.92
379.968	314.58
380.349	336.28
380.729	313.23
381.109	337.18
381.489	322.49
381.87	327.69
382.25	323.85
382.63	320.68
383.01	324.3
383.39	310.51
383.77	340.57
384.15	333.34
384.53	356.84
384.91	327.92
385.29	327.46
385.67	338.08
386.049	337.63
386.429	334.92
386.809	332.43
387.189	331.76
387.568	346.9
387.948	360
388.328	365.2
388.707	357.52
389.087	344.64
389.466	371.98
389.846	362.26
390.225	354.36
390.605	343.28
390.984	351.19
391.363	365.43
391.743	370.85
392.122	356.61
392.501	365.65
392.881	352.77
393.26	357.52
393.639	354.36
394.018	368.59
394.397	364.52
394.776	363.62
395.155	371.76
395.534	367.01
395.913	364.07
396.292	366.11
396.671	363.39
397.05	391.19
397.429	374.24
397.808	356.16
398.186	364.07
398.565	376.28
398.944	361.36
399.323	377.18
399.701	365.43
400.08	360.23
400.458	368.37
400.837	401.13
401.215	390.51
401.594	359.33
401.972	386.9
402.351	391.42
402.729	395.71
403.107	398.42
403.486	395.94
403.864	383.51
404.242	406.33
404.62	400.23
404.999	375.6
405.377	403.62
405.755	400
406.133	407.69
406.511	413.11
406.889	408.36
407.267	414.24
407.645	404.98
408.023	421.25
408.401	413.34
408.779	407.46
409.156	417.63
409.534	430.74
409.912	409.04
410.29	430.06
410.667	402.72
411.045	436.84
411.422	421.47
411.8	436.16
412.178	427.57
412.555	444.97
412.933	440
413.31	445.43
413.687	456.95
414.065	442.26
414.442	444.3
414.819	464.63
415.197	461.7
415.574	466.22
415.951	459.66
416.328	463.96
416.705	456.5
417.082	464.86
417.46	476.39
417.837	474.8
418.214	463.5
418.591	477.06
418.967	475.03
419.344	480.23
419.721	466.44
420.098	468.25
420.475	479.32
420.852	492.66
421.228	494.24
421.605	481.58
421.982	500.57
422.358	510.74
422.735	498.76
423.111	510.28
423.488	498.08
423.864	508.7
424.241	506.67
424.617	522.03
424.994	501.92
425.37	513.22
425.746	520.45
426.123	529.49
426.499	548.25
426.875	521.36
427.251	530.85
427.627	521.58
428.003	536.72
428.379	532.88
428.756	530.62
429.132	532.88
429.507	574.69
429.883	558.19
430.259	574.69
430.635	571.07
431.011	568.13
431.387	567
431.763	588.02
432.138	597.06
432.514	588.47
432.89	574.91
433.265	589.38
433.641	587.8
434.016	586.44
434.392	620.11
434.767	619.88
435.143	613.78
435.518	629.6
435.894	625.53
436.269	633.67
436.644	632.99
437.02	629.6
437.395	642.94
437.77	656.04
438.145	650.39
438.52	644.29
438.895	670.73
439.271	666.66
439.646	658.08
440.021	678.19
440.395	676.61
440.77	682.71
441.145	714.12
441.52	704.63
441.895	657.4
442.27	689.49
442.645	686.55
443.019	701.92
443.394	718.87
443.769	720.45
444.143	704.4
444.518	727.23
444.892	711.18
445.267	715.93
445.641	739.2
446.016	738.07
446.39	737.62
446.764	720.9
447.139	736.04
447.513	743.5
447.887	728.81
448.262	756.83
448.636	755.25
449.01	745.53
449.384	766.32
449.758	743.5
450.132	776.94
450.506	761.35
450.88	768.36
451.254	768.58
451.628	810.84
452.002	757.51
452.376	757.28
452.75	783.95
453.123	804.74
453.497	827.79
453.871	816.94
454.244	812.42
454.618	818.07
454.992	827.79
455.365	850.39
455.739	833.89
456.112	856.71
456.486	867.79
456.859	870.5
457.232	873.21
457.606	868.69
457.979	880.89
458.352	891.52
458.725	899.88
459.099	915.7
459.472	929.93
459.845	907.79
460.218	947.33
460.591	939.2
460.964	965.19
461.337	952.98
461.71	964.51
462.083	1000.21
462.456	988.46
462.829	989.59
463.201	996.15
463.574	987.56
463.947	1011.96
464.32	1038.18
464.692	1024.85
465.065	1050.38
465.438	1053.77
465.81	1078.4
466.183	1081.12
466.555	1098.52
466.928	1113.21
467.3	1119.98
467.672	1143.03
468.045	1158.18
468.417	1166.99
468.789	1151.4
469.161	1163.83
469.534	1211.06
469.906	1225.29
470.278	1197.04
470.65	1250.38
471.022	1242.24
471.394	1276.82
471.766	1295.8
472.138	1274.33
472.51	1342.8
472.882	1362.46
473.253	1387.55
473.625	1412.18
473.997	1399.07
474.369	1420.09
474.74	1439.52
475.112	1453.54
475.484	1478.39
475.855	1513.87
476.227	1509.8
476.598	1582.35
476.97	1579.41
477.341	1625.51
477.713	1663.02
478.084	1673.87
478.455	1698.73
478.827	1712.06
479.198	1806.75
479.569	1766.97
479.94	1790.02
480.311	1843.58
480.682	1861.21
481.053	1925.61
481.424	1990.24
481.795	1991.15
482.166	2046.97
482.537	2065.04
482.908	2078.38
483.279	2147.08
483.65	2162.67
484.021	2208.09
484.391	2224.81
484.762	2316.79
485.133	2297.81
485.503	2343
485.874	2364.02
486.244	2421.65
486.615	2494.86
486.985	2527.18
487.356	2551.36
487.726	2589.78
488.097	2655.99
488.467	2665.93
488.837	2725.14
489.207	2770.56
489.578	2790.68
489.948	2819.15
490.318	2863.89
490.688	2897.79
491.058	2904.8
491.428	2984.57
491.798	3021.86
492.168	3059.82
492.538	3080.61
492.908	3151.57
493.278	3178.46
493.648	3217.78
494.017	3254.39
494.387	3257.33
494.757	3340.49
495.126	3331.45
495.496	3382.98
495.866	3399.7
496.235	3423.2
496.605	3466.82
496.974	3466.36
497.344	3532.8
497.713	3539.36
498.082	3585
498.452	3611.9
498.821	3627.49
499.19	3677.88
499.559	3688.96
499.928	3747.94
500.298	3741.38
500.667	3797.65
501.036	3789.74
501.405	3826.13
501.774	3827.03
502.143	3862.29
502.512	3872.68
502.88	3952.68
503.249	3964.43
503.618	3941.61
503.987	4017.99
504.356	3992.23
504.724	4003.3
505.093	4009.17
505.462	4053.92
505.83	4095.5
506.199	4119.45
506.567	4110.64
506.936	4135.5
507.304	4161.03
507.672	4194.03
508.041	4195.84
508.409	4248.26
508.777	4307.92
509.145	4288.04
509.514	4273.12
509.882	4343.85
510.25	4321.03
510.618	4384.98
510.986	4332.1
511.354	4372.78
511.722	4379.79
512.09	4473.34
512.458	4411.88
512.826	4452.1
513.193	4459.78
513.561	4475.6
513.929	4503.4
514.297	4532.78
514.664	4567.35
515.032	4556.96
515.4	4596.5
515.767	4590.4
516.135	4648.71
516.502	4575.71
516.869	4648.93
517.237	4717.63
517.604	4623.17
517.972	4683.05
518.339	4682.83
518.706	4668.14
519.073	4747.01
519.44	4768.02
519.808	4808.25
520.175	4797.85
520.542	4843.5
520.909	4804.41
521.276	4796.72
521.643	4864.07
522.009	4924.86
522.376	4921.69
522.743	4935.03
523.11	4939.32
523.477	4998.75
523.843	5034.01
524.21	5008.24
524.577	5069.26
524.943	5060.45
525.31	5148.58
525.676	5174.12
526.043	5168.92
526.409	5199.88
526.776	5278.75
527.142	5262.47
527.508	5304.96
527.874	5337.27
528.241	5344.28
528.607	5343.6
528.973	5363.26
529.339	5359.65
529.705	5426.99
530.071	5460.44
530.437	5472.64
530.803	5514.45
531.169	5552.86
531.535	5545.86
531.901	5532.07
532.267	5573.88
532.632	5626.53
532.998	5648.45
533.364	5622.69
533.73	5692.07
534.095	5672.18
534.461	5730.26
534.826	5722.58
535.192	5750.37
535.557	5819.3
535.923	5828.34
536.288	5801.44
536.653	5832.4
537.019	5892.06
537.384	5893.19
537.749	5904.72
538.114	5955.11
538.479	5980.87
538.845	5977.94
539.21	5987.43
539.575	6032.4
539.94	6078.05
540.305	6098.61
540.67	6102.23
541.034	6120.76
541.399	6215.9
541.764	6188.33
542.129	6204.82
542.494	6217.25
542.858	6200.76
543.223	6271.49
543.587	6243.01
543.952	6285.95
544.316	6370.92
544.681	6307.64
545.045	6322.11
545.41	6379.06
545.774	6404.37
546.138	6454.31
546.503	6467.19
546.867	6526.85
547.231	6506.28
547.595	6581.08
547.959	6558.71
548.324	6609.11
548.688	6657.24
549.052	6697.01
549.416	6669.9
549.779	6700.18
550.143	6679.16
550.507	6738.82
550.871	6772.94
551.235	6746.28
551.599	6845.03
551.962	6829.89
552.326	6859.04
552.689	6887.52
553.053	6885.71
553.417	6867.18
553.78	7035.76
554.143	6974.52
554.507	7024.01
554.87	6944.92
555.234	7036.21
555.597	7027.63
555.96	7125.02
556.323	7087.06
556.686	7056.78
557.05	7140.17
557.413	7137.23
557.776	7160.96
558.139	7198.69
558.502	7246.6
558.865	7229.65
559.228	7270.56
559.59	7282.08
559.953	7310.1
560.316	7394.85
560.679	7384.68
561.041	7397.11
561.404	7417.22
561.767	7465.13
562.129	7409.76
562.492	7527.05
562.854	7512.13
563.217	7466.71
563.579	7553.26
563.941	7562.08
564.304	7565.24
564.666	7611.79
565.028	7778.57
565.39	7715.97
565.753	7772.24
566.115	7761.84
566.477	7770.21
566.839	7792.8
567.201	7824.44
567.563	7871.22
567.925	7932.46
568.287	7885.46
568.648	7918.45
569.01	7977.88
569.372	8073.7
569.734	8056.3
570.095	8142.17
570.457	8203.64
570.819	8199.57
571.18	8179.23
571.542	8255.16
571.903	8254.94
572.265	8302.62
572.626	8354.82
572.987	8341.94
573.349	8453.8
573.71	8487.47
574.071	8534.48
574.432	8591.43
574.794	8693.8
575.155	8717.75
575.516	8755.72
575.877	8769.95
576.238	8821.93
576.599	8954.13
576.96	9016.05
577.32	9073
577.681	9183.5
578.042	9291.75
578.403	9331.07
578.763	9384.17
579.124	9496.71
579.485	9568.12
579.845	9777.61
580.206	9762.92
580.566	9858.51
580.927	10047.89
581.287	10255.79
581.648	10252.17
582.008	10477.93
582.368	10603.35
582.728	10755.21
583.089	10893.96
583.449	11018.26
583.809	11227.52
584.169	11390.22
584.529	11581.18
584.889	11806.94
585.249	11965.12
585.609	12146.81
585.969	12484.66
586.329	12592.23
586.688	12796.51
587.048	13029.05
587.408	13296.16
587.768	13505.87
588.127	13773.21
588.487	14059.08
588.846	14337.26
589.206	14464.04
589.565	14681.66
589.925	15072.84
590.284	15346.5
590.643	15696.32
591.003	15988.07
591.362	16276.2
591.721	16534.27
592.08	16859.23
592.44	17192.56
592.799	17570.17
593.158	17880.67
593.517	18148.01
593.876	18425.52
594.235	18749.13
594.593	19025.28
594.952	19511.14
595.311	19753.39
595.67	20121.74
596.029	20487.39
596.387	20894.38
596.746	21213.24
597.104	21441.48
597.463	21857.74
597.822	22313.78
598.18	22378.86
598.538	22837.83
598.897	23224.71
599.255	23417.25
599.613	24092.49
599.972	24217
600.33	24531.57
600.688	24802.98
601.046	25232.8
601.404	25623.3
601.762	25882.5
602.12	26264.86
602.478	26683.61
602.836	26907.78
603.194	27061.9
603.552	27421.21
603.91	27731.26
604.268	28220.06
604.625	28409.21
604.983	28838.13
605.341	28871.8
605.698	29263.88
606.056	29622.29
606.413	29854.82
606.771	30083.97
607.128	30497.07
607.485	30636.95
607.843	30933.66
608.2	31316.93
608.557	31705.85
608.914	31825.84
609.272	32169.79
609.629	32512.83
609.986	32945.81
610.343	32933.84
610.7	33297.9
611.057	33523.43
611.414	33740.6
611.771	34019.91
612.127	34312.11
612.484	34495.83
612.841	34745.32
613.198	34803.62
613.554	34951.86
613.911	35342.36
614.267	35497.84
614.624	35804.95
614.98	36053.53
615.337	36333.75
615.693	36446.06
616.05	36526.51
616.406	36979.83
616.762	36874.52
617.118	37085.14
617.475	37255.31
617.831	37649.19
618.187	37660.72
618.543	37926.25
618.899	38210.99
619.255	38260.25
619.611	38454.82
619.967	38685.1
620.323	38737.53
620.678	38826.56
621.034	38941.14
621.39	39046.22
621.746	39030.85
622.101	39591.29
622.457	39255.71
622.812	39671.06
623.168	39789.02
623.523	39885.75
623.879	40022.24
624.234	39894.33
624.589	40243.48
624.945	40359.63
625.3	40470.59
625.655	40400.31
626.01	40498.16
626.365	40691.6
626.72	40655.67
627.075	40747.64
627.43	40871.93
627.785	40863.57
628.14	40903.8
628.495	41081.19
628.85	41061.76
629.205	41084.13
629.559	41299.72
629.914	41169.78
630.269	41273.28
630.623	41315.31
630.978	41246.61
631.332	41496.32
631.687	41521.63
632.041	41359.38
632.396	41585.59
632.75	41485.7
633.104	41465.59
633.459	41301.53
633.813	41574.74
634.167	41560.5
634.521	41555.53
634.875	41748.97
635.229	41532.03
635.583	41546.49
635.937	41561.18
636.291	41692.03
636.645	41547.62
636.999	41580.84
637.352	41663.33
637.706	41320.96
638.06	41585.59
638.413	41510.11
638.767	41480.05
639.121	41660.61
639.474	41387.63
639.828	41506.95
640.181	41547.62
640.534	41661.52
640.888	41524.8
641.241	41279.61
641.594	41444.8
641.947	41576.32
642.301	41523.44
642.654	41402.54
643.007	41481.86
643.36	41466.04
643.713	41500.17
644.066	41655.87
644.419	41357.34
644.771	41099.72
645.124	40726.85
645.477	40738.15
645.83	40556.91
646.182	40399.4
646.535	40294.1
646.888	40457.71
647.24	40108.34
647.593	40371.16
647.945	40271.95
648.298	40065.85
648.65	40023.14
649.002	39916.7
649.355	40191.73
649.707	40145.85
650.059	40261.33
650.411	40817.25
650.763	40702.22
651.115	41177.69
651.467	41071.93
651.819	41151.93
652.171	40959.16
652.523	40800.75
652.875	40837.13
653.227	40792.16
653.578	41066.96
653.93	40931.59
654.282	40894.53
654.633	40814.53
654.985	40779.51
655.337	40801.43
655.688	40760.98
656.039	41085.04
656.391	40697.7
656.742	40604.14
657.094	40815.89
657.445	40817.25
657.796	40761.2
658.147	40653.86
658.498	40770.02
658.849	40766.17
659.2	40662.67
659.551	40732.95
659.902	40800.07
660.253	40719.85
660.604	40885.04
660.955	40589
661.306	40922.33
661.656	40737.02
662.007	40601.21
662.358	40614.31
662.708	40626.97
663.059	40605.5
663.409	40336.81
663.76	40674.2
664.11	40699.73
664.461	40656.57
664.811	40650.47
665.161	40696.57
665.511	40491.83
665.862	40551.49
666.212	40693.86
666.562	40716.23
666.912	40650.02
667.262	40552.17
667.612	40514.2
667.962	40669
668.312	40587.65
668.662	40802.56
669.011	40656.57
669.361	40415.9
669.711	40437.82
670.06	40396.47
670.41	40330.48
670.76	40203.02
671.109	40549.91
671.459	40432.62
671.808	40280.76
672.157	40463.36
672.507	40203.02
672.856	40213.19
673.205	40276.7
673.554	40450.93
673.904	40135
674.253	40487.76
674.602	40208.67
674.951	39740.66
675.3	39598.07
675.649	40040.54
675.998	40029.47
676.346	40006.19
676.695	40212.52
677.044	39937.95
677.393	39999.87
677.741	40135.23
678.09	39975.91
678.438	39997.83
678.787	39935.46
679.135	40030.15
679.484	39819.98
679.832	39869.47
680.181	39677.16
680.529	39775.01
680.877	39771.17
681.225	39693.21
681.573	39938.85
681.922	39638.29
682.27	39434.01
682.618	39580.67
682.966	39485.3
683.314	39540.67
683.661	39363.5
684.009	39299.77
684.357	39132.32
684.705	38984.07
685.053	39071.08
685.4	38901.59
685.748	38884.42
686.095	38922.15
686.443	38756.51
686.79	38712.22
687.138	38851.2
687.485	38766.9
687.832	38642.16
688.18	38668.6
688.527	38381.6
688.874	38366.24
689.221	38401.94
689.568	38362.4
689.915	38311.55
690.262	38218.44
690.609	37970.32
690.956	38035.62
691.303	37874.5
691.65	37832.01
691.997	37700.94
692.344	37533.26
692.69	37497.79
693.037	37703.66
693.383	37227.74
693.73	37256.21
694.077	37049.89
694.423	37148.87
694.769	36923.79
695.116	36858.71
695.462	36662.1
695.808	36842.89
696.155	36805.15
696.501	36607.64
696.847	36518.38
697.193	36373.97
697.539	36404.03
697.885	36151.83
698.231	36043.59
698.577	36051.27
698.923	36114.77
699.269	35856.25
699.614	35606.99
699.96	35636.59
700.306	35666.65
700.651	35548.01
700.997	35440.89
701.342	35336.26
701.688	35285.64
702.033	35265.3
702.379	35092.2
702.724	35093.78
703.069	35112.76
703.415	34659.44
703.76	34713.45
704.105	34704.86
704.45	34752.09
704.795	34447.47
705.14	34359.56
705.485	34338.55
705.83	34206.12
706.175	34185.56
706.52	34034.83
706.865	33972.68
707.209	33931.33
707.554	33775.85
707.899	33933.81
708.243	33771.56
708.588	33637.55
708.932	33449.53
709.277	33479.59
709.621	33488.63
709.966	33345.58
710.31	33394.16
710.654	33081.86
710.998	33048.86
711.342	33049.31
711.687	32920.96
712.031	32883.67
712.375	32836.44
712.719	32874.18
713.063	32884.12
713.407	32794.63
713.75	32723.67
714.094	32607.07
714.438	32514.19
714.782	32561.19
715.125	32410.91
715.469	32506.73
715.812	32179.28
716.156	32075.1
716.499	31993.07
716.843	32071.04
717.186	31958.72
717.53	32057.48
717.873	32048.89
718.216	31969.34
718.559	31777.94
718.902	31626.3
719.246	31686.86
719.589	31675.79
719.932	31506.98
720.275	31576.81
720.617	31315.35
720.96	31324.16
721.303	31410.71
721.646	31421.11
721.989	31170.04
722.331	31223.83
722.674	31196.48
723.016	31194.9
723.359	31186.09
723.701	31207.33
724.044	30845.53
724.386	30687.79
724.729	30892.99
725.071	30743.84
725.413	30780.22
725.755	30688.7
726.097	30563.5
726.439	30380.23
726.782	30523.51
727.124	30656.38
727.465	30407.35
727.807	30353.79
728.149	30251.65
728.491	30264.76
728.833	30222.72
729.175	30061.14
729.516	30100.92
729.858	30140.46
730.199	30104.53
730.541	29982.5
730.882	30025.67
731.224	30062.5
731.565	29818.89
731.906	29892.34
732.248	29890.53
732.589	29704.09
732.93	29536.64
733.271	29619.57
733.612	29614.15
733.953	29733.92
734.294	29550.2
734.635	29485.11
734.976	29526.02
735.317	29269.53
735.658	29410.54
735.999	29324.21
736.339	29336.19
736.68	29413.25
737.021	29235.18
737.361	29134.16
737.702	29278.34
738.042	29148.17
738.383	29058.23
738.723	29081.74
739.063	29006.71
739.404	29079.93
739.744	28938.24
740.084	28856.2
740.424	28862.08
740.764	28774.62
741.104	28803.78
741.444	28642.2
741.784	28604.69
742.124	28638.58
742.464	28600.84
742.804	28577.34
743.143	28458.93
743.483	28528.76
743.823	28346.61
744.162	28298.03
744.502	28449.44
744.841	28282.66
745.181	28394.97
745.52	28231.36
745.86	28203.11
746.199	28148.43
746.538	28259.16
746.877	28257.35
747.216	28160.4
747.556	28012.84
747.895	28133.96
748.234	27954.99
748.573	27941.43
748.911	27896.91
749.25	27892.61
749.589	27788.44
749.928	27761.32
750.267	27864.37
750.605	27627.08
750.944	27691.72
751.283	27477.48
751.621	27654.43
751.96	27363.59
752.298	27542.57
752.636	27345.51
752.975	27330.14
753.313	27241.78
753.651	27345.06
753.989	27298.05
754.327	27123.82
754.666	26932.87
755.004	27025.29
755.342	27095.35
755.679	26844.73
756.017	26840.44
756.355	26902.58
756.693	26717.5
757.031	26757.95
757.368	26711.63
757.706	26641.35
758.044	26535.81
758.381	26712.53
758.719	26472.99
759.056	26467.34
759.394	26405.2
759.731	26274.13
760.068	26183.51
760.405	26069.39
760.743	26090.85
761.08	26048.59
761.417	25913.46
