Data from hue_330_FLMS001491_82.txt Node
Date: Mon Feb 06 15:46:02 GMT 2017
User: dcchb
Spectrometer: FLMS00149
Trigger mode: 0
Integration Time (sec): 2.000000E-2
Scans to average: 10
Electric dark correction enabled: true
Nonlinearity correction enabled: false
Boxcar width: 0
XAxis mode: Wavelengths
Number of Pixels in Spectrum: 2048
>>>>>Begin Spectral Data<<<<<
341.393	-6.06
341.776	-6.06
342.16	-6.06
342.543	-71.59
342.927	-56.91
343.31	-71.37
343.693	-66.85
344.077	-56
344.46	-66.17
344.843	-57.13
345.226	-64.36
345.61	-37.7
345.993	-6.06
346.376	1.85
346.759	18.8
347.142	27.61
347.525	27.16
347.908	81.4
348.291	81.62
348.674	88.18
349.057	99.02
349.44	135.86
349.823	147.84
350.206	179.47
350.588	211.34
350.971	217.66
351.354	226.7
351.737	243.2
352.119	276.65
352.502	266.02
352.884	275.74
353.267	279.36
353.65	306.47
354.032	306.25
354.414	303.09
354.797	306.93
355.179	336.98
355.562	325.91
355.944	341.5
356.326	330.43
356.709	343.54
357.091	344.67
357.473	338.79
357.855	346.02
358.238	341.5
358.62	335.63
359.002	351.45
359.384	324.55
359.766	354.84
360.148	358.9
360.53	364.33
360.912	325.68
361.294	348.28
361.676	333.37
362.057	354.84
362.439	329.53
362.821	324.55
363.203	313.03
363.584	312.58
363.966	332.24
364.348	338.56
364.729	330.43
365.111	334.72
365.493	332.91
365.874	303.31
366.256	298.79
366.637	323.42
367.019	329.75
367.4	322.52
367.781	320.49
368.163	313.25
368.544	323.2
368.925	304.44
369.306	329.53
369.688	307.38
370.069	324.1
370.45	302.86
370.831	310.09
371.212	323.65
371.593	322.75
371.974	340.37
372.355	313.48
372.736	339.47
373.117	343.99
373.498	317.32
373.879	309.19
374.26	324.33
374.641	318.68
375.021	320.71
375.402	341.73
375.783	336.76
376.163	341.73
376.544	357.1
376.925	326.81
377.305	337.21
377.686	315.74
378.066	345.12
378.447	329.53
378.827	332.01
379.208	355.06
379.588	336.08
379.968	334.72
380.349	321.62
380.729	351.67
381.109	339.24
381.489	348.28
381.87	346.25
382.25	353.71
382.63	336.76
383.01	348.28
383.39	354.38
383.77	355.29
384.15	341.95
384.53	363.87
384.91	337.43
385.29	364.1
385.67	346.47
386.049	350.77
386.429	350.32
386.809	341.5
387.189	358.23
387.568	329.75
387.948	385.57
388.328	357.32
388.707	379.02
389.087	344.44
389.466	362.29
389.846	373.14
390.225	386.25
390.605	383.54
390.984	367.04
391.363	377.43
391.743	380.6
392.122	360.48
392.501	368.62
392.881	378.11
393.26	390.54
393.639	376.3
394.018	389.18
394.397	409.98
394.776	392.8
395.155	388.96
395.534	387.38
395.913	416.75
396.292	395.51
396.671	402.07
397.05	414.27
397.429	403.42
397.808	402.97
398.186	397.09
398.565	394.16
398.944	420.6
399.323	403.2
399.701	406.81
400.08	419.92
400.458	406.36
400.837	410.43
401.215	414.95
401.594	412.69
401.972	410.2
402.351	428.05
402.729	414.72
403.107	432.57
403.486	442.06
403.864	442.29
404.242	408.85
404.62	425.79
404.999	433.03
405.377	436.64
405.755	428.05
406.133	436.87
406.511	453.59
406.889	463.76
407.267	443.65
407.645	461.95
408.023	456.75
408.401	485
408.779	465.34
409.156	467.6
409.534	460.82
409.912	477.09
410.29	496.75
410.667	493.36
411.045	493.59
411.422	515.28
411.8	479.35
412.178	512.8
412.555	531.55
412.933	546.69
413.31	526.58
413.687	531.55
414.065	550.31
414.442	555.51
414.819	538.33
415.197	595.05
415.574	558.9
415.951	573.13
416.328	565.45
416.705	591.21
417.082	579.91
417.46	595.51
417.837	610.2
418.214	610.42
418.591	600.25
418.967	618.11
419.344	627.82
419.721	625.79
420.098	635.73
420.475	662.17
420.852	633.92
421.228	660.59
421.605	633.25
421.982	668.27
422.358	674.6
422.735	657.43
423.111	673.7
423.488	680.48
423.864	693.36
424.241	676.86
424.617	726.35
424.994	707.82
425.37	731.55
425.746	732.68
426.123	727.48
426.499	748.95
426.875	764.77
427.251	746.24
427.627	757.08
428.003	752.11
428.379	778.55
428.756	796.63
429.132	793.47
429.507	796.63
429.883	813.81
430.259	841.83
430.635	832.79
431.011	822.17
431.387	851.77
431.763	861.26
432.138	860.58
432.514	866.69
432.89	887.25
433.265	890.19
433.641	884.76
434.016	893.8
434.392	933.35
434.767	935.16
435.143	945.33
435.518	942.39
435.894	958.44
436.269	991.88
436.644	976.74
437.02	960.92
437.395	986.23
437.77	988.26
438.145	1006.8
438.52	1023.52
438.895	1019.9
439.271	1029.17
439.646	1052.9
440.021	1039.79
440.395	1065.55
440.77	1010.86
441.145	1053.12
441.52	1091.09
441.895	1080.01
442.27	1092.44
442.645	1070.3
443.019	1068.49
443.394	1090.86
443.769	1080.92
444.143	1113.69
444.518	1118.88
444.892	1126.11
445.267	1125.44
445.641	1110.97
446.016	1121.82
446.39	1118.66
446.764	1141.26
447.139	1149.62
447.513	1175.6
447.887	1154.59
448.262	1152.78
448.636	1136.28
449.01	1191.2
449.384	1195.49
449.758	1175.6
450.132	1188.03
450.506	1211.54
450.88	1193.46
451.254	1206.34
451.628	1208.6
452.002	1208.6
452.376	1237.75
452.75	1242.27
453.123	1265.32
453.497	1237.75
453.871	1272.33
454.244	1275.94
454.618	1284.75
454.992	1316.39
455.365	1298.09
455.739	1338.09
456.112	1301.7
456.486	1323.62
456.859	1314.13
457.232	1373.34
457.606	1355.03
457.979	1369.27
458.352	1394.58
458.725	1416.95
459.099	1427.35
459.472	1415.15
459.845	1419.21
460.218	1473.9
460.591	1465.77
460.964	1447.24
461.337	1479.78
461.71	1506.22
462.083	1525.88
462.456	1557.52
462.829	1531.08
463.201	1530.85
463.574	1552.32
463.947	1561.36
464.32	1592.32
464.692	1612.66
465.065	1621.02
465.438	1620.79
465.81	1623.05
466.183	1664.41
466.555	1671.18
466.928	1676.61
467.3	1689.04
467.672	1697.17
468.045	1727.68
468.417	1735.36
468.789	1754.35
469.161	1770.17
469.534	1810.84
469.906	1822.37
470.278	1845.64
470.65	1860.11
471.022	1879.99
471.394	1933.32
471.766	1894.68
472.138	1949.6
472.51	1965.41
472.882	1972.87
473.253	2004.28
473.625	2028.69
473.997	2091.06
474.369	2063.49
474.74	2089.03
475.112	2134.22
475.484	2128.8
475.855	2185.3
476.227	2183.26
476.598	2215.13
476.97	2261.68
477.341	2292.19
477.713	2313.43
478.084	2353.88
478.455	2415.12
478.827	2396.14
479.198	2439.75
479.569	2422.8
479.94	2504.84
480.311	2504.16
480.682	2590.48
481.053	2638.39
481.424	2661.89
481.795	2665.51
482.166	2702.34
482.537	2715.23
482.908	2782.79
483.279	2804.49
483.65	2826.18
484.021	2859.4
484.391	2950.47
484.762	2940.76
485.133	2944.37
485.503	3016.69
485.874	3061.66
486.244	3082.22
486.615	3138.72
486.985	3129.68
487.356	3206.06
487.726	3232.73
488.097	3240.18
488.467	3277.7
488.837	3311.82
489.207	3353.63
489.578	3388.65
489.948	3387.75
490.318	3445.38
490.688	3460.52
491.058	3567.41
491.428	3561.3
491.798	3598.14
492.168	3660.51
492.538	3656.67
492.908	3707.52
493.278	3777.34
493.648	3740.51
494.017	3789.32
494.387	3809.43
494.757	3843.78
495.126	3895.99
495.496	3851.47
495.866	3944.12
496.235	3927.17
496.605	3955.19
496.974	3970.79
497.344	4000.16
497.713	4072.7
498.082	4068.41
498.452	4105.92
498.821	4119.93
499.19	4130.56
499.559	4154.06
499.928	4154.06
500.298	4197.67
500.667	4249.65
501.036	4238.35
501.405	4278.8
501.774	4293.71
502.143	4302.08
502.512	4331.45
502.88	4340.27
503.249	4377.55
503.618	4332.81
503.987	4347.27
504.356	4424.56
504.724	4448.29
505.093	4449.42
505.462	4422.07
505.83	4472.92
506.199	4451.68
506.567	4580.94
506.936	4558.11
507.304	4587.04
507.672	4569.41
508.041	4626.36
508.409	4664.33
508.777	4685.57
509.145	4703.2
509.514	4707.72
509.882	4728.05
510.25	4683.54
510.618	4733.93
510.986	4776.64
511.354	4766.7
511.722	4820.48
512.09	4844.21
512.458	4846.24
512.826	4890.76
513.193	4855.28
513.561	4893.02
513.929	4921.49
514.297	4920.36
514.664	4986.58
515.032	4949.06
515.4	4975.28
515.767	5022.74
516.135	5023.41
516.502	5008.5
516.869	5073.58
517.237	5084.88
517.604	5000.36
517.972	5075.84
518.339	5104.54
518.706	5110.64
519.073	5104.54
519.44	5188.83
519.808	5182.28
520.175	5194.48
520.542	5227.7
520.909	5274.48
521.276	5261.37
521.643	5263.18
522.009	5286.01
522.376	5332.56
522.743	5361.03
523.11	5387.7
523.477	5414.14
523.843	5404.87
524.21	5482.84
524.577	5510.41
524.943	5568.26
525.31	5568.94
525.676	5557.18
526.043	5615.04
526.409	5647.35
526.776	5689.16
527.142	5682.15
527.508	5774.35
527.874	5770.29
528.241	5784.52
528.607	5798.53
528.973	5859.55
529.339	5848.25
529.705	5932.99
530.071	5970.05
530.437	5985.87
530.803	5989.94
531.169	6035.82
531.535	5991.3
531.901	6057.06
532.267	6045.08
532.632	6049.83
532.998	6095.25
533.364	6179.31
533.73	6159.43
534.095	6177.06
534.461	6281.91
534.826	6260.89
535.192	6340.67
535.557	6339.08
535.923	6320.33
536.288	6372.76
536.653	6385.41
537.019	6382.7
537.384	6405.98
537.749	6417.5
538.114	6560.77
538.479	6485.75
538.845	6485.07
539.21	6511.06
539.575	6567.33
539.94	6623.15
540.305	6630.38
540.67	6649.36
541.034	6602.35
541.399	6700.66
541.764	6737.49
542.129	6711.05
542.494	6740.88
542.858	6803.93
543.223	6829.47
543.587	6839.18
543.952	6900.2
544.316	6846.19
544.681	6933.19
545.045	6982.68
545.41	7016.36
545.774	7030.59
546.138	7028.33
546.503	7066.07
546.867	7058.39
547.231	7188.33
547.595	7163.7
547.959	7197.59
548.324	7212.73
548.688	7208.44
549.052	7270.13
549.416	7235.11
549.779	7255.22
550.143	7251.38
550.507	7351.94
550.871	7441.88
551.235	7387.64
551.599	7392.84
551.962	7420.19
552.326	7445.5
552.689	7528.66
553.053	7461.09
553.417	7540.18
553.78	7572.27
554.143	7574.31
554.507	7595.55
554.87	7600.75
555.234	7689.11
555.597	7641.65
555.96	7710.35
556.323	7678.71
556.686	7719.39
557.05	7780.63
557.413	7749.44
557.776	7752.15
558.139	7832.6
558.502	7864.69
558.865	7885.26
559.228	7957.35
559.59	8019.27
559.953	7926.84
560.316	8033.96
560.679	8009.32
561.041	8113.28
561.404	8087.06
561.767	8085.25
562.129	8141.3
562.492	8168.87
562.854	8213.84
563.217	8223.78
563.579	8214.74
563.941	8232.14
564.304	8278.47
564.666	8385.13
565.028	8327.06
565.39	8390.33
565.753	8419.71
566.115	8422.65
566.477	8416.32
566.839	8527.73
567.201	8565.01
567.563	8490.44
567.925	8612.47
568.287	8679.14
568.648	8662.19
569.01	8693.6
569.372	8759.59
569.734	8714.62
570.095	8693.37
570.457	8836.65
570.819	8859.92
571.18	8859.02
571.542	8909.64
571.903	8927.72
572.265	9007.49
572.626	9059.47
572.987	9076.19
573.349	9113.48
573.71	9217.43
574.071	9221.49
574.432	9253.13
574.794	9415.16
575.155	9414.26
575.516	9425.56
575.877	9505.78
576.238	9555.95
576.599	9648.83
576.96	9686.57
577.32	9822.38
577.681	9879.78
578.042	9946
578.403	9971.76
578.763	10069.83
579.124	10177.85
579.485	10356.83
579.845	10401.8
580.206	10543.04
580.566	10648.35
580.927	10763.6
581.287	10834.11
581.648	10950.26
582.008	11109.81
582.368	11190.93
582.728	11346.64
583.089	11551.83
583.449	11657.14
583.809	11810.81
584.169	12024.13
584.529	12192.49
584.889	12475.87
585.249	12571.46
585.609	12738.46
585.969	13047.16
586.329	13113.82
586.688	13375.51
587.048	13631.55
587.408	13688.95
587.768	13960.81
588.127	14182.95
588.487	14459.55
588.846	14787.45
589.206	15005.98
589.565	15218.4
589.925	15534.78
590.284	15663.81
590.643	16032.84
591.003	16332.95
591.362	16509.89
591.721	16768.19
592.08	16977.9
592.44	17393.94
592.799	17619.92
593.158	17912.57
593.517	18147.14
593.876	18397.98
594.235	18647.91
594.593	19035.93
594.952	19348.01
595.311	19619.41
595.67	19916.58
596.029	20300.3
596.387	20571.48
596.746	20885.59
597.104	21038.81
597.463	21290.56
597.822	21769.41
598.18	21898.68
598.538	22280.36
598.897	22612.1
599.255	22635.15
599.613	23221.8
599.972	23415.7
600.33	23675.58
600.688	23899.07
601.046	24205.73
601.404	24559.85
601.762	24772.27
602.12	25185.59
602.478	25465.59
602.836	25711.68
603.194	25807.27
603.552	26133.14
603.91	26230.09
604.268	26783.97
604.625	26828.04
604.983	27262.83
605.341	27328.82
605.698	27724.06
606.056	28054.9
606.413	28176.25
606.771	28500.99
607.128	28642
607.485	28746.18
607.843	29107.75
608.2	29434.52
608.557	29650.79
608.914	29756.77
609.272	30117.22
609.629	30260.26
609.986	30562.63
610.343	30592.91
610.7	31190.63
611.057	31118.77
611.414	31407.35
611.771	31553.34
612.127	31848.92
612.484	32000.1
612.841	32266.99
613.198	32368.46
613.554	32471.05
613.911	32852.06
614.267	33066.07
614.624	33140.19
614.98	33239.17
615.337	33666.28
615.693	33669.21
616.05	33670.12
616.406	34080.05
616.762	33959.6
617.118	34219.26
617.475	34416.31
617.831	34516.42
618.187	34711.45
618.543	34900.37
618.899	35176.97
619.255	35167.25
619.611	35243.41
619.967	35556.62
620.323	35788.03
620.678	35711.42
621.034	35706.22
621.39	35895.37
621.746	35761.81
622.101	36356.6
622.457	36275.25
622.812	36303.72
623.168	36434.11
623.523	36487.67
623.879	36746.65
624.234	36499.42
624.589	36834.33
624.945	36957.49
625.3	36975.12
625.655	37036.58
626.01	37096.69
626.365	37171.27
626.72	37139.86
627.075	37253.75
627.43	37206.07
627.785	37261.21
628.14	37404.26
628.495	37573.29
628.85	37537.36
629.205	37454.42
629.559	37804.25
629.914	37715.43
630.269	37758.6
630.623	37636.79
630.978	37613.52
631.332	37903.9
631.687	38051.7
632.041	37862.1
632.396	37982.55
632.75	37763.57
633.104	38001.3
633.459	37812.83
633.813	37953.17
634.167	37973.06
634.521	38000.4
634.875	38000.85
635.229	38046.73
635.583	37836.34
635.937	37967.63
636.291	37956.11
636.645	37955.88
636.999	37951.36
637.352	38138.93
637.706	37816.22
638.06	38089.21
638.413	37940.29
638.767	37901.42
639.121	38025.26
639.474	37886.73
639.828	37913.85
640.181	37974.86
640.534	37968.31
640.888	37880.4
641.241	37773.96
641.594	37920.4
641.947	37970.57
642.301	37862.78
642.654	37912.27
643.007	37945.03
643.36	37908.88
643.713	37776.68
644.066	37924.02
644.419	37796.56
644.771	37598.38
645.124	37248.78
645.477	37249.01
645.83	36983.25
646.182	36885.4
646.535	36701
646.888	36907.55
647.24	36558.18
647.593	36767.89
647.945	36731.28
648.298	36642.24
648.65	36450.84
649.002	36506.2
649.355	36706.65
649.707	36567.67
650.059	36658.51
650.411	37193.41
650.763	37143.02
651.115	37465.95
651.467	37438.38
651.819	37522.22
652.171	37342.34
652.523	37211.72
652.875	37387.31
653.227	37196.8
653.578	37418.04
653.93	37362
654.282	37253.3
654.633	37128.56
654.985	37300.08
655.337	37258.05
655.688	37289.68
656.039	37308.67
656.391	37021.44
656.742	37042.01
657.094	37319.29
657.445	37322.9
657.796	37226.41
658.147	37200.19
658.498	37162.68
658.849	37195.9
659.2	37272.06
659.551	37012.18
659.902	37248.78
660.253	37156.13
660.604	37185.96
660.955	36898.73
661.306	37106.86
661.656	37032.06
662.007	37048.33
662.358	37166.52
662.708	37037.94
663.059	37004.72
663.409	36940.54
663.76	37132.4
664.11	36895.8
664.461	37166.75
664.811	37091.95
665.161	37041.55
665.511	36921.78
665.862	37090.14
666.212	37096.47
666.562	37034.1
666.912	37098.5
667.262	36869.81
667.612	36963.36
667.962	36943.25
668.312	36849.69
668.662	37010.14
669.011	36909.13
669.361	36917.49
669.711	36755.01
670.06	36738.74
670.41	36722.92
670.76	36848.34
671.109	36950.26
671.459	36888.79
671.808	36847.66
672.157	36857.83
672.507	36704.16
672.856	36799.07
673.205	36681.79
673.554	37072.29
673.904	36653.54
674.253	36841.11
674.602	36803.14
674.951	36344.4
675.3	36013.56
675.649	36688.8
675.998	36610.15
676.346	36494
676.695	36792.75
677.044	36447.67
677.393	36591.17
677.741	36584.17
678.09	36391.85
678.438	36458.74
678.787	36565.63
679.135	36427.33
679.484	36172.65
679.832	36450.61
680.181	36310.5
680.529	36360.67
680.877	36187.57
681.225	36160
681.573	36327
681.922	36086.33
682.27	36083.16
682.618	36049.49
682.966	35846.11
683.314	35993.45
683.661	35886.78
684.009	35670.29
684.357	35553.68
684.705	35582.84
685.053	35697.86
685.4	35726.11
685.748	35440.92
686.095	35513.01
686.443	35434.36
686.79	35297.65
687.138	35209.74
687.485	35214.48
687.832	35161.6
688.18	35260.36
688.527	35056.52
688.874	34972
689.221	34983.53
689.568	34896.07
689.915	34820.14
690.262	34754.16
690.609	34651.33
690.956	34607.49
691.303	34582.41
691.65	34412.92
691.997	34508.74
692.344	34247.73
692.69	34153.04
693.037	34231.91
693.383	33982.2
693.73	34151.23
694.077	33901.07
694.423	33815.42
694.769	33833.05
695.116	33790.34
695.462	33547.86
695.808	33630.12
696.155	33612.72
696.501	33399.84
696.847	33270.58
697.193	33349.9
697.539	33263.12
697.885	33076.23
698.231	32894.54
698.577	32907.2
698.923	32821.55
699.269	32722.8
699.614	32577.72
699.96	32513.99
700.306	32476.25
700.651	32390.6
700.997	32326.88
701.342	32222.25
701.688	32258.86
702.033	32088.01
702.379	32036.04
702.724	32022.03
703.069	32076.26
703.415	31650.96
703.76	31648.7
704.105	31624.52
704.45	31652.54
704.795	31447.8
705.14	31483.96
705.485	31425.43
705.83	31149.05
706.175	31251.65
706.52	31084.87
706.865	31176.4
707.209	30924.2
707.554	30933.01
707.899	31015.72
708.243	30897.99
708.588	30988.38
708.932	30538.67
709.277	30613.02
709.621	30606.24
709.966	30464.55
710.31	30551.33
710.654	30289.64
710.998	30274.73
711.342	30300.49
711.687	30192.69
712.031	30076.09
712.375	29890.78
712.719	30015.3
713.063	29965.36
713.407	29994.51
713.75	29961.97
714.094	29783.21
714.438	29636.78
714.782	29710
715.125	29430
715.469	29578.02
715.812	29288.54
716.156	29290.57
716.499	29315.43
716.843	29194.3
717.186	29145.49
717.53	29330.12
717.873	29298.71
718.216	29223.68
718.559	29022.78
718.902	28851.04
719.246	28871.6
719.589	28853.97
719.932	28766.29
720.275	28777.14
720.617	28735.33
720.96	28709.34
721.303	28720.87
721.646	28670.7
721.989	28385.74
722.331	28523.59
722.674	28531.27
723.016	28537.37
723.359	28385.74
723.701	28413.31
724.044	28234.1
724.386	28127.66
724.729	28260.32
725.071	28126.76
725.413	27987.78
725.755	28162.24
726.097	28021.68
726.439	27917.05
726.782	27939.87
727.124	27898.07
727.465	27875.92
727.807	27782.14
728.149	27695.13
728.491	27623.95
728.833	27743.04
729.175	27528.13
729.516	27435.48
729.858	27466.44
730.199	27551.86
730.541	27449.26
730.882	27308.48
731.224	27410.17
731.565	27265.09
731.906	27266.44
732.248	27213.34
732.589	27047.47
732.93	27028.94
733.271	27007.47
733.612	27234.13
733.953	27100.35
734.294	26955.94
734.635	26908.26
734.976	26984.42
735.317	26808.6
735.658	26816.29
735.999	26803.86
736.339	26761.82
736.68	26764.08
737.021	26671.21
737.361	26550.53
737.702	26748.72
738.042	26645.67
738.383	26572.45
738.723	26576.97
739.063	26584.2
739.404	26567.25
739.744	26471.21
740.084	26414.26
740.424	26337.43
740.764	26379.46
741.104	26471.89
741.444	26282.06
741.784	26107.6
742.124	26240.03
742.464	26081.16
742.804	26117.55
743.143	26085.23
743.483	26094.72
743.823	25926.59
744.162	25937.44
744.502	25877.33
744.841	25858.8
745.181	25854.96
745.52	25827.61
745.86	25758.46
746.199	25832.81
746.538	25676.43
746.877	25655.86
747.216	25791.23
747.556	25495.64
747.895	25564.12
748.234	25548.07
748.573	25394.18
748.911	25479.15
749.25	25428.53
749.589	25225.37
749.928	25367.51
750.267	25205.93
750.605	25203.9
750.944	25247.97
751.283	25088.2
751.621	25043.23
751.96	24975.88
752.298	25002.55
752.636	24996.9
752.975	24862.89
753.313	24729.56
753.651	24940.18
753.989	24770.46
754.327	24720.07
754.666	24687.98
755.004	24706.96
755.342	24518.04
755.679	24521.66
756.017	24438.27
756.355	24483.24
756.693	24317.14
757.031	24485.73
757.368	24306.97
757.706	24213.19
758.044	24012.97
758.381	24137.71
758.719	23932.97
759.056	24035.57
759.394	23911.05
759.731	23753.09
760.068	23709.25
