Data from hue_26_FLMS001491_00047.txt Node
Date: Tue Feb 07 17:14:04 GMT 2017
User: dcchb
Spectrometer: FLMS00149
Trigger mode: 0
Integration Time (sec): 2.000000E-2
Scans to average: 10
Electric dark correction enabled: true
Nonlinearity correction enabled: false
Boxcar width: 0
XAxis mode: Wavelengths
Number of Pixels in Spectrum: 2048
>>>>>Begin Spectral Data<<<<<
341.393	-8.93
341.776	-8.93
342.16	-8.93
342.543	-53.44
342.927	-81.92
343.31	-77.85
343.693	-76.95
344.077	-71.3
344.46	-50.51
344.843	-41.24
345.226	-36.95
345.61	-45.76
345.993	-15.25
346.376	-30.17
346.759	15.48
347.142	24.52
347.525	42.37
347.908	65.42
348.291	90.28
348.674	97.96
349.057	109.94
349.44	128.02
349.823	137.74
350.206	173.44
350.588	204.4
350.971	208.47
351.354	230.84
351.737	241.24
352.119	250.73
352.502	254.12
352.884	268.58
353.267	295.02
353.65	292.76
354.032	318.3
354.414	319.2
354.797	294.57
355.179	297.51
355.562	318.52
355.944	368.92
356.326	316.04
356.709	323.72
357.091	332.53
357.473	350.84
357.855	321.91
358.238	348.35
358.62	352.19
359.002	322.14
359.384	359.43
359.766	318.97
360.148	316.94
360.53	335.92
360.912	348.58
361.294	323.27
361.676	330.73
362.057	334.12
362.439	326.66
362.821	314.23
363.203	312.2
363.584	323.04
363.966	317.84
364.348	338.18
364.729	335.25
365.111	329.6
365.493	307.45
365.874	331.63
366.256	325.75
366.637	314
367.019	311.29
367.4	300.67
367.781	328.24
368.163	325.53
368.544	319.2
368.925	316.26
369.306	319.2
369.688	324.4
370.069	316.49
370.45	317.62
370.831	317.39
371.212	309.71
371.593	317.39
371.974	302.25
372.355	329.37
372.736	321.91
373.117	294.57
373.498	299.99
373.879	319.43
374.26	315.81
374.641	303.38
375.021	315.13
375.402	319.88
375.783	312.42
376.163	316.04
376.544	327.79
376.925	338.41
377.305	311.52
377.686	329.82
378.066	329.6
378.447	330.5
378.827	331.4
379.208	351.74
379.588	321.23
379.968	355.81
380.349	333.21
380.729	346.32
381.109	335.7
381.489	338.86
381.87	328.01
382.25	339.54
382.63	336.15
383.01	358.52
383.39	349.03
383.77	337.51
384.15	336.6
384.53	348.8
384.91	333.66
385.29	350.39
385.67	333.89
386.049	344.96
386.429	353.55
386.809	365.53
387.189	353.55
387.568	348.35
387.948	360.33
388.328	370.95
388.707	370.95
389.087	362.59
389.466	366.21
389.846	362.59
390.225	352.65
390.605	370.27
390.984	378.18
391.363	364.85
391.743	371.85
392.122	349.71
392.501	366.21
392.881	372.53
393.26	382.02
393.639	376.15
394.018	389.48
394.397	399.88
394.776	361.46
395.155	375.02
395.534	378.63
395.913	362.14
396.292	388.35
396.671	374.34
397.05	379.54
397.429	369.59
397.808	415.02
398.186	373.89
398.565	376.83
398.944	403.94
399.323	395.58
399.701	407.11
400.08	423.6
400.458	408.46
400.837	378.18
401.215	403.72
401.594	380.67
401.972	398.52
402.351	407.33
402.729	402.81
403.107	406.88
403.486	376.83
403.864	411.63
404.242	410.5
404.62	411.4
404.999	416.83
405.377	415.02
405.755	410.5
406.133	412.08
406.511	405.98
406.889	421.57
407.267	438.97
407.645	436.94
408.023	442.36
408.401	418.18
408.779	431.74
409.156	427.45
409.534	433.77
409.912	420.89
410.29	432.42
410.667	429.25
411.045	463.6
411.422	476.03
411.8	484.62
412.178	457.5
412.555	474.9
412.933	465.64
413.31	452.08
413.687	484.39
414.065	454.56
414.442	471.96
414.819	474.45
415.197	474.22
415.574	467.45
415.951	462.47
416.328	488.46
416.705	489.82
417.082	485.52
417.46	485.75
417.837	506.77
418.214	477.61
418.591	478.07
418.967	503.83
419.344	532.08
419.721	509.03
420.098	493.21
420.475	506.77
420.852	521.68
421.228	517.39
421.605	538.18
421.982	526.88
422.358	536.6
422.735	539.08
423.111	540.89
423.488	536.14
423.864	540.44
424.241	561.91
424.617	561.45
424.994	535.69
425.37	544.05
425.746	549.93
426.123	584.05
426.499	546.99
426.875	574.79
427.251	561.45
427.627	572.75
428.003	574.11
428.379	585.86
428.756	576.14
429.132	598.74
429.507	565.07
429.883	598.52
430.259	608.91
430.635	603.49
431.011	591.96
431.387	621.34
431.763	604.16
432.138	633.99
432.514	631.51
432.89	650.27
433.265	645.97
433.641	641.45
434.016	676.25
434.392	661.11
434.767	672.64
435.143	660.21
435.518	650.27
435.894	636.71
436.269	678.06
436.644	696.37
437.02	694.33
437.395	697.04
437.77	707.21
438.145	696.59
438.52	697.5
438.895	707.67
439.271	709.25
439.646	744.05
440.021	712.41
440.395	735.23
440.77	721.9
441.145	737.95
441.52	757.61
441.895	750.6
442.27	749.02
442.645	756.25
443.019	747.44
443.394	749.92
443.769	764.16
444.143	782.01
444.518	761.22
444.892	788.11
445.267	789.7
445.641	781.79
446.016	771.84
446.39	778.17
446.764	798.06
447.139	789.02
447.513	794.44
447.887	802.13
448.262	792.41
448.636	797.83
449.01	812.97
449.384	844.38
449.758	813.2
450.132	819.07
450.506	828.11
450.88	851.39
451.254	856.36
451.628	874.44
452.002	853.88
452.376	852.52
452.75	864.5
453.123	894.78
453.497	867.66
453.871	892.74
454.244	896.59
454.618	920.31
454.992	921.44
455.365	914.21
455.739	941.78
456.112	954.89
456.486	941.56
456.859	921.67
457.232	983.36
457.606	965.74
457.979	967.55
458.352	1010.71
458.725	1003.25
459.099	1002.12
459.472	1042.35
459.845	1035.57
460.218	1034.66
460.591	1051.84
460.964	1058.84
461.337	1084.83
461.71	1073.98
462.083	1082.12
462.456	1111.72
462.829	1100.65
463.201	1114.66
463.574	1110.82
463.947	1120.99
464.32	1165.51
464.692	1165.28
465.065	1186.97
465.438	1196.69
465.81	1215.45
466.183	1205.51
466.555	1254.32
466.928	1238.72
467.3	1264.71
467.672	1272.17
468.045	1293.64
468.417	1306.07
468.789	1311.94
469.161	1334.32
469.534	1339.51
469.906	1369.34
470.278	1394.43
470.65	1393.52
471.022	1416.35
471.394	1450.24
471.766	1435.33
472.138	1473.29
472.51	1526.4
472.882	1496.57
473.253	1553.29
473.625	1556
473.997	1596.23
474.369	1642.78
474.74	1600.97
475.112	1657.02
475.484	1715.55
475.855	1719.39
476.227	1732.5
476.598	1778.15
476.97	1827.64
477.341	1818.6
477.713	1880.97
478.084	1905.37
478.455	1970.91
478.827	2000.96
479.198	2050
479.569	2051.13
479.94	2074.18
480.311	2091.13
480.682	2155.99
481.053	2176.78
481.424	2240.28
481.795	2279.83
482.166	2312.82
482.537	2340.62
482.908	2400.95
483.279	2439.37
483.65	2497.45
484.021	2534.96
484.391	2599.14
484.762	2615.64
485.133	2643.66
485.503	2691.12
485.874	2754.84
486.244	2803.88
486.615	2843.2
486.985	2905.8
487.356	2956.19
487.726	2978.11
488.097	3066.02
488.467	3115.29
488.837	3155.06
489.207	3209.29
489.578	3240.03
489.948	3286.13
490.318	3347.6
490.688	3361.61
491.058	3470.53
491.428	3484.09
491.798	3544.2
492.168	3600.47
492.538	3609.51
492.908	3659.23
493.278	3768.15
493.648	3703.52
494.017	3760.69
494.387	3837.3
494.757	3818.77
495.126	3885.43
495.496	3914.36
495.866	3995.49
496.235	4040.23
496.605	4067.12
496.974	4092.21
497.344	4164.3
497.713	4138.08
498.082	4209.04
498.452	4268.25
498.821	4250.17
499.19	4293.11
499.559	4342.82
499.928	4312.99
500.298	4385.99
500.667	4446.55
501.036	4428.47
501.405	4491.97
501.774	4498.3
502.143	4571.74
502.512	4582.82
502.88	4644.28
503.249	4618.97
503.618	4654
503.987	4649.71
504.356	4721.34
504.724	4742.36
505.093	4797.5
505.462	4846.09
505.83	4837.27
506.199	4874.11
506.567	4924.5
506.936	4884.73
507.304	4911.85
507.672	4971.96
508.041	5034.78
508.409	5075.23
508.777	4999.3
509.145	5056.25
509.514	5095.12
509.882	5151.62
510.25	5131.96
510.618	5130.6
510.986	5199.3
511.354	5201.78
511.722	5269.58
512.09	5264.83
512.458	5265.51
512.826	5387.09
513.193	5326.3
513.561	5369.24
513.929	5389.12
514.297	5396.58
514.664	5438.61
515.032	5442.91
515.4	5482.91
515.767	5501.21
516.135	5505.28
516.502	5479.74
516.869	5568.78
517.237	5607.65
517.604	5592.96
517.972	5690.13
518.339	5646.97
518.706	5640.19
519.073	5702.56
519.44	5741.88
519.808	5744.59
520.175	5753.41
520.542	5871.37
520.909	5824.37
521.276	5848.77
521.643	5865.27
522.009	5889.68
522.376	5936.23
522.743	5953.4
523.11	6011.48
523.477	6039.95
523.843	6046.96
524.21	6093.74
524.577	6177.35
524.943	6163.11
525.31	6178.48
525.676	6274.75
526.043	6281.53
526.409	6281.3
526.776	6385.03
527.142	6367.4
527.508	6420.96
527.874	6465.71
528.241	6417.12
528.607	6479.04
528.973	6508.87
529.339	6509.09
529.705	6587.96
530.071	6585.25
530.437	6666.15
530.803	6735.08
531.169	6716.32
531.535	6717.22
531.901	6796.09
532.267	6820.05
532.632	6875.19
532.998	6844
533.364	6912.93
533.73	6970.78
534.095	6999.48
534.461	7017.78
534.826	7064.56
535.192	7013.94
535.557	7088.97
535.923	7148.85
536.288	7098.91
536.653	7176.87
537.019	7124.9
537.384	7203.99
537.749	7229.98
538.114	7244.89
538.479	7259.58
538.845	7319.24
539.21	7245.8
539.575	7326.7
539.94	7399.47
540.305	7455.74
540.67	7406.02
541.034	7435.17
541.399	7528.05
541.764	7576.41
542.129	7592
542.494	7634.49
542.858	7632
543.223	7644.88
543.587	7760.81
543.952	7729.63
544.316	7733.92
544.681	7786.57
545.045	7840.13
545.41	7859.79
545.774	7871.09
546.138	7956.97
546.503	7893.92
546.867	7903.63
547.231	8033.57
547.595	8092.1
547.959	8074.93
548.324	8132.78
548.688	8116.51
549.052	8124.87
549.416	8072.44
549.779	8195.38
550.143	8181.37
550.507	8233.57
550.871	8354.92
551.235	8260.91
551.599	8359.22
551.962	8330.52
552.326	8350.85
552.689	8476.05
553.053	8489.83
553.417	8467.69
553.78	8614.35
554.143	8500.68
554.507	8566.67
554.87	8590.85
555.234	8669.26
555.597	8636.72
555.96	8639.21
556.323	8739.77
556.686	8733.67
557.05	8784.06
557.413	8822.93
557.776	8859.54
558.139	8890.05
558.502	8841.01
558.865	8844.4
559.228	8912.65
559.59	8967.33
559.953	8933.89
560.316	9007.56
560.679	9055.69
561.041	9108.57
561.404	9062.93
561.767	9137.73
562.129	9163.49
562.492	9273.77
562.854	9204.16
563.217	9235.8
563.579	9269.7
563.941	9337.49
564.304	9392.63
564.666	9369.81
565.028	9405.97
565.39	9483.93
565.753	9495.46
566.115	9521.67
566.477	9526.42
566.839	9591.73
567.201	9612.29
567.563	9635.11
567.925	9704.04
568.287	9793.53
568.648	9768.44
569.01	9771.61
569.372	9862.9
569.734	9841.66
570.095	9933.86
570.457	9968.21
570.819	10020.87
571.18	10003.69
571.542	10110.36
571.903	10170.02
572.265	10200.75
572.626	10214.53
572.987	10273.74
573.349	10330.91
573.71	10371.59
574.071	10442.1
574.432	10431.25
574.794	10608.42
575.155	10609.55
575.516	10629.89
575.877	10719.83
576.238	10781.98
576.599	10893.16
576.96	10967.51
577.32	11066.04
577.681	11100.61
578.042	11235.3
578.403	11305.8
578.763	11310.55
579.124	11467.83
579.485	11574.05
579.845	11713.03
580.206	11769.07
580.566	11913.47
580.927	11947.82
581.287	12141.04
581.648	12263.75
582.008	12427.36
582.368	12575.83
582.728	12635.49
583.089	12879.77
583.449	12979.66
583.809	13182.59
584.169	13350.27
584.529	13535.58
584.889	13856.25
585.249	13909.35
585.609	14123.36
585.969	14299.4
586.329	14466.63
586.688	14775.32
587.048	14948.42
587.408	15152.26
587.768	15480.84
588.127	15648.97
588.487	15802.41
588.846	16270.42
589.206	16341.6
589.565	16543.18
589.925	16846
590.284	17148.81
590.643	17459.09
591.003	17720.55
591.362	18046.19
591.721	18254.55
592.08	18495.67
592.44	18877.58
592.799	19108.76
593.158	19278.48
593.517	19732.93
593.876	20058.34
594.235	20253.37
594.593	20499.91
594.952	20891.09
595.311	21089.5
595.67	21467.8
596.029	21879.99
596.387	22138.74
596.746	22425.51
597.104	22677.93
597.463	23002.67
597.822	23470.23
598.18	23544.13
598.538	23784.8
598.897	24291.68
599.255	24417.55
599.613	25069.51
599.972	25066.35
600.33	25487.35
600.688	25625.43
601.046	25974.8
601.404	26425.63
601.762	26627.44
602.12	27038.72
602.478	27305.84
602.836	27500.86
603.194	27645.71
603.552	27916.22
603.91	28204.8
604.268	28697.66
604.625	28807.72
604.983	29183.53
605.341	29222.85
605.698	29713.68
606.056	29939.21
606.413	30127.23
606.771	30450.84
607.128	30857.15
607.485	30782.13
607.843	31003.37
608.2	31481.09
608.557	31756.34
608.914	31883.79
609.272	32250.34
609.629	32417.11
609.986	32749.31
610.343	32798.8
610.7	33208.73
611.057	33279.01
611.414	33426.58
611.771	33657.08
612.127	33976.62
612.484	34218.87
612.841	34506.78
613.198	34468.13
613.554	34692.53
613.911	35038.06
614.267	35150.15
614.624	35262.69
614.98	35584.94
615.337	35881.43
615.693	35865.38
616.05	36004.59
616.406	36323.68
616.762	36391.25
617.118	36484.35
617.475	36669.66
617.831	36904.68
618.187	36972.25
618.543	37266.48
618.899	37464.21
619.255	37528.39
619.611	37558.67
619.967	37857.2
620.323	38110.52
620.678	38012.45
621.034	37943.52
621.39	38155.27
621.746	38116.62
622.101	38690.4
622.457	38557.29
622.812	38590.06
623.168	38726.1
623.523	38918.86
623.879	39120.89
624.234	38929.71
624.589	39179.2
624.945	39374.44
625.3	39331.96
625.655	39467.32
626.01	39458.96
626.365	39636.13
626.72	39582.12
627.075	39798.84
627.43	39763.59
627.785	39753.19
628.14	39818.05
628.495	39912.51
628.85	40001.1
629.205	39915.22
629.559	40182.56
629.914	40236.8
630.269	40304.14
630.623	40181.2
630.978	40159.28
631.332	40323.35
631.687	40426.62
632.041	40249.45
632.396	40383.01
632.75	40239.73
633.104	40478.37
633.459	40160.86
633.813	40320.63
634.167	40230.24
634.521	40349.56
634.875	40389.79
635.229	40467.52
635.583	40186.63
635.937	40326.28
636.291	40337.58
636.645	40298.71
636.999	40379.84
637.352	40450.57
637.706	40247.19
638.06	40476.34
638.413	40365.38
638.767	40361.09
639.121	40439.28
639.474	40124.03
639.828	40214.65
640.181	40287.19
640.534	40421.65
640.888	40272.95
641.241	40175.33
641.594	40314.76
641.947	40435.43
642.301	40244.03
642.654	40360.86
643.007	40276.79
643.36	40220.98
643.713	40242.22
644.066	40434.3
644.419	40103.69
644.771	39911.38
645.124	39529.7
645.477	39421.68
645.83	39257.39
646.182	39158.41
646.535	39033.89
646.888	38981.91
647.24	38885.64
647.593	39013.1
647.945	39057.62
648.298	38718.64
648.65	38882.03
649.002	38778.75
649.355	38950.95
649.707	38895.81
650.059	39060.1
650.411	39458.74
650.763	39543.71
651.115	39942.79
651.467	39764.49
651.819	40025.28
652.171	39787.99
652.523	39638.62
652.875	39677.71
653.227	39446.53
653.578	39910.7
653.93	39824.6
654.282	39573.08
654.633	39511.39
654.985	39647.43
655.337	39749.35
655.688	39651.5
656.039	39730.14
656.391	39512.52
656.742	39577.15
657.094	39508.45
657.445	39531.28
657.796	39591.39
658.147	39434.1
658.498	39615.34
658.849	39716.36
659.2	39544.84
659.551	39381.22
659.902	39650.6
660.253	39470.26
660.604	39577.6
660.955	39246.09
661.306	39445.18
661.656	39491.73
662.007	39319.08
662.358	39492.41
662.708	39371.06
663.059	39301
663.409	39268.91
663.76	39441.56
664.11	39490.37
664.461	39480.2
664.811	39425.97
665.161	39619.86
665.511	39312.53
665.862	39346.88
666.212	39466.87
666.562	39456.7
666.912	39473.65
667.262	39219.19
667.612	39406.08
667.962	39314.56
668.312	39300.77
668.662	39445.63
669.011	39465.29
669.361	39308.23
669.711	39373.54
670.06	39275.92
670.41	39257.16
670.76	39150.04
671.109	39286.31
671.459	39333.99
671.808	39156.37
672.157	39372.19
672.507	39122.7
672.856	39034.11
673.205	39123.38
673.554	39204.73
673.904	39097.39
674.253	39266.2
674.602	39104.17
674.951	38578.31
675.3	38651.53
675.649	38970.16
675.998	39047.22
676.346	38992.99
676.695	39063.49
677.044	38705.54
677.393	38869.15
677.741	39001.8
678.09	38847.23
678.438	38700.56
678.787	38876.15
679.135	38829.15
679.484	38546.67
679.832	38746.89
680.181	38541.47
680.529	38643.62
680.877	38402.72
681.225	38546.44
681.573	38647.46
681.922	38378.54
682.27	38167.25
682.618	38362.95
682.966	38318.88
683.314	38294.7
683.661	38126.57
684.009	37975.16
684.357	37967.02
684.705	37865.56
685.053	37845.67
685.4	38036.63
685.748	37816.97
686.095	37739.46
686.443	37577.66
686.79	37580.37
687.138	37660.59
687.485	37563.65
687.832	37382.63
688.18	37418.34
688.527	37309.41
688.874	37298.79
689.221	37333.37
689.568	37079.82
689.915	37068.29
690.262	36943.32
690.609	36945.36
690.956	36848.18
691.303	36791.69
691.65	36708.3
691.997	36701.29
692.344	36405.94
692.69	36365.71
693.037	36461.3
693.383	36061.54
693.73	36196.9
694.077	36098.15
694.423	36069.22
694.769	35944.93
695.116	35885.05
695.462	35746.97
695.808	35607.54
696.155	35729.79
696.501	35498.84
696.847	35428.56
697.193	35062.47
697.539	35296.13
697.885	35129.81
698.231	35008.01
698.577	35011.4
698.923	35065.41
699.269	34789.25
699.614	34643.5
699.96	34513.56
700.306	34612.76
700.651	34378.19
700.997	34207.35
701.342	34297.97
701.688	34194.02
702.033	34142.72
702.379	34125.77
702.724	34109.05
703.069	34044.64
703.415	33762.39
703.76	33784.08
704.105	33787.02
704.45	33606.69
704.795	33469.97
705.14	33419.35
705.485	33400.14
705.83	33231.78
706.175	33312.01
706.52	33211.9
706.865	33015.97
707.209	32917.89
707.554	33000.15
707.899	33018
708.243	32833.37
708.588	32709.31
708.932	32567.84
709.277	32528.52
709.621	32484.46
709.966	32298.7
710.31	32341.64
710.654	32119.27
710.998	32235.42
711.342	32175.31
711.687	32065.48
712.031	32069.33
712.375	31825.94
712.719	31863.23
713.063	31753.18
713.407	31952.49
713.75	31650.35
714.094	31603.35
714.438	31564.48
714.782	31586.4
715.125	31376.46
715.469	31441.55
715.812	31251.04
716.156	31132.85
716.499	31231.16
716.843	31110.71
717.186	31006.76
717.53	31128.79
717.873	31024.83
718.216	30967.66
718.559	30805.86
718.902	30746.65
719.246	30703.71
719.589	30557.05
719.932	30464.17
720.275	30575.13
720.617	30595.92
720.96	30354.8
721.303	30461.91
721.646	30593.66
721.989	30183.73
722.331	30359.54
722.674	30231.86
723.016	30261.69
723.359	30228.24
723.701	30239.09
724.044	30023.28
724.386	29965.43
724.729	29903.73
725.071	29931.53
725.413	29938.99
725.755	29920.23
726.097	29877.29
726.439	29643.63
726.782	29647.47
727.124	29716.39
727.465	29545.32
727.807	29619.67
728.149	29584.19
728.491	29497.87
728.833	29458.77
729.175	29277.76
729.516	29309.17
729.858	29227.37
730.199	29281.6
730.541	29130.65
730.882	29196.63
731.224	29238.44
731.565	28953.93
731.906	29007.71
732.248	29038.22
732.589	28863.76
732.93	28734.27
733.271	28838.68
733.612	28896.3
733.953	28855.4
734.294	28697.21
734.635	28696.53
734.976	28724.78
735.317	28593.71
735.658	28599.14
735.999	28760.26
736.339	28500.83
736.68	28581.73
737.021	28345.13
737.361	28331.8
737.702	28429.65
738.042	28314.62
738.383	28442.08
738.723	28261.06
739.063	28280.73
739.404	28235.53
739.744	28192.14
740.084	28103.33
740.424	28049.32
740.764	28022.43
741.104	28156.89
741.444	28004.12
741.784	27967.06
742.124	27962.54
742.464	27889.78
742.804	27732.94
743.143	27778.37
743.483	27718.25
743.823	27671.25
744.162	27514.87
744.502	27669.89
744.841	27472.16
745.181	27556.9
745.52	27490.46
745.86	27602.33
746.199	27455.89
746.538	27398.04
746.877	27444.14
747.216	27446.17
747.556	27250.92
747.895	27349.68
748.234	27248.66
748.573	27222.45
748.911	27159.4
749.25	27190.81
749.589	27010.25
749.928	27097.48
750.267	27152.62
750.605	27072.4
750.944	27029.91
751.283	26909.24
751.621	27063.13
751.96	26821.33
752.298	26884.38
752.636	26864.72
752.975	26627.89
753.313	26622.46
753.651	26659.75
753.989	26562.13
754.327	26448.91
754.666	26455.01
755.004	26437.84
755.342	26509.02
755.679	26538.85
756.017	26268.12
756.355	26361.23
756.693	26229.71
757.031	26211.85
757.368	26112.19
757.706	26052.31
758.044	25952.88
758.381	26042.82
758.719	25850.28
759.056	25908.58
759.394	25750.85
759.731	25657.52
760.068	25583.85
