Data from hue_10_FLMS001491_7.txt Node
Date: Mon Feb 06 15:31:19 GMT 2017
User: dcchb
Spectrometer: FLMS00149
Trigger mode: 0
Integration Time (sec): 2.000000E-2
Scans to average: 10
Electric dark correction enabled: true
Nonlinearity correction enabled: false
Boxcar width: 0
XAxis mode: Wavelengths
Number of Pixels in Spectrum: 2048
>>>>>Begin Spectral Data<<<<<
341.393	-3.29
341.776	-3.29
342.16	-3.29
342.543	-49.62
342.927	-53.46
343.31	-79
343.693	-75.38
344.077	-68.6
344.46	-42.16
344.843	-42.16
345.226	-32.89
345.61	-31.31
345.993	-21.82
346.376	-17.98
346.759	5.07
347.142	12.3
347.525	33.77
347.908	69.93
348.291	89.59
348.674	85.07
349.057	115.58
349.44	135.24
349.823	151.06
350.206	166.2
350.588	175.91
350.971	219.75
351.354	220.21
351.737	226.76
352.119	232.18
352.502	253.2
352.884	267.21
353.267	284.39
353.65	291.84
354.032	323.03
354.414	300.88
354.797	303.14
355.179	328.68
355.562	317.38
355.944	336.36
356.326	303.82
356.709	343.82
357.091	337.27
357.473	346.08
357.855	363.25
358.238	336.59
358.62	331.62
359.002	343.37
359.384	336.59
359.766	341.33
360.148	334.55
360.53	335.01
360.912	342.46
361.294	320.09
361.676	344.5
362.057	313.76
362.439	353.54
362.821	329.58
363.203	337.94
363.584	332.29
363.966	332.29
364.348	329.13
364.729	331.16
365.111	326.42
365.493	321.67
365.874	307.89
366.256	318.96
366.637	311.96
367.019	315.34
367.4	299.53
367.781	312.63
368.163	324.61
368.544	312.41
368.925	306.53
369.306	333.2
369.688	310.37
370.069	304.5
370.45	306.53
370.831	303.59
371.212	306.76
371.593	317.83
371.974	306.31
372.355	308.11
372.736	311.05
373.117	304.72
373.498	310.83
373.879	330.49
374.26	298.85
374.641	331.84
375.021	324.61
375.402	306.98
375.783	325.29
376.163	329.58
376.544	326.42
376.925	334.1
377.305	318.73
377.686	325.29
378.066	331.39
378.447	324.61
378.827	334.78
379.208	311.73
379.588	335.23
379.968	328.9
380.349	342.01
380.729	327.1
381.109	342.91
381.489	337.72
381.87	335.23
382.25	317.6
382.63	354.67
383.01	342.69
383.39	328.9
383.77	329.36
384.15	328.68
384.53	350.15
384.91	338.4
385.29	346.3
385.67	345.63
386.049	346.76
386.429	320.77
386.809	344.72
387.189	342.46
387.568	352.18
387.948	339.52
388.328	361.9
388.707	367.32
389.087	354.21
389.466	346.08
389.846	339.52
390.225	361.45
390.605	367.32
390.984	348.56
391.363	369.35
391.743	360.09
392.122	354.21
392.501	362.8
392.881	368.22
393.26	371.84
393.639	375.46
394.018	358.73
394.397	399.64
394.776	366.64
395.155	364.16
395.534	366.19
395.913	382.46
396.292	381.56
396.671	382.24
397.05	384.72
397.429	404.16
397.808	384.04
398.186	364.84
398.565	379.07
398.944	360.09
399.323	376.81
399.701	374.78
400.08	363.71
400.458	386.98
400.837	369.35
401.215	393.08
401.594	398.96
401.972	393.53
402.351	375.91
402.729	396.47
403.107	387.43
403.486	379.07
403.864	401.22
404.242	390.82
404.62	400.54
404.999	416.36
405.377	426.08
405.755	413.42
406.133	410.71
406.511	399.41
406.889	417.72
407.267	408.9
407.645	417.72
408.023	435.79
408.401	414.33
408.779	412.74
409.156	404.38
409.534	430.14
409.912	399.18
410.29	431.27
410.667	422.91
411.045	438.96
411.422	435.79
411.8	439.64
412.178	446.64
412.555	441.67
412.933	446.19
413.31	443.93
413.687	455.91
414.065	449.35
414.442	450.71
414.819	460.88
415.197	457.04
415.574	468.11
415.951	471.95
416.328	467.66
416.705	464.04
417.082	461.78
417.46	448
417.837	480.76
418.214	478.05
418.591	509.01
418.967	492.52
419.344	492.06
419.721	491.16
420.098	492.06
420.475	505.17
420.852	504.27
421.228	527.54
421.605	505.62
421.982	519.86
422.358	505.62
422.735	506.07
423.111	520.54
423.488	534.55
423.864	528.45
424.241	542.91
424.617	501.78
424.994	528.67
425.37	526.64
425.746	520.76
426.123	555.79
426.499	533.64
426.875	553.08
427.251	521.89
427.627	564.38
428.003	570.93
428.379	554.43
428.756	544.04
429.132	578.84
429.507	542.46
429.883	582
430.259	574.1
430.635	577.26
431.011	574.32
431.387	579.97
431.763	595.56
432.138	596.24
432.514	597.15
432.89	604.83
433.265	608.9
433.641	629.91
434.016	604.6
434.392	631.27
434.767	617.03
435.143	633.75
435.518	639.86
435.894	634.88
436.269	645.05
436.644	653.87
437.02	638.5
437.395	637.37
437.77	676.24
438.145	661.1
438.52	668.1
438.895	691.38
439.271	677.37
439.646	702.68
440.021	689.35
440.395	726.41
440.77	676.47
441.145	683.47
441.52	702.68
441.895	714.2
442.27	701.55
442.645	717.82
443.019	711.04
443.394	734.54
443.769	730.7
444.143	695.22
444.518	719.85
444.892	689.57
445.267	762.34
445.641	729.35
446.016	725.96
446.39	750.14
446.764	751.04
447.139	734.99
447.513	752.4
447.887	748.55
448.262	765.73
448.636	763.02
449.01	791.26
449.384	753.75
449.758	767.08
450.132	774.77
450.506	783.58
450.88	786.07
451.254	780.42
451.628	802.11
452.002	812.73
452.376	817.48
452.75	815.9
453.123	800.3
453.497	816.8
453.871	840.53
454.244	858.38
454.618	860.42
454.992	845.05
455.365	865.84
455.739	870.81
456.112	869.23
456.486	872.62
456.859	895.89
457.232	880.53
457.606	907.65
457.979	915.1
458.352	926.63
458.725	949
459.099	929.11
459.472	948.32
459.845	961.66
460.218	946.74
460.591	934.54
460.964	984.48
461.337	986.29
461.71	1002.11
462.083	1009.79
462.456	1026.96
462.829	1007.53
463.201	1015.44
463.574	1044.59
463.947	1061.09
464.32	1068.09
464.692	1071.03
465.065	1092.95
465.438	1113.06
465.81	1107.41
466.183	1139.05
466.555	1136.11
466.928	1141.31
467.3	1143.8
467.672	1172.27
468.045	1201.2
468.417	1192.16
468.789	1224.93
469.161	1190.58
469.534	1202.33
469.906	1254.3
470.278	1244.59
470.65	1279.39
471.022	1311.02
471.394	1304.92
471.766	1336.79
472.138	1336.11
472.51	1360.97
472.882	1392.6
473.253	1348.31
473.625	1390.34
473.997	1468.08
474.369	1458.37
474.74	1494.52
475.112	1503.11
475.484	1528.19
475.855	1563.67
476.227	1577.46
476.598	1605.25
476.97	1614.97
477.341	1669.66
477.713	1683.67
478.084	1688.42
478.455	1718.02
478.827	1739.26
479.198	1785.81
479.569	1802.99
479.94	1860.61
480.311	1882.99
480.682	1923.44
481.053	1989.2
481.424	2012.48
481.795	2006.15
482.166	2023.77
482.537	2085.47
482.908	2101.74
483.279	2127.95
483.65	2224.22
484.021	2204.11
484.391	2260.83
484.762	2278.01
485.133	2315.97
485.503	2352.81
485.874	2399.58
486.244	2431.67
486.615	2522.29
486.985	2504.67
487.356	2565.46
487.726	2592.35
488.097	2631.89
488.467	2660.14
488.837	2748.95
489.207	2743.98
489.578	2781.95
489.948	2856.75
490.318	2862.4
490.688	2871.44
491.058	2950.08
491.428	2989.85
491.798	3000.02
492.168	3059
492.538	3048.83
492.908	3103.97
493.278	3178.77
493.648	3193.24
494.017	3209.28
494.387	3221.48
494.757	3281.14
495.126	3323.4
495.496	3372.89
495.866	3404.53
496.235	3432.33
496.605	3443.17
496.974	3473
497.344	3485.88
497.713	3491.98
498.082	3555.71
498.452	3603.39
498.821	3620.57
499.19	3633.45
499.559	3675.71
499.928	3662.83
500.298	3710.96
500.667	3752.32
501.036	3749.38
501.405	3776.5
501.774	3783.5
502.143	3867.79
502.512	3884.74
502.88	3850.85
503.249	3872.09
503.618	3945.08
503.987	3892.2
504.356	3893.56
504.724	3987.79
505.093	3987.34
505.462	3975.14
505.83	4011.97
506.199	4072.08
506.567	4123.15
506.936	4117.5
507.304	4143.04
507.672	4191.4
508.041	4198.41
508.409	4243.15
508.777	4183.04
509.145	4265.3
509.514	4302.58
509.882	4271.85
510.25	4341.91
510.618	4307.33
510.986	4376.25
511.354	4386.42
511.722	4402.69
512.09	4444.28
512.458	4454.22
512.826	4499.42
513.193	4478.17
513.561	4512.52
513.929	4496.7
514.297	4574.89
514.664	4555.01
515.032	4555.91
515.4	4613.54
515.767	4669.13
516.135	4637.49
516.502	4635.91
516.869	4692.4
517.237	4669.13
517.604	4675.68
517.972	4737.6
518.339	4754.32
518.706	4718.62
519.073	4797.49
519.44	4815.34
519.808	4825.96
520.175	4853.3
520.542	4832.74
520.909	4823.25
521.276	4941.21
521.643	4888.78
522.009	4969.69
522.376	4988.67
522.743	5015.79
523.11	5056.46
523.477	5059.85
523.843	5079.29
524.21	5123.13
524.577	5168.78
524.943	5136.24
525.31	5193.41
525.676	5223.69
526.043	5231.83
526.409	5280.86
526.776	5321.31
527.142	5341.43
527.508	5352.5
527.874	5425.04
528.241	5372.61
528.607	5447.64
528.973	5502.1
529.339	5501.88
529.705	5519.28
530.071	5535.09
530.437	5597.92
530.803	5591.14
531.169	5613.74
531.535	5634.75
531.901	5640.63
532.267	5704.36
532.632	5756.56
532.998	5704.58
533.364	5760.4
533.73	5820.96
534.095	5848.53
534.461	5872.94
534.826	5901.19
535.192	5889.66
535.557	5951.58
535.923	5977.34
536.288	5976.21
536.653	5985.93
537.019	6024.8
537.384	6030.9
537.749	6022.99
538.114	6022.31
538.479	6085.36
538.845	6142.08
539.21	6116.77
539.575	6178.92
539.94	6182.54
540.305	6224.57
540.67	6175.3
541.034	6258.01
541.399	6302.98
541.764	6320.38
542.129	6362.42
542.494	6335.53
542.858	6350.67
543.223	6429.99
543.587	6449.42
543.952	6455.07
544.316	6445.58
544.681	6489.19
545.045	6493.71
545.41	6561.96
545.774	6520.83
546.138	6571.23
546.503	6628.63
546.867	6609.19
547.231	6705.69
547.595	6707.04
547.959	6721.73
548.324	6695.06
548.688	6803.76
549.052	6768.06
549.416	6813.93
549.779	6847.15
550.143	6849.41
550.507	6835.85
550.871	6862.52
551.235	6878.11
551.599	6983.19
551.962	7010.76
552.326	7036.3
552.689	7050.08
553.053	7074.72
553.417	7069.29
553.78	7185.67
554.143	7164.2
554.507	7208.95
554.87	7179.12
555.234	7279.91
555.597	7174.6
555.96	7272
556.323	7262.73
556.686	7302.28
557.05	7337.76
557.413	7333.01
557.776	7359.23
558.139	7359.23
558.502	7358.1
558.865	7352.45
559.228	7451.2
559.59	7477.19
559.953	7461.37
560.316	7573.91
560.679	7584.31
561.041	7581.82
561.404	7587.47
561.767	7704.08
562.129	7634.02
562.492	7774.58
562.854	7755.83
563.217	7746.11
563.579	7738.88
563.941	7877.41
564.304	7834.7
564.666	7894.13
565.028	7861.59
565.39	7910.85
565.753	8028.14
566.115	7969.61
566.477	8020.68
566.839	8003.28
567.201	8041.47
567.563	8081.24
567.925	8169.6
568.287	8144.97
568.648	8146.1
569.01	8163.5
569.372	8288.47
569.734	8320.11
570.095	8351.52
570.457	8375.25
570.819	8395.81
571.18	8418.18
571.542	8489.14
571.903	8454.34
572.265	8567.78
572.626	8579.31
572.987	8596.71
573.349	8609.59
573.71	8698.18
574.071	8734.56
574.432	8788.34
574.794	8867.44
575.155	8843.93
575.516	8930.26
575.877	9077.6
576.238	9047.77
576.599	9070.59
576.96	9192.17
577.32	9169.12
577.681	9281.44
578.042	9306.29
578.403	9416.57
578.763	9499.06
579.124	9560.07
579.485	9734.76
579.845	9718.26
580.206	9929.1
580.566	9991.25
580.927	10058.37
581.287	10191.92
581.648	10250
582.008	10484.12
582.368	10532.25
582.728	10630.33
583.089	10820.83
583.449	10893.15
583.809	11078.9
584.169	11180.6
584.529	11339.01
584.889	11563.18
585.249	11677.08
585.609	11816.29
585.969	12039.1
586.329	12264.18
586.688	12427.34
587.048	12547.11
587.408	12780.55
587.768	12974.9
588.127	13165.85
588.487	13413.08
588.846	13676.12
589.206	13873.63
589.565	13972.61
589.925	14316.33
590.284	14524.24
590.643	14822.76
591.003	15042.64
591.362	15394.04
591.721	15624.55
592.08	15823.19
592.44	16126.68
592.799	16465.65
593.158	16610.28
593.517	16838.3
593.876	17156.94
594.235	17459.3
594.593	17706.07
594.952	17992.17
595.311	18252.73
595.67	18491.36
596.029	18911.01
596.387	19301.29
596.746	19511.9
597.104	19675.29
597.463	20011.1
597.822	20413.57
598.18	20564.08
598.538	20840.91
598.897	21251.29
599.255	21381.68
599.613	21906.64
599.972	22124.04
600.33	22396.57
600.688	22586.4
601.046	22957.69
601.404	23270.45
601.762	23648.74
602.12	23941.16
602.478	24049.41
602.836	24483.3
603.194	24507.93
603.552	24896.17
603.91	24923.06
604.268	25370.05
604.625	25506.09
604.983	26037.61
605.341	26154.89
605.698	26421.33
606.056	26751.49
606.413	26988.99
606.771	27378.36
607.128	27490.22
607.485	27568.41
607.843	27942.64
608.2	28219.92
608.557	28421.27
608.914	28640.7
609.272	28897.87
609.629	29172.67
609.986	29437.74
610.343	29715.93
610.7	30001.12
611.057	30228.23
611.414	30371.28
611.771	30515.68
612.127	30904.15
612.484	30927.2
612.841	31289.9
613.198	31343.91
613.554	31419.16
613.911	31829.32
614.267	32034.96
614.624	32212.13
614.98	32395.18
615.337	32653.93
615.693	32675.4
616.05	32879.23
616.406	33161.49
616.762	33116.52
617.118	33344.53
617.475	33452.33
617.831	33693.68
618.187	33871.98
618.543	33957.4
618.899	34346.09
619.255	34366.88
619.611	34431.74
619.967	34654.1
620.323	34687.32
620.678	34809.81
621.034	34870.82
621.39	35005.73
621.746	35114.66
622.101	35502.67
622.457	35299.06
622.812	35546.06
623.168	35705.37
623.523	35857.91
623.879	35941.53
624.234	35787.86
624.589	35911.25
624.945	36041.19
625.3	36192.59
625.655	36257
626.01	36358.69
626.365	36515.75
626.72	36556.43
627.075	36646.59
627.43	36668.06
627.785	36698.79
628.14	36863.08
628.495	36803.2
628.85	36652.24
629.205	36810.43
629.559	36928.39
629.914	36893.37
630.269	36964.78
630.623	37045
630.978	36866.47
631.332	37107.82
631.687	37243.64
632.041	37142.17
632.396	37220.59
632.75	37206.8
633.104	37236.63
633.459	37131.1
633.813	37143.98
634.167	37261.72
634.521	37310.76
634.875	37396.4
635.229	37397.76
635.583	37264.88
635.937	37151.89
636.291	37179.91
636.645	37325.45
636.999	37249.74
637.352	37231.44
637.706	37195.51
638.06	37401.6
638.413	37246.35
638.767	37186.01
639.121	37247.93
639.474	37154.38
639.828	37237.76
640.181	37268.27
640.534	37448.61
640.888	37191.21
641.241	37049.75
641.594	37159.12
641.947	37276.41
642.301	37240.25
642.654	37240.7
643.007	37287.03
643.36	37096.07
643.713	37146.47
644.066	37307.37
644.419	37000.03
644.771	36793.26
645.124	36618.57
645.477	36453.83
645.83	36238.47
646.182	36143.56
646.535	36050.9
646.888	36203.67
647.24	36004.58
647.593	36354.85
647.945	36080.73
648.298	35906.27
648.65	36022.88
649.002	35904.69
649.355	35975.2
649.707	35999.6
650.059	36199.83
650.411	36546.03
650.763	36683.88
651.115	36910.99
651.467	36871.9
651.819	36893.82
652.171	36744.9
652.523	36659.02
652.875	36868.96
653.227	36670.32
653.578	36740.38
653.93	36716.2
654.282	36576.76
654.633	36545.35
654.985	36642.3
655.337	36647.72
655.688	36583.77
656.039	36734.95
656.391	36477.33
656.742	36585.35
657.094	36506.71
657.445	36838.9
657.796	36557.1
658.147	36399.82
658.498	36479.82
658.849	36607.95
659.2	36484.34
659.551	36297
659.902	36473.72
660.253	36535.41
660.604	36452.25
660.955	36247.06
661.306	36469.42
661.656	36370.44
662.007	36480.27
662.358	36396.43
662.708	36479.14
663.059	36309.43
663.409	36218.58
663.76	36390.33
664.11	36326.15
664.461	36397.79
664.811	36360.05
665.161	36339.26
665.511	36261.29
665.862	36320.5
666.212	36503.55
666.562	36433.04
666.912	36322.08
667.262	36222.42
667.612	36322.08
667.962	36265.59
668.312	36245.02
668.662	36450.21
669.011	36338.8
669.361	36252.03
669.711	36198.24
670.06	36196.66
670.41	36260.84
670.76	36128.64
671.109	36319.6
671.459	36122.09
671.808	36012.49
672.157	36104.91
672.507	36008.87
672.856	36021.07
673.205	36135.87
673.554	36249.09
673.904	36076.89
674.253	36285.47
674.602	36217
674.951	35598.03
675.3	35333.86
675.649	35986.27
675.998	35965.93
676.346	36062.88
676.695	35983.11
677.044	35721.19
677.393	35832.83
677.741	35932.71
678.09	35927.29
678.438	35860.62
678.787	35833.05
679.135	35899.95
679.484	35483.69
679.832	35736.33
680.181	35476.23
680.529	35572.27
680.877	35516.91
681.225	35496.11
681.573	35663.34
681.922	35413.18
682.27	35388.77
682.618	35351.49
682.966	35197.82
683.314	35334.76
683.661	35309.23
684.009	35062.45
684.357	35066.97
684.705	35076.24
685.053	35189.91
685.4	34958.28
685.748	34751.05
686.095	34753.54
686.443	34812.29
686.79	34665.4
687.138	34690.94
687.485	34678.74
687.832	34434
688.18	34581.11
688.527	34372.08
688.874	34483.49
689.221	34321.46
689.568	34280.78
689.915	34240.1
690.262	34146.77
690.609	34063.38
690.956	33981.58
691.303	33892.99
691.65	33687.8
691.997	33699.1
692.344	33518.77
692.69	33427.24
693.037	33471.76
693.383	33308.15
693.73	33354.7
694.077	33172.33
694.423	33267.02
694.769	33000.36
695.116	33014.82
695.462	33049.4
695.808	32819.8
696.155	32977.76
696.501	32665.45
696.847	32613.93
697.193	32528.74
697.539	32491.45
697.885	32475.63
698.231	32429.3
698.577	32221.4
698.923	32235.64
699.269	32095.75
699.614	31982.31
699.96	31831.8
700.306	31877.23
700.651	31759.04
700.997	31722.88
701.342	31530.12
701.688	31567.63
702.033	31344.13
702.379	31363.57
702.724	31281.99
703.069	31403.57
703.415	31148.66
703.76	31071.15
704.105	31033.41
704.45	30875.67
704.795	30717.48
705.14	30637.71
705.485	30620.99
705.83	30596.13
706.175	30666.41
706.52	30390.94
706.865	30365.18
707.209	30394.55
707.554	30343.71
707.899	30430.94
708.243	30228.68
708.588	30224.16
708.932	29870.27
709.277	29899.88
709.621	29991.4
709.966	29733.1
710.31	29817.85
710.654	29573.11
710.998	29611.52
711.342	29597.51
711.687	29468.02
712.031	29421.02
712.375	29378.76
712.719	29362.94
713.063	29297.41
713.407	29363.39
713.75	29163.63
714.094	29246.56
714.438	29108.26
714.782	29075.94
715.125	29034.82
715.469	28941.71
715.812	28921.6
716.156	28654.71
716.499	28708.5
716.843	28788.95
717.186	28515.73
717.53	28687.71
717.873	28638.89
718.216	28479.8
718.559	28482.74
718.902	28119.13
719.246	28257.43
719.589	28324.78
719.932	28182.63
720.275	28125.91
720.617	27968.18
720.96	27999.59
721.303	28062.41
721.646	27987.61
721.989	27895.86
722.331	27866.71
722.674	27810.44
723.016	27776.54
723.359	27800.95
723.701	27797.11
724.044	27518.25
724.386	27648.19
724.729	27645.93
725.071	27397.57
725.413	27506.95
725.755	27483.67
726.097	27391.02
726.439	27141.76
726.782	27233.96
727.124	27343.56
727.465	27155.09
727.807	27221.76
728.149	27145.37
728.491	27134.53
728.833	27028.09
729.175	26964.14
729.516	26938.6
729.858	26818.15
730.199	26865.61
730.541	26962.78
730.882	26858.15
731.224	26937.24
731.565	26697.25
731.906	26730.47
732.248	26801.65
732.589	26671.71
732.93	26512.85
733.271	26543.81
733.612	26490.25
733.953	26577.71
734.294	26515.11
734.635	26418.61
734.976	26405.28
735.317	26143.37
735.658	26272.85
735.999	26327.54
736.339	26110.15
736.68	26247.32
737.021	26059.53
737.361	26031.5
737.702	26184.04
738.042	26142.24
738.383	25993.54
738.723	26083.03
739.063	25908.57
739.404	26042.35
739.744	25946.31
740.084	25889.14
740.424	25875.12
740.764	25815.92
741.104	25893.66
741.444	25728.69
741.784	25588.13
742.124	25728.69
742.464	25544.74
742.804	25600.33
743.143	25584.51
743.483	25458.19
743.823	25422.71
744.162	25384.29
744.502	25411.63
744.841	25257.97
745.181	25455.02
745.52	25272.88
745.86	25299.55
746.199	25180
746.538	25087.12
746.877	25187.46
747.216	25133.9
747.556	24974.13
747.895	25176.61
748.234	24822.5
748.573	24875.6
748.911	24904.08
749.25	24947.92
749.589	24699.79
749.928	24853.46
750.267	24772.1
750.605	24692.56
750.944	24682.39
751.283	24617.53
751.621	24815.49
751.96	24596.74
752.298	24518.32
752.636	24479.46
752.975	24439.91
753.313	24390.64
753.651	24526.46
753.989	24338.22
754.327	24363.53
754.666	24147.03
755.004	24159.24
755.342	24188.16
755.679	24144.77
756.017	23961.28
756.355	24137.09
756.693	23983.2
757.031	23973.03
757.368	23861.39
757.706	23866.82
758.044	23761.51
758.381	23724.67
758.719	23594.73
759.056	23725.8
759.394	23643.77
759.731	23495.53
760.068	23361.29
760.405	23326.27
760.743	23260.05
761.08	23145.93
761.417	23182.09
