Data from hue_36_FLMS001491_00035.txt Node
Date: Tue Feb 07 17:29:43 GMT 2017
User: dcchb
Spectrometer: FLMS00149
Trigger mode: 0
Integration Time (sec): 2.000000E-2
Scans to average: 10
Electric dark correction enabled: true
Nonlinearity correction enabled: false
Boxcar width: 0
XAxis mode: Wavelengths
Number of Pixels in Spectrum: 2048
>>>>>Begin Spectral Data<<<<<
341.393	-27.81
341.776	-27.81
342.16	-27.81
342.543	-50.86
342.927	-80.46
343.31	-77.98
343.693	-48.15
344.077	-76.4
344.46	-47.24
344.843	-49.73
345.226	-47.47
345.61	-45.21
345.993	-24.19
346.376	-0.47
346.759	18.06
347.142	18.29
347.525	29.14
347.908	49.48
348.291	82.7
348.674	92.19
349.057	126.99
349.44	119.08
349.823	120.21
350.206	159.08
350.588	190.04
350.971	213.99
351.354	219.19
351.737	235.46
352.119	234.78
352.502	272.75
352.884	286.76
353.267	272.52
353.65	287.66
354.032	271.17
354.414	285.18
354.797	297.61
355.179	292.63
355.562	304.84
355.944	321.33
356.326	338.51
356.709	329.92
357.091	327.66
357.473	347.1
357.855	333.54
358.238	325.63
358.62	347.77
359.002	351.84
359.384	336.25
359.766	337.83
360.148	350.71
360.53	319.75
360.912	321.33
361.294	329.92
361.676	326.76
362.057	326.98
362.439	335.34
362.821	329.69
363.203	326.98
363.584	325.4
363.966	299.64
364.348	339.41
364.729	310.49
365.111	305.06
365.493	338.73
365.874	325.63
366.256	336.02
366.637	315.46
367.019	304.61
367.4	318.17
367.781	301.9
368.163	309.81
368.544	314.1
368.925	331.73
369.306	310.94
369.688	312.07
370.069	321.79
370.45	312.29
370.831	307.55
371.212	295.12
371.593	339.19
371.974	308.9
372.355	319.98
372.736	320.43
373.117	324.27
373.498	320.66
373.879	314.55
374.26	298.74
374.641	321.79
375.021	301.9
375.402	316.81
375.783	331.73
376.163	308.45
376.544	318.17
376.925	345.51
377.305	328.34
377.686	320.88
378.066	326.76
378.447	315.23
378.827	311.16
379.208	317.94
379.588	323.82
379.968	336.25
380.349	318.85
380.729	342.8
381.109	295.57
381.489	350.49
381.87	339.41
382.25	339.19
382.63	335.8
383.01	348.45
383.39	338.28
383.77	344.61
384.15	336.93
384.53	343.48
384.91	331.05
385.29	352.07
385.67	345.97
386.049	340.99
386.429	331.28
386.809	361.33
387.189	352.52
387.568	339.86
387.948	333.31
388.328	351.16
388.707	341.9
389.087	353.2
389.466	357.26
389.846	370.37
390.225	348.45
390.605	348.9
390.984	377.38
391.363	375.34
391.743	364.04
392.122	356.59
392.501	366.53
392.881	366.53
393.26	363.59
393.639	361.11
394.018	346.19
394.397	370.82
394.776	352.29
395.155	354.55
395.534	354.33
395.913	392.07
396.292	358.62
396.671	378.06
397.05	380.54
397.429	394.78
397.808	370.6
398.186	371.28
398.565	395.91
398.944	376.93
399.323	383.25
399.701	386.42
400.08	364.72
400.458	368.56
400.837	381.44
401.215	391.84
401.594	400.88
401.972	397.04
402.351	398.85
402.729	411.05
403.107	379.64
403.486	393.2
403.864	390.48
404.242	399.75
404.62	388.45
404.999	401.33
405.377	385.06
405.755	416.92
406.133	427.09
406.511	399.07
406.889	410.37
407.267	390.26
407.645	412.63
408.023	428.22
408.401	412.86
408.779	418.96
409.156	423.25
409.534	442.69
409.912	425.29
410.29	453.76
410.667	443.82
411.045	430.26
411.422	431.61
411.8	428.9
412.178	438.39
412.555	461.44
412.933	457.83
413.31	456.25
413.687	462.8
414.065	471.61
414.442	455.34
414.819	449.92
415.197	479.97
415.574	455.57
415.951	477.94
416.328	469.58
416.705	478.84
417.082	461.22
417.46	459.41
417.837	494.66
418.214	491.95
418.591	475
418.967	498.5
419.344	482.01
419.721	501.44
420.098	509.13
420.475	484.27
420.852	506.41
421.228	500.09
421.605	484.49
421.982	503.7
422.358	492.63
422.735	518.16
423.111	511.16
423.488	516.13
423.864	518.39
424.241	554.32
424.617	558.39
424.994	532.4
425.37	542.12
425.746	511.16
426.123	532.63
426.499	529.46
426.875	536.47
427.251	530.14
427.627	538.05
428.003	568.56
428.379	567.65
428.756	571.95
429.132	568.78
429.507	562.46
429.883	578.95
430.259	582.8
430.635	580.31
431.011	578.5
431.387	601.1
431.763	598.61
432.138	594.32
432.514	600.65
432.89	606.07
433.265	618.95
433.641	609.01
434.016	602.91
434.392	596.13
434.767	648.33
435.143	620.76
435.518	643.58
435.894	629.8
436.269	637.03
436.644	668.67
437.02	646.97
437.395	652.17
437.77	675.22
438.145	666.18
438.52	667.31
438.895	667.54
439.271	658.27
439.646	679.29
440.021	717.71
440.395	700.76
440.77	690.36
441.145	691.49
441.52	692.85
441.895	702.34
442.27	724.26
442.645	721.32
443.019	698.05
443.394	691.04
443.769	762.23
444.143	715.22
444.518	737.37
444.892	712.28
445.267	715.67
445.641	752.06
446.016	729.46
446.39	738.5
446.764	765.16
447.139	744.6
447.513	762.9
447.887	774.65
448.262	789.34
448.636	763.13
449.01	776.01
449.384	757.25
449.758	776.91
450.132	788.21
450.506	781.43
450.88	802.9
451.254	818.04
451.628	813.98
452.002	790.02
452.376	826.4
452.75	814.43
453.123	820.3
453.497	829.12
453.871	855.1
454.244	839.96
454.618	861.43
454.992	843.13
455.365	856.01
455.739	890.58
456.112	907.31
456.486	910.02
456.859	917.93
457.232	931.26
457.606	921.32
457.979	912.5
458.352	918.15
458.725	957.7
459.099	948.66
459.472	970.58
459.845	973.75
460.218	995.67
460.591	989.34
460.964	1023.46
461.337	1020.75
461.71	1018.49
462.083	1038.83
462.456	1028.21
462.829	1049
463.201	1078.83
463.574	1060.3
463.947	1104.59
464.32	1080.41
464.692	1075.21
465.065	1120.41
465.438	1123.35
465.81	1146.4
466.183	1170.8
466.555	1181.2
466.928	1197.69
467.3	1192.04
467.672	1216.9
468.045	1274.53
468.417	1248.54
468.789	1267.3
469.161	1281.53
469.534	1318.37
469.906	1347.75
470.278	1349.78
470.65	1371.7
471.022	1403.34
471.394	1434.98
471.766	1450.12
472.138	1461.87
472.51	1537.57
472.882	1550.45
473.253	1564.92
473.625	1611.47
473.997	1621.64
474.369	1629.32
474.74	1686.5
475.112	1733.27
475.484	1760.17
475.855	1806.27
476.227	1811.69
476.598	1884.91
476.97	1932.14
477.341	1986.83
477.713	2008.97
478.084	2035.86
478.455	2134.84
478.827	2109.08
479.198	2209.87
479.569	2244.45
479.94	2352.47
480.311	2378.23
480.682	2442.18
481.053	2486.02
481.424	2558.34
481.795	2583.87
482.166	2689.63
482.537	2728.95
482.908	2828.16
483.279	2896.41
483.65	2968.95
484.021	3040.58
484.391	3131.65
484.762	3223.18
485.133	3266.34
485.503	3324.19
485.874	3416.39
486.244	3532.55
486.615	3635.6
486.985	3707.01
487.356	3780.9
487.726	3840.79
488.097	3978.19
488.467	4028.35
488.837	4179.31
489.207	4283.26
489.578	4371.4
489.948	4502.47
490.318	4548.11
490.688	4629.02
491.058	4779.52
491.428	4822.91
491.798	4892.74
492.168	5037.37
492.538	5159.17
492.908	5231.94
493.278	5353.52
493.648	5368.21
494.017	5544.25
494.387	5619.05
494.757	5712.15
495.126	5810.68
495.496	5818.59
495.866	5934.07
496.235	6073.27
496.605	6211.8
496.974	6193.95
497.344	6318.69
497.713	6442.98
498.082	6465.58
498.452	6639.59
498.821	6692.47
499.19	6781.05
499.559	6856.53
499.928	6953.48
500.298	7005
500.667	7102.85
501.036	7174.49
501.405	7261.72
501.774	7290.19
502.143	7400.24
502.512	7513.91
502.88	7557.08
503.249	7603.85
503.618	7705.09
503.987	7809.27
504.356	7882.04
504.724	7907.8
505.093	7996.39
505.462	8018.98
505.83	8136.72
506.199	8232.76
506.567	8357.05
506.936	8321.35
507.304	8475.02
507.672	8510.27
508.041	8601.79
508.409	8684.05
508.777	8804.95
509.145	8768.34
509.514	8832.52
509.882	8876.59
510.25	8926.76
510.618	9011.5
510.986	9026.19
511.354	9178.05
511.722	9269.57
512.09	9364.94
512.458	9312.28
512.826	9423.92
513.193	9496.01
513.561	9494.2
513.929	9564.48
514.297	9706.17
514.664	9798.37
515.032	9823
515.4	9904.58
515.767	9967.86
516.135	9973.96
516.502	9950.46
516.869	10199.27
517.237	10185.03
517.604	10152.94
517.972	10249.66
518.339	10362.65
518.706	10362.88
519.073	10377.79
519.44	10517.9
519.808	10587.05
520.175	10662.76
520.542	10746.14
520.909	10735.52
521.276	10786.37
521.643	10778.91
522.009	10956.76
522.376	11085.57
522.743	11056.19
523.11	11160.14
523.477	11189.97
523.843	11328.73
524.21	11444.88
524.577	11518.33
524.943	11580.47
525.31	11666.35
525.676	11714.71
526.043	11866.34
526.409	11790.64
526.776	11955.38
527.142	11997.86
527.508	12137.07
527.874	12128.71
528.241	12256.39
528.607	12258.87
528.973	12353.11
529.339	12419.09
529.705	12537.06
530.071	12526.21
530.437	12592.42
530.803	12659.54
531.169	12742.93
531.535	12804.85
531.901	12843.26
532.267	12808.01
532.632	12985.41
532.998	12983.37
533.364	13112.64
533.73	13190.6
534.095	13311.73
534.461	13274.89
534.826	13384.94
535.192	13379.3
535.557	13507.43
535.923	13511.04
536.288	13632.4
536.653	13574.32
537.019	13643.02
537.384	13643.69
537.749	13820.19
538.114	13826.74
538.479	13814.31
538.845	13891.82
539.21	13935.44
539.575	13944.25
539.94	14000.52
540.305	14150.35
540.67	14135.21
541.034	14254.3
541.399	14217.69
541.764	14326.61
542.129	14400.06
542.494	14383.11
542.858	14430.57
543.223	14489.1
543.587	14694.74
543.952	14590.56
544.316	14739.26
544.681	14659.71
545.045	14748.75
545.41	14861.29
545.774	14897.9
546.138	14911.23
546.503	14988.07
546.867	14966.82
547.231	15217.21
547.595	15079.82
547.959	15212.24
548.324	15301.28
548.688	15284.1
549.052	15348.73
549.416	15339.92
549.779	15350.54
550.143	15454.95
550.507	15581.72
550.871	15590.76
551.235	15549.18
551.599	15701.72
551.962	15778.78
552.326	15852.22
552.689	15927.25
553.053	15852
553.417	15950.53
553.78	16085.21
554.143	16064.65
554.507	16229.62
554.87	16226
555.234	16370.85
555.597	16320.23
555.96	16341.93
556.323	16379.89
556.686	16483.39
557.05	16543.51
557.413	16600.68
557.776	16591.87
558.139	16750.51
558.502	16739.66
558.865	16868.69
559.228	16915.7
559.59	16974.91
559.953	17013.55
560.316	17146.65
560.679	17122.47
561.041	17221.45
561.404	17306.65
561.767	17533.54
562.129	17341.9
562.492	17649.24
562.854	17482.46
563.217	17613.99
563.579	17801.1
563.941	17777.6
564.304	17793.64
564.666	17889.91
565.028	17983.02
565.39	18009.91
565.753	18043.58
566.115	18194.54
566.477	18275.21
566.839	18213.29
567.201	18385.49
567.563	18392.27
567.925	18514.75
568.287	18566.96
568.648	18588.42
569.01	18780.73
569.372	18907.74
569.734	18866.38
570.095	18885.37
570.457	19012.59
570.819	19003.1
571.18	19182.53
571.542	19313.15
571.903	19267.95
572.265	19316.09
572.626	19432.24
572.987	19476.54
573.349	19675.4
573.71	19591.11
574.071	19728.51
574.432	19908.84
574.794	20056.41
575.155	20037.88
575.516	20056.63
575.877	20291.66
576.238	20295.5
576.599	20427.25
576.96	20422.05
577.32	20560.12
577.681	20780.23
578.042	20807.57
578.403	20980
578.763	21162.82
579.124	21172.31
579.485	21403.49
579.845	21513.77
580.206	21683.94
580.566	21904.95
580.927	21938.84
581.287	22195.79
581.648	22186.52
582.008	22524.14
582.368	22599.62
582.728	22854.98
583.089	22852.27
583.449	22969.55
583.809	23186.72
584.169	23491.12
584.529	23495.19
584.889	23911.22
585.249	23891.79
585.609	24067.38
585.969	24448.38
586.329	24581.26
586.688	24769.96
587.048	24896.28
587.408	24937.41
587.768	25274.8
588.127	25497.39
588.487	25629.59
588.846	26002.01
589.206	26078.4
589.565	26340.76
589.925	26656.69
590.284	26816.91
590.643	27010.12
591.003	27241.08
591.362	27649.88
591.721	27724.23
592.08	27975.75
592.44	28154.95
592.799	28538.67
593.158	28526.69
593.517	28763.75
593.876	28958.32
594.235	29243.96
594.593	29469.04
594.952	29538.87
595.311	29810.95
595.67	30112.87
596.029	30492.97
596.387	30573.19
596.746	30849.57
597.104	30999.4
597.463	31174.76
597.822	31489.33
598.18	31552.83
598.538	31727.29
598.897	32115.53
599.255	32108.75
599.613	32702.18
599.972	32614.72
600.33	32861.49
600.688	32915.96
601.046	33189.85
601.404	33521.59
601.762	33507.35
602.12	33908.47
602.478	33917.29
602.836	34159.54
603.194	34150.95
603.552	34367.44
603.91	34359.53
604.268	34636.82
604.625	34793.87
604.983	35145.28
605.341	35032.06
605.698	35339.62
606.056	35480.18
606.413	35731.48
606.771	35725.15
607.128	35845.15
607.485	35944.13
607.843	36085.36
608.2	36303.21
608.557	36655.52
608.914	36493.94
609.272	36850.99
609.629	36963.99
609.986	37134.15
610.343	37039.46
610.7	37538.21
611.057	37539.34
611.414	37662.95
611.771	37848.48
612.127	37866.33
612.484	38148.59
612.841	38242.14
613.198	38248.02
613.554	38276.04
613.911	38544.28
614.267	38792.64
614.624	38749.93
614.98	38888.91
615.337	39044.83
615.693	39109.69
616.05	39250.48
616.406	39369.12
616.762	39343.81
617.118	39391.72
617.475	39559.17
617.831	39678.04
618.187	39665.16
618.543	39858.37
618.899	40115.09
619.255	40007.52
619.611	40163
619.967	40163.9
620.323	40350.11
620.678	40346.72
621.034	40211.81
621.39	40411.35
621.746	40378.59
622.101	40830.32
622.457	40745.58
622.812	40838.23
623.168	40788.29
623.523	40848.86
623.879	41086.59
624.234	40896.99
624.589	41035.52
624.945	41221.5
625.3	41100.37
625.655	41181.28
626.01	41220.37
626.365	41383.53
626.72	41276.41
627.075	41365.68
627.43	41360.93
627.785	41260.6
628.14	41395.73
628.495	41422.63
628.85	41484.32
629.205	41334.04
629.559	41569.51
629.914	41454.26
630.269	41687.48
630.623	41442.29
630.978	41468.95
631.332	41691.09
631.687	41822.16
632.041	41471.44
632.396	41530.42
632.75	41423.08
633.104	41642.05
633.459	41485.45
633.813	41453.81
634.167	41459.23
634.521	41371.55
634.875	41478.22
635.229	41564.32
635.583	41402.06
635.937	41467.37
636.291	41472.79
636.645	41378.11
636.999	41300.14
637.352	41474.83
637.706	41273.93
638.06	41527.26
638.413	41294.72
638.767	41270.77
639.121	41493.36
639.474	41075.97
639.828	41153.71
640.181	41179.47
640.534	41287.26
640.888	41109.41
641.241	41044.78
641.594	40951
641.947	41333.59
642.301	41194.61
642.654	41143.99
643.007	41193.93
643.36	41130.2
643.713	41083.88
644.066	41163.2
644.419	40837.56
644.771	40813.15
645.124	40498.81
645.477	40285.03
645.83	40156.22
646.182	40054.07
646.535	39898.37
646.888	39995.54
647.24	39690.47
647.593	40157.35
647.945	39896.34
648.298	39844.36
648.65	39588.78
649.002	39612.73
649.355	39777.25
649.707	39831.93
650.059	39877.81
650.411	40325.03
650.763	40307.85
651.115	40788.52
651.467	40647.28
651.819	40505.36
652.171	40503.33
652.523	40422.65
652.875	40432.6
653.227	40304.46
653.578	40634.4
653.93	40493.16
654.282	40369.55
654.633	40239.38
654.985	40359.6
655.337	40332.71
655.688	40378.13
656.039	40567.51
656.391	40170.91
656.742	40144.92
657.094	40321.19
657.445	40468.75
657.796	40338.36
658.147	40342.2
658.498	40221.53
658.849	40208.42
659.2	40194.41
659.551	40113.51
659.902	40243.67
660.253	40256.33
660.604	40215.65
660.955	40118.93
661.306	40171.13
661.656	40215.65
662.007	40231.92
662.358	40139.27
662.708	40036.9
663.059	40164.35
663.409	39796.68
663.76	40179.04
664.11	40238.25
664.461	40135.65
664.811	40077.35
665.161	40073.73
665.511	40035.77
665.862	40044.13
666.212	40117.58
666.562	40185.6
666.912	39958.48
667.262	40025.37
667.612	40064.7
667.962	40103.11
668.312	40052.94
668.662	40306.5
669.011	40173.84
669.361	39887.98
669.711	39917.35
670.06	40033.28
670.41	39738.6
670.76	39869.22
671.109	39858.15
671.459	39969.56
671.808	39710.58
672.157	39913.29
672.507	39727.98
672.856	39717.59
673.205	39821.99
673.554	39863.8
673.904	39800.75
674.253	39968.2
674.602	39673.97
674.951	39285.05
675.3	39191.27
675.649	39753.29
675.998	39706.29
676.346	39739.73
676.695	39777.92
677.044	39508.33
677.393	39711.26
677.741	39564.37
678.09	39495.44
678.438	39491.83
678.787	39446.63
679.135	39506.07
679.484	39174.32
679.832	39539.96
680.181	39272.63
680.529	39219.75
680.877	39146.75
681.225	39164.15
681.573	39419.74
681.922	39048.45
682.27	38968.68
682.618	38961.9
682.966	38918.06
683.314	38765.97
683.661	38846.2
684.009	38729.36
684.357	38517.84
684.705	38739.53
685.053	38603.04
685.4	38592.87
685.748	38440.56
686.095	38433.78
686.443	38314.01
686.79	38221.35
687.138	38238.98
687.485	38347.9
687.832	38114.69
688.18	38149.49
688.527	37964.41
688.874	38008.7
689.221	37863.4
689.568	37789.73
689.915	37591.77
690.262	37729.84
690.609	37488.72
690.956	37472.9
691.303	37401.26
691.65	37378.89
691.997	37232.68
692.344	37147.26
692.69	36911.11
693.037	37065.9
693.383	36734.39
693.73	36821.62
694.077	36686.7
694.423	36578.23
694.769	36506.37
695.116	36479.25
695.462	36356.77
695.808	36387.5
696.155	36368.3
696.501	35990
696.847	36016.89
697.193	35775.77
697.539	36004.01
697.885	35671.82
698.231	35645.38
698.577	35695.09
698.923	35602.89
699.269	35379.62
699.614	35432.73
699.96	35269.34
700.306	35310.02
700.651	34983.25
700.997	34954.55
701.342	34931.27
701.688	34905.96
702.033	34662.13
702.379	34735.34
702.724	34573.31
703.069	34677.27
703.415	34238.86
703.76	34419.42
704.105	34355.69
704.45	34368.12
704.795	33986.66
705.14	33939.66
705.485	34024.4
705.83	33844.07
706.175	33793.45
706.52	33850.4
706.865	33710.06
707.209	33508.71
707.554	33557.75
707.899	33644.07
708.243	33285.89
708.588	33407.02
708.932	33203.86
709.277	33112.56
709.621	33148.72
709.966	32871.89
710.31	33047.03
710.654	32618.34
710.998	32808.16
711.342	32828.5
711.687	32681.61
712.031	32601.39
712.375	32443.43
712.719	32565.01
713.063	32426.25
713.407	32592.58
713.75	32283.43
714.094	32325.69
714.438	32221.96
714.782	32220.83
715.125	32125.69
715.469	32089.76
715.812	31955.08
716.156	31798.92
716.499	31752.6
716.843	31799.38
717.186	31620.85
717.53	31694.97
717.873	31716.44
718.216	31527.74
718.559	31471.47
718.902	31333.85
719.246	31369.78
719.589	31278.71
719.932	31214.31
720.275	31066.06
720.617	31195.1
720.96	31014.54
721.303	31057.93
721.646	31014.76
721.989	30804.83
722.331	30965.5
722.674	30944.26
723.016	30792.4
723.359	30785.39
723.701	30891.6
724.044	30614.55
724.386	30326.42
724.729	30657.03
725.071	30452.52
725.413	30502.23
725.755	30477.6
726.097	30300.66
726.439	30262.24
726.782	30250.04
727.124	30311.51
727.465	30212.07
727.807	30146.76
728.149	30056.82
728.491	29963.27
728.833	30090.27
729.175	29884.62
729.516	29822.25
729.858	29784.97
730.199	29764.4
730.541	29755.14
730.882	29720.79
731.224	29807.11
731.565	29510.17
731.906	29478.08
732.248	29595.37
732.589	29443.73
732.93	29433.56
733.271	29337.75
733.612	29437.18
733.953	29473.34
734.294	29288.71
734.635	29219.33
734.976	29300.23
735.317	29083.97
735.658	29122.84
735.999	29086.23
736.339	29040.8
736.68	29187.24
737.021	28912.9
737.361	28865.67
737.702	29127.13
738.042	28972.33
738.383	28954.03
738.723	28951.99
739.063	28820.25
739.404	28841.04
739.744	28710.19
740.084	28727.59
740.424	28708.84
740.764	28559.46
741.104	28731.89
741.444	28376.87
741.784	28354.95
742.124	28370.54
742.464	28322.63
742.804	28399.47
743.143	28326.47
743.483	28307.94
743.823	28148.4
744.162	28086.93
744.502	28173.71
744.841	28050.32
745.181	28281.95
745.52	28075.63
745.86	28042.19
746.199	28013.26
746.538	27919.25
746.877	27965.13
747.216	27853.04
747.556	27863.89
747.895	27760.61
748.234	27669.31
748.573	27683.33
748.911	27588.41
749.25	27693.72
749.589	27434.29
749.928	27598.13
750.267	27701.4
750.605	27421.64
750.944	27360.17
751.283	27289.21
751.621	27331.02
751.96	27152.04
752.298	27241.08
752.636	27248.53
752.975	27059.84
753.313	26955.89
753.651	27101.65
753.989	26909.33
754.327	26804.7
754.666	26935.77
755.004	26773.52
755.342	26848.55
755.679	26713.41
756.017	26592.73
756.355	26684.26
756.693	26554.99
757.031	26513.41
757.368	26436.35
757.706	26355.68
