Data from hue_170_FLMS001491_00001.txt Node
Date: Tue Feb 07 16:48:09 GMT 2017
User: dcchb
Spectrometer: FLMS00149
Trigger mode: 0
Integration Time (sec): 2.000000E-2
Scans to average: 10
Electric dark correction enabled: true
Nonlinearity correction enabled: false
Boxcar width: 0
XAxis mode: Wavelengths
Number of Pixels in Spectrum: 2048
>>>>>Begin Spectral Data<<<<<
341.393	-25.15
341.776	-25.15
342.16	-25.15
342.543	-58.37
342.927	-79.39
343.31	-51.14
343.693	-87.75
344.077	-55.21
344.46	-76.68
344.843	-57.7
345.226	-36.23
345.61	-31.93
345.993	-22.44
346.376	-7.75
346.759	14.84
347.142	28.63
347.525	27.27
347.908	69.98
348.291	88.06
348.674	83.09
349.057	114.95
349.44	128.06
349.823	150.43
350.206	159.02
350.588	195.86
350.971	214.61
351.354	224.33
351.737	229.08
352.119	240.15
352.502	248.51
352.884	272.92
353.267	293.71
353.65	287.15
354.032	301.62
354.414	299.81
354.797	312.92
355.179	326.7
355.562	314.72
355.944	327.15
356.326	316.98
356.709	323.08
357.091	328.51
357.473	349.3
357.855	331.22
358.238	364.89
358.62	333.03
359.002	327.38
359.384	327.38
359.766	339.36
360.148	342.97
360.53	358.79
360.912	329.86
361.294	312.01
361.676	324.44
362.057	335.29
362.439	325.8
362.821	323.08
363.203	323.31
363.584	326.25
363.966	326.93
364.348	316.31
364.729	299.13
365.111	308.17
365.493	309.75
365.874	339.36
366.256	301.16
366.637	301.84
367.019	316.08
367.4	334.38
367.781	321.95
368.163	309.75
368.544	307.27
368.925	307.27
369.306	308.4
369.688	315.85
370.069	322.41
370.45	309.3
370.831	327.6
371.212	335.51
371.593	301.39
371.974	317.44
372.355	295.97
372.736	328.51
373.117	313.37
373.498	321.73
373.879	321.73
374.26	327.38
374.641	309.07
375.021	314.95
375.402	321.28
375.783	322.18
376.163	328.96
376.544	328.73
376.925	329.64
377.305	328.96
377.686	315.18
378.066	337.77
378.447	334.38
378.827	345.46
379.208	350.88
379.588	334.61
379.968	315.85
380.349	333.93
380.729	321.73
381.109	347.26
381.489	333.25
381.87	340.49
382.25	326.93
382.63	333.71
383.01	350.43
383.39	344.55
383.77	330.77
384.15	332.8
384.53	335.51
384.91	353.37
385.29	359.69
385.67	358.11
386.049	364.44
386.429	360.82
386.809	358.56
387.189	354.5
387.568	378.45
387.948	361.5
388.328	357.89
388.707	383.2
389.087	357.43
389.466	343.42
389.846	388.62
390.225	380.03
390.605	368.06
390.984	374.83
391.363	370.77
391.743	382.97
392.122	369.19
392.501	379.35
392.881	374.38
393.26	375.74
393.639	390.88
394.018	389.75
394.397	389.07
394.776	378.22
395.155	388.85
395.534	390.2
395.913	390.65
396.292	392.24
396.671	409.41
397.05	419.81
397.429	378.45
397.808	406.02
398.186	401.5
398.565	377.55
398.944	397.66
399.323	386.81
399.701	405.79
400.08	412.8
400.458	416.19
400.837	446.25
401.215	414.16
401.594	402.63
401.972	422.97
402.351	420.03
402.729	422.97
403.107	426.81
403.486	426.36
403.864	432.46
404.242	422.07
404.62	432.46
404.999	447.83
405.377	421.61
405.755	452.8
406.133	446.47
406.511	439.69
406.889	446.25
407.267	454.15
407.645	470.88
408.023	468.17
408.401	483.53
408.779	480.14
409.156	481.27
409.534	488.73
409.912	492.8
410.29	476.3
410.667	495.51
411.045	505
411.422	480.82
411.8	494.61
412.178	495.06
412.555	518.33
412.933	522.4
413.31	530.31
413.687	533.93
414.065	543.87
414.442	553.81
414.819	566.92
415.197	568.95
415.574	555.17
415.951	556.07
416.328	580.71
416.705	586.81
417.082	566.69
417.46	588.61
417.837	595.17
418.214	583.19
418.591	578.22
418.967	614.38
419.344	604.89
419.721	607.15
420.098	610.31
420.475	622.06
420.852	641.04
421.228	624.55
421.605	641.49
421.982	651.21
422.358	637.65
422.735	665.9
423.111	666.8
423.488	676.52
423.864	671.78
424.241	702.06
424.617	674.94
424.994	677.2
425.37	712.68
425.746	690.53
426.123	727.59
426.499	709.52
426.875	712.45
427.251	761.94
427.627	755.84
428.003	761.27
428.379	782.06
428.756	769.4
429.132	790.19
429.507	781.83
429.883	801.04
430.259	812.11
430.635	816.41
431.011	817.76
431.387	829.74
431.763	862.51
432.138	855.73
432.514	865.22
432.89	870.87
433.265	896.4
433.641	893.47
434.016	895.27
434.392	929.17
434.767	916.29
435.143	946.8
435.518	953.8
435.894	962.62
436.269	973.69
436.644	972.11
437.02	1008.04
437.395	984.99
437.77	1006
438.145	1018.43
438.52	1039.9
438.895	1057.53
439.271	1074.03
439.646	1081.71
440.021	1082.61
440.395	1111.09
440.77	1086
441.145	1084.19
441.52	1140.46
441.895	1124.87
442.27	1149.5
442.645	1142.95
443.019	1155.61
443.394	1148.15
443.769	1163.29
444.143	1178.66
444.518	1193.12
444.892	1198.09
445.267	1189.95
445.641	1206.9
446.016	1241.7
446.39	1229.95
446.764	1257.75
447.139	1253
447.513	1267.47
447.887	1253.23
448.262	1294.36
448.636	1259.33
449.01	1299.33
449.384	1307.47
449.758	1324.41
450.132	1337.52
450.506	1348.14
450.88	1340.91
451.254	1362.83
451.628	1397.18
452.002	1408.48
452.376	1383.17
452.75	1422.26
453.123	1439.21
453.497	1441.93
453.871	1450.74
454.244	1495.48
454.618	1513.56
454.992	1512.66
455.365	1528.25
455.739	1536.84
456.112	1561.24
456.486	1572.77
456.859	1630.39
457.232	1649.83
457.606	1646.21
457.979	1657.06
458.352	1688.02
458.725	1719.88
459.099	1745.42
459.472	1771.86
459.845	1767.11
460.218	1809.15
460.591	1816.15
460.964	1819.09
461.337	1884.85
461.71	1902.03
462.083	1922.36
462.456	1923.49
462.829	1952.42
463.201	1992.87
463.574	2011.18
463.947	2045.07
464.32	2115.13
464.692	2080.78
465.065	2117.16
465.438	2136.14
465.81	2216.37
466.183	2216.14
466.555	2267.89
466.928	2259.53
467.3	2270.15
467.672	2330.72
468.045	2409.81
468.417	2399.19
468.789	2432.18
469.161	2472.86
469.534	2525.96
469.906	2614.78
470.278	2604.61
470.65	2686.86
471.022	2751.5
471.394	2802.79
471.766	2796.47
472.138	2879.63
472.51	2940.42
472.882	2989.91
473.253	3038.04
473.625	3092.28
473.997	3131.37
474.369	3209.56
474.74	3297.92
475.112	3338.6
475.484	3383.34
475.855	3475.32
476.227	3524.36
476.598	3653.62
476.97	3702.43
477.341	3782.43
477.713	3872.82
478.084	3892.93
478.455	4049.09
478.827	4137
479.198	4277.33
479.569	4309.42
479.94	4416.08
480.311	4538.57
480.682	4593.71
481.053	4779.69
481.424	4880.25
481.795	4910.76
482.166	5058.1
482.537	5209.74
482.908	5294.48
483.279	5423.06
483.65	5518.43
484.021	5645.43
484.391	5778.53
484.762	5809.72
485.133	5974.46
485.503	6083.61
485.874	6298.75
486.244	6337.84
486.615	6492.19
486.985	6610.83
487.356	6744.16
487.726	6921.1
488.097	7112.96
488.467	7063.02
488.837	7307.08
489.207	7460.98
489.578	7557.92
489.948	7728.54
490.318	7903.22
490.688	7973.28
491.058	8178.92
491.428	8293.04
491.798	8414.4
492.168	8606.71
492.538	8680.83
492.908	8796.53
493.278	8994.72
493.648	9037.66
494.017	9126.7
494.387	9322.4
494.757	9404.65
495.126	9563.52
495.496	9635.61
495.866	9716.96
496.235	9900.46
496.605	10012.77
496.974	10050.51
497.344	10177.06
497.713	10271.52
498.082	10295.7
498.452	10483.72
498.821	10552.19
499.19	10626.54
499.559	10805.52
499.928	10796.71
500.298	10909.93
500.667	11071.05
501.036	11085.29
501.405	11152.63
501.774	11220.88
502.143	11407.09
502.512	11362.57
502.88	11482.34
503.249	11534.54
503.618	11559.63
503.987	11629.23
504.356	11766.4
504.724	11836.45
505.093	11843.91
505.462	11956.45
505.83	12028.99
506.199	12097.69
506.567	12207.07
506.936	12227.18
507.304	12335.65
507.672	12390.34
508.041	12414.74
508.409	12506.95
508.777	12589.43
509.145	12613.84
509.514	12632.14
509.882	12749.42
510.25	12783.1
510.618	12803.66
510.986	12844.79
511.354	13015.86
511.722	13068.74
512.09	13106.25
512.458	13086.36
512.826	13172.92
513.193	13185.8
513.561	13169.75
513.929	13231.9
514.297	13394.38
514.664	13407.03
515.032	13452.23
515.4	13529.07
515.767	13526.81
516.135	13458.78
516.502	13394.15
516.869	13603.64
517.237	13606.35
517.604	13536.97
517.972	13710.53
518.339	13696.74
518.706	13774.48
519.073	13717.31
519.44	13795.95
519.808	13862.62
520.175	13811.09
520.542	13959.11
520.909	13918.66
521.276	13914.37
521.643	13993.23
522.009	14017.19
522.376	14017.19
522.743	14090.63
523.11	14154.59
523.477	14218.09
523.843	14354.58
524.21	14307.8
524.577	14355.26
524.943	14350.96
525.31	14338.08
525.676	14489.72
526.043	14512.09
526.409	14426.89
526.776	14509.83
527.142	14540.79
527.508	14584.86
527.874	14661.01
528.241	14612.88
528.607	14571.07
528.973	14606.32
529.339	14534.24
529.705	14585.76
530.071	14638.41
530.437	14583.95
530.803	14612.43
531.169	14700.79
531.535	14563.61
531.901	14520
532.267	14439.55
532.632	14599.77
532.998	14532.65
533.364	14536.72
533.73	14566.33
534.095	14514.35
534.461	14594.35
534.826	14580.79
535.192	14490.85
535.557	14641.8
535.923	14438.87
536.288	14526.1
536.653	14494.92
537.019	14348.7
537.384	14361.36
537.749	14435.71
538.114	14336.95
538.479	14242.94
538.845	14298.08
539.21	14216.28
539.575	14251.53
539.94	14125.66
540.305	14121.82
540.67	14040.01
541.034	14031.42
541.399	14024.19
541.764	13993.46
542.129	13973.8
542.494	13904.65
542.858	13801.37
543.223	13804.99
543.587	13912.56
543.952	13757.53
544.316	13794.14
544.681	13750.75
545.045	13654.71
545.41	13676.41
545.774	13613.36
546.138	13560.02
546.503	13547.37
546.867	13542.62
547.231	13534.26
547.595	13450.2
547.959	13523.19
548.324	13398.22
548.688	13388.73
549.052	13324.32
549.416	13268.51
549.779	13247.72
550.143	13193.25
550.507	13242.97
550.871	13155.97
551.235	13026.93
551.599	13158
551.962	13010.89
552.326	12966.59
552.689	13088.17
553.053	12925.69
553.417	12838.46
553.78	13028.97
554.143	12891.34
554.507	12847.05
554.87	12863.32
555.234	12914.62
555.597	12791.68
555.96	12755.53
556.323	12821.06
556.686	12698.58
557.05	12727.96
557.413	12708.52
557.776	12702.65
558.139	12790.33
558.502	12713.27
558.865	12691.35
559.228	12739.26
559.59	12665.59
559.953	12694.96
560.316	12808.63
560.679	12583.1
561.041	12767.5
561.404	12702.42
561.767	12685.92
562.129	12626.72
562.492	12692.7
562.854	12714.62
563.217	12574.06
563.579	12672.59
563.941	12671.69
564.304	12646.6
564.666	12682.76
565.028	12675.98
565.39	12706.26
565.753	12717.11
566.115	12652.93
566.477	12711.46
566.839	12752.81
567.201	12796.66
567.563	12751.23
567.925	12760.5
568.287	12783.77
568.648	12812.7
569.01	12790.55
569.372	12831.91
569.734	12793.27
570.095	12764.34
570.457	12821.74
570.819	12780.16
571.18	12816.32
571.542	12890.89
571.903	12869.42
572.265	12888.63
572.626	12924.79
572.987	12863.32
573.349	12925.47
573.71	12937.22
574.071	12873.49
574.432	12932.02
574.794	12961.17
575.155	12952.58
575.516	12942.19
575.877	13045.24
576.238	12989.87
576.599	13034.39
576.96	12969.08
577.32	13033.71
577.681	12974.73
578.042	13018.57
578.403	12915.3
578.763	12929.53
579.124	13044.78
579.485	13038.91
579.845	13007.5
580.206	13005.01
580.566	13042.07
580.927	13016.08
581.287	12987.61
581.648	12887.73
582.008	13017.89
582.368	12992.58
582.728	12891.12
583.089	13037.1
583.449	12913.94
583.809	12948.52
584.169	12834.39
584.529	12857.22
584.889	12891.34
585.249	12875.3
585.609	12854.05
585.969	12861.06
586.329	12824.68
586.688	12876.65
587.048	12816.99
587.408	12734.51
587.768	12824.9
588.127	12750.1
588.487	12743.32
588.846	12855.86
589.206	12779.71
589.565	12710.56
589.925	12789.88
590.284	12765.92
590.643	12753.49
591.003	12775.64
591.362	12854.05
591.721	12706.71
592.08	12664
592.44	12770.22
592.799	12722.31
593.158	12658.58
593.517	12701.74
593.876	12668.75
594.235	12646.15
594.593	12705.81
594.952	12645.02
595.311	12518.02
595.67	12645.92
596.029	12657
596.387	12674.85
596.746	12664
597.104	12661.74
597.463	12615.19
597.822	12661.52
598.18	12645.92
598.538	12609.99
598.897	12626.49
599.255	12491.58
599.613	12737.67
599.972	12648.86
600.33	12617.9
600.688	12573.61
601.046	12663.33
601.404	12574.51
601.762	12548.3
602.12	12712.82
602.478	12595.98
602.836	12624.23
603.194	12537.45
603.552	12619.71
603.91	12588.07
604.268	12656.09
604.625	12572.48
604.983	12628.3
605.341	12536.77
605.698	12624.68
606.056	12644.34
606.413	12581.29
606.771	12652.7
607.128	12672.14
607.485	12545.59
607.843	12582.65
608.2	12611.12
608.557	12732.48
608.914	12628.98
609.272	12741.97
609.629	12697.67
609.986	12754.4
610.343	12667.62
610.7	12807.05
611.057	12657
611.414	12696.09
611.771	12715.3
612.127	12759.37
612.484	12733.61
612.841	12786.71
613.198	12785.36
613.554	12760.27
613.911	12715.53
614.267	12808.18
614.624	12776.77
614.98	12808.63
615.337	12824.22
615.693	12841.4
616.05	12824.68
616.406	12819.03
616.762	12827.61
617.118	12791.01
617.475	12854.96
617.831	12848.41
618.187	12835.3
618.543	12927.73
618.899	12963.66
619.255	12920.04
619.611	12882.08
619.967	12939.7
620.323	12890.66
620.678	12955.75
621.034	12911.23
621.39	12906.93
621.746	12879.14
622.101	13018.34
622.457	12855.64
622.812	12934.96
623.168	12960.94
623.523	12978.8
623.879	12992.58
624.234	12869.65
624.589	12885.92
624.945	12940.61
625.3	12911.68
625.655	12901.51
626.01	12968.4
626.365	12924.56
626.72	12907.84
627.075	12849.76
627.43	12910.55
627.785	12845.92
628.14	12921.4
628.495	12846.37
628.85	12911.91
629.205	12840.95
629.559	12946.93
629.914	12818.35
630.269	12831.23
630.623	12779.71
630.978	12752.81
631.332	12834.85
631.687	12819.03
632.041	12760.95
632.396	12776.54
632.75	12704.91
633.104	12715.75
633.459	12684.79
633.813	12695.64
634.167	12734.96
634.521	12720.27
634.875	12694.74
635.229	12664.68
635.583	12585.14
635.937	12617.45
636.291	12664.23
636.645	12618.13
636.999	12626.26
637.352	12644.57
637.706	12504.23
638.06	12512.59
638.413	12566.15
638.767	12460.84
639.121	12564.34
639.474	12433.73
639.828	12412.03
640.181	12461.75
640.534	12537.9
640.888	12490.22
641.241	12427.85
641.594	12464.69
641.947	12442.09
642.301	12438.02
642.654	12398.47
643.007	12384.69
643.36	12463.1
643.713	12358.25
644.066	12353.73
644.419	12315.76
644.771	12225.6
645.124	12131.14
645.477	12123.23
645.83	11993.29
646.182	11961.2
646.535	11967.3
646.888	11958.03
647.24	11937.02
647.593	11927.98
647.945	12017.01
648.298	11904.7
648.65	11891.37
649.002	11884.59
649.355	11956.45
649.707	11918.26
650.059	11977.92
650.411	12038.03
650.763	12187.41
651.115	12139.72
651.467	12258.36
651.819	12192.6
652.171	12112.38
652.523	12139.27
652.875	12217.01
653.227	12169.33
653.578	12227.18
653.93	12191.02
654.282	12137.24
654.633	12133.17
654.985	12189.44
655.337	12270.57
655.688	12200.29
656.039	12226.95
656.391	12151.25
656.742	12155.32
657.094	12207.07
657.445	12252.26
657.796	12112.61
658.147	12235.99
658.498	12189.89
658.849	12154.86
659.2	12207.07
659.551	12159.16
659.902	12263.56
660.253	12263.56
660.604	12283.67
660.955	12168.42
661.306	12194.86
661.656	12245.03
662.007	12236.22
662.358	12283.22
662.708	12250
663.059	12261.53
663.409	12247.29
663.76	12287.29
664.11	12232.15
664.461	12303.79
664.811	12299.49
665.161	12258.59
665.511	12190.8
665.862	12179.72
666.212	12242.09
666.562	12270.79
666.912	12272.38
667.262	12320.74
667.612	12297.01
667.962	12308.53
668.312	12249.55
668.662	12321.41
669.011	12244.81
669.361	12231.47
669.711	12307.18
670.06	12261.75
670.41	12251.58
670.76	12226.27
671.109	12369.77
671.459	12216.56
671.808	12195.99
672.157	12228.08
672.507	12187.41
672.856	12151.02
673.205	12204.13
673.554	12154.41
673.904	12145.6
674.253	12207.29
674.602	12183.34
674.951	11982.67
675.3	11910.8
675.649	12134.53
675.998	12022.66
676.346	12007.07
676.695	12059.95
677.044	11979.5
677.393	12041.65
677.741	12157.8
678.09	12061.08
678.438	11993.96
678.787	11990.35
679.135	11971.59
679.484	11890.46
679.832	11867.19
680.181	11814.31
680.529	11932.27
680.877	11862.89
681.225	11800.98
681.573	11953.74
681.922	11872.39
682.27	11777.02
682.618	11773.63
682.966	11751.26
683.314	11755.78
683.661	11702.22
684.009	11592.62
684.357	11652.73
684.705	11533.19
685.053	11632.62
685.4	11534.54
685.748	11532.28
686.095	11551.72
686.443	11436.46
686.79	11468.33
687.138	11442.57
687.485	11379.52
687.832	11411.38
688.18	11394.43
688.527	11355.56
688.874	11311.72
689.221	11317.6
689.568	11260.88
689.915	11248.22
690.262	11152.63
690.609	11198.96
690.956	11145.63
691.303	11030.83
691.65	11026.31
691.997	11068.79
692.344	11004.16
692.69	10949.7
693.037	10937.49
693.383	10845.52
693.73	10831.51
694.077	10795.8
694.423	10764.84
694.769	10762.58
695.116	10717.61
695.462	10700.89
695.808	10615.24
696.155	10685.52
696.501	10551.97
696.847	10535.92
697.193	10441.24
697.539	10550.61
697.885	10446.43
698.231	10368.7
698.577	10373.22
698.923	10341.35
699.269	10276.04
699.614	10212.77
699.96	10150.4
700.306	10156.05
700.651	10154.24
700.997	10116.95
701.342	10044.86
701.688	10056.16
702.033	9972.1
702.379	10027.24
702.724	9953.34
703.069	9921.02
703.415	9874.7
703.76	9881.93
704.105	9803.97
704.45	9850.97
704.795	9693.23
705.14	9665.44
705.485	9717.87
705.83	9651.2
706.175	9699.11
706.52	9586.12
706.865	9528.04
707.209	9515.39
707.554	9505.67
707.899	9497.53
708.243	9455.5
708.588	9396.07
708.932	9349.97
709.277	9367.59
709.621	9361.04
709.966	9248.27
710.31	9271.55
710.654	9242.4
710.998	9222.29
711.342	9242.4
711.687	9164.21
712.031	9166.24
712.375	9101.16
712.719	9154.04
713.063	9082.18
713.407	9135.73
713.75	9033.82
714.094	8987.72
714.438	8975.96
714.782	9032.91
715.125	8949.52
715.469	9067.71
715.812	8932.12
716.156	8906.81
716.499	8911.79
716.843	8958.34
717.186	8883.31
717.53	8938.23
717.873	8885.57
718.216	8862.52
718.559	8809.64
718.902	8769.87
719.246	8735.29
719.589	8782.3
719.932	8714.28
720.275	8744.11
720.617	8769.19
720.96	8726.93
721.303	8728.06
721.646	8767.38
721.989	8673.15
722.331	8660.27
722.674	8659.59
723.016	8679.7
723.359	8674.28
723.701	8588.63
724.044	8657.1
724.386	8581.17
724.729	8627.27
725.071	8615.75
725.413	8579.82
725.755	8662.98
726.097	8533.04
726.439	8613.26
726.782	8505.92
727.124	8604.45
727.465	8494.85
727.807	8573.26
728.149	8557.67
728.491	8556.31
728.833	8560.61
729.175	8529.65
729.516	8520.16
729.858	8486.71
730.199	8565.13
730.541	8516.32
730.882	8553.6
731.224	8545.02
731.565	8473.15
731.906	8493.04
732.248	8467.5
732.589	8431.8
732.93	8532.81
733.271	8466.37
733.612	8492.14
733.953	8472.25
734.294	8488.29
734.635	8500.27
734.976	8510.67
735.317	8495.75
735.658	8515.86
735.999	8505.24
736.339	8489.88
736.68	8534.17
737.021	8484
737.361	8493.72
737.702	8587.27
738.042	8528.52
738.383	8545.02
738.723	8574.62
739.063	8569.65
739.404	8598.8
739.744	8540.27
740.084	8555.18
740.424	8615.07
740.764	8569.2
741.104	8632.47
741.444	8634.05
741.784	8658.23
742.124	8705.01
742.464	8693.71
742.804	8723.32
743.143	8706.59
743.483	8787.72
743.823	8712.24
744.162	8774.39
744.502	8853.71
744.841	8829.08
745.181	8796.99
745.52	8891
745.86	8956.98
746.199	8961.28
746.538	8974.38
746.877	9063.87
747.216	9177.32
747.556	9095.96
747.895	9199.91
748.234	9244.21
748.573	9227.03
748.911	9330.98
749.25	9433.58
749.589	9461.83
749.928	9556.51
750.267	9679.9
750.605	9731.2
750.944	9705.21
751.283	9892.1
751.621	9957.86
751.96	10058.2
752.298	10113.56
752.636	10221.36
752.975	10316.49
753.313	10383.61
753.651	10471.07
753.989	10594.91
754.327	10704.28
754.666	10807.55
755.004	10995.57
755.342	11080.09
755.679	11279.86
756.017	11412.28
756.355	11571.38
756.693	11601.21
757.031	11868.09
757.368	11983.57
757.706	12109.22
758.044	12181.98
758.381	12425.59
