Data from hue_22_FLMS001491_00051.txt Node
Date: Tue Feb 07 17:10:19 GMT 2017
User: dcchb
Spectrometer: FLMS00149
Trigger mode: 0
Integration Time (sec): 2.000000E-2
Scans to average: 10
Electric dark correction enabled: true
Nonlinearity correction enabled: false
Boxcar width: 0
XAxis mode: Wavelengths
Number of Pixels in Spectrum: 2048
>>>>>Begin Spectral Data<<<<<
341.393	-3.91
341.776	-3.91
342.16	-3.91
342.543	-82.33
342.927	-80.75
343.31	-85.94
343.693	-78.03
344.077	-56.57
344.46	-66.51
344.843	-61.99
345.226	-53.85
345.61	-17.92
345.993	-5.04
346.376	-5.72
346.759	14.84
347.142	31.57
347.525	56.65
347.908	68.63
348.291	62.07
348.674	78.35
349.057	119.47
349.44	118.34
349.823	148.63
350.206	177.1
350.588	188.4
350.971	213.71
351.354	226.59
351.737	228.62
352.119	244.89
352.502	263.88
352.884	276.76
353.267	290.54
353.65	286.25
354.032	299.58
354.414	285.8
354.797	315.85
355.179	318.57
355.562	334.61
355.944	317.44
356.326	334.61
356.709	328.51
357.091	332.8
357.473	341.62
357.855	352.91
358.238	324.44
358.62	331.22
359.002	349.98
359.384	344.1
359.766	339.81
360.148	338.23
360.53	342.29
360.912	327.6
361.294	353.82
361.676	320.6
362.057	332.58
362.439	326.25
362.821	320.82
363.203	342.97
363.584	328.73
363.966	324.21
364.348	329.41
364.729	330.32
365.111	330.77
365.493	315.18
365.874	295.06
366.256	333.25
366.637	301.84
367.019	350.43
367.4	326.25
367.781	328.51
368.163	319.69
368.544	325.57
368.925	308.4
369.306	312.92
369.688	304.1
370.069	305.23
370.45	323.76
370.831	310.66
371.212	312.24
371.593	335.51
371.974	311.79
372.355	319.47
372.736	327.38
373.117	329.86
373.498	306.81
373.879	306.81
374.26	335.97
374.641	302.29
375.021	321.73
375.402	343.88
375.783	311.79
376.163	347.72
376.544	339.58
376.925	324.44
377.305	320.37
377.686	346.36
378.066	316.76
378.447	331.45
378.827	335.06
379.208	320.37
379.588	325.34
379.968	327.38
380.349	351.11
380.729	355.4
381.109	354.5
381.489	327.83
381.87	326.93
382.25	347.94
382.63	352.91
383.01	343.2
383.39	344.55
383.77	337.55
384.15	358.56
384.53	343.88
384.91	341.16
385.29	361.28
385.67	357.89
386.049	333.25
386.429	352.69
386.809	355.17
387.189	322.41
387.568	343.2
387.948	351.56
388.328	337.77
388.707	363.08
389.087	349.3
389.466	359.47
389.846	371.9
390.225	354.04
390.605	356.98
390.984	357.89
391.363	371.67
391.743	360.6
392.122	347.72
392.501	368.51
392.881	387.72
393.26	374.83
393.639	382.52
394.018	385.23
394.397	392.69
394.776	377.55
395.155	384.78
395.534	383.87
395.913	406.92
396.292	376.19
396.671	383.42
397.05	385.68
397.429	399.24
397.808	390.2
398.186	392.69
398.565	394.04
398.944	378.68
399.323	412.35
399.701	416.42
400.08	397.89
400.458	405.79
400.837	402.86
401.215	411.44
401.594	403.31
401.972	398.79
402.351	382.74
402.729	427.49
403.107	424.1
403.486	410.99
403.864	412.12
404.242	430.43
404.62	437.21
404.999	436.75
405.377	423.2
405.755	408.73
406.133	419.13
406.511	432.46
406.889	441.95
407.267	416.19
407.645	450.54
408.023	445.12
408.401	464.55
408.779	444.66
409.156	450.31
409.534	439.47
409.912	462.74
410.29	458.45
410.667	460.93
411.045	470.43
411.422	456.64
411.8	451.89
412.178	462.97
412.555	460.26
412.933	474.72
413.31	493.93
413.687	489.18
414.065	498.67
414.442	478.33
414.819	479.92
415.197	481.72
415.574	483.98
415.951	517.2
416.328	479.24
416.705	496.41
417.082	516.75
417.46	513.81
417.837	521.5
418.214	527.6
418.591	516.75
418.967	502.97
419.344	516.3
419.721	535.28
420.098	528.5
420.475	518.33
420.852	538.9
421.228	526.92
421.605	533.7
421.982	538.45
422.358	549.75
422.735	535.96
423.111	578.9
423.488	558.56
423.864	548.16
424.241	540.93
424.617	564.43
424.994	592.46
425.37	551.1
425.746	562.63
426.123	557.65
426.499	566.02
426.875	577.99
427.251	594.04
427.627	591.78
428.003	593.13
428.379	598.33
428.756	595.62
429.132	601.27
429.507	615.96
429.883	591.78
430.259	607.6
430.635	611.89
431.011	616.64
431.387	607.37
431.763	664.77
432.138	630.2
432.514	653.7
432.89	669.97
433.265	670.87
433.641	670.19
434.016	660.48
434.392	718.33
434.767	679.46
435.143	701.15
435.518	716.29
435.894	711.55
436.269	691.44
436.644	705.9
437.02	709.97
437.395	725.56
437.77	727.82
438.145	744.32
438.52	716.52
438.895	711.1
439.271	732.79
439.646	760.14
440.021	775.73
440.395	752.68
440.77	770.08
441.145	762.4
441.52	770.3
441.895	745.22
442.27	784.77
442.645	773.02
443.019	790.87
443.394	785.67
443.769	798.55
444.143	769.85
444.518	814.82
444.892	811.43
445.267	784.99
445.641	813.92
446.016	815.28
446.39	819.57
446.764	823.18
447.139	825.9
447.513	838.78
447.887	824.77
448.262	855.73
448.636	838.55
449.01	840.81
449.384	859.57
449.758	871.54
450.132	868.83
450.506	887.14
450.88	876.97
451.254	879.68
451.628	926.68
452.002	901.6
452.376	902.96
452.75	905.22
453.123	924.2
453.497	947.7
453.871	933.01
454.244	959.9
454.618	943.63
454.992	963.52
455.365	972.11
455.739	986.12
456.112	998.77
456.486	1013.01
456.859	993.8
457.232	996.97
457.606	1007.36
457.979	1022.05
458.352	1069.05
458.725	1060.01
459.099	1060.01
459.472	1074.03
459.845	1095.49
460.218	1081.03
460.591	1099.56
460.964	1100.47
461.337	1142.27
461.71	1147.24
462.083	1171.42
462.456	1158.54
462.829	1172.1
463.201	1175.49
463.574	1175.72
463.947	1188.37
464.32	1242.16
464.692	1231.54
465.065	1208.71
465.438	1267.92
465.81	1253.23
466.183	1307.47
466.555	1319.22
466.928	1332.78
467.3	1304.53
467.672	1347.01
468.045	1343.62
468.417	1376.16
468.789	1374.36
469.161	1397.18
469.534	1442.6
469.906	1468.37
470.278	1481.7
470.65	1491.19
471.022	1488.93
471.394	1517.4
471.766	1535.03
472.138	1548.59
472.51	1596.72
472.882	1646.44
473.253	1664.74
473.625	1651.19
473.997	1662.94
474.369	1704.29
474.74	1703.39
475.112	1769.15
475.484	1827.68
475.855	1818.64
476.227	1840.11
476.598	1889.6
476.97	1869.26
477.341	1970.05
477.713	2001.91
478.084	2003.27
478.455	2017.28
478.827	2106.99
479.198	2151.74
479.569	2150.61
479.94	2199.42
480.311	2223.37
480.682	2291.39
481.053	2355.57
481.424	2390.15
481.795	2424.72
482.166	2455.91
482.537	2473.08
482.908	2560.31
483.279	2585.4
483.65	2641.44
484.021	2695.68
484.391	2702.91
484.762	2758.5
485.133	2789.23
485.503	2827.43
485.874	2940.42
486.244	2928.21
486.615	2987.87
486.985	3057.02
487.356	3135.67
487.726	3125.95
488.097	3182.67
488.467	3215.21
488.837	3269.9
489.207	3327.75
489.578	3388.54
489.948	3426.51
490.318	3492.49
490.688	3486.84
491.058	3551.7
491.428	3639.61
491.798	3632.83
492.168	3728.64
492.538	3797.57
492.908	3807.06
493.278	3852.71
493.648	3884.12
494.017	3916.21
494.387	3975.87
494.757	4008.19
495.126	4069.2
495.496	4079.6
495.866	4083.89
496.235	4130.67
496.605	4169.09
496.974	4259.25
497.344	4257.67
497.713	4282.3
498.082	4347.84
498.452	4344.22
498.821	4389.87
499.19	4438.91
499.559	4458.12
499.928	4485.46
500.298	4566.14
500.667	4579.24
501.036	4567.94
501.405	4602.29
501.774	4627.6
502.143	4663.76
502.512	4744.66
502.88	4766.36
503.249	4768.62
503.618	4787.6
503.987	4775.4
504.356	4889.07
504.724	4889.07
505.093	4916.18
505.462	4888.61
505.83	4943.53
506.199	4991.66
506.567	5037.99
506.936	4963.19
507.304	5077.31
507.672	5086.12
508.041	5104.43
508.409	5135.61
508.777	5223.97
509.145	5212.45
509.514	5239.79
509.882	5236.63
510.25	5294.03
510.618	5270.98
510.986	5286.34
511.354	5410.63
511.722	5389.39
512.09	5412.89
512.458	5419.9
512.826	5491.31
513.193	5477.3
513.561	5494.25
513.929	5553.68
514.297	5636.17
514.664	5651.76
515.032	5637.3
515.4	5674.36
515.767	5660.8
516.135	5676.62
516.502	5666.45
516.869	5701.25
517.237	5813.79
517.604	5780.57
517.972	5803.84
518.339	5838.87
518.706	5847.23
519.073	5883.39
519.44	5879.77
519.808	5979.21
520.175	5942.6
520.542	6050.39
520.909	5976.72
521.276	6021.01
521.643	6072.99
522.009	6096.27
522.376	6130.84
522.743	6171.97
523.11	6227.34
523.477	6228.01
523.843	6328.12
524.21	6366.09
524.577	6387.11
524.943	6398.86
525.31	6390.27
525.676	6484.28
526.043	6477.73
526.409	6518.18
526.776	6601.34
527.142	6618.74
527.508	6656.93
527.874	6642.24
528.241	6742.12
528.607	6693.99
528.973	6824.61
529.339	6765.4
529.705	6850.6
530.071	6890.14
530.437	6920.65
530.803	6917.94
531.169	7011.5
531.535	6950.03
531.901	7018.95
532.267	7087.43
532.632	7068.9
532.998	7109.35
533.364	7159.97
533.73	7234.32
534.095	7249
534.461	7269.57
534.826	7299.4
535.192	7307.99
535.557	7347.31
535.923	7300.98
536.288	7398.38
536.653	7470.24
537.019	7411.71
537.384	7543.69
537.749	7528.32
538.114	7579.62
538.479	7607.41
538.845	7645.6
539.21	7594.76
539.575	7633.4
539.94	7683.34
540.305	7772.61
540.67	7760.86
541.034	7751.36
541.399	7856.45
541.764	7854.41
542.129	7881.08
542.494	7931.47
542.858	7941.19
543.223	7924.24
543.587	7994.97
543.952	8034.52
544.316	8012.6
544.681	8105.7
545.045	8152.71
545.41	8156.1
545.774	8180.51
546.138	8159.26
546.503	8218.24
546.867	8248.75
547.231	8272.25
547.595	8324.68
547.959	8312.03
548.324	8374.4
548.688	8392.25
549.052	8414.17
549.416	8466.15
549.779	8495.75
550.143	8570.33
550.507	8574.85
550.871	8628.18
551.235	8635.63
551.599	8607.61
551.962	8670.89
552.326	8737.33
552.689	8756.54
553.053	8702.07
553.417	8749.08
553.78	8854.39
554.143	8808.29
554.507	8829.08
554.87	8887.15
555.234	8963.99
555.597	8946.13
555.96	8964.44
556.323	9007.38
556.686	9059.58
557.05	9109.52
557.413	9133.47
557.776	9134.83
558.139	9175.28
558.502	9183.87
558.865	9227.48
559.228	9289.18
559.59	9288.72
559.953	9375.5
560.316	9389.29
560.679	9375.05
561.041	9454.37
561.404	9452.11
561.767	9534.59
562.129	9481.94
562.492	9598.55
562.854	9611.43
563.217	9605.55
563.579	9622.05
563.941	9784.3
564.304	9734.59
564.666	9808.71
565.028	9806
565.39	9856.17
565.753	9951.76
566.115	9897.07
566.477	9983.4
566.839	9993.11
567.201	10018.87
567.563	10090.74
567.925	10119.44
568.287	10156.95
568.648	10166.67
569.01	10224.29
569.372	10275.14
569.734	10288.7
570.095	10347
570.457	10348.36
570.819	10459.99
571.18	10452.08
571.542	10501.57
571.903	10497.28
572.265	10538.86
572.626	10673.32
572.987	10667.9
573.349	10732.98
573.71	10791.51
574.071	10840.32
574.432	10938.4
574.794	10967.78
575.155	11054.1
575.516	11027.44
575.877	11147.21
576.238	11185.17
576.599	11301.55
576.96	11320.08
577.32	11461.77
577.681	11559.63
578.042	11623.58
578.403	11677.59
578.763	11790.58
579.124	11925.94
579.485	12016.56
579.845	12150.57
580.206	12129.55
580.566	12316.67
580.927	12422.65
581.287	12620.61
581.648	12723.21
582.008	12796.88
582.368	13015.18
582.728	13160.04
583.089	13304.66
583.449	13393.25
583.809	13649.51
584.169	13783.75
584.529	13909.17
584.889	14165.88
585.249	14216.28
585.609	14448.14
585.969	14736.72
586.329	14937.39
586.688	15191.62
587.048	15342.58
587.408	15569.92
587.768	15764.94
588.127	15956.12
588.487	16208.09
588.846	16649.21
589.206	16791.8
589.565	17043.55
589.925	17320.38
590.284	17530.54
590.643	17986.8
591.003	18129.62
591.362	18532.32
591.721	18684.41
592.08	18950.62
592.44	19308.35
592.799	19651.39
593.158	19901.55
593.517	20271.94
593.876	20558.71
594.235	20694.98
594.593	21127.74
594.952	21422.64
595.311	21642.3
595.67	22023.31
596.029	22416.06
596.387	22735.38
596.746	23083.62
597.104	23348.24
597.463	23616.94
597.822	24104.38
598.18	24267.31
598.538	24490.36
598.897	25009.44
599.255	25129.66
599.613	25738.91
599.972	25776.88
600.33	26293.25
600.688	26418.67
601.046	26765.1
601.404	27207.58
601.762	27520.56
602.12	27880.33
602.478	28201.67
602.836	28516.24
603.194	28698.16
603.552	28925.72
603.91	29053.85
604.268	29566.16
604.625	29668.53
604.983	30123.88
605.341	30339.47
605.698	30742.62
606.056	31055.38
606.413	31114.59
606.771	31597.74
607.128	31815.82
607.485	32060.56
607.843	32205.86
608.2	32594.33
608.557	33016.69
608.914	32979.4
609.272	33437.02
609.629	33621.42
609.986	34126.94
610.343	34076.77
610.7	34477.44
611.057	34704.1
611.414	34746.81
611.771	35017.77
612.127	35273.58
612.484	35347.25
612.841	35790.17
613.198	35800.34
613.554	36008.93
613.911	36398.75
614.267	36546.99
614.624	36655.91
614.98	36936.81
615.337	37252.51
615.693	37347.65
616.05	37499.51
616.406	37804.59
616.762	37845.26
617.118	37960.97
617.475	38170
617.831	38531.57
618.187	38497.45
618.543	38579.03
618.899	38960.03
619.255	38891.11
619.611	39087.72
619.967	39503.75
620.323	39527.48
620.678	39619.9
621.034	39525.67
621.39	39781.71
621.746	39850.18
622.101	40320.9
622.457	40047.69
622.812	40167.91
623.168	40399.55
623.523	40493.33
623.879	40691.51
624.234	40592.76
624.589	40833.43
624.945	40886.31
625.3	41131.96
625.655	41046.99
626.01	41118.17
626.365	41258.73
626.72	41287.66
627.075	41342.35
627.43	41380.54
627.785	41369.92
628.14	41553.41
628.495	41708.66
628.85	41604.26
629.205	41555.9
629.559	41836.57
629.914	41645.39
630.269	41783.69
630.623	41753.18
630.978	41966.96
631.332	41932.61
631.687	42220.29
632.041	41843.8
632.396	42123.12
632.75	42042.89
633.104	42225.03
633.459	41964.93
633.813	42189.33
634.167	42124.02
634.521	42193.17
634.875	42268.87
635.229	42208.99
635.583	42060.97
635.937	42038.37
636.291	42098.48
636.645	42220.29
636.999	41998.83
637.352	42173.96
637.706	41907.3
638.06	42282.43
638.413	42120.86
638.767	42203.57
639.121	42246.05
639.474	41993.85
639.828	42021.42
640.181	41991.59
640.534	42057.13
640.888	42136.22
641.241	41885.16
641.594	42005.83
641.947	42185.03
642.301	42128.31
642.654	41949.79
643.007	42046.96
643.36	41991.59
643.713	41936.23
644.066	42117.24
644.419	41884.03
644.771	41682.9
645.124	41345.51
645.477	41218.73
645.83	41086.76
646.182	41061.9
646.535	40864.39
646.888	40929.02
647.24	40663.94
647.593	40902.13
647.945	40751.63
648.298	40758.41
648.65	40590.27
649.002	40631.18
649.355	40893.32
649.707	40748.01
650.059	40942.36
650.411	41260.09
650.763	41325.4
651.115	41633.18
651.467	41505.05
651.819	41587.08
652.171	41479.74
652.523	41483.58
652.875	41522
653.227	41372.63
653.578	41599.51
653.93	41666.18
654.282	41344.6
654.633	41308.9
654.985	41307.77
655.337	41412.17
655.688	41488.1
656.039	41761.32
656.391	41363.59
656.742	41470.03
657.094	41467.77
657.445	41477.03
657.796	41369.69
658.147	41298.28
658.498	41286.53
658.849	41500.76
659.2	41297.15
659.551	41336.92
659.902	41392.74
660.253	41326.3
660.604	41291.73
660.955	41265.96
661.306	41446.07
661.656	41281.78
662.007	41303.02
662.358	41330.14
662.708	41256.47
663.059	41256.7
663.409	41060.54
663.76	41392.29
664.11	41383.25
664.461	41427.77
664.811	41341.67
665.161	41390.71
665.511	41238.39
665.862	41063.93
666.212	41360.2
666.562	41257.38
666.912	41146.42
667.262	41170.37
667.612	41228.9
667.962	41291.5
668.312	41266.87
668.662	41152.29
669.011	41012.86
669.361	40992.52
669.711	41048.57
670.06	41175.8
670.41	41070.26
670.76	40919.08
671.109	41196.13
671.459	41098.96
671.808	40998.85
672.157	41222.35
672.507	40931.51
672.856	40929.93
673.205	41082.46
673.554	41093.99
673.904	40853.09
674.253	41133.09
674.602	41040.66
674.951	40401.8
675.3	40244.07
675.649	40944.16
675.998	40722.93
676.346	40745.98
676.695	40917.72
677.044	40623.72
677.393	40751.4
677.741	40681.8
678.09	40689.25
678.438	40707.11
678.787	40694.23
679.135	40738.75
679.484	40363.61
679.832	40657.62
680.181	40355.48
680.529	40581.46
680.877	40352.77
681.225	40294.92
681.573	40540.11
681.922	40251.3
682.27	40215.6
682.618	40167.91
682.966	40122.94
683.314	40292.2
683.661	40004.3
684.009	39939.22
684.357	39864.19
684.705	39785.1
685.053	39852.67
685.4	39789.39
685.748	39703.52
686.095	39471.66
686.443	39483.19
686.79	39401.38
687.138	39410.19
687.485	39517.76
687.832	39365.45
688.18	39257.43
688.527	39125.23
688.874	39089.75
689.221	39058.79
689.568	38896.08
689.915	38808.85
690.262	38899.7
690.609	38736.76
690.956	38622.19
691.303	38699.25
691.65	38385.36
691.997	38480.5
692.344	38317.34
692.69	38306.27
693.037	38186.5
693.383	37960.97
693.73	38039.83
694.077	37896.79
694.423	37745.83
694.769	37662.89
695.116	37673.06
695.462	37634.65
695.808	37504.71
696.155	37551.03
696.501	37115.56
696.847	37283.47
697.193	37057.71
697.539	37145.17
697.885	36898.17
698.231	36904.72
698.577	36869.24
698.923	36750.15
699.269	36498.4
699.614	36403.49
699.96	36451.17
700.306	36302.48
700.651	36286.43
700.997	36073.11
701.342	36063.61
701.688	36090.05
702.033	35969.83
702.379	35963.05
702.724	35763.73
703.069	35700.46
703.415	35457.3
703.76	35534.59
704.105	35391.09
704.45	35476.96
704.795	35142.51
705.14	35044.88
705.485	35177.76
705.83	34846.92
706.175	34957.65
706.52	34937.77
706.865	34733.25
707.209	34751.56
707.554	34662.07
707.899	34731.22
708.243	34427.27
708.588	34366.94
708.932	34069.09
709.277	34172.59
709.621	34208.3
709.966	33993.61
710.31	34168.3
710.654	33838.36
710.998	33822.99
711.342	33806.72
711.687	33670
712.031	33489.22
712.375	33512.27
712.719	33626.39
713.063	33463.68
713.407	33750.23
713.75	33357.02
714.094	33395.44
714.438	33234.76
714.782	33270.69
715.125	33202.45
715.469	33107.76
715.812	33022.34
716.156	32897.37
716.499	32894.21
716.843	32856.47
717.186	32639.3
717.53	32757.71
717.873	32724.04
718.216	32695.11
718.559	32574.44
718.902	32319.76
719.246	32465.52
719.589	32211.51
719.932	32144.17
720.275	32218.29
720.617	32220.1
720.96	32016.71
721.303	32061.69
721.646	31993.44
721.989	31951.18
722.331	31937.85
722.674	31833.89
723.016	31873.22
723.359	31776.72
723.701	31838.41
724.044	31642.94
724.386	31485.43
724.729	31625.09
725.071	31518.87
725.413	31391.87
725.755	31405.66
726.097	31388.93
726.439	31194.59
726.782	31291.54
727.124	31219.22
727.465	31101.94
727.807	31138.32
728.149	31097.64
728.491	30894.71
728.833	30988.04
729.175	30985.78
729.516	30887.48
729.858	30924.99
730.199	30845.45
730.541	30810.87
730.882	30772
731.224	30669.63
731.565	30543.31
731.906	30684.77
732.248	30557.54
732.589	30382.86
732.93	30353.71
733.271	30400.03
733.612	30520.71
733.953	30305.12
734.294	30308.74
734.635	30219.25
734.976	30375.4
735.317	30086.6
735.658	30164.79
735.999	30174.5
736.339	30028.52
736.68	30115.3
737.021	30022.87
737.361	29860.84
737.702	29939.03
738.042	29873.95
738.383	29670.56
738.723	29886.38
739.063	29780.62
739.404	29815.87
739.744	29636.89
740.084	29581.75
740.424	29582.43
740.764	29576.55
741.104	29541.07
741.444	29520.96
741.784	29408.2
742.124	29419.95
742.464	29463.56
742.804	29296.33
743.143	29177.92
743.483	29259.73
743.823	29164.36
744.162	29148.54
744.502	29280.06
744.841	28997.81
745.181	29173.63
745.52	29055.44
745.86	29107.64
746.199	28974.08
746.538	28997.13
746.877	29030.13
747.216	28941.77
747.556	28940.41
747.895	28856.57
748.234	28803.24
748.573	28687.31
748.911	28602.34
749.25	28746.74
749.589	28467.2
749.928	28577.94
750.267	28639.18
750.605	28524.83
750.944	28375.45
751.283	28390.37
751.621	28420.2
751.96	28224.05
752.298	28266.3
752.636	28279.86
752.975	28126.87
753.313	27995.8
753.651	27965.3
753.989	27897.27
754.327	27864.96
754.666	27738.86
755.004	27743.83
755.342	27833.55
755.679	27694.57
756.017	27709.71
756.355	27719.43
756.693	27592.2
757.031	27608.92
757.368	27472.88
757.706	27391.07
758.044	27346.55
758.381	27400.11
758.719	27195.15
759.056	27294.58
759.394	27147.01
759.731	27023.4
760.068	26920.8
760.405	26839.22
