Data from hue_90_FLMS001491_87.txt Node
Date: Mon Feb 06 15:25:48 GMT 2017
User: dcchb
Spectrometer: FLMS00149
Trigger mode: 0
Integration Time (sec): 2.000000E-2
Scans to average: 10
Electric dark correction enabled: true
Nonlinearity correction enabled: false
Boxcar width: 0
XAxis mode: Wavelengths
Number of Pixels in Spectrum: 2048
>>>>>Begin Spectral Data<<<<<
341.393	-21.36
341.776	-21.36
342.16	-21.36
342.543	-58.87
342.927	-59.77
343.31	-50.51
343.693	-66.55
344.077	-62.48
344.46	-65.42
344.843	-64.52
345.226	-47.8
345.61	-10.73
345.993	-19.77
346.376	-7.34
346.759	10.28
347.142	13.9
347.525	48.47
347.908	42.6
348.291	75.14
348.674	94.35
349.057	110.39
349.44	128.7
349.823	148.58
350.206	139.54
350.588	178.19
350.971	186.77
351.354	215.02
351.737	245.98
352.119	220.67
352.502	257.28
352.884	269.48
353.267	270.61
353.65	289.6
354.032	275.81
354.414	315.13
354.797	316.26
355.179	299.09
355.562	309.48
355.944	317.17
356.326	318.07
356.709	333.89
357.091	323.49
357.473	338.18
357.855	321.23
358.238	336.83
358.62	340.22
359.002	315.81
359.384	350.61
359.766	345.41
360.148	336.38
360.53	324.17
360.912	326.66
361.294	320.56
361.676	328.92
362.057	336.15
362.439	330.5
362.821	328.01
363.203	306.09
363.584	323.95
363.966	316.26
364.348	321.01
364.729	314.23
365.111	332.76
365.493	328.24
365.874	308.58
366.256	337.28
366.637	321.69
367.019	338.86
367.4	303.38
367.781	304.06
368.163	326.21
368.544	310.39
368.925	295.47
369.306	312.2
369.688	298.41
370.069	298.18
370.45	294.79
370.831	303.38
371.212	320.1
371.593	308.13
371.974	312.2
372.355	329.14
372.736	316.04
373.117	317.17
373.498	308.58
373.879	303.38
374.26	309.48
374.641	305.64
375.021	331.18
375.402	298.41
375.783	322.36
376.163	331.4
376.544	324.62
376.925	340.67
377.305	323.72
377.686	330.95
378.066	336.6
378.447	331.4
378.827	303.16
379.208	328.24
379.588	337.51
379.968	323.95
380.349	315.36
380.729	321.01
381.109	338.86
381.489	328.69
381.87	325.75
382.25	330.5
382.63	332.31
383.01	327.11
383.39	348.35
383.77	331.18
384.15	354.91
384.53	358.75
384.91	335.02
385.29	347.9
385.67	339.99
386.049	361.23
386.429	340.44
386.809	348.13
387.189	367.79
387.568	347.9
387.948	317.17
388.328	364.85
388.707	350.16
389.087	348.8
389.466	377.96
389.846	372.31
390.225	349.71
390.605	360.56
390.984	381.12
391.363	359.88
391.743	353.32
392.122	374.11
392.501	356.04
392.881	381.12
393.26	363.27
393.639	392.65
394.018	383.61
394.397	370.72
394.776	370.5
395.155	398.29
395.534	370.5
395.913	383.61
396.292	371.85
396.671	390.39
397.05	401.01
397.429	414.57
397.808	412.31
398.186	379.76
398.565	387.45
398.944	403.04
399.323	408.46
399.701	384.96
400.08	394.68
400.458	413.44
400.837	376.83
401.215	402.14
401.594	421.34
401.972	411.85
402.351	420.67
402.729	424.28
403.107	419.09
403.486	392.65
403.864	412.53
404.242	417.28
404.62	431.51
404.999	427.22
405.377	424.28
405.755	442.36
406.133	426.99
406.511	446.65
406.889	429.03
407.267	425.64
407.645	426.99
408.023	423.38
408.401	455.47
408.779	448.01
409.156	460.67
409.534	478.52
409.912	456.37
410.29	479.42
410.667	460.67
411.045	487.11
411.422	476.03
411.8	478.29
412.178	471.96
412.555	485.98
412.933	483.26
413.31	489.37
413.687	486.2
414.065	477.84
414.442	509.25
414.819	502.92
415.197	505.64
415.574	512.19
415.951	515.58
416.328	513.77
416.705	529.36
417.082	554.9
417.46	500.66
417.837	525.3
418.214	508.35
418.591	533.21
418.967	544.05
419.344	554.67
419.721	541.79
420.098	551.96
420.475	543.6
420.852	562.36
421.228	565.52
421.605	568.01
421.982	554.9
422.358	573.21
422.735	562.81
423.111	577.72
423.488	574.79
423.864	577.95
424.241	585.86
424.617	614.79
424.994	589.48
425.37	584.96
425.746	607.1
426.123	602.13
426.499	595.35
426.875	609.81
427.251	603.71
427.627	613.66
428.003	639.19
428.379	645.75
428.756	650.72
429.132	644.39
429.507	639.19
429.883	636.93
430.259	666.54
430.635	670.83
431.011	671.06
431.387	674.67
431.763	703.6
432.138	680.55
432.514	705.18
432.89	705.86
433.265	738.4
433.641	740.43
434.016	713.77
434.392	735.46
434.767	740.88
435.143	755.35
435.518	751.96
435.894	756.48
436.269	782.47
436.644	796.02
437.02	783.82
437.395	797.15
437.77	802.13
438.145	793.09
438.52	825.85
438.895	833.09
439.271	832.41
439.646	804.61
440.021	832.41
440.395	810.94
440.77	837.38
441.145	848.45
441.52	830.83
441.895	871.05
442.27	851.39
442.645	870.82
443.019	857.49
443.394	872.86
443.769	879.41
444.143	905.63
444.518	892.29
444.892	888.45
445.267	890.71
445.641	904.72
446.016	901.56
446.39	935.91
446.764	955.79
447.139	938.17
447.513	940.2
447.887	932.52
448.262	920.99
448.636	930.94
449.01	976.58
449.384	976.58
449.758	975.91
450.132	1005.96
450.506	998.28
450.88	995.12
451.254	996.7
451.628	1011.84
452.002	1006.19
452.376	1051.61
452.75	1038.73
453.123	1041.44
453.497	1042.35
453.871	1083.7
454.244	1094.32
454.618	1112.4
454.992	1100.2
455.365	1093.87
455.739	1134.77
456.112	1158.27
456.486	1147.2
456.859	1160.08
457.232	1171.83
457.606	1172.96
457.979	1196.24
458.352	1223.58
458.725	1224.49
459.099	1226.07
459.472	1245.96
459.845	1270.14
460.218	1284.82
460.591	1292.51
460.964	1311.94
461.337	1349.23
461.71	1345.39
462.083	1364.37
462.456	1369.12
462.829	1379.96
463.201	1410.92
463.574	1425.16
463.947	1425.84
464.32	1467.87
464.692	1487.53
465.065	1487.98
465.438	1525.04
465.81	1526.4
466.183	1550.35
466.555	1600.3
466.928	1600.97
467.3	1599.17
467.672	1624.7
468.045	1690.01
468.417	1699.5
468.789	1710.35
469.161	1731.82
469.534	1771.14
469.906	1797.58
470.278	1831.48
470.65	1869.44
471.022	1890.46
471.394	1907.41
471.766	1961.64
472.138	1986.28
472.51	2011.81
472.882	2089.1
473.253	2101.98
473.625	2180.62
473.997	2229.21
474.369	2246.83
474.74	2257
475.112	2315.08
475.484	2428.98
475.855	2471.91
476.227	2503.1
476.598	2578.58
476.97	2585.58
477.341	2658.35
477.713	2727.5
478.084	2768.4
478.455	2868.06
478.827	2919.13
479.198	3015.85
479.569	3049.07
479.94	3158.45
480.311	3228.5
480.682	3310.76
481.053	3419.23
481.424	3503.75
481.795	3593.46
482.166	3655.16
482.537	3764.31
482.908	3898.32
483.279	3947.13
483.65	4035.71
484.021	4158.42
484.391	4261.24
484.762	4292.88
485.133	4378.08
485.503	4540.33
485.874	4685.87
486.244	4728.8
486.615	4873.21
486.985	4973.09
487.356	5149.13
487.726	5249.01
488.097	5412.17
488.467	5457.37
488.837	5618.95
489.207	5770.81
489.578	5926.74
489.948	5983.01
490.318	6144.13
490.688	6222.55
491.058	6356.33
491.428	6501.64
491.798	6655.98
492.168	6759.03
492.538	6909.76
492.908	7015.52
493.278	7195.4
493.648	7255.29
494.017	7450.09
494.387	7535.28
494.757	7609.63
495.126	7784.54
495.496	7905.44
495.866	7981.6
496.235	8151.09
496.605	8229.95
496.974	8358.54
497.344	8523.5
497.713	8587.68
498.082	8687.57
498.452	8811.18
498.821	8957.39
499.19	9068.8
499.559	9118.07
499.928	9241.9
500.298	9342.69
500.667	9468.79
501.036	9475.34
501.405	9675.11
501.774	9708.56
502.143	9774.09
502.512	9832.62
502.88	10007.53
503.249	10028.32
503.618	10148.09
503.987	10241.2
504.356	10372.27
504.724	10365.04
505.093	10461.31
505.462	10496.56
505.83	10609.33
506.199	10696.78
506.567	10874.18
506.936	10897.91
507.304	11009.77
507.672	11042.53
508.041	11135.87
508.409	11212.93
508.777	11311.91
509.145	11397.1
509.514	11348.29
509.882	11416.08
510.25	11519.36
510.618	11684.1
510.986	11684.55
511.354	11774.04
511.722	11881.83
512.09	11988.05
512.458	11914.38
512.826	12080.25
513.193	12172.45
513.561	12073.92
513.929	12221.94
514.297	12309.39
514.664	12258.1
515.032	12357.98
515.4	12415.38
515.767	12425.32
516.135	12558.2
516.502	12450.63
516.869	12602.27
517.237	12722.94
517.604	12663.96
517.972	12799.55
518.339	12843.84
518.706	12769.95
519.073	12915.03
519.44	12947.8
519.808	12987.12
520.175	12972.2
520.542	13163.38
520.909	13185.3
521.276	13165.87
521.643	13197.51
522.009	13301.23
522.376	13258.52
522.743	13370.83
523.11	13381
523.477	13487.44
523.843	13555.91
524.21	13612.41
524.577	13684.72
524.943	13640.66
525.31	13689.92
525.676	13805.4
526.043	13829.13
526.409	13787.1
526.776	13956.58
527.142	13938.96
527.508	14003.36
527.874	13995.45
528.241	14011.72
528.607	14019.63
528.973	14173.07
529.339	14046.52
529.705	14170.36
530.071	14220.53
530.437	14245.61
530.803	14295.1
531.169	14248.1
531.535	14154.09
531.901	14273.41
532.267	14243.35
532.632	14285.16
532.998	14314.99
533.364	14320.41
533.73	14325.61
534.095	14407.42
534.461	14353.63
534.826	14380.98
535.192	14403.8
535.557	14415.33
535.923	14337.36
536.288	14303.47
536.653	14325.61
537.019	14305.73
537.384	14288.55
537.749	14328.55
538.114	14219.85
538.479	14338.04
538.845	14246.52
539.21	14176.01
539.575	14179.4
539.94	14277.7
540.305	14271.15
540.67	14179.63
541.034	14104.15
541.399	14186.63
541.764	14224.15
542.129	14165.39
542.494	14093.08
542.858	14100.76
543.223	14065.28
543.587	14110.25
543.952	14144.15
544.316	14006.98
544.681	13975.56
545.045	14006.07
545.41	14025.96
545.774	13925.85
546.138	13906.19
546.503	13937.6
546.867	13846.3
547.231	14020.08
547.595	13957.26
547.959	13894.89
548.324	13846.75
548.688	13882.46
549.052	13920.65
549.416	13790.94
549.779	13762.69
550.143	13701.67
550.507	13788.23
550.871	13856.47
551.235	13672.75
551.599	13822.12
551.962	13716.81
552.326	13725.85
552.689	13679.75
553.053	13582.35
553.417	13593.43
553.78	13722.24
554.143	13635.46
554.507	13642.47
554.87	13682.92
555.234	13772.86
555.597	13624.39
555.96	13566.08
556.323	13613.54
556.686	13700.77
557.05	13672.07
557.413	13593.65
557.776	13662.13
558.139	13680.43
558.502	13597.95
558.865	13696.7
559.228	13687.44
559.59	13657.16
559.953	13630.94
560.316	13803.82
560.679	13692.86
561.041	13762.69
561.404	13789.13
561.767	13778.28
562.129	13710.71
562.492	13823.7
562.854	13823.03
563.217	13787.77
563.579	13785.06
563.941	13863.93
564.304	13803.82
564.666	13893.53
565.028	13929.01
565.39	13895.79
565.753	13897.37
566.115	14010.82
566.477	14012.63
566.839	14066.41
567.201	14105.28
567.563	13963.59
567.925	14058.73
568.287	14051.95
568.648	14090.14
569.01	14027.54
569.372	14159.06
569.734	14093.3
570.095	14239.29
570.457	14215.11
570.819	14172.85
571.18	14166.29
571.542	14298.27
571.903	14329.91
572.265	14278.38
572.626	14321.09
572.987	14321.09
573.349	14334.43
573.71	14375.1
574.071	14382.11
574.432	14387.76
574.794	14393.86
575.155	14431.82
575.516	14387.31
575.877	14380.3
576.238	14446.74
576.599	14484.7
576.96	14491.94
577.32	14487.42
577.681	14434.99
578.042	14510.24
578.403	14432.28
578.763	14517.25
579.124	14603.34
579.485	14520.86
579.845	14582.55
580.206	14526.28
580.566	14493.97
580.927	14512.5
581.287	14570.58
581.648	14568.54
582.008	14625.27
582.368	14565.61
582.728	14603.8
583.089	14604.47
583.449	14512.27
583.809	14565.61
584.169	14498.71
584.529	14569
584.889	14645.15
585.249	14500.97
585.609	14428.21
585.969	14588.43
586.329	14495.1
586.688	14512.27
587.048	14466.63
587.408	14471.6
587.768	14427.98
588.127	14455.1
588.487	14421.2
588.846	14542.1
589.206	14337.82
589.565	14417.81
589.925	14413.97
590.284	14404.71
590.643	14433.63
591.003	14358.61
591.362	14427.76
591.721	14378.27
592.08	14398.38
592.44	14401.32
592.799	14430.47
593.158	14468.89
593.517	14355.67
593.876	14328.55
594.235	14355.44
594.593	14341.43
594.952	14319.96
595.311	14382.11
595.67	14281.09
596.029	14417.14
596.387	14404.03
596.746	14355.67
597.104	14367.42
597.463	14362.45
597.822	14426.17
598.18	14313.86
598.538	14274.09
598.897	14369.68
599.255	14226.18
599.613	14491.71
599.972	14377.59
600.33	14295.1
600.688	14339.85
601.046	14395.21
601.404	14388.89
601.762	14341.66
602.12	14356.8
602.478	14325.39
602.836	14377.14
603.194	14308.44
603.552	14311.38
603.91	14303.01
604.268	14336.69
604.625	14303.92
604.983	14371.71
605.341	14362.22
605.698	14397.47
606.056	14326.29
606.413	14410.36
606.771	14399.28
607.128	14412.84
607.485	14367.42
607.843	14364.71
608.2	14320.41
608.557	14470.69
608.914	14428.21
609.272	14411.71
609.629	14498.26
609.986	14434.99
610.343	14445.16
610.7	14498.94
611.057	14521.31
611.414	14561.09
611.771	14478.38
612.127	14545.04
612.484	14512.5
612.841	14547.98
613.198	14611.03
613.554	14621.2
613.911	14665.26
614.267	14559.5
614.624	14613.06
614.98	14663
615.337	14704.36
615.693	14658.48
616.05	14628.65
616.406	14695.55
616.762	14619.16
617.118	14618.49
617.475	14700.29
617.831	14806.05
618.187	14715.66
618.543	14724.02
618.899	14755.43
619.255	14714.98
619.611	14811.7
619.967	14913.85
620.323	14839.72
620.678	14866.61
621.034	14753.17
621.39	14846.05
621.746	14779.16
622.101	14879.27
622.457	14774.87
622.812	14834.98
623.168	14917.46
623.523	14777.8
623.879	14897.8
624.234	14819.38
624.589	14797.92
624.945	14865.94
625.3	14909.78
625.655	14789.1
626.01	14872.49
626.365	14782.32
626.72	14724.7
627.075	14793.17
627.43	14808.31
627.785	14724.92
628.14	14847.63
628.495	14805.37
628.85	14768.31
629.205	14698.03
629.559	14787.29
629.914	14749.56
630.269	14757.01
630.623	14678.37
630.978	14727.64
631.332	14629.11
631.687	14641.54
632.041	14651.48
632.396	14626.4
632.75	14654.87
633.104	14628.43
633.459	14623.23
633.813	14561.31
634.167	14596.79
634.521	14587.07
634.875	14608.77
635.229	14478.15
635.583	14474.08
635.937	14470.47
636.291	14411.71
636.645	14477.47
636.999	14419.17
637.352	14401.09
637.706	14382.79
638.06	14386.4
638.413	14329.68
638.767	14343.92
639.121	14274.99
639.474	14324.93
639.828	14225.5
640.181	14269.12
640.534	14259.4
640.888	14282.22
641.241	14271.83
641.594	14241.55
641.947	14193.19
642.301	14255.11
642.654	14255.56
643.007	14192.51
643.36	14145.73
643.713	14106.41
644.066	14113.19
644.419	14159.97
644.771	13992.29
645.124	13877.49
645.477	13952.97
645.83	13808.34
646.182	13734.44
646.535	13635.46
646.888	13679.53
647.24	13678.62
647.593	13694.22
647.945	13644.95
648.298	13560.43
648.65	13625.29
649.002	13627.78
649.355	13557.5
649.707	13565.86
650.059	13689.7
650.411	13823.93
650.763	13849.47
651.115	14056.24
651.467	13971.27
651.819	14012.63
652.171	13924.94
652.523	13883.36
652.875	13942.12
653.227	13920.65
653.578	13979.86
653.93	13915
654.282	13876.13
654.633	13961.78
654.985	13872.06
655.337	13886.75
655.688	13886.98
656.039	13939.86
656.391	13850.37
656.742	13880.43
657.094	13949.8
657.445	13895.11
657.796	13865.06
658.147	13920.88
658.498	13858.05
658.849	13914.32
659.2	13991.16
659.551	13888.11
659.902	13941.22
660.253	13825.06
660.604	13913.87
660.955	13886.98
661.306	13969.24
661.656	13874.55
662.007	13929.01
662.358	13936.92
662.708	13936.47
663.059	13891.5
663.409	13902.35
663.76	13939.18
664.11	14026.18
664.461	13983.25
664.811	13975.79
665.161	13994.77
665.511	13955.45
665.862	13927.43
666.212	14021.89
666.562	14023.7
666.912	13993.19
667.262	13929.92
667.612	13927.66
667.962	13958.84
668.312	13938.28
668.662	14007.43
669.011	13921.1
669.361	13918.39
669.711	13959.52
670.06	13877.49
670.41	13843.82
670.76	13746.64
671.109	13873.42
671.459	13803.59
671.808	13818.05
672.157	13861.44
672.507	13697.38
672.856	13711.16
673.205	13832.29
673.554	13798.62
673.904	13814.89
674.253	13869.58
674.602	13722.46
674.951	13573.77
675.3	13558.85
675.649	13738.06
675.998	13749.58
676.346	13759.53
676.695	13711.16
677.044	13636.82
677.393	13719.53
677.741	13691.73
678.09	13651.73
678.438	13647.21
678.787	13616.93
679.135	13650.83
679.484	13566.31
679.832	13602.69
680.181	13543.71
680.529	13477.95
680.877	13493.77
681.225	13515.24
681.573	13566.99
681.922	13417.39
682.27	13350.5
682.618	13392.53
682.966	13348.24
683.314	13365.86
683.661	13305.07
684.009	13291.97
684.357	13242.02
684.705	13176.04
685.053	13203.16
685.4	13248.58
685.748	13098.98
686.095	13134.68
686.443	13102.82
686.79	13038.87
687.138	13034.35
687.485	13074.35
687.832	12951.64
688.18	13062.14
688.527	12960.22
688.874	12912.32
689.221	12920.45
689.568	12862.6
689.915	12884.97
690.262	12807.91
690.609	12756.84
690.956	12705.77
691.303	12679.78
691.65	12602.04
691.997	12673.68
692.344	12475.49
692.69	12459.22
693.037	12578.54
693.383	12375.15
693.73	12470.97
694.077	12300.13
694.423	12311.65
694.769	12351.43
695.116	12251.09
695.462	12215.39
695.808	12151.88
696.155	12169.51
696.501	12053.13
696.847	12053.36
697.193	11956.41
697.539	11944.43
697.885	11812.68
698.231	11797.32
698.577	11839.58
698.923	11797.09
699.269	11713.48
699.614	11723.19
699.96	11618.34
700.306	11689.75
700.651	11578.79
700.997	11518
701.342	11508.51
701.688	11538.79
702.033	11493.82
702.379	11426.03
702.724	11353.26
703.069	11365.24
703.415	11248.4
703.76	11275.07
704.105	11249.08
704.45	11221.06
704.795	11212.25
705.14	11158.46
705.485	11070.78
705.83	11038.92
706.175	11010.9
706.52	10998.02
706.865	10951.01
707.209	10955.53
707.554	10856.55
707.899	10913.5
708.243	10861.52
708.588	10850.45
708.932	10761.86
709.277	10774.74
709.621	10734.07
709.966	10642.77
710.31	10695.65
710.654	10606.16
710.998	10605.94
711.342	10609.55
711.687	10596.44
712.031	10455.21
712.375	10421.53
712.719	10485.94
713.063	10414.08
713.407	10473.74
713.75	10368.43
714.094	10425.6
714.438	10329.56
714.782	10378.37
715.125	10347.86
715.469	10356.45
715.812	10179.28
716.156	10240.97
716.499	10212.95
716.843	10312.61
717.186	10241.88
717.53	10206.17
717.873	10131.82
718.216	10254.31
718.559	10119.39
718.902	10086.85
719.246	10148.32
719.589	10097.25
719.932	10149.45
720.275	10081.43
720.617	10096.57
720.96	10042.56
721.303	10012.05
721.646	10011.38
721.989	9952.85
722.331	10021.54
722.674	10013.86
723.016	9996.91
723.359	9903.81
723.701	9954.43
724.044	9900.64
724.386	9884.6
724.729	9836.24
725.071	9855.22
725.413	9847.09
725.755	9859.51
726.097	9808.67
726.439	9783.13
726.782	9808.44
727.124	9849.8
727.465	9794.88
727.807	9756.69
728.149	9748.33
728.491	9669.69
728.833	9765.96
729.175	9682.8
729.516	9756.47
729.858	9700.65
730.199	9723.93
730.541	9733.42
730.882	9734.77
731.224	9739.29
731.565	9753.98
731.906	9698.62
732.248	9737.03
732.589	9680.08
732.93	9664.94
733.271	9729.8
733.612	9692.97
733.953	9715.79
734.294	9700.65
734.635	9721.89
734.976	9617.49
735.317	9667.43
735.658	9616.81
735.999	9716.47
736.339	9632.63
736.68	9687.54
737.021	9603.93
737.361	9680.54
737.702	9674.89
738.042	9650.03
738.383	9627.66
738.723	9636.92
739.063	9646.19
739.404	9691.16
739.744	9719.18
740.084	9660.2
740.424	9752.4
740.764	9659.07
741.104	9732.06
741.444	9666.98
741.784	9620.43
742.124	9701.1
742.464	9713.98
742.804	9743.36
743.143	9725.28
743.483	9766.18
743.823	9801.44
744.162	9816.13
744.502	9835.33
744.841	9836.69
745.181	9960.98
745.52	9876.46
745.86	9946.07
746.199	10026.52
746.538	10019.96
746.877	10047.08
747.216	10163.91
747.556	10130.47
747.895	10170.47
748.234	10181.09
748.573	10280.97
748.911	10292.27
749.25	10292.95
749.589	10358.03
749.928	10453.17
750.267	10484.36
750.605	10577.24
750.944	10574.98
751.283	10595.31
751.621	10726.16
751.96	10715.31
752.298	10795.76
752.636	10946.04
752.975	10935.87
753.313	11042.53
753.651	11147.84
753.989	11186.49
754.327	11263.77
754.666	11408.17
755.004	11481.62
755.342	11622.86
755.679	11752.12
756.017	11775.62
756.355	11926.35
756.693	11952.57
757.031	12086.8
757.368	12259.23
757.706	12261.71
