Data from hue_350_FLMS001491_23.txt Node
Date: Mon Feb 06 15:37:47 GMT 2017
User: dcchb
Spectrometer: FLMS00149
Trigger mode: 0
Integration Time (sec): 2.000000E-2
Scans to average: 10
Electric dark correction enabled: true
Nonlinearity correction enabled: false
Boxcar width: 0
XAxis mode: Wavelengths
Number of Pixels in Spectrum: 2048
>>>>>Begin Spectral Data<<<<<
341.393	-4.97
341.776	-4.97
342.16	-4.97
342.543	-63.73
342.927	-77.96
343.31	-79.55
343.693	-82.03
344.077	-56.5
344.46	-49.94
344.843	-48.36
345.226	-47
345.61	-34.35
345.993	-18.3
346.376	-5.2
346.759	18.98
347.142	33.9
347.525	44.07
347.908	52.2
348.291	72.31
348.674	94.69
349.057	105.08
349.44	139.21
349.823	150.5
350.206	130.84
350.588	192.76
350.971	199.54
351.354	221.92
351.737	233.67
352.119	244.51
352.502	257.62
352.884	267.11
353.267	262.59
353.65	301.69
354.032	286.09
354.414	303.72
354.797	316.38
355.179	340.1
355.562	314.12
355.944	297.62
356.326	316.83
356.709	357.28
357.091	342.82
357.473	328.35
357.855	350.5
358.238	355.7
358.62	350.5
359.002	339.88
359.384	325.87
359.766	343.95
360.148	357.05
360.53	346.66
360.912	342.82
361.294	340.56
361.676	322.03
362.057	320.44
362.439	332.87
362.821	339.65
363.203	326.77
363.584	322.25
363.966	309.37
364.348	325.87
364.729	306.43
365.111	305.98
365.493	337.84
365.874	320.9
366.256	308.47
366.637	314.57
367.019	312.99
367.4	330.39
367.781	295.81
368.163	307.79
368.544	308.47
368.925	300.78
369.306	294.68
369.688	313.21
370.069	325.87
370.45	290.61
370.831	340.56
371.212	303.95
371.593	301.24
371.974	314.57
372.355	303.95
372.736	304.85
373.117	309.37
373.498	310.5
373.879	312.31
374.26	298.98
374.641	311.86
375.021	311.4
375.402	309.14
375.783	318.64
376.163	319.54
376.544	296.04
376.925	309.14
377.305	334.68
377.686	301.69
378.066	305.98
378.447	319.54
378.827	308.92
379.208	333.1
379.588	318.64
379.968	334.45
380.349	329.48
380.729	329.71
381.109	327.45
381.489	323.61
381.87	332.65
382.25	316.83
382.63	336.49
383.01	336.49
383.39	332.42
383.77	330.39
384.15	337.39
384.53	327.9
384.91	337.39
385.29	354.11
385.67	353.89
386.049	346.21
386.429	351.4
386.809	356.15
387.189	359.99
387.568	339.2
387.948	359.09
388.328	337.17
388.707	364.96
389.087	342.59
389.466	349.37
389.846	346.88
390.225	363.38
390.605	353.44
390.984	362.93
391.363	356.15
391.743	344.85
392.122	362.02
392.501	350.95
392.881	377.17
393.26	345.3
393.639	360.89
394.018	374.68
394.397	370.16
394.776	359.99
395.155	375.36
395.534	377.84
395.913	371.74
396.292	387.79
396.671	364.74
397.05	355.92
397.429	365.19
397.808	366.77
398.186	373.1
398.565	384.85
398.944	369.48
399.323	381.01
399.701	371.29
400.08	377.17
400.458	379.88
400.837	382.81
401.215	393.66
401.594	388.01
401.972	389.82
402.351	391.85
402.729	384.4
403.107	390.27
403.486	404.51
403.864	378.52
404.242	388.46
404.62	404.96
404.999	406.99
405.377	433.21
405.755	395.24
406.133	395.92
406.511	432.76
406.889	433.43
407.267	434.56
407.645	401.8
408.023	401.57
408.401	421.46
408.779	434.34
409.156	427.56
409.534	429.37
409.912	440.44
410.29	450.16
410.667	457.62
411.045	458.52
411.422	458.52
411.8	455.36
412.178	432.31
412.555	470.27
412.933	450.84
413.31	457.16
413.687	451.74
414.065	452.87
414.442	458.74
414.819	461.68
415.197	477.73
415.574	481.34
415.951	452.42
416.328	477.73
416.705	478.41
417.082	483.38
417.46	495.81
417.837	508.01
418.214	504.39
418.591	489.25
418.967	503.49
419.344	499.2
419.721	504.39
420.098	530.38
420.475	507.33
420.852	511.85
421.228	514.56
421.605	534.9
421.982	539.42
422.358	547.33
422.735	545.07
423.111	550.72
423.488	543.49
423.864	566.54
424.241	544.17
424.617	555.24
424.994	533.77
425.37	557.27
425.746	530.83
426.123	553.21
426.499	581.68
426.875	592.07
427.251	583.26
427.627	594.79
428.003	602.47
428.379	583.49
428.756	611.74
429.132	612.41
429.507	611.74
429.883	613.54
430.259	606.31
430.635	632.75
431.011	623.26
431.387	636.14
431.763	654.9
432.138	639.98
432.514	624.16
432.89	646.54
433.265	660.32
433.641	680.89
434.016	656.93
434.392	676.37
434.767	682.69
435.143	673.43
435.518	684.73
435.894	701.22
436.269	731.96
436.644	724.95
437.02	724.95
437.395	726.53
437.77	736.25
438.145	735.12
438.52	742.13
438.895	744.39
439.271	747.1
439.646	743.26
440.021	764.95
440.395	761.79
440.77	776.48
441.145	768.79
441.52	759.98
441.895	765.63
442.27	802.46
442.645	780.09
443.019	798.4
443.394	811.73
443.769	804.5
444.143	767.21
444.518	823.03
444.892	787.1
445.267	825.74
445.641	800.2
446.016	841.79
446.39	818.96
446.764	826.64
447.139	829.58
447.513	838.4
447.887	853.31
448.262	828
448.636	843.82
449.01	847.89
449.384	858.28
449.758	849.47
450.132	865.74
450.506	888.56
450.88	874.1
451.254	887.66
451.628	865.97
452.002	888.79
452.376	930.82
452.75	899.19
453.123	922.46
453.497	912.07
453.871	919.3
454.244	933.99
454.618	961.56
454.992	961.78
455.365	957.04
455.739	968.79
456.112	960.2
456.486	977.15
456.859	993.65
457.232	1011.72
457.606	1030.26
457.979	1013.76
458.352	1014.21
458.725	1023.48
459.099	1056.7
459.472	1048.56
459.845	1069.12
460.218	1055.34
460.591	1088.33
460.964	1068.45
461.337	1101.44
461.71	1111.84
462.083	1116.81
462.456	1115.9
462.829	1149.8
463.201	1136.47
463.574	1152.29
463.947	1161.78
464.32	1188.22
464.692	1205.84
465.065	1195.67
465.438	1196.58
465.81	1178.73
466.183	1235.67
466.555	1259.18
466.928	1238.61
467.3	1244.49
467.672	1286.52
468.045	1302.79
468.417	1321.77
468.789	1311.83
469.161	1335.11
469.534	1359.29
469.906	1362
470.278	1376.01
470.65	1407.19
471.022	1429.34
471.394	1453.07
471.766	1461.2
472.138	1471.15
472.51	1488.32
472.882	1535.33
473.253	1517.02
473.625	1568.77
473.997	1587.53
474.369	1623.91
474.74	1627.53
475.112	1685.83
475.484	1669.11
475.855	1681.76
476.227	1704.59
476.598	1738.94
476.97	1784.13
477.341	1792.95
477.713	1828.88
478.084	1863.68
478.455	1905.49
478.827	1924.24
479.198	1962.66
479.569	1924.47
479.94	1998.59
480.311	2053.28
480.682	2074.3
481.053	2105.93
481.424	2166.72
481.795	2181.86
482.166	2222.31
482.537	2251.24
482.908	2284.46
483.279	2296.89
483.65	2370.79
484.021	2392.93
484.391	2411.24
484.762	2446.04
485.133	2482.65
485.503	2479.48
485.874	2584.11
486.244	2602.19
486.615	2683.55
486.985	2668.18
487.356	2709.31
487.726	2758.57
488.097	2820.72
488.467	2816.2
488.837	2842.86
489.207	2900.26
489.578	2907.27
489.948	2967.83
490.318	3001.95
490.688	3027.94
491.058	3058.22
491.428	3133.7
491.798	3165.11
492.168	3195.17
492.538	3233.59
492.908	3238.33
493.278	3346.8
493.648	3318.1
494.017	3366.24
494.387	3430.87
494.757	3433.13
495.126	3462.73
495.496	3471.32
495.866	3532.79
496.235	3552
496.605	3567.82
496.974	3612.11
497.344	3598.32
497.713	3656.85
498.082	3656.4
498.452	3681.03
498.821	3735.27
499.19	3769.17
499.559	3808.71
499.928	3745.44
500.298	3828.83
500.667	3897.98
501.036	3850.52
501.405	3854.81
501.774	3873.57
502.143	3947.24
502.512	3979.33
502.88	3969.61
503.249	3942.95
503.618	4008.48
503.987	3985.88
504.356	4060.01
504.724	4094.81
505.093	4106.11
505.462	4101.59
505.83	4111.3
506.199	4170.51
506.567	4232.88
506.936	4171.19
507.304	4260.23
507.672	4253
508.041	4284.18
508.409	4281.24
508.777	4270.62
509.145	4315.37
509.514	4350.17
509.882	4347.23
510.25	4393.78
510.618	4366.89
510.986	4395.82
511.354	4466.32
511.722	4457.74
512.09	4490.96
512.458	4484.63
512.826	4517.17
513.193	4499.09
513.561	4524.4
513.929	4569.82
514.297	4600.11
514.664	4626.77
515.032	4643.95
515.4	4648.92
515.767	4664.28
516.135	4721.91
516.502	4670.61
516.869	4742.7
517.237	4702.02
517.604	4732.53
517.972	4792.19
518.339	4746.09
518.706	4836.26
519.073	4821.57
519.44	4841
519.808	4873.32
520.175	4849.14
520.542	4894.33
520.909	4912.87
521.276	4939.76
521.643	4940.66
522.009	4931.4
522.376	4991.51
522.743	5050.26
523.11	5082.58
523.477	5060.43
523.843	5086.19
524.21	5132.97
524.577	5200.09
524.943	5233.76
525.31	5191.05
525.676	5237.15
526.043	5290.71
526.409	5270.82
526.776	5316.92
527.142	5382.23
527.508	5352.4
527.874	5444.6
528.241	5483.47
528.607	5424.26
528.973	5526.63
529.339	5471.49
529.705	5496.8
530.071	5621.77
530.437	5616.58
530.803	5579.97
531.169	5623.81
531.535	5615.67
531.901	5639.17
532.267	5656.8
532.632	5754.65
532.998	5705.16
533.364	5803.24
533.73	5767.31
534.095	5898.83
534.461	5864.7
534.826	5873.74
535.192	5928.43
535.557	5958.71
535.923	5998.94
536.288	5996
536.653	6036.68
537.019	6020.18
537.384	6081.65
537.749	6059.5
538.114	6046.85
538.479	6063.8
538.845	6156
539.21	6168.88
539.575	6192.61
539.94	6193.51
540.305	6225.15
540.67	6262.43
541.034	6253.17
541.399	6331.36
541.764	6258.59
542.129	6373.17
542.494	6383.33
542.858	6412.49
543.223	6385.82
543.587	6463.78
543.952	6446.61
544.316	6507.4
544.681	6481.64
545.045	6525.25
545.41	6592.82
545.774	6592.82
546.138	6591.69
546.503	6635.31
546.867	6658.36
547.231	6680.73
547.595	6703.33
547.959	6724.57
548.324	6750.56
548.688	6817.45
549.052	6776.54
549.416	6811.35
549.779	6799.82
550.143	6857.22
550.507	6865.58
550.871	6908.29
551.235	6881.85
551.599	7016.09
551.962	7002.75
552.326	7001.62
552.689	7047.05
553.053	6991.68
553.417	7106.03
553.78	7117.78
554.143	7103.32
554.507	7139.02
554.87	7142.64
555.234	7214.5
555.597	7170.43
555.96	7190.32
556.323	7213.37
556.686	7231.9
557.05	7278.68
557.413	7297.44
557.776	7341.05
558.139	7375.63
558.502	7403.42
558.865	7419.69
559.228	7453.82
559.59	7426.92
559.953	7531.33
560.316	7547.15
560.679	7583.98
561.041	7602.06
561.404	7595.96
561.767	7657.65
562.129	7670.53
562.492	7708.05
562.854	7713.47
563.217	7724.77
563.579	7759.8
563.941	7749.85
564.304	7818.55
564.666	7855.39
565.028	7879.11
565.39	7819.68
565.753	7999.79
566.115	7927.48
566.477	7996.63
566.839	8022.16
567.201	8039.34
567.563	8089.96
567.925	8125.66
568.287	8115.49
568.648	8170.63
569.01	8229.39
569.372	8280.23
569.734	8232.33
570.095	8258.77
570.457	8281.14
570.819	8378.08
571.18	8358.88
571.542	8424.19
571.903	8503.28
572.265	8528.14
572.626	8570.62
572.987	8588.02
573.349	8658.3
573.71	8707.57
574.071	8695.14
574.432	8764.06
574.794	8855.36
575.155	8865.76
575.516	8923.16
575.877	8964.96
576.238	9035.24
576.599	9178.06
576.96	9202.47
577.32	9201.11
577.681	9300.55
578.042	9402.01
578.403	9460.77
578.763	9504.83
579.124	9630.93
579.485	9757.48
579.845	9804.71
580.206	9895.33
580.566	9999.51
580.927	10095.1
581.287	10234.08
581.648	10313.18
582.008	10482.66
582.368	10630.45
582.728	10705.48
583.089	10880.62
583.449	11062.53
583.809	11161.29
584.169	11316.54
584.529	11448.51
584.889	11765.11
585.249	11827.26
585.609	11883.76
585.969	12175.95
586.329	12375.72
586.688	12503.4
587.048	12702.49
587.408	12872.43
587.768	13092.09
588.127	13383.38
588.487	13547.21
588.846	13903.36
589.206	13930.03
589.565	14191.49
589.925	14454.76
590.284	14714.42
590.643	15011.36
591.003	15289.99
591.362	15578.57
591.721	15770.88
592.08	16017.21
592.44	16337.88
592.799	16510.53
593.158	16770.86
593.517	17048.82
593.876	17346.66
594.235	17611.74
594.593	17944.16
594.952	18196.81
595.311	18502.34
595.67	18773.29
596.029	19178.25
596.387	19426.61
596.746	19702.76
597.104	19955.63
597.463	20113.37
597.822	20580.93
598.18	20769.17
598.538	21021.14
598.897	21364.18
599.255	21474.92
599.613	22161.68
599.972	22189.02
600.33	22525.74
600.688	22692.74
601.046	23047.08
601.404	23353.28
601.762	23577.46
602.12	24078.46
602.478	24160.95
602.836	24473.71
603.194	24544.89
603.552	24838.22
603.91	25015.39
604.268	25520.01
604.625	25536.96
604.983	25940.33
605.341	25972.65
605.698	26276.15
606.056	26653.99
606.413	26910.03
606.771	27174.2
607.128	27404.48
607.485	27553.17
607.843	27781.64
608.2	28215.53
608.557	28319.93
608.914	28472.47
609.272	28749.3
609.629	29050.08
609.986	29378.89
610.343	29589.05
610.7	29881.47
611.057	29854.81
611.414	30136.16
611.771	30198.53
612.127	30608.91
612.484	30657.95
612.841	30939.3
613.198	31056.81
613.554	31190.14
613.911	31447.53
614.267	31732.72
614.624	31735.89
614.98	31890.69
615.337	32220.85
615.693	32358.25
616.05	32344.01
616.406	32772.92
616.762	32747.16
617.118	32938.57
617.475	33031.9
617.831	33268.28
618.187	33406.81
618.543	33545.78
618.899	33795.5
619.255	33911.42
619.611	34005.43
619.967	34203.39
620.323	34402.71
620.678	34312.54
621.034	34468.02
621.39	34578.98
621.746	34530.62
622.101	35176.48
622.457	34876.37
622.812	35133.09
623.168	35204.27
623.523	35397.26
623.879	35449.24
624.234	35375.79
624.589	35562.91
624.945	35468.45
625.3	35647.2
625.655	35765.16
626.01	35891.26
626.365	35847.42
626.72	35918.6
627.075	35986.85
627.43	36074.76
627.785	35977.81
628.14	36168.77
628.495	36305.49
628.85	36167.64
629.205	36205.38
629.559	36435.65
629.914	36288.76
630.269	36467.06
630.623	36363.11
630.978	36320.85
631.332	36541.86
631.687	36653.5
632.041	36429.32
632.396	36731.24
632.75	36576.67
633.104	36724.01
633.459	36628.19
633.813	36565.37
634.167	36598.13
634.521	36553.16
634.875	36671.13
635.229	36758.13
635.583	36476.1
635.937	36669.77
636.291	36619.15
636.645	36641.97
636.999	36734.18
637.352	36795.19
637.706	36516.78
638.06	36819.14
638.413	36765.59
638.767	36554.29
639.121	36820.27
639.474	36665.7
639.828	36505.48
640.181	36777.56
640.534	36674.06
640.888	36622.09
641.241	36508.64
641.594	36639.71
641.947	36683.33
642.301	36659.6
642.654	36608.08
643.007	36671.8
643.36	36643.1
643.713	36450.79
644.066	36689.66
644.419	36491.47
644.771	36244.02
645.124	36004.93
645.477	35976.23
645.83	35729
646.182	35534.88
646.535	35518.84
646.888	35436.36
647.24	35439.75
647.593	35559.97
647.945	35564.71
648.298	35407.88
648.65	35327.66
649.002	35400.43
649.355	35432.97
649.707	35331.5
650.059	35500.76
650.411	35929.22
650.763	35924.03
651.115	36326.28
651.467	36323.79
651.819	36262.55
652.171	36157.69
652.523	36126.96
652.875	36046.28
653.227	36021.43
653.578	36323.11
653.93	36092.84
654.282	36048.09
654.633	35842.67
654.985	36019.84
655.337	36018.71
655.688	36137.13
656.039	36085.83
656.391	35769.23
656.742	35877.47
657.094	35891.94
657.445	35994.99
657.796	36007.87
658.147	36043.57
658.498	35901.65
658.849	35987.3
659.2	35952.73
659.551	35768.33
659.902	35903.01
660.253	35875.67
660.604	35995.44
660.955	35738.27
661.306	35788.21
661.656	35802.22
662.007	35710.93
662.358	35847.87
662.708	35768.1
663.059	35705.95
663.409	35664.6
663.76	35812.17
664.11	35663.92
664.461	35968.32
664.811	35758.83
665.161	35846.74
665.511	35565.17
665.862	35739.63
666.212	35842.67
666.562	35811.49
666.912	35661.21
667.262	35664.82
667.612	35762.22
667.962	35879.73
668.312	35728.78
668.662	35883.35
669.011	35685.84
669.361	35637.48
669.711	35752.73
670.06	35578.05
670.41	35623.02
670.76	35611.04
671.109	35703.92
671.459	35689.46
671.808	35516.58
672.157	35588.44
672.507	35281.11
672.856	35379.41
673.205	35503.02
673.554	35590.02
673.904	35476.36
674.253	35563.58
674.602	35546.18
674.951	35032.3
675.3	34852.64
675.649	35505.06
675.998	35314.78
676.346	35362.46
676.695	35365.17
677.044	35129.25
677.393	35322.24
677.741	35301.67
678.09	35218.28
678.438	35245.17
678.787	35199.98
679.135	35324.95
679.484	34905.97
679.832	35163.37
680.181	34922.47
680.529	35102.35
680.877	35034.79
681.225	34840.21
681.573	35157.95
681.922	34892.42
682.27	34674.12
682.618	34816.71
682.966	34803.83
683.314	34841.34
683.661	34655.13
684.009	34616.72
684.357	34555.93
684.705	34377.4
685.053	34497.4
685.4	34409.94
685.748	34311.19
686.095	34130.63
686.443	34115.04
686.79	34020.57
687.138	34254.47
687.485	34120.91
687.832	33986
688.18	34036.62
688.527	33847.7
688.874	33931.99
689.221	33816.74
689.568	33765.67
689.915	33620.36
690.262	33767.02
690.609	33516.18
690.956	33339.91
691.303	33401.16
691.65	33292.01
691.997	33288.62
692.344	32990.77
692.69	32970.66
693.037	33013.14
693.383	32839.81
693.73	32920.26
694.077	32695.19
694.423	32747.39
694.769	32593.27
695.116	32587.84
695.462	32444.8
695.808	32326.61
696.155	32446.6
696.501	32189.89
696.847	32243.22
697.193	31990.12
697.539	32073.28
697.885	31829.9
698.231	31763.91
698.577	31694.08
698.923	31752.84
699.269	31545.61
699.614	31425.16
699.96	31445.27
700.306	31408.21
700.651	31166.19
700.997	31334.09
701.342	31011.61
701.688	31028.79
702.033	30979.07
702.379	30998.05
702.724	30717.84
703.069	30842.13
703.415	30576.6
703.76	30526.65
704.105	30642.58
704.45	30499.09
704.795	30233.56
705.14	30293.21
705.485	30311.52
705.83	30128.47
706.175	30178.42
706.52	29963.51
706.865	29938.42
707.209	29976.39
707.554	29842.38
707.899	29807.8
708.243	29698.43
708.588	29680.35
708.932	29463.63
709.277	29541.14
709.621	29511.54
709.966	29286.24
710.31	29388.83
710.654	29070.65
710.998	29253.02
711.342	29144.32
711.687	29112.91
712.031	28921.27
712.375	28895.96
712.719	29007.82
713.063	28762.41
713.407	28877.88
713.75	28682.41
714.094	28658.46
714.438	28568.29
714.782	28599.25
715.125	28412.59
715.469	28460.49
715.812	28437.9
716.156	28190.45
716.499	28234.29
716.843	28215.98
717.186	28083.78
717.53	28296.21
717.873	28132.37
718.216	28119.94
718.559	27911.58
718.902	27828.65
719.246	27948.64
719.589	27727.41
719.932	27667.97
720.275	27684.7
720.617	27695.09
720.96	27458.94
721.303	27586.85
721.646	27587.75
721.989	27448.54
722.331	27437.7
722.674	27406.96
723.016	27427.08
723.359	27334.2
723.701	27298.27
724.044	27178.95
724.386	27027.31
724.729	27108.67
725.071	27005.62
725.413	27054.88
725.755	27011.95
726.097	26949.57
726.439	26864.6
726.782	26839.75
727.124	26885.17
727.465	26791.16
727.807	26714.1
728.149	26700.31
728.491	26630.71
728.833	26779.41
729.175	26548.45
729.516	26547.32
729.858	26530.6
730.199	26585.74
730.541	26416.93
730.882	26429.81
731.224	26532.18
731.565	26029.37
731.906	26337.16
732.248	26220.78
732.589	26102.82
732.93	26119.77
733.271	26061.91
733.612	26099.88
733.953	26144.62
734.294	26004.97
734.635	25878.64
734.976	26031.86
735.317	25855.37
735.658	25787.57
735.999	25877.96
736.339	25759.32
736.68	25856.72
737.021	25658.53
737.361	25644.07
737.702	25800.9
738.042	25655.37
738.383	25623.96
738.723	25644.98
739.063	25458.31
739.404	25527.69
739.744	25473.91
740.084	25370.63
740.424	25398.43
740.764	25355.27
741.104	25427.58
741.444	25271.43
741.784	25221.26
742.124	25248.15
742.464	25240.92
742.804	25173.8
743.143	25058.78
743.483	25145.55
743.823	24997.76
744.162	25019.68
744.502	25051.09
744.841	24837.99
745.181	25009.06
745.52	24847.48
745.86	24908.72
746.199	24811.33
746.538	24752.12
746.877	24833.02
747.216	24724.32
747.556	24719.12
747.895	24639.58
748.234	24514.61
748.573	24479.13
748.911	24493.14
749.25	24458.11
749.589	24346.25
749.928	24395.29
750.267	24502.63
750.605	24339.92
750.944	24282.98
751.283	24217.22
751.621	24346.48
751.96	24119.82
752.298	24214.96
752.636	24153.04
752.975	23957.34
753.313	23927.96
753.651	24060.84
753.989	23977.9
754.327	23820.84
754.666	23819.94
755.004	23801.18
755.342	23861.29
755.679	23777.23
756.017	23583.33
756.355	23589.66
756.693	23641.64
757.031	23537.23
757.368	23426.73
757.706	23347.63
758.044	23308.54
758.381	23306.96
758.719	23260.41
759.056	23261.76
759.394	23148.54
759.731	22986.29
760.068	23046.85
760.405	22838.27
