Data from hue_170_FLMS001491_00053.txt Node
Date: Tue Feb 07 16:48:52 GMT 2017
User: dcchb
Spectrometer: FLMS00149
Trigger mode: 0
Integration Time (sec): 2.000000E-2
Scans to average: 10
Electric dark correction enabled: true
Nonlinearity correction enabled: false
Boxcar width: 0
XAxis mode: Wavelengths
Number of Pixels in Spectrum: 2048
>>>>>Begin Spectral Data<<<<<
341.393	-10.27
341.776	-10.27
342.16	-10.27
342.543	-66.99
342.927	-58.85
343.31	-59.76
343.693	-57.95
344.077	-75.35
344.46	-81.45
344.843	-31.06
345.226	-59.98
345.61	-29.7
345.993	-19.08
346.376	-11.17
346.759	-14.79
347.142	38.54
347.525	41.03
347.908	47.13
348.291	92.33
348.674	100.69
349.057	120.58
349.44	122.16
349.823	120.8
350.206	177.3
350.588	184.76
350.971	205.55
351.354	231.31
351.737	235.6
352.119	249.16
352.502	260.69
352.884	269.5
353.267	283.28
353.65	304.3
354.032	296.39
354.414	320.34
354.797	317.86
355.179	323.73
355.562	318.08
355.944	342.04
356.326	336.84
356.709	335.03
357.091	322.83
357.473	329.38
357.855	332.32
358.238	347.01
358.62	338.42
359.002	335.71
359.384	339.33
359.766	336.62
360.148	336.16
360.53	341.14
360.912	320.57
361.294	337.75
361.676	319.44
362.057	324.86
362.439	370.06
362.821	329.61
363.203	338.2
363.584	328.03
363.966	344.98
364.348	345.2
364.729	301.14
365.111	333.45
365.493	323.96
365.874	314.02
366.256	324.19
366.637	310.85
367.019	329.61
367.4	309.5
367.781	302.04
368.163	312.89
368.544	321.93
368.925	312.89
369.306	322.15
369.688	306.33
370.069	322.83
370.45	311.31
370.831	316.73
371.212	309.5
371.593	314.02
371.974	325.99
372.355	314.7
372.736	338.42
373.117	314.02
373.498	320.34
373.879	307.01
374.26	315.37
374.641	309.5
375.021	329.16
375.402	317.63
375.783	316.73
376.163	327.58
376.544	311.08
376.925	302.72
377.305	325.54
377.686	343.39
378.066	330.74
378.447	345.43
378.827	342.72
379.208	337.75
379.588	322.6
379.968	322.38
380.349	307.24
380.729	338.88
381.109	330.51
381.489	330.74
381.87	328.03
382.25	347.46
382.63	344.98
383.01	356.73
383.39	356.28
383.77	349.04
384.15	344.98
384.53	356.5
384.91	348.82
385.29	352.66
385.67	354.24
386.049	348.37
386.429	349.5
386.809	344.52
387.189	359.67
387.568	379.55
387.948	354.24
388.328	383.85
388.707	349.27
389.087	360.34
389.466	358.08
389.846	368.03
390.225	361.25
390.605	351.53
390.984	375.03
391.363	365.99
391.743	382.72
392.122	383.85
392.501	385.2
392.881	386.78
393.26	382.26
393.639	387.46
394.018	404.18
394.397	391.08
394.776	390.63
395.155	379.55
395.534	377.52
395.913	397.63
396.292	388.14
396.671	406.67
397.05	392.43
397.429	387.24
397.808	400.12
398.186	385.43
398.565	379.33
398.944	413
399.323	403.51
399.701	404.86
400.08	417.29
400.458	410.29
400.837	401.7
401.215	410.96
401.594	394.47
401.972	412.77
402.351	427.01
402.729	419.78
403.107	447.57
403.486	425.65
403.864	439.44
404.242	422.04
404.62	420.46
404.999	450.06
405.377	438.76
405.755	448.02
406.133	445.99
406.511	450.51
406.889	465.43
407.267	447.8
407.645	465.2
408.023	452.77
408.401	449.15
408.779	467.01
409.156	481.02
409.534	470.62
409.912	476.95
410.29	506.55
410.667	497.52
411.045	499.1
411.422	498.19
411.8	513.56
412.178	514.69
412.555	520.57
412.933	514.69
413.31	536.84
413.687	535.71
414.065	519.44
414.442	538.42
414.819	560.11
415.197	538.64
415.574	566.44
415.951	583.39
416.328	571.86
416.705	580
417.082	563.73
417.46	577.97
417.837	560.79
418.214	589.49
418.591	586.1
418.967	620.9
419.344	603.95
419.721	613.67
420.098	609.15
420.475	631.75
420.852	624.52
421.228	623.61
421.605	646.44
421.982	660.22
422.358	658.41
422.735	652.54
423.111	667.68
423.488	665.65
423.864	669.94
424.241	711.75
424.617	700.9
424.994	680.79
425.37	695.93
425.746	719.88
426.123	720.33
426.499	725.08
426.875	716.04
427.251	731.41
427.627	761.24
428.003	768.47
428.379	763.5
428.756	758.75
429.132	792.42
429.507	789.26
429.883	798.98
430.259	787
430.635	805.53
431.011	800.33
431.387	814.34
431.763	839.88
432.138	828.35
432.514	838.3
432.89	854.79
433.265	887.34
433.641	887.34
434.016	881.46
434.392	889.37
434.767	901.12
435.143	922.81
435.518	945.41
435.894	951.06
436.269	977.28
436.644	966.88
437.02	1011.4
437.395	971.4
437.77	997.62
438.145	1028.8
438.52	1060.89
438.895	1050.04
439.271	1059.53
439.646	1082.36
440.021	1086.2
440.395	1084.39
440.77	1060.89
441.145	1099.31
441.52	1081.45
441.895	1122.58
442.27	1107.89
442.645	1128.01
443.019	1155.12
443.394	1158.29
443.769	1189.25
444.143	1146.54
444.518	1219.3
444.892	1181.34
445.267	1230.15
445.641	1218.63
446.016	1207.33
446.39	1245.52
446.764	1248
447.139	1236.7
447.513	1262.01
447.887	1257.27
448.262	1262.47
448.636	1260.66
449.01	1302.47
449.384	1315.8
449.758	1305.18
450.132	1332.75
450.506	1346.98
450.88	1355.57
451.254	1336.14
451.628	1396.93
452.002	1399.64
452.376	1371.39
452.75	1418.85
453.123	1452.07
453.497	1456.36
453.871	1434.44
454.244	1495.46
454.618	1516.47
454.992	1524.15
455.365	1529.13
455.739	1552.4
456.112	1579.52
456.486	1600.99
456.859	1596.47
457.232	1637.6
457.606	1638.95
457.979	1643.25
458.352	1703.13
458.725	1705.39
459.099	1718.27
459.472	1767.09
459.845	1765.73
460.218	1781.1
460.591	1831.04
460.964	1795.56
461.337	1902.45
461.71	1891.15
462.083	1940.64
462.456	1953.52
462.829	1955.33
463.201	2007.08
463.574	2009.34
463.947	2012.05
464.32	2080.3
464.692	2082.33
465.065	2116.91
465.438	2147.64
465.81	2219.28
466.183	2237.13
466.555	2234.19
466.928	2283
467.3	2301.08
467.672	2312.16
468.045	2393.06
468.417	2428.09
468.789	2436
469.161	2466.5
469.534	2548.08
469.906	2553.28
470.278	2629.21
470.65	2645.03
471.022	2705.14
471.394	2740.39
471.766	2817.91
472.138	2831.92
472.51	2922.99
472.882	2958.92
473.253	3033.72
473.625	3072.14
473.997	3139.48
474.369	3191.46
474.74	3218.8
475.112	3330.66
475.484	3397.78
475.855	3512.13
476.227	3509.87
476.598	3613.59
476.97	3700.82
477.341	3786.92
477.713	3877.31
478.084	3894.49
478.455	4049.29
478.827	4129.51
479.198	4219.68
479.569	4287.02
479.94	4500.57
480.311	4520.01
480.682	4644.07
481.053	4785.99
481.424	4861.24
481.795	4957.28
482.166	5054.68
482.537	5150.27
482.908	5273.43
483.279	5379.42
483.65	5499.87
484.021	5647.89
484.391	5770.14
484.762	5865.96
485.133	5931.04
485.503	6105.28
485.874	6226.63
486.244	6359.96
486.615	6466.17
486.985	6647.18
487.356	6761.76
487.726	6865.94
488.097	7034.07
488.467	7067.29
488.837	7312.93
489.207	7452.81
489.578	7596.76
489.948	7715.18
490.318	7908.39
490.688	7960.37
491.058	8062.97
491.428	8283.98
491.798	8382.51
492.168	8547.47
492.538	8627.92
492.908	8758.77
493.278	8928.48
493.648	8965.99
494.017	9124.86
494.387	9241.01
494.757	9399.88
495.126	9493.89
495.496	9602.59
495.866	9577.05
496.235	9817.72
496.605	9920.77
496.974	9989.92
497.344	10076.02
497.713	10260.42
498.082	10245.28
498.452	10395.79
498.821	10494.99
499.19	10566.85
499.559	10581.54
499.928	10744.25
500.298	10775.89
500.667	10916.45
501.036	10946.05
501.405	11129.78
501.774	11074.19
502.143	11250.45
502.512	11275.08
502.88	11377.46
503.249	11370
503.618	11505.81
503.987	11465.14
504.356	11511.01
504.724	11673.04
505.093	11687.73
505.462	11734.73
505.83	11846.37
506.199	11912.13
506.567	12043.88
506.936	12068.96
507.304	12210.2
507.672	12181.5
508.041	12249.97
508.409	12341.27
508.777	12441.38
509.145	12494.49
509.514	12452.23
509.882	12521.83
510.25	12555.5
510.618	12636.86
510.986	12569.74
511.354	12746.23
511.722	12820.35
512.09	12963.4
512.458	12813.35
512.826	12922.73
513.193	13065.32
513.561	13026.23
513.929	13085.66
514.297	13103.74
514.664	13215.6
515.032	13209.95
515.4	13263.73
515.767	13304.86
516.135	13364.97
516.502	13210.63
516.869	13476.38
517.237	13442.03
517.604	13397.06
517.972	13549.6
518.339	13521.13
518.706	13545.76
519.073	13582.14
519.44	13592.99
519.808	13674.8
520.175	13604.74
520.542	13679.99
520.909	13830.05
521.276	13710.28
521.643	13849.25
522.009	13835.92
522.376	13908.91
522.743	13924.73
523.11	13953.66
523.477	14094.22
523.843	14110.72
524.21	14198.17
524.577	14179.87
524.943	14161.34
525.31	14205.18
525.676	14327.66
526.043	14273.2
526.409	14356.36
526.776	14378.96
527.142	14344.61
527.508	14450.37
527.874	14378.28
528.241	14405.17
528.607	14376.02
528.973	14477.71
529.339	14475.9
529.705	14517.49
530.071	14512.74
530.437	14509.35
530.803	14492.4
531.169	14551.38
531.535	14518.62
531.901	14471.84
532.267	14458.5
532.632	14451.5
532.998	14494.66
533.364	14552.74
533.73	14476.58
534.095	14491.27
534.461	14488.11
534.826	14495.34
535.192	14482.91
535.557	14467.54
535.923	14431.16
536.288	14369.92
536.653	14379.64
537.019	14249.24
537.384	14293.31
537.749	14326.08
538.114	14305.97
538.479	14209.02
538.845	14239.98
539.21	14155.46
539.575	14160.43
539.94	14052.86
540.305	14172.64
540.67	13990.04
541.034	14025.3
541.399	14075.01
541.764	13978.74
542.129	13960.66
542.494	13922.02
542.858	13877.5
543.223	13883.83
543.587	13867.56
543.952	13809.93
544.316	13745.75
544.681	13603.16
545.045	13728.81
545.41	13726.09
545.774	13724.74
546.138	13666.89
546.503	13587.34
546.867	13437.74
547.231	13531.07
547.595	13466.67
547.959	13469.15
548.324	13351.64
548.688	13301.92
549.052	13353.45
549.416	13295.6
549.779	13307.8
550.143	13250.4
550.507	13284.52
550.871	13238.65
551.235	13133.79
551.599	13190.97
551.962	13124.53
552.326	13124.98
552.689	13106.68
553.053	13005.21
553.417	12936.96
553.78	13094.92
554.143	12981.03
554.507	13010.86
554.87	12943.97
555.234	12935.61
555.597	12864.87
555.96	12841.15
556.323	12807.02
556.686	12870.52
557.05	12839.11
557.413	12820.58
557.776	12819.68
558.139	12811.54
558.502	12763.41
558.865	12744.65
559.228	12812.9
559.59	12802.05
559.953	12748.04
560.316	12853.8
560.679	12832.56
561.041	12833.24
561.404	12841.82
561.767	12829.62
562.129	12771.54
562.492	12853.35
562.854	12821.48
563.217	12786.01
563.579	12860.81
563.941	12823.07
564.304	12836.17
564.666	12817.19
565.028	12815.38
565.39	12771.32
565.753	12850.64
566.115	12896.96
566.477	12963.18
566.839	12910.52
567.201	13045.21
567.563	12879.11
567.925	12991.65
568.287	12928.83
568.648	12924.31
569.01	13019.22
569.372	13022.38
569.734	12939.22
570.095	12941.03
570.457	13033.68
570.819	13020.8
571.18	13022.16
571.542	13035.49
571.903	13042.72
572.265	13087.24
572.626	13070.74
572.987	13109.84
573.349	13111.87
573.71	13178.54
574.071	13125.88
574.432	13171.98
574.794	13185.09
575.155	13177.63
575.516	13126.11
575.877	13177.86
576.238	13170.18
576.599	13168.59
576.96	13213.79
577.32	13150.97
577.681	13181.7
578.042	13189.84
578.403	13240
578.763	13245.65
579.124	13320.68
579.485	13288.37
579.845	13236.16
580.206	13191.19
580.566	13151.42
580.927	13179.67
581.287	13251.53
581.648	13221.25
582.008	13213.56
582.368	13197.07
582.728	13268.7
583.089	13142.61
583.449	13176.05
583.809	13188.93
584.169	13176.05
584.529	13127.47
584.889	13289.95
585.249	13139.89
585.609	13094.92
585.969	13100.35
586.329	13074.59
586.688	13117.75
587.048	13091.08
587.408	13043.85
587.768	13017.19
588.127	12973.12
588.487	13041.59
588.846	13127.01
589.206	13029.62
589.565	12984.42
589.925	13023.97
590.284	13005.21
590.643	12994.59
591.003	12979.67
591.362	13005.21
591.721	13041.37
592.08	12956.62
592.44	13030.97
592.799	13010.18
593.158	12858.09
593.517	12957.53
593.876	12960.92
594.235	12980.35
594.593	12936.51
594.952	13018.32
595.311	12904.65
595.67	12954.14
596.029	12994.14
596.387	12953.91
596.746	12976.96
597.104	12905.1
597.463	12881.37
597.822	12929.5
598.18	12806.12
598.538	12804.99
598.897	12961.14
599.255	12811.99
599.613	12908.94
599.972	12923.63
600.33	12837.76
600.688	12904.65
601.046	12912.78
601.404	12924.76
601.762	12915.49
602.12	12887.7
602.478	12934.7
602.836	12896.06
603.194	12842.95
603.552	12867.13
603.91	12810.86
604.268	12898.77
604.625	12810.41
604.983	12969.73
605.341	12772.45
605.698	12828.72
606.056	12927.7
606.413	12869.39
606.771	12900.13
607.128	12887.47
607.485	12829.62
607.843	12862.61
608.2	12881.6
608.557	12967.24
608.914	12903.74
609.272	12988.49
609.629	12950.75
609.986	13065.32
610.343	12981.48
610.7	13077.75
611.057	13038.88
611.414	12997.98
611.771	13009.73
612.127	12989.39
612.484	13081.59
612.841	13150.74
613.198	13042.72
613.554	13097.41
613.911	13108.48
614.267	13014.25
614.624	13101.25
614.98	13077.75
615.337	13151.42
615.693	13131.08
616.05	13059.22
616.406	13214.02
616.762	13096.73
617.118	13184.19
617.475	13082.95
617.831	13155.26
618.187	13110.52
618.543	13174.92
618.899	13313.9
619.255	13153.45
619.611	13204.53
619.967	13251.08
620.323	13301.92
620.678	13259.89
621.034	13213.79
621.39	13249.5
621.746	13220.34
622.101	13365.2
622.457	13214.47
622.812	13277.52
623.168	13176.96
623.523	13250.85
623.879	13314.13
624.234	13218.08
624.589	13261.7
624.945	13262.83
625.3	13269.83
625.655	13223.96
626.01	13207.46
626.365	13284.52
626.72	13246.33
627.075	13217.86
627.43	13225.77
627.785	13175.83
628.14	13221.7
628.495	13218.99
628.85	13152.55
629.205	13079.56
629.559	13280.46
629.914	13149.61
630.269	13199.55
630.623	13179.22
630.978	13133.12
631.332	13162.04
631.687	13098.09
632.041	13110.74
632.396	13204.3
632.75	13016.06
633.104	12961.37
633.459	13022.38
633.813	13017.41
634.167	13010.18
634.521	12975.38
634.875	13023.51
635.229	12962.5
635.583	12866.68
635.937	12932.89
636.291	12926.79
636.645	12921.6
636.999	12790.53
637.352	12868.49
637.706	12764.31
638.06	12879.11
638.413	12857.64
638.767	12819.9
639.121	12797.08
639.474	12693.35
639.828	12658.55
640.181	12713.24
640.534	12786.46
640.888	12698.32
641.241	12701.94
641.594	12719.79
641.947	12758.21
642.301	12632.11
642.654	12727.25
643.007	12729.51
643.36	12762.96
643.713	12570.42
644.066	12678.66
644.419	12646.35
644.771	12534.49
645.124	12426.02
645.477	12433.7
645.83	12346.47
646.182	12279.58
646.535	12210.43
646.888	12238.68
647.24	12147.83
647.593	12243.87
647.945	12198.9
648.298	12102.86
648.65	12153.48
649.002	12095.63
649.355	12217.88
649.707	12187.6
650.059	12288.84
650.411	12485
650.763	12439.35
651.115	12543.75
651.467	12554.37
651.819	12511.21
652.171	12412.91
652.523	12452.46
652.875	12498.78
653.227	12378.78
653.578	12440.03
653.93	12414.26
654.282	12515.05
654.633	12433.47
654.985	12455.17
655.337	12477.99
655.688	12462.62
656.039	12509.4
656.391	12401.16
656.742	12519.8
657.094	12466.47
657.445	12532
657.796	12512.11
658.147	12451.33
658.498	12470.31
658.849	12483.41
659.2	12526.13
659.551	12496.52
659.902	12443.87
660.253	12454.26
660.604	12499.46
660.955	12570.42
661.306	12481.38
661.656	12434.6
662.007	12471.89
662.358	12508.95
662.708	12498.56
663.059	12497.43
663.409	12476.86
663.76	12583.3
664.11	12558.44
664.461	12471.89
664.811	12545.79
665.161	12473.7
665.511	12400.71
665.862	12479.12
666.212	12537.88
666.562	12556.86
666.912	12471.44
667.262	12524.54
667.612	12497.2
667.962	12574.71
668.312	12495.84
668.662	12499.23
669.011	12518.22
669.361	12467.37
669.711	12486.58
670.06	12521.83
670.41	12455.17
670.76	12489.52
671.109	12534.03
671.459	12415.39
671.808	12458.56
672.157	12505.56
672.507	12381.27
672.856	12366.58
673.205	12424.89
673.554	12421.72
673.904	12414.72
674.253	12454.26
674.602	12458.56
674.951	12264.89
675.3	12158.9
675.649	12417.2
675.998	12365.68
676.346	12317.77
676.695	12326.13
677.044	12292.69
677.393	12250.2
677.741	12263.76
678.09	12244.78
678.438	12281.16
678.787	12267.38
679.135	12250.65
679.484	12197.09
679.832	12186.47
680.181	12121.62
680.529	12118.45
680.877	12098.57
681.225	12143.76
681.573	12212.91
681.922	12058.12
682.27	11963.43
682.618	12056.53
682.966	11997.78
683.314	12136.08
683.661	11988.96
684.009	11987.83
684.357	11894.28
684.705	11965.69
685.053	11877.55
685.4	11747.61
685.748	11748.97
686.095	11817.44
686.443	11833.94
686.79	11726.37
687.138	11778.8
687.485	11823.09
687.832	11702.64
688.18	11668.52
688.527	11568.41
688.874	11678.46
689.221	11528.41
689.568	11461.75
689.915	11426.72
690.262	11415.42
690.609	11426.95
690.956	11350.34
691.303	11382.65
691.65	11302.88
691.997	11311.92
692.344	11181.08
692.69	11218.36
693.037	11154.86
693.383	11083.45
693.73	11131.59
694.077	11000.06
694.423	11051.59
694.769	10971.82
695.116	10986.5
695.462	10914.42
695.808	10871.25
696.155	10954.19
696.501	10824.02
696.847	10796.68
697.193	10700.41
697.539	10760.52
697.885	10615.44
698.231	10569.79
698.577	10623.58
698.923	10573.18
699.269	10518.95
699.614	10479.85
699.96	10463.58
700.306	10438.27
700.651	10392.4
700.997	10339.29
701.342	10299.97
701.688	10254.55
702.033	10293.42
702.379	10211.16
702.724	10176.13
703.069	10193.98
703.415	10078.28
703.76	10088.68
704.105	10017.49
704.45	10019.75
704.795	9906.53
705.14	9946.31
705.485	9879.64
705.83	9871.96
706.175	9927.55
706.52	9861.34
706.865	9839.19
707.209	9789.25
707.554	9722.58
707.899	9797.16
708.243	9659.76
708.588	9630.61
708.932	9575.47
709.277	9598.07
709.621	9511.52
709.966	9500.67
710.31	9479.88
710.654	9485.98
710.998	9449.82
711.342	9480.33
711.687	9417.05
712.031	9380.9
712.375	9337.28
712.719	9328.92
713.063	9314.68
713.407	9394.91
713.75	9265.19
714.094	9284.18
714.438	9260.67
714.782	9248.25
715.125	9152.88
715.469	9212.54
715.812	9211.86
716.156	9071.75
716.499	9109.72
716.843	9149.94
717.186	9121.47
717.53	9112.88
717.873	9121.47
718.216	9100.68
718.559	9088.02
718.902	9031.75
719.246	9004.41
719.589	8922.15
719.932	8951.53
720.275	8996.5
720.617	8957.41
720.96	8892.32
721.303	8915.6
721.646	9013
721.989	8916.95
722.331	8941.13
722.674	8879.22
723.016	8885.54
723.359	8931.19
723.701	8867.46
724.044	8876.05
724.386	8832.44
724.729	8815.71
725.071	8841.48
725.413	8807.58
725.755	8806.22
726.097	8745.66
726.439	8779.33
726.782	8793.57
727.124	8829.27
727.465	8792.89
727.807	8812.78
728.149	8758.31
728.491	8748.82
728.833	8775.94
729.175	8726.23
729.516	8735.04
729.858	8690.29
730.199	8771.42
730.541	8689.84
730.882	8736.62
731.224	8718.54
731.565	8730.75
731.906	8719.67
732.248	8792.44
732.589	8653.68
732.93	8636.74
733.271	8616.85
733.612	8780.46
733.953	8715.6
734.294	8690.07
734.635	8673.8
734.976	8667.92
735.317	8643.74
735.658	8677.87
735.999	8650.52
736.339	8654.59
736.68	8699.56
737.021	8687.58
737.361	8728.71
737.702	8741.59
738.042	8717.64
738.383	8753.12
738.723	8762.38
739.063	8701.59
739.404	8758.54
739.744	8774.36
740.084	8740.91
740.424	8791.08
740.764	8829.05
741.104	8796.51
741.444	8767.13
741.784	8853.23
742.124	8806.22
742.464	8874.7
742.804	8864.3
743.143	8814.81
743.483	8890.51
743.823	8855.94
744.162	8939.55
744.502	8935.94
744.841	8966.22
745.181	9016.39
745.52	9031.53
745.86	9113.11
746.199	9138.87
746.538	9089.83
746.877	9229.26
747.216	9185.65
747.556	9347.23
747.895	9404.17
748.234	9355.36
748.573	9434.91
748.911	9444.85
749.25	9513.78
749.589	9598.74
749.928	9713.77
750.267	9759.64
750.605	9818.17
750.944	9916.7
751.283	9959.87
751.621	10151.27
751.96	10139.75
752.298	10147.2
752.636	10288.67
752.975	10385.62
753.313	10454.09
753.651	10619.51
753.989	10666.51
754.327	10747.42
754.666	10864.7
755.004	11111.02
755.342	11099.95
755.679	11210.45
756.017	11370.68
756.355	11502.65
756.693	11639.82
757.031	11765.47
757.368	11922.07
757.706	12025.12
