Data from hue_310_FLMS001491_56.txt Node
Date: Mon Feb 06 15:49:53 GMT 2017
User: dcchb
Spectrometer: FLMS00149
Trigger mode: 0
Integration Time (sec): 2.000000E-2
Scans to average: 10
Electric dark correction enabled: true
Nonlinearity correction enabled: false
Boxcar width: 0
XAxis mode: Wavelengths
Number of Pixels in Spectrum: 2048
>>>>>Begin Spectral Data<<<<<
341.393	6.47
341.776	6.47
342.16	6.47
342.543	-46.64
342.927	-65.62
343.31	-64.04
343.693	-77.37
344.077	-70.14
344.46	-57.03
344.843	-43.93
345.226	-41.21
345.61	-19.97
345.993	-23.13
346.376	1.27
346.759	5.79
347.142	18.22
347.525	46.24
347.908	65.45
348.291	59.8
348.674	77.43
349.057	122.62
349.44	123.98
349.823	152.68
350.206	159.01
350.588	196.97
350.971	208.5
351.354	215.5
351.737	223.64
352.119	276.07
352.502	274.26
352.884	262.28
353.267	289.63
353.65	295.95
354.032	292.79
354.414	316.74
354.797	310.87
355.179	333.47
355.562	323.3
355.944	322.84
356.326	339.34
356.709	337.99
357.091	331.21
357.473	337.31
357.855	337.53
358.238	342.28
358.62	345.89
359.002	310.64
359.384	352.67
359.766	354.26
360.148	343.86
360.53	351.32
360.912	356.97
361.294	327.36
361.676	337.53
362.057	331.21
362.439	343.64
362.821	343.41
363.203	334.37
363.584	333.92
363.966	315.61
364.348	316.97
364.729	322.62
365.111	333.24
365.493	321.94
365.874	319.23
366.256	314.03
366.637	325.1
367.019	329.85
367.4	330.08
367.781	323.07
368.163	341.83
368.544	316.52
368.925	322.17
369.306	335.27
369.688	318.78
370.069	331.43
370.45	313.13
370.831	314.03
371.212	315.39
371.593	317.65
371.974	321.04
372.355	329.17
372.736	306.57
373.117	331.21
373.498	310.42
373.879	308.61
374.26	314.26
374.641	309.74
375.021	329.85
375.402	326.01
375.783	311.09
376.163	332.34
376.544	335.5
376.925	332.11
377.305	318.1
377.686	312.45
378.066	317.65
378.447	310.19
378.827	342.05
379.208	318.78
379.588	337.31
379.968	314.48
380.349	342.28
380.729	349.96
381.109	341.83
381.489	322.84
381.87	337.31
382.25	353.13
382.63	338.66
383.01	347.7
383.39	341.15
383.77	367.82
384.15	352.9
384.53	372.11
384.91	346.12
385.29	354.03
385.67	347.25
386.049	339.79
386.429	362.84
386.809	363.52
387.189	375.27
387.568	368.04
387.948	358.32
388.328	374.59
388.707	360.13
389.087	352
389.466	382.5
389.846	353.8
390.225	350.19
390.605	379.57
390.984	365.56
391.363	372.33
391.743	367.14
392.122	377.53
392.501	365.33
392.881	369.4
393.26	382.73
393.639	372.11
394.018	394.03
394.397	380.47
394.776	390.19
395.155	407.59
395.534	396.97
395.913	389.28
396.292	396.06
396.671	384.31
397.05	426.34
397.429	403.07
397.808	387.02
398.186	417.08
398.565	398.1
398.944	396.06
399.323	410.3
399.701	402.16
400.08	433.12
400.458	392.9
400.837	419.57
401.215	435.61
401.594	443.07
401.972	430.19
402.351	419.11
402.729	435.61
403.107	424.31
403.486	417.53
403.864	420.92
404.242	461.37
404.62	437.19
404.999	430.19
405.377	436.51
405.755	453.01
406.133	448.72
406.511	434.93
406.889	468.6
407.267	471.32
407.645	488.49
408.023	493.46
408.401	488.04
408.779	483.29
409.156	481.48
409.534	499.56
409.912	492.11
410.29	514.48
410.667	526.68
411.045	543.4
411.422	532.33
411.8	521.26
412.178	546.57
412.555	540.01
412.933	556.51
413.31	566.45
413.687	573.01
414.065	567.58
414.442	582.95
414.819	598.54
415.197	604.42
415.574	618.2
415.951	619.33
416.328	621.82
416.705	627.24
417.082	648.71
417.46	656.4
417.837	648.26
418.214	644.64
418.591	669.73
418.967	660.69
419.344	693.46
419.721	693
420.098	711.31
420.475	690.52
420.852	726.22
421.228	713.57
421.605	739.78
421.982	747.92
422.358	766.22
422.735	753.57
423.111	765.32
423.488	780.23
423.864	787.24
424.241	788.14
424.617	819.55
424.994	813
425.37	802.61
425.746	818.65
426.123	830.4
426.499	857.29
426.875	843.51
427.251	883.28
427.627	880.34
428.003	893.68
428.379	887.58
428.756	893.68
429.132	904.52
429.507	938.2
429.883	968.93
430.259	969.83
430.635	952.43
431.011	959.66
431.387	984.52
431.763	1012.32
432.138	1022.94
432.514	1008.02
432.89	1011.87
433.265	1058.87
433.641	1077.4
434.016	1077.4
434.392	1077.63
434.767	1078.76
435.143	1102.71
435.518	1115.37
435.894	1114.01
436.269	1132.09
436.644	1156.72
437.02	1171.18
437.395	1161.92
437.77	1188.58
438.145	1193.78
438.52	1201.01
438.895	1195.14
439.271	1241.24
439.646	1252.09
440.021	1243.5
440.395	1237.85
440.77	1251.41
441.145	1268.13
441.52	1315.36
441.895	1285.98
442.27	1287.57
442.645	1291.41
443.019	1292.99
443.394	1282.59
443.769	1320.78
444.143	1307
444.518	1352.65
444.892	1342.03
445.267	1341.57
445.641	1348.13
446.016	1365.98
446.39	1360.33
446.764	1345.64
447.139	1354.23
447.513	1349.48
447.887	1366.66
448.262	1391.07
448.636	1397.62
449.01	1406.21
449.384	1425.19
449.758	1414.79
450.132	1427
450.506	1400.56
450.88	1434.45
451.254	1424.28
451.628	1439.88
452.002	1447.11
452.376	1480.55
452.75	1455.24
453.123	1502.25
453.497	1516.49
453.871	1518.97
454.244	1517.62
454.618	1526.43
454.992	1537.28
455.365	1557.39
455.739	1556.94
456.112	1579.31
456.486	1568.46
456.859	1609.14
457.232	1621.79
457.606	1610.49
457.979	1627.44
458.352	1629.25
458.725	1666.99
459.099	1664.28
459.472	1687.55
459.845	1687.55
460.218	1688.01
460.591	1722.13
460.964	1732.3
461.337	1760.32
461.71	1733.43
462.083	1784.73
462.456	1740.89
462.829	1760.77
463.201	1808
463.574	1799.64
463.947	1837.83
464.32	1844.84
464.692	1868.11
465.065	1879.41
465.438	1886.87
465.81	1907.66
466.183	1915.57
466.555	1924.61
466.928	1969.13
467.3	1939.98
467.672	1964.16
468.045	2001.9
468.417	1997.38
468.789	2037.6
469.161	2028.79
469.534	2059.97
469.906	2115.11
470.278	2109.69
470.65	2132.29
471.022	2155.56
471.394	2159.18
471.766	2174.77
472.138	2213.87
472.51	2215.68
472.882	2277.6
473.253	2254.32
473.625	2322.57
473.997	2327.31
474.369	2322.57
474.74	2356.69
475.112	2408.44
475.484	2427.42
475.855	2448.89
476.227	2419.51
476.598	2487.99
476.97	2502.67
477.341	2541.09
477.713	2598.49
478.084	2580.86
478.455	2651.14
478.827	2656.12
479.198	2658.6
479.569	2697.47
479.94	2790.8
480.311	2756.9
480.682	2812.04
481.053	2865.15
481.424	2897.69
481.795	2895.43
482.166	2924.58
482.537	2947.63
482.908	3007.52
483.279	3056.33
483.65	3120.29
484.021	3108.99
484.391	3118.25
484.762	3172.71
485.133	3159.15
485.503	3214.29
485.874	3225.37
486.244	3272.15
486.615	3318.47
486.985	3334.74
487.356	3368.87
487.726	3419.71
488.097	3477.34
488.467	3498.81
488.837	3528.64
489.207	3531.35
489.578	3592.36
489.948	3609.09
490.318	3632.59
490.688	3677.78
491.058	3739.48
491.428	3765.01
491.798	3782.87
492.168	3850.44
492.538	3857.44
492.908	3841.62
493.278	3903.54
493.648	3914.16
494.017	3924.11
494.387	3976.31
494.757	4025.8
495.126	4024.22
495.496	4011.11
495.866	4058.11
496.235	4038.45
496.605	4118.45
496.974	4140.37
497.344	4153.7
497.713	4151.67
498.082	4215.85
498.452	4195.51
498.821	4261.05
499.19	4236.41
499.559	4299.92
499.928	4286.58
500.298	4311.89
500.667	4358.9
501.036	4306.24
501.405	4346.24
501.774	4352.12
502.143	4372.91
502.512	4423.3
502.88	4441.38
503.249	4490.42
503.618	4478.44
503.987	4516.18
504.356	4446.58
504.724	4477.31
505.093	4543.98
505.462	4536.75
505.83	4584.88
506.199	4604.54
506.567	4621.49
506.936	4648.83
507.304	4632.79
507.672	4685.89
508.041	4665.33
508.409	4715.27
508.777	4732.67
509.145	4705.1
509.514	4746.46
509.882	4770.86
510.25	4777.87
510.618	4799.56
510.986	4786.91
511.354	4859.9
511.722	4855.38
512.09	4904.87
512.458	4865.32
512.826	4888.15
513.193	4946
513.561	4945.55
513.929	4952.1
514.297	4968.82
514.664	5024.64
515.032	5007.92
515.4	5013.34
515.767	5071.65
516.135	5030.07
516.502	4993.46
516.869	5095.15
517.237	5107.13
517.604	5066.45
517.972	5102.38
518.339	5142.38
518.706	5175.15
519.073	5119.1
519.44	5172.43
519.808	5234.81
520.175	5208.82
520.542	5235.48
520.909	5244.3
521.276	5251.3
521.643	5292.66
522.009	5301.7
522.376	5353.22
522.743	5356.16
523.11	5402.94
523.477	5417.85
523.843	5442.03
524.21	5486.78
524.577	5485.87
524.943	5533.78
525.31	5522.71
525.676	5637.96
526.043	5590.73
526.409	5596.15
526.776	5677.28
527.142	5637.28
527.508	5687.22
527.874	5721.8
528.241	5751.85
528.607	5736.49
528.973	5853.32
529.339	5808.12
529.705	5870.72
530.071	5895.35
530.437	5908.69
530.803	5943.04
531.169	5935.13
531.535	5934.67
531.901	6002.02
532.267	6039.76
532.632	6073.65
532.998	6075.69
533.364	6117.49
533.73	6123.37
534.095	6184.16
534.461	6158.62
534.826	6227.55
535.192	6208.11
535.557	6260.77
535.923	6295.12
536.288	6320.88
536.653	6311.16
537.019	6289.02
537.384	6295.57
537.749	6368.11
538.114	6412.85
538.479	6427.09
538.845	6474.32
539.21	6488.33
539.575	6513.87
539.94	6586.18
540.305	6600.19
540.67	6583.02
541.034	6613.07
541.399	6669.12
541.764	6674.09
542.129	6653.3
542.494	6707.08
542.858	6777.82
543.223	6812.39
543.587	6774.88
543.952	6854.2
544.316	6844.71
544.681	6856.91
545.045	6888.55
545.41	6951.14
545.774	6882.45
546.138	7018.49
546.503	7029.33
546.867	7033.85
547.231	7041.54
547.595	7071.37
547.959	7149.78
548.324	7143
548.688	7168.09
549.052	7209.44
549.416	7175.55
549.779	7221.65
550.143	7205.15
550.507	7230.91
550.871	7355.43
551.235	7267.52
551.599	7380.06
551.962	7376.44
552.326	7441.3
552.689	7437.69
553.053	7474.52
553.417	7459.83
553.78	7505.03
554.143	7538.47
554.507	7534.63
554.87	7577.12
555.234	7587.96
555.597	7551.81
555.96	7614.4
556.323	7674.97
556.686	7667.51
557.05	7719.03
557.413	7736.66
557.776	7708.87
558.139	7768.07
558.502	7808.3
558.865	7766.49
559.228	7886.71
559.59	7865.02
559.953	7784.8
560.316	7927.62
560.679	7947.5
561.041	8001.06
561.404	7977.56
561.767	8022.76
562.129	8014.85
562.492	8125.58
562.854	8111.57
563.217	8060.95
563.579	8117.67
563.941	8153.15
564.304	8173.94
564.666	8266.82
565.028	8240.38
565.39	8286.93
565.753	8324.44
566.115	8355.63
566.477	8357.89
566.839	8395.4
567.201	8395.85
567.563	8426.13
567.925	8453.25
568.287	8500.71
568.648	8504.78
569.01	8596.98
569.372	8606.92
569.734	8639.46
570.095	8611.44
570.457	8668.39
570.819	8734.83
571.18	8768.5
571.542	8865.9
571.903	8805.11
572.265	8829.06
572.626	8970.07
572.987	8950.64
573.349	9023.86
573.71	9048.04
574.071	9197.41
574.432	9234.47
574.794	9294.13
575.155	9358.31
575.516	9309.5
575.877	9394.47
576.238	9530.06
576.599	9566.67
576.96	9630.85
577.32	9667.91
577.681	9793.1
578.042	9914.23
578.403	9982.93
578.763	10049.37
579.124	10150.38
579.485	10271.28
579.845	10394.9
580.206	10498.17
580.566	10644.83
580.927	10782
581.287	10910.81
581.648	10967.99
582.008	11184.71
582.368	11328.88
582.728	11441.2
583.089	11670.57
583.449	11901.52
583.809	12036.66
584.169	12187.17
584.529	12400.04
584.889	12698.79
585.249	12819.01
585.609	12942.4
585.969	13219.91
586.329	13451.31
586.688	13743.28
587.048	13861.47
587.408	14092.2
587.768	14402.02
588.127	14538.06
588.487	14788.45
588.846	15205.62
589.206	15367.65
589.565	15646.96
589.925	15947.07
590.284	16184.8
590.643	16518.35
591.003	16794.95
591.362	16981.62
591.721	17364.66
592.08	17671.77
592.44	17997.63
592.799	18243.96
593.158	18481.69
593.517	18820.66
593.876	19184.04
594.235	19513.07
594.593	19862.44
594.952	20153.28
595.311	20309.89
595.67	20763.44
596.029	21155.07
596.387	21439.58
596.746	21818.55
597.104	22036.62
597.463	22221.93
597.822	22784.17
598.18	22882.03
598.538	23261.22
598.897	23585.28
599.255	23746.64
599.613	24460.06
599.972	24469.33
600.33	24807.85
600.688	24997.9
601.046	25465.01
601.404	25762.85
601.762	26031.77
602.12	26435.38
602.478	26717.4
602.836	27018.64
603.194	27151.74
603.552	27518.51
603.91	27620.66
604.268	28061.32
604.625	28234.43
604.983	28542.22
605.341	28691.59
605.698	29165.02
606.056	29374.74
606.413	29651.34
606.771	29823.54
607.128	30160.48
607.485	30280.47
607.843	30481.37
608.2	30910.29
608.557	31291.3
608.914	31473.89
609.272	31675.01
609.629	31993.42
609.986	32207.88
610.343	32327.65
610.7	32715.21
611.057	32887.19
611.414	33028.43
611.771	33165.14
612.127	33511.58
612.484	33766.71
612.841	33954.73
613.198	34122.18
613.554	34190.65
613.911	34489.86
614.267	34643.75
614.624	34776.4
614.98	35036.06
615.337	35362.15
615.693	35453.22
616.05	35543.39
616.406	35945.86
616.762	35938.86
617.118	36090.27
617.475	36042.13
617.831	36473.53
618.187	36633.53
618.543	36738.38
618.899	36930.02
619.255	37038.26
619.611	37087.08
619.967	37290.01
620.323	37578.81
620.678	37499.04
621.034	37503.56
621.39	37606.16
621.746	37888.64
622.101	38314.84
622.457	38069.87
622.812	38204.33
623.168	38524.78
623.523	38613.36
623.879	38575.85
624.234	38496.76
624.589	38710.99
624.945	38772.68
625.3	39002.73
625.655	39021.26
626.01	39125.21
626.365	39235.27
626.72	39205.21
627.075	39209.51
627.43	39388.48
627.785	39350.07
628.14	39448.37
628.495	39578.31
628.85	39583.73
629.205	39559.78
629.559	39805.87
629.914	39686.1
630.269	39762.49
630.623	39669.15
630.978	39565.2
631.332	39863.95
631.687	40070.73
632.041	40010.61
632.396	40085.19
632.75	39816.5
633.104	40051.97
633.459	40037.96
633.813	39914.8
634.167	40075.02
634.521	40083.83
634.875	40132.42
635.229	40032.76
635.583	39943.05
635.937	39959.32
636.291	40039.54
636.645	39970.84
636.999	39939.88
637.352	40091.29
637.706	39889.26
638.06	40037.51
638.413	40040.22
638.767	40066.88
639.121	40043.83
639.474	39867.12
639.828	39971.07
640.181	40110.72
640.534	40004.51
640.888	39911.86
641.241	39857.17
641.594	39831.41
641.947	40083.83
642.301	39884.74
642.654	39913.22
643.007	39883.84
643.36	39899.21
643.713	39755.71
644.066	39935.59
644.419	39739.21
644.771	39571.3
645.124	39111.43
645.477	39247.47
645.83	39037.98
646.182	38712.57
646.535	38735.17
646.888	38774.94
647.24	38592.8
647.593	38927.71
647.945	38732
648.298	38495.63
648.65	38642.52
649.002	38425.12
649.355	38583.76
649.707	38421.73
650.059	38708.5
650.411	39197.53
650.763	39216.74
651.115	39485.88
651.467	39515.49
651.819	39561.13
652.171	39476.39
652.523	39481.36
652.875	39528.59
653.227	39266.23
653.578	39368.37
653.93	39418.31
654.282	39384.42
654.633	39261.26
654.985	39301.03
655.337	39412.21
655.688	39356.62
656.039	39413.57
656.391	39110.3
656.742	39132.45
657.094	39171.31
657.445	39383.51
657.796	39252.22
658.147	39122.5
658.498	39121.15
658.849	39108.94
659.2	39162.95
659.551	39209.73
659.902	39226.91
660.253	39144.87
660.604	39152.78
660.955	38978.33
661.306	39103.52
661.656	38960.25
662.007	39214.48
662.358	39084.99
662.708	39062.62
663.059	38972.68
663.409	38869.85
663.76	39101.26
664.11	39079.57
664.461	39043.41
664.811	39157.3
665.161	39084.31
665.511	39082.73
665.862	39065.1
666.212	39059.45
666.562	39094.93
666.912	39010.19
667.262	39083.18
667.612	39045.22
667.962	38914.6
668.312	39085.44
668.662	39043.86
669.011	38950.08
669.361	38995.5
669.711	39054.48
670.06	38841.83
670.41	38868.72
670.76	38859.46
671.109	38934.94
671.459	38992.11
671.808	38843.87
672.157	38953.47
672.507	38683.64
672.856	38779.23
673.205	38773.13
673.554	38906.91
673.904	38698.11
674.253	39014.48
674.602	38699.69
674.951	38146.93
675.3	37983.1
675.649	38616.53
675.998	38644.77
676.346	38532.24
676.695	38725
677.044	38437.77
677.393	38655.4
677.741	38699.24
678.09	38512.57
678.438	38473.71
678.787	38568.84
679.135	38510.99
679.484	38289.76
679.832	38449.53
680.181	38163.21
680.529	38336.53
680.877	38144.45
681.225	38211.34
681.573	38375.63
681.922	38181.51
682.27	38047.5
682.618	38118.46
682.966	37968.18
683.314	38044.11
683.661	37892.93
684.009	37640.96
684.357	37614.29
684.705	37607.06
685.053	37580.62
685.4	37567.29
685.748	37435.09
686.095	37447.97
686.443	37257.01
686.79	37242.55
687.138	37296.56
687.485	37403.68
687.832	37122.33
688.18	37285.94
688.527	36916.01
688.874	37048.21
689.221	37000.75
689.568	36896.12
689.915	36842.56
690.262	36729.8
690.609	36666.97
690.956	36602.57
691.303	36494.32
691.65	36274.67
691.997	36331.16
692.344	36144.73
692.69	36060.21
693.037	36228.12
693.383	35892.98
693.73	36005.52
694.077	35756.04
694.423	35624.74
694.769	35583.16
695.116	35679.66
695.462	35570.96
695.808	35336.61
696.155	35522.15
696.501	35138.43
696.847	35159.22
697.193	34940.47
697.539	35030.86
697.885	34841.71
698.231	34749.28
698.577	34769.17
698.923	34670.64
699.269	34536.86
699.614	34469.74
699.96	34385.68
700.306	34420.03
700.651	34188.85
700.997	34092.58
701.342	34105.23
701.688	34097.78
702.033	33899.36
702.379	33987.5
702.724	33791.12
703.069	33875.18
703.415	33472.71
703.76	33506.6
704.105	33491.46
704.45	33474.52
704.795	33248.31
705.14	33172.83
705.485	33129.21
705.83	33056.67
706.175	33144.35
706.52	32924.93
706.865	32848.77
707.209	32768.55
707.554	32657.36
707.899	32712.5
708.243	32562.45
708.588	32594.09
708.932	32151.16
709.277	32347.31
709.621	32439.51
709.966	32160.65
710.31	32248.78
710.654	31990.71
710.998	32027.1
711.342	31940.54
711.687	31847.67
712.031	31762.24
712.375	31744.39
712.719	31767.22
713.063	31691.74
713.407	31686.77
713.75	31563.38
714.094	31498.75
714.438	31344.18
714.782	31407.68
715.125	31256.04
715.469	31188.47
715.812	31222.15
716.156	30962.72
716.499	30980.8
716.843	30929.27
717.186	30776.51
717.53	30941.93
717.873	30927.01
718.216	30719.11
718.559	30833.23
718.902	30545.55
719.246	30589.17
719.589	30457.87
719.932	30376.07
720.275	30357.99
720.617	30482.73
720.96	30346.91
721.303	30253.58
721.646	30280.25
721.989	30136.52
722.331	30209.52
722.674	29953.03
723.016	30074.83
723.359	30064.44
723.701	29986.92
724.044	29888.62
724.386	29605.92
724.729	29820.15
725.071	29743.77
725.413	29670.55
725.755	29741.96
726.097	29608.85
726.439	29449.54
726.782	29508.52
727.124	29650.44
727.465	29416.09
727.807	29377.45
728.149	29322.08
728.491	29223.33
728.833	29362.31
729.175	29107.4
729.516	29148.75
729.858	29050.22
730.199	29125.48
730.541	29034.86
730.882	29005.25
731.224	29148.98
731.565	28775.2
731.906	28873.05
732.248	28772.49
732.589	28605.94
732.93	28632.38
733.271	28604.36
733.612	28666.05
733.953	28518.94
734.294	28384.03
734.635	28477.36
734.976	28511.71
735.317	28371.6
735.658	28339.74
735.999	28396.68
736.339	28236.69
736.68	28438.94
737.021	28289.34
737.361	28252.96
737.702	28213.41
738.042	28258.61
738.383	28169.34
738.723	28173.64
739.063	28038.27
739.404	28025.62
739.744	28000.99
740.084	27789.69
740.424	27950.59
740.764	27873.53
741.104	27896.58
741.444	27730.71
741.784	27646.87
742.124	27781.11
742.464	27671.05
742.804	27521.23
743.143	27561
743.483	27588.57
743.823	27375.69
744.162	27406.43
744.502	27491.85
744.841	27260.67
745.181	27336.15
745.52	27249.82
745.86	27176.15
746.199	27258.86
746.538	27070.16
746.877	27243.49
747.216	27076.72
747.556	27043.27
747.895	26994.01
748.234	26863.84
748.573	26787.23
748.911	26861.81
749.25	26711.76
749.589	26601.48
749.928	26773.9
750.267	26799.66
750.605	26728.25
750.944	26545.43
751.283	26463.4
751.621	26599.44
751.96	26415.94
752.298	26365.1
752.636	26440.12
752.975	26262.95
753.313	26228.38
753.651	26246
753.989	26177.98
754.327	26089.17
754.666	26039.91
755.004	26046.91
755.342	26025.9
755.679	25934.15
756.017	25731.89
756.355	25861.16
756.693	25730.09
757.031	25676.98
757.368	25610.77
757.706	25452.13
758.044	25446.7
758.381	25510.43
758.719	25392.24
759.056	25407.61
759.394	25329.64
