Data from hue_26_FLMS001491_00038.txt Node
Date: Tue Feb 07 17:13:55 GMT 2017
User: dcchb
Spectrometer: FLMS00149
Trigger mode: 0
Integration Time (sec): 2.000000E-2
Scans to average: 10
Electric dark correction enabled: true
Nonlinearity correction enabled: false
Boxcar width: 0
XAxis mode: Wavelengths
Number of Pixels in Spectrum: 2048
>>>>>Begin Spectral Data<<<<<
341.393	-25.58
341.776	-25.58
342.16	-25.58
342.543	-54.96
342.927	-76.42
343.31	-69.65
343.693	-72.81
344.077	-73.49
344.46	-59.25
344.843	-64.22
345.226	-49.98
345.61	-18.57
345.993	-21.06
346.376	0.64
346.759	27.75
347.142	27.75
347.525	33.18
347.908	71.37
348.291	70.92
348.674	104.59
349.057	92.84
349.44	137.81
349.823	136.45
350.206	194.3
350.588	199.95
350.971	197.47
351.354	238.6
351.737	230.01
352.119	238.37
352.502	279.95
352.884	293.74
353.267	271.14
353.65	294.64
354.032	305.03
354.414	298.03
354.797	314.98
355.179	312.94
355.562	317.24
355.944	329.44
356.326	326.95
356.709	333.73
357.091	324.92
357.473	337.35
357.855	342.55
358.238	343.23
358.62	332.83
359.002	352.72
359.384	326.28
359.766	331.7
360.148	340.06
360.53	340.97
360.912	336.9
361.294	328.99
361.676	322.89
362.057	340.06
362.439	338.93
362.821	332.38
363.203	324.02
363.584	336.9
363.966	329.67
364.348	310.46
364.729	314.07
365.111	315.2
365.493	314.53
365.874	326.28
366.256	304.36
366.637	319.27
367.019	312.72
367.4	326.05
367.781	290.8
368.163	335.09
368.544	304.58
368.925	321.53
369.306	307.97
369.688	309.78
370.069	312.72
370.45	311.81
370.831	313.17
371.212	323.11
371.593	335.99
371.974	333.28
372.355	325.37
372.736	318.59
373.117	311.14
373.498	316.33
373.879	310.46
374.26	324.02
374.641	319.95
375.021	317.01
375.402	305.49
375.783	337.12
376.163	317.24
376.544	330.12
376.925	335.99
377.305	311.81
377.686	335.77
378.066	318.37
378.447	345.03
378.827	348.2
379.208	331.47
379.588	306.39
379.968	338.25
380.349	312.94
380.729	347.07
381.109	348.65
381.489	349.33
381.87	339.38
382.25	335.32
382.63	361.3
383.01	358.37
383.39	340.51
383.77	354.75
384.15	356.11
384.53	331.02
384.91	335.99
385.29	350.91
385.67	359.27
386.049	346.84
386.429	334.86
386.809	356.33
387.189	350
387.568	363.34
387.948	366.28
388.328	371.47
388.707	371.93
389.087	351.59
389.466	369.67
389.846	356.78
390.225	382.77
390.605	361.76
390.984	352.72
391.363	366.95
391.743	371.25
392.122	374.41
392.501	376.9
392.881	381.42
393.26	388.87
393.639	372.15
394.018	378.93
394.397	393.62
394.776	378.03
395.155	399.72
395.534	371.02
395.913	386.39
396.292	383.68
396.671	377.57
397.05	400.85
397.429	365.82
397.808	383.68
398.186	361.3
398.565	384.13
398.944	401.08
399.323	375.54
399.701	411.25
400.08	380.06
400.458	404.47
400.837	405.82
401.215	401.53
401.594	392.72
401.972	393.39
402.351	410.12
402.729	401.98
403.107	432.94
403.486	444.24
403.864	413.51
404.242	434.07
404.62	412.38
404.999	430.91
405.377	409.44
405.755	407.4
406.133	427.74
406.511	425.48
406.889	439.04
407.267	442.21
407.645	435.88
408.023	425.71
408.401	439.95
408.779	432.04
409.156	442.43
409.534	460.74
409.912	457.8
410.29	486.95
410.667	458.7
411.045	448.08
411.422	474.3
411.8	456.22
412.178	473.39
412.555	469.78
412.933	463
413.31	492.37
413.687	475.65
414.065	488.53
414.442	483.11
414.819	481.07
415.197	476.33
415.574	492.15
415.951	488.98
416.328	484.69
416.705	518.36
417.082	487.85
417.46	499.83
417.837	509.32
418.214	517.91
418.591	506.84
418.967	523.56
419.344	536.67
419.721	530.57
420.098	503.67
420.475	524.24
420.852	536.44
421.228	504.8
421.605	521.53
421.982	534.63
422.358	544.35
422.735	558.36
423.111	544.12
423.488	540.51
423.864	529.66
424.241	562.88
424.617	561.07
424.994	550.9
425.37	579.15
425.746	576.44
426.123	559.04
426.499	578.7
426.875	580.96
427.251	588.64
427.627	588.64
428.003	592.26
428.379	586.16
428.756	582.32
429.132	622.31
429.507	636.55
429.883	617.34
430.259	619.15
430.635	621.18
431.011	635.2
431.387	629.55
431.763	641.07
432.138	671.35
432.514	653.73
432.89	651.01
433.265	650.79
433.641	679.26
434.016	690.56
434.392	672.03
434.767	686.95
435.143	695.53
435.518	709.32
435.894	700.96
436.269	701.86
436.644	717
437.02	728.98
437.395	713.39
437.77	732.82
438.145	716.1
438.52	730.79
438.895	753.84
439.271	744.12
439.646	744.8
440.021	747.96
440.395	747.96
440.77	775.76
441.145	784.12
441.52	791.12
441.895	790.67
442.27	784.8
442.645	791.35
443.019	789.09
443.394	798.13
443.769	822.76
444.143	790.9
444.518	809.43
444.892	817.56
445.267	818.47
445.641	825.02
446.016	809.43
446.39	819.6
446.764	844.46
447.139	851.23
447.513	825.25
447.887	852.82
448.262	846.49
448.636	842.2
449.01	877.45
449.384	851.46
449.758	886.49
450.132	884.91
450.506	863.44
450.88	890.56
451.254	886.04
451.628	901.4
452.002	904.57
452.376	904.79
452.75	917
453.123	914.51
453.497	912.48
453.871	921.29
454.244	957.22
454.618	968.75
454.992	951.35
455.365	976.43
455.739	984.56
456.112	1008.52
456.486	995.41
456.859	995.41
457.232	1018.91
457.606	1054.39
457.979	1046.71
458.352	1046.48
458.725	1069.08
459.099	1069.31
459.472	1088.97
459.845	1104.11
460.218	1103.66
460.591	1115.63
460.964	1101.62
461.337	1133.04
461.71	1159.25
462.083	1161.28
462.456	1181.62
462.829	1178.46
463.201	1194.28
463.574	1209.19
463.947	1227.5
464.32	1227.72
464.692	1250.55
465.065	1222.52
465.438	1284.44
465.81	1307.27
466.183	1316.76
466.555	1330.54
466.928	1320.83
467.3	1325.12
467.672	1368.51
468.045	1386.36
468.417	1377.1
468.789	1414.61
469.161	1407.6
469.534	1465.23
469.906	1493.03
470.278	1461.61
470.65	1489.41
471.022	1535.51
471.394	1543.87
471.766	1570.54
472.138	1579.35
472.51	1591.33
472.882	1631.33
473.253	1662.74
473.625	1670.2
473.997	1698.22
474.369	1727.14
474.74	1731.89
475.112	1779.8
475.484	1843.3
475.855	1841.72
476.227	1857.54
476.598	1931.66
476.97	1958.78
477.341	1959.23
477.713	2027.02
478.084	2037.19
478.455	2102.28
478.827	2132.56
479.198	2185.21
479.569	2184.31
479.94	2271.31
480.311	2285.1
480.682	2319.44
481.053	2397.41
481.424	2440.35
481.795	2468.37
482.166	2506.11
482.537	2535.26
482.908	2602.6
483.279	2650.96
483.65	2676.95
484.021	2749.26
484.391	2789.04
484.762	2862.93
485.133	2847.79
485.503	2931.41
485.874	3002.82
486.244	3074.45
486.615	3085.75
486.985	3130.5
487.356	3215.01
487.726	3235.35
488.097	3364.39
488.467	3341.34
488.837	3428.12
489.207	3431.28
489.578	3526.42
489.948	3578.85
490.318	3673.31
490.688	3654.1
491.058	3708.33
491.428	3769.12
491.798	3847.31
492.168	3872.17
492.538	3951.72
492.908	3996.91
493.278	4026.07
493.648	4078.49
494.017	4141.54
494.387	4121.66
494.757	4211.6
495.126	4294.31
495.496	4286.4
495.866	4359.62
496.235	4367.53
496.605	4405.94
496.974	4458.37
497.344	4472.61
497.713	4524.36
498.082	4542.44
498.452	4637.35
498.821	4650.91
499.19	4711.02
499.559	4736.56
499.928	4744.47
500.298	4768.42
500.667	4852.71
501.036	4836.44
501.405	4920.28
501.774	4882.32
502.143	4945.36
502.512	5054.97
502.88	5022.88
503.249	5030.79
503.618	5102.87
503.987	5093.38
504.356	5156.43
504.724	5213.15
505.093	5216.77
505.462	5176.54
505.83	5238.69
506.199	5253.15
506.567	5346.48
506.936	5385.13
507.304	5396.43
507.672	5416.54
508.041	5497.67
508.409	5493.6
508.777	5519.81
509.145	5562.52
509.514	5564.11
509.882	5553.94
510.25	5597.55
510.618	5647.27
510.986	5680.71
511.354	5735.4
511.722	5788.73
512.09	5814.04
512.458	5783.76
512.826	5807.26
513.193	5886.36
513.561	5863.98
513.929	5889.75
514.297	5963.87
514.664	5974.49
515.032	6012.45
515.4	6068.95
515.767	6114.6
516.135	6075.73
516.502	6051.32
516.869	6200.7
517.237	6113.92
517.604	6157.99
517.972	6197.53
518.339	6222.84
518.706	6260.13
519.073	6256.29
519.44	6289.06
519.808	6348.27
520.175	6343.75
520.542	6356.4
520.909	6429.62
521.276	6461.26
521.643	6489.96
522.009	6524.31
522.376	6569.05
522.743	6602.95
523.11	6635.49
523.477	6702.83
523.843	6715.71
524.21	6768.59
524.577	6848.59
524.943	6876.39
525.31	6897.63
525.676	6905.09
526.043	6966.1
526.409	6975.14
526.776	7029.38
527.142	7064.63
527.508	7100.11
527.874	7206.55
528.241	7136.72
528.607	7153.67
528.973	7265.3
529.339	7307.34
529.705	7332.42
530.071	7320.67
530.437	7372.65
530.803	7421.23
531.169	7495.35
531.535	7508.91
531.901	7516.82
532.267	7563.37
532.632	7656.48
532.998	7606.31
533.364	7709.81
533.73	7689.25
534.095	7787.55
534.461	7765.86
534.826	7822.58
535.192	7845.63
535.557	7912.29
535.923	7845.63
536.288	7897.83
536.653	7990.93
537.019	7961.78
537.384	7971.05
537.749	7970.6
538.114	8063.25
538.479	8101.21
538.845	8138.27
539.21	8115.68
539.575	8198.84
539.94	8232.74
540.305	8291.04
540.67	8242.68
541.034	8316.58
541.399	8355.9
541.764	8395.9
542.129	8356.35
542.494	8404.26
542.858	8505.95
543.223	8481.77
543.587	8529.9
543.952	8578.72
544.316	8663.01
544.681	8562.44
545.045	8671.37
545.41	8700.75
545.774	8750.46
546.138	8724.02
546.503	8768.54
546.867	8791.59
547.231	8830.91
547.595	8858.03
547.959	8950.23
548.324	8889.67
548.688	8929.44
549.052	9063.9
549.416	9043.56
549.779	9001.3
550.143	9037.46
550.507	9096.67
550.871	9124.92
551.235	9133.95
551.599	9286.95
551.962	9188.42
552.326	9257.12
552.689	9350.22
553.053	9267.96
553.417	9354.06
553.78	9468.18
554.143	9388.86
554.507	9381.41
554.87	9470.44
555.234	9586.82
555.597	9498.46
555.96	9449.65
556.323	9502.53
556.686	9578.01
557.05	9698.46
557.413	9685.35
557.776	9737.1
558.139	9805.58
558.502	9729.19
558.865	9861.62
559.228	9844.9
559.59	9874.95
559.953	9865.23
560.316	10074.95
560.679	10014.16
561.041	10049.41
561.404	10106.58
561.767	10141.16
562.129	10112.01
562.492	10249.86
562.854	10195.4
563.217	10264.55
563.579	10246.47
563.941	10328.73
564.304	10378.22
564.666	10419.12
565.028	10433.36
565.39	10519.23
565.753	10523.97
566.115	10545.67
566.477	10590.87
566.839	10633.58
567.201	10653.69
567.563	10642.62
567.925	10726.46
568.287	10725.1
568.648	10763.52
569.01	10796.28
569.372	10905.43
569.734	10904.98
570.095	10918.31
570.457	10976.39
570.819	11072.66
571.18	11135.71
571.542	11196.27
571.903	11215.03
572.265	11198.53
572.626	11292.32
572.987	11344.97
573.349	11430.62
573.71	11518.75
574.071	11573.21
574.432	11598.52
574.794	11697.5
575.155	11688.24
575.516	11652.31
575.877	11843.49
576.238	11867.22
576.599	11986.31
576.96	11991.28
577.32	12154.67
577.681	12288.9
578.042	12313.76
578.403	12384.26
578.763	12516.69
579.124	12644.6
579.485	12680.98
579.845	12814.08
580.206	12893.63
580.566	13037.13
580.927	13214.75
581.287	13367.52
581.648	13369.55
582.008	13599.6
582.368	13621.97
582.728	13874.17
583.089	13881.4
583.449	14095.86
583.809	14301.5
584.169	14534.72
584.529	14629.18
584.889	14953.69
585.249	15134.02
585.609	15170.86
585.969	15437.07
586.329	15716.61
586.688	15921.8
587.048	16100.33
587.408	16255.58
587.768	16565.85
588.127	16741.21
588.487	16973.52
588.846	17321.31
589.206	17442.44
589.565	17819.38
589.925	18092.36
590.284	18347.05
590.643	18542.52
591.003	18878.78
591.362	19168.95
591.721	19332.1
592.08	19732.55
592.44	20023.39
592.799	20306.32
593.158	20576.14
593.517	20789.24
593.876	21198.27
594.235	21387.42
594.593	21609.56
594.952	22041.64
595.311	22238.69
595.67	22520.04
596.029	23058.33
596.387	23290.87
596.746	23705.32
597.104	23862.16
597.463	24036.61
597.822	24470.27
598.18	24667.56
598.538	25009.47
598.897	25395.9
599.255	25493.3
599.613	26138.93
599.972	26205.82
600.33	26651.23
600.688	26831.12
601.046	27207.15
601.404	27500.93
601.762	27758.55
602.12	28203.06
602.478	28419.1
602.836	28741.35
603.194	28820.22
603.552	28970.72
603.91	29282.58
604.268	29775.45
604.625	29771.15
604.983	30177.47
605.341	30362.55
605.698	30740.17
606.056	31088.86
606.413	31271.68
606.771	31578.79
607.128	31876.63
607.485	31915.5
607.843	32149.17
608.2	32586.22
608.557	32856.27
608.914	32863.05
609.272	33256.94
609.629	33584.61
609.986	33955.9
610.343	33847.88
610.7	34346.4
611.057	34412.39
611.414	34523.12
611.771	34950.23
612.127	35120.62
612.484	35215.75
612.841	35505.01
613.198	35631.56
613.554	35825.46
613.911	36184.99
614.267	36338.66
614.624	36372.11
614.98	36492.11
615.337	36952.43
615.693	36968.93
616.05	37118.98
616.406	37507.45
616.762	37397.62
617.118	37630.15
617.475	37692.3
617.831	37968.22
618.187	38063.36
618.543	38105.4
618.899	38671.48
619.255	38560.3
619.611	38627.64
619.967	38893.85
620.323	39045.48
620.678	39077.12
621.034	38995.77
621.39	39280.73
621.746	39335.65
622.101	39682.3
622.457	39504.23
622.812	39751.45
623.168	39919.81
623.523	39956.2
623.879	40243.42
624.234	40080.71
624.589	40217.43
624.945	40336.98
625.3	40518.21
625.655	40621.49
626.01	40582.17
626.365	40654.71
626.72	40702.16
627.075	40797.75
627.43	40828.49
627.785	40737.42
628.14	41020.12
628.495	41020.57
628.85	41168.37
629.205	40918.43
629.559	41225.99
629.914	41094.47
630.269	41222.15
630.623	41291.08
630.978	41140.34
631.332	41432.09
631.687	41403.39
632.041	41474.12
632.396	41460.56
632.75	41438.87
633.104	41405.87
633.459	41303.28
633.813	41437.74
634.167	41380.56
634.521	41448.13
634.875	41687.9
635.229	41502.37
635.583	41422.15
635.937	41323.16
636.291	41383.28
636.645	41421.47
636.999	41404.07
637.352	41570.16
637.706	41301.7
638.06	41579.88
638.413	41422.15
638.767	41454.01
639.121	41540.79
639.474	41319.32
639.828	41373.11
640.181	41450.62
640.534	41503.73
640.888	41330.4
641.241	41301.02
641.594	41299.89
641.947	41495.36
642.301	41330.62
642.654	41281.81
643.007	41377.63
643.36	41280
643.713	41288.36
644.066	41401.13
644.419	41248.82
644.771	40875.27
645.124	40634.14
645.477	40477.54
645.83	40204.55
646.182	40240.93
646.535	40107.83
646.888	40278.45
647.24	40011.33
647.593	40089.3
647.945	40157.32
648.298	39978.57
648.65	40030.32
649.002	39892.24
649.355	40101.5
649.707	39950.09
650.059	40158.22
650.411	40698.55
650.763	40746.68
651.115	41154.13
651.467	40937.41
651.819	40953.46
652.171	40885.21
652.523	40887.92
652.875	40769.06
653.227	40607.03
653.578	41064.64
653.93	40938.99
654.282	40596.4
654.633	40529.74
654.985	40579.23
655.337	40669.62
655.688	40695.84
656.039	40801.82
656.391	40539.23
656.742	40650.87
657.094	40735.61
657.445	40754.37
657.796	40673.92
658.147	40644.31
658.498	40573.13
658.849	40673.46
659.2	40557.76
659.551	40503.07
659.902	40543.98
660.253	40439.8
660.604	40651.54
660.955	40520.25
661.306	40537.2
661.656	40454.49
662.007	40575.39
662.358	40468.27
662.708	40468.95
663.059	40572
663.409	40319.12
663.76	40619.68
664.11	40635.5
664.461	40517.54
664.811	40414.49
665.161	40486.58
665.511	40525.45
665.862	40472.57
666.212	40513.69
666.562	40410.65
666.912	40412.68
667.262	40210.88
667.612	40431.21
667.962	40437.31
668.312	40460.14
668.662	40470.53
669.011	40400.48
669.361	40314.83
669.711	40357.31
670.06	40381.04
670.41	40301.72
670.76	40200.71
671.109	40367.26
671.459	40339.01
671.808	40136.08
672.157	40324.32
672.507	40015.18
672.856	40140.15
673.205	40202.52
673.554	40223.76
673.904	40109.64
674.253	40346.92
674.602	40135.17
674.951	39666.71
675.3	39401.63
675.649	40247.71
675.998	40107.15
676.346	40110.09
676.695	40150.09
677.044	39906.48
677.393	39996.87
677.741	40074.38
678.09	40009.75
678.438	39805.69
678.787	39866.71
679.135	39764.56
679.484	39559.14
679.832	39845.69
680.181	39487.51
680.529	39650.89
680.877	39527.28
681.225	39513.72
681.573	39723.88
681.922	39501.52
682.27	39259.04
682.618	39304.23
682.966	39230.34
683.314	39364.35
683.661	39286.38
684.009	39071.25
684.357	39031.25
684.705	39017.69
685.053	39092.94
685.4	39025.6
685.748	38818.6
686.095	38825.15
686.443	38702.44
686.79	38698.83
687.138	38740.86
687.485	38692.05
687.832	38581.99
688.18	38608.66
688.527	38332.28
688.874	38264.26
689.221	38397.37
689.568	38196.92
689.915	38086.41
690.262	38076.92
690.609	37915.34
690.956	37911.28
691.303	37896.59
691.65	37683.94
691.997	37626.99
692.344	37434.23
692.69	37499.54
693.037	37432.42
693.383	37135.48
693.73	37344.74
694.077	36944.52
694.423	37012.77
694.769	36994.92
695.116	36823.4
695.462	36879.67
695.808	36696.17
696.155	36718.99
696.501	36503.4
696.847	36559.67
697.193	36314.71
697.539	36387.02
697.885	36187.93
698.231	35942.52
698.577	36188.61
698.923	35991.33
699.269	35866.13
699.614	35671.79
699.96	35557.89
700.306	35557.89
700.651	35436.09
700.997	35285.36
701.342	35270.67
701.688	35288.3
702.033	35198.35
702.379	35124.01
702.724	35108.19
703.069	35011.69
703.415	34697.35
703.76	34818.93
704.105	34988.64
704.45	34615.54
704.795	34544.36
705.14	34359.05
705.485	34227.98
705.83	34338.26
706.175	34343.46
706.52	34166.29
706.865	34030.7
707.209	34052.17
707.554	33867.99
707.899	33854.89
708.243	33630.03
708.588	33755.91
708.932	33582.13
709.277	33538.96
709.621	33571.73
709.966	33239.08
710.31	33385.97
710.654	33054
710.998	33245.64
711.342	33153.89
711.687	33091.97
712.031	32803.16
712.375	32793.45
712.719	32946.89
713.063	32735.14
713.407	32873.67
713.75	32685.88
714.094	32680
714.438	32540.8
714.782	32468.93
715.125	32242.27
715.469	32451.99
715.812	32289.73
716.156	32119.34
716.499	32227.58
716.843	32167.93
717.186	31982.62
717.53	32170.86
717.873	31966.35
718.216	31974.94
718.559	31896.29
718.902	31579.92
719.246	31735.17
719.589	31579.24
719.932	31478.23
720.275	31513.71
720.617	31488.17
720.96	31515.29
721.303	31453.82
721.646	31434.61
721.989	31177.67
722.331	31372.69
722.674	31226.93
723.016	31210.21
723.359	31059.71
723.701	31146.71
724.044	30894.74
724.386	30755.99
724.729	31048.86
725.071	30875.3
725.413	30790.11
725.755	30852.93
726.097	30719.83
726.439	30575.88
726.782	30566.16
727.124	30704.01
727.465	30598.48
727.807	30551.47
728.149	30444.13
728.491	30296.11
728.833	30337.92
729.175	30110.13
729.516	30232.38
729.858	30102.44
730.199	30183.8
730.541	30043.91
730.882	30122.78
731.224	30068.09
731.565	29967.53
731.906	29922.79
732.248	29973.18
732.589	29894.31
732.93	29703.81
733.271	29854.77
733.612	29752.4
733.953	29839.63
734.294	29689.8
734.635	29612.74
734.976	29749.23
735.317	29496.36
735.658	29406.19
735.999	29480.31
736.339	29323.25
736.68	29442.35
737.021	29289.13
737.361	29342.46
737.702	29379.52
738.042	29229.92
738.383	29203.71
738.723	29339.3
739.063	29143.6
739.404	29161.45
739.744	29088.46
740.084	28846.66
740.424	28974.34
740.764	28835.36
741.104	28932.98
741.444	28841.46
741.784	28744.96
742.124	28840.78
742.464	28674.46
742.804	28778.86
743.143	28566.44
743.483	28646.44
743.823	28435.37
744.162	28508.59
744.502	28421.81
744.841	28252.55
745.181	28444.86
745.52	28381.13
745.86	28366.67
746.199	28420.45
746.538	28232.44
746.877	28417.52
747.216	28344.52
747.556	28296.61
747.895	28250.06
748.234	28136.62
748.573	28088.26
748.911	27950.41
749.25	27998.77
749.589	27853.69
749.928	27940.24
750.267	27938.21
750.605	27817.53
750.944	27846.91
751.283	27667.03
751.621	27733.92
751.96	27481.72
752.298	27486.01
752.636	27596.07
752.975	27496.18
753.313	27366.7
753.651	27494.38
753.989	27281.05
754.327	27197.66
754.666	27135.97
755.004	27248.96
755.342	27124.44
755.679	27043.77
756.017	27058.68
756.355	27098.45
756.693	26914.05
757.031	26971.45
757.368	26732.14
757.706	26809.2
758.044	26721.06
758.381	26804.45
758.719	26522.65
759.056	26636.09
759.394	26506.38
