Data from hue_80_FLMS001491_43.txt Node
Date: Mon Feb 06 15:23:02 GMT 2017
User: dcchb
Spectrometer: FLMS00149
Trigger mode: 0
Integration Time (sec): 2.000000E-2
Scans to average: 10
Electric dark correction enabled: true
Nonlinearity correction enabled: false
Boxcar width: 0
XAxis mode: Wavelengths
Number of Pixels in Spectrum: 2048
>>>>>Begin Spectral Data<<<<<
341.393	-8.52
341.776	-8.52
342.16	-8.52
342.543	-36.09
342.927	-78.8
343.31	-55.3
343.693	-60.72
344.077	-72.92
344.46	-53.26
344.843	-45.8
345.226	-32.24
345.61	-31.12
345.993	-24.56
346.376	-6.93
346.759	4.59
347.142	25.61
347.525	17.02
347.908	76.9
348.291	69.67
348.674	84.36
349.057	104.7
349.44	139.95
349.823	151.48
350.206	158.48
350.588	191.03
350.971	196.45
351.354	236
351.737	232.61
352.119	231.93
352.502	259.72
352.884	286.16
353.267	301.76
353.65	287.29
354.032	293.62
354.414	318.93
354.797	308.99
355.179	323
355.562	318.48
355.944	325.26
356.326	329.33
356.709	337.69
357.091	323.9
357.473	340.85
357.855	329.1
358.238	342.66
358.62	358.71
359.002	358.71
359.384	341.3
359.766	331.81
360.148	350.12
360.53	315.99
360.912	335.88
361.294	343.56
361.676	338.14
362.057	330.23
362.439	339.5
362.821	340.63
363.203	333.85
363.584	322.55
363.966	318.93
364.348	329.78
364.729	324.36
365.111	312.83
365.493	340.17
365.874	315.54
366.256	310.34
366.637	303.79
367.019	306.5
367.4	306.05
367.781	341.98
368.163	319.16
368.544	337.91
368.925	308.54
369.306	316.22
369.688	314.19
370.069	310.34
370.45	332.27
370.831	311.7
371.212	301.53
371.593	299.5
371.974	306.96
372.355	327.07
372.736	308.99
373.117	329.33
373.498	340.85
373.879	299.95
374.26	297.01
374.641	329.55
375.021	325.94
375.402	308.99
375.783	315.09
376.163	330.46
376.544	337.01
376.925	340.4
377.305	310.8
377.686	325.94
378.066	345.82
378.447	347.86
378.827	340.4
379.208	328.2
379.588	332.72
379.968	351.25
380.349	325.49
380.729	328.65
381.109	329.33
381.489	341.76
381.87	336.33
382.25	342.43
382.63	342.66
383.01	360.51
383.39	344.47
383.77	323.23
384.15	325.26
384.53	315.77
384.91	348.76
385.29	347.41
385.67	361.64
386.049	361.64
386.429	345.6
386.809	378.59
387.189	359.61
387.568	351.02
387.948	356.67
388.328	369.55
388.707	362.32
389.087	374.52
389.466	345.82
389.846	360.97
390.225	352.38
390.605	360.97
390.984	373.17
391.363	378.37
391.743	373.39
392.122	370
392.501	383.56
392.881	393.73
393.26	378.82
393.639	379.04
394.018	366.61
394.397	380.17
394.776	389.44
395.155	381.98
395.534	380.17
395.913	363.22
396.292	394.18
396.671	371.81
397.05	394.41
397.429	393.28
397.808	381.08
398.186	356.9
398.565	388.08
398.944	391.92
399.323	389.89
399.701	386.05
400.08	366.61
400.458	389.89
400.837	400.51
401.215	407.07
401.594	401.87
401.972	412.94
402.351	414.75
402.729	417.01
403.107	410.23
403.486	413.39
403.864	417.01
404.242	413.39
404.62	419.72
404.999	402.32
405.377	417.01
405.755	435.99
406.133	433.51
406.511	417.46
406.889	407.74
407.267	438.25
407.645	444.13
408.023	424.92
408.401	403.45
408.779	448.65
409.156	447.74
409.534	434.41
409.912	452.04
410.29	441.19
410.667	469.89
411.045	456.1
411.422	472.15
411.8	436.9
412.178	450.45
412.555	470.34
412.933	453.17
413.31	470.11
413.687	483.9
414.065	483.9
414.442	479.83
414.819	501.98
415.197	490.91
415.574	491.36
415.951	482.09
416.328	484.35
416.705	496.1
417.082	486.61
417.46	488.19
417.837	488.65
418.214	522.09
418.591	508.08
418.967	518.93
419.344	526.84
419.721	509.89
420.098	520.96
420.475	534.29
420.852	527.74
421.228	534.52
421.605	553.73
421.982	548.98
422.358	515.99
422.735	553.73
423.111	551.69
423.488	525.71
423.864	563.67
424.241	548.98
424.617	537.91
424.994	577.23
425.37	598.25
425.746	573.61
426.123	559.15
426.499	582.65
426.875	578.81
427.251	589.66
427.627	586.27
428.003	586.04
428.379	598.47
428.756	593.5
429.132	594.86
429.507	619.94
429.883	608.64
430.259	614.52
430.635	633.95
431.011	621.3
431.387	635.76
431.763	649.55
432.138	642.54
432.514	650.67
432.89	660.62
433.265	689.54
433.641	670.56
434.016	669.66
434.392	700.39
434.767	699.26
435.143	683.44
435.518	713.72
435.894	691.35
436.269	700.39
436.644	704.68
437.02	722.09
437.395	730.9
437.77	718.24
438.145	724.57
438.52	742.2
438.895	732.03
439.271	760.95
439.646	755.08
440.021	776.55
440.395	719.83
440.77	765.93
441.145	775.19
441.52	821.52
441.895	777.23
442.27	794.85
442.645	808.41
443.019	792.37
443.394	772.48
443.769	800.05
444.143	806.38
444.518	814.96
444.892	827.85
445.267	819.71
445.641	828.07
446.016	834.62
446.39	838.92
446.764	838.69
447.139	852.03
447.513	855.19
447.887	865.13
448.262	863.78
448.636	864.91
449.01	867.17
449.384	882.08
449.758	867.62
450.132	907.84
450.506	898.13
450.88	883.44
451.254	922.53
451.628	913.94
452.002	923.44
452.376	927.73
452.75	935.87
453.123	927.5
453.497	964.57
453.871	965.69
454.244	988.29
454.618	1007.05
454.992	974.96
455.365	979.48
455.739	995.98
456.112	1022.87
456.486	1026.26
456.859	1021.06
457.232	1052.7
457.606	1051.34
457.979	1059.25
458.352	1080.49
458.725	1114.62
459.099	1115.75
459.472	1134.5
459.845	1127.05
460.218	1156.2
460.591	1157.1
460.964	1153.03
461.337	1189.87
461.71	1202.75
462.083	1212.47
462.456	1241.17
462.829	1207.04
463.201	1247.95
463.574	1253.37
463.947	1273.26
464.32	1341.73
464.692	1313.03
465.065	1340.15
465.438	1340.37
465.81	1366.81
466.183	1400.26
466.555	1408.85
466.928	1437.55
467.3	1433.48
467.672	1470.77
468.045	1475.29
468.417	1493.82
468.789	1521.61
469.161	1553.48
469.534	1537.66
469.906	1613.36
470.278	1642.97
470.65	1646.13
471.022	1686.81
471.394	1715.28
471.766	1743.98
472.138	1765.45
472.51	1796.18
472.882	1843.86
473.253	1899.46
473.625	1935.61
473.997	1971.32
474.369	1977.19
474.74	2005.44
475.112	2053.8
475.484	2141.03
475.855	2174.25
476.227	2235.04
476.598	2317.75
476.97	2357.52
477.341	2416.96
477.713	2466.22
478.084	2509.16
478.455	2602.71
478.827	2594.13
479.198	2756.16
479.569	2724.29
479.94	2896.27
480.311	2948.47
480.682	3053.32
481.053	3129.25
481.424	3203.6
481.795	3282.7
482.166	3363.82
482.537	3446.53
482.908	3547.55
483.279	3660.54
483.65	3726.53
484.021	3827.31
484.391	3908.44
484.762	4042.68
485.133	4093.07
485.503	4176.23
485.874	4338.04
486.244	4446.06
486.615	4587.29
486.985	4660.06
487.356	4847.85
487.726	4940.28
488.097	5113.16
488.467	5121.74
488.837	5305.92
489.207	5490.1
489.578	5581.39
489.948	5702.07
490.318	5853.7
490.688	5938.45
491.058	6056.63
491.428	6223.64
491.798	6352.9
492.168	6548.82
492.538	6676.05
492.908	6804.86
493.278	6997.17
493.648	7024.52
494.017	7191.75
494.387	7342.48
494.757	7439.87
495.126	7593.54
495.496	7681
495.866	7869.47
496.235	7972.29
496.605	8134.77
496.974	8240.98
497.344	8386.52
497.713	8465.61
498.082	8642.1
498.452	8731.14
498.821	8824.92
499.19	8914.19
499.559	9080.51
499.928	9221.3
500.298	9358.69
500.667	9523.21
501.036	9515.53
501.405	9666.94
501.774	9766.82
502.143	9863.54
502.512	9990.54
502.88	10142.4
503.249	10124.32
503.618	10261.72
503.987	10364.09
504.356	10505.33
504.724	10602.96
505.093	10689.73
505.462	10727.92
505.83	10913.46
506.199	10981.02
506.567	11159.55
506.936	11194.13
507.304	11306.67
507.672	11402.93
508.041	11470.28
508.409	11652.19
508.777	11649.48
509.145	11876.59
509.514	11813.32
509.882	11977.38
510.25	12017.16
510.618	12115.23
510.986	12180.77
511.354	12272.06
511.722	12386.41
512.09	12589.12
512.458	12573.98
512.826	12672.96
513.193	12742.79
513.561	12767.64
513.929	12831.15
514.297	13020.75
514.664	13126.73
515.032	13105.04
515.4	13192.94
515.767	13205.6
516.135	13336.9
516.502	13300.51
516.869	13602.42
517.237	13633.84
517.604	13492.6
517.972	13720.39
518.339	13783.44
518.706	13739.6
519.073	13848.07
519.44	13922.19
519.808	14031.11
520.175	14008.74
520.542	14218.68
520.909	14251.22
521.276	14269.3
521.643	14329.64
522.009	14483.98
522.376	14518.78
522.743	14650.98
523.11	14700.48
523.477	14779.57
523.843	14910.41
524.21	14954.03
524.577	15006.46
524.943	15064.31
525.31	15194.47
525.676	15225.66
526.043	15336.84
526.409	15382.04
526.776	15505.65
527.142	15508.82
527.508	15508.59
527.874	15597.63
528.241	15704.97
528.607	15707
528.973	15852.08
529.339	15664.29
529.705	15917.39
530.071	15984.06
530.437	15920.78
530.803	16068.12
531.169	16044.62
531.535	16109.25
531.901	16158.06
532.267	16008.92
532.632	16192.87
532.998	16184.05
533.364	16210.04
533.73	16209.59
534.095	16278.29
534.461	16385.4
534.826	16380.66
535.192	16273.09
535.557	16502.01
535.923	16401
536.288	16481.67
536.653	16517.83
537.019	16391.73
537.384	16544.04
537.749	16584.95
538.114	16516.92
538.479	16489.13
538.845	16521.67
539.21	16427.44
539.575	16515.12
539.94	16522.35
540.305	16586.53
540.67	16416.14
541.034	16559.64
541.399	16583.82
541.764	16488.9
542.129	16613.87
542.494	16576.13
542.858	16618.84
543.223	16681.67
543.587	16673.76
543.952	16638.96
544.316	16483.25
544.681	16589.24
545.045	16565.51
545.41	16670.14
545.774	16604.83
546.138	16610.48
546.503	16592.63
546.867	16539.52
547.231	16625.85
547.595	16629.69
547.959	16644.6
548.324	16605.51
548.688	16574.32
549.052	16639.63
549.416	16642.57
549.779	16516.92
550.143	16630.82
550.507	16651.61
550.871	16684.83
551.235	16526.87
551.599	16647.99
551.962	16654.1
552.326	16661.55
552.689	16734.32
553.053	16628.79
553.417	16638.73
553.78	16806.86
554.143	16622.91
554.507	16758.05
554.87	16640.54
555.234	16756.47
555.597	16702.68
555.96	16667.2
556.323	16702.68
556.686	16733.19
557.05	16824.71
557.413	16761.89
557.776	16785.84
558.139	16798.72
558.502	16842.34
558.865	16893.64
559.228	17022.67
559.59	17033.97
559.953	17056.12
560.316	17202.1
560.679	17099.51
561.041	17206.62
561.404	17105.16
561.767	17341.54
562.129	17184.03
562.492	17386.96
562.854	17274.87
563.217	17282.78
563.579	17308.09
563.941	17382.44
564.304	17412.27
564.666	17383.57
565.028	17491.14
565.39	17436.67
565.753	17560.74
566.115	17651.58
566.477	17584.92
566.839	17670.11
567.201	17688.65
567.563	17777
567.925	17812.03
568.287	17779.26
568.648	17804.57
569.01	17960.95
569.372	17978.81
569.734	17807.06
570.095	18042.76
570.457	18075.98
570.819	17958.92
571.18	18059.71
571.542	18175.86
571.903	18095.64
572.265	18105.36
572.626	18142.64
572.987	18294.28
573.349	18196.43
573.71	18225.35
574.071	18273.71
574.432	18337.44
574.794	18388.97
575.155	18338.35
575.516	18247.5
575.877	18382.64
576.238	18310.1
576.599	18382.19
576.96	18461.05
577.32	18495.86
577.681	18567.27
578.042	18518.23
578.403	18547.61
578.763	18563.88
579.124	18526.14
579.485	18640.71
579.845	18625.12
580.206	18514.16
580.566	18606.59
580.927	18635.96
581.287	18677.09
581.648	18609.52
582.008	18679.81
582.368	18580.6
582.728	18639.35
583.089	18618.11
583.449	18606.36
583.809	18675.06
584.169	18645.46
584.529	18574.72
584.889	18780.14
585.249	18605.91
585.609	18527.04
585.969	18546.48
586.329	18511.22
586.688	18566.81
587.048	18536.53
587.408	18586.47
587.768	18572.24
588.127	18485.91
588.487	18481.84
588.846	18591.45
589.206	18527.04
589.565	18424.44
589.925	18598.68
590.284	18597.1
590.643	18542.18
591.003	18594.84
591.362	18591.9
591.721	18499.25
592.08	18635.51
592.44	18624.89
592.799	18568.62
593.158	18524.78
593.517	18526.59
593.876	18601.39
594.235	18576.76
594.593	18584.21
594.952	18548.06
595.311	18458.79
595.67	18475.74
596.029	18580.15
596.387	18611.11
596.746	18690.2
597.104	18539.02
597.463	18330.66
597.822	18461.28
598.18	18446.82
598.538	18536.98
598.897	18523.43
599.255	18409.53
599.613	18705.34
599.972	18605.46
600.33	18557.1
600.688	18494.5
601.046	18579.24
601.404	18603.88
601.762	18471.45
602.12	18689.97
602.478	18728.17
602.836	18647.49
603.194	18435.52
603.552	18656.08
603.91	18553.03
604.268	18661.05
604.625	18574.95
604.983	18694.04
605.341	18591.22
605.698	18665.34
606.056	18646.13
606.413	18696.53
606.771	18743.08
607.128	18790.54
607.485	18633.25
607.843	18706.02
608.2	18774.72
608.557	18821.27
608.914	18749.18
609.272	18738.56
609.629	18818.78
609.986	18925
610.343	18765.9
610.7	19048.61
611.057	18866.69
611.414	18893.13
611.771	18958.44
612.127	19000.93
612.484	18997.99
612.841	19089.96
613.198	19001.6
613.554	18984.2
613.911	19022.17
614.267	19156.86
614.624	19121.6
614.98	18974.03
615.337	19144.2
615.693	19169.51
616.05	19157.76
616.406	19263.52
616.762	19190.07
617.118	19216.51
617.475	19219.45
617.831	19221.94
618.187	19238.89
618.543	19292.22
618.899	19358.43
619.255	19250.19
619.611	19237.53
619.967	19328.15
620.323	19366.57
620.678	19365.21
621.034	19305.78
621.39	19242.05
621.746	19336.74
622.101	19489.28
622.457	19349.84
622.812	19407.92
623.168	19476.85
623.523	19409.5
623.879	19476.17
624.234	19284.31
624.589	19381.71
624.945	19538.31
625.3	19439.11
625.655	19434.59
626.01	19542.61
626.365	19479.11
626.72	19399.11
627.075	19490.41
627.43	19513.46
627.785	19540.12
628.14	19408.83
628.495	19483.85
628.85	19390.75
629.205	19360.92
629.559	19499.9
629.914	19335.83
630.269	19420.12
630.623	19327.02
630.978	19225.78
631.332	19310.98
631.687	19407.7
632.041	19275.27
632.396	19361.82
632.75	19285.89
633.104	19270.52
633.459	19221.03
633.813	19199.57
634.167	19101.94
634.521	19125.9
634.875	19160.24
635.229	19187.14
635.583	19102.62
635.937	19130.42
636.291	19111.88
636.645	19085.67
636.999	19022.62
637.352	18993.02
637.706	18898.56
638.06	18991.44
638.413	18943.3
638.767	18991.21
639.121	18863.76
639.474	18870.53
639.828	18768.84
640.181	18945.56
640.534	18832.12
640.888	18793.25
641.241	18742.63
641.594	18736.53
641.947	18826.47
642.301	18775.62
642.654	18745.11
643.007	18791.44
643.36	18764.32
643.713	18701.73
644.066	18799.58
644.419	18759.8
644.771	18536.98
645.124	18436.42
645.477	18359.59
645.83	18281.4
646.182	18157.56
646.535	18108.75
646.888	18216.54
647.24	18075.3
647.593	18146.26
647.945	18114.62
648.298	18015.19
648.65	18064.91
649.002	17978.13
649.355	18155.07
649.707	18061.97
650.059	18153.94
650.411	18257.44
650.763	18362.53
651.115	18725.23
651.467	18497.89
651.819	18545.35
652.171	18518.23
652.523	18431.68
652.875	18492.24
653.227	18372.02
653.578	18553.26
653.93	18444.56
654.282	18404.33
654.633	18323.2
654.985	18471.68
655.337	18445.91
655.688	18409.08
656.039	18414.28
656.391	18345.58
656.742	18347.84
657.094	18399.59
657.445	18518.91
657.796	18492.92
658.147	18424.44
658.498	18417.89
658.849	18433.26
659.2	18425.12
659.551	18362.07
659.902	18391.23
660.253	18507.15
660.604	18463.77
660.955	18437.55
661.306	18497.44
661.656	18439.36
662.007	18489.08
662.358	18465.8
662.708	18420.15
663.059	18427.38
663.409	18450.43
663.76	18517.78
664.11	18431.9
664.461	18460.15
664.811	18519.81
665.161	18488.17
665.511	18482.52
665.862	18455.86
666.212	18438
666.562	18410.66
666.912	18495.86
667.262	18494.5
667.612	18487.49
667.962	18509.87
668.312	18492.47
668.662	18473.26
669.011	18441.62
669.361	18419.25
669.711	18437.33
670.06	18416.08
670.41	18376.08
670.76	18367.05
671.109	18372.69
671.459	18439.59
671.808	18287.73
672.157	18364.33
672.507	18264.9
672.856	18237.33
673.205	18272.58
673.554	18258.12
673.904	18216.77
674.253	18307.61
674.602	18206.15
674.951	17950.56
675.3	17949.2
675.649	18250.66
675.998	18254.96
676.346	18220.61
676.695	18297.67
677.044	18145.81
677.393	18222.87
677.741	18216.54
678.09	18203.43
678.438	18111.68
678.787	18122.76
679.135	18094.96
679.484	17901.97
679.832	18052.48
680.181	17975.64
680.529	17946.27
680.877	17922.54
681.225	17918.47
681.573	17983.78
681.922	17913.72
682.27	17806.83
682.618	17855.19
682.966	17680.74
683.314	17758.7
683.661	17701.75
684.009	17671.02
684.357	17529.33
684.705	17544.02
685.053	17550.12
685.4	17498.82
685.748	17431.02
686.095	17439.84
686.443	17398.03
686.79	17404.13
687.138	17356.68
687.485	17331.14
687.832	17344.02
688.18	17276.23
688.527	17192.39
688.874	17170.24
689.221	17155.55
689.568	17032.39
689.915	17038.49
690.262	16977.7
690.609	16909.46
690.956	16851.6
691.303	16833.53
691.65	16776.13
691.997	16680.76
692.344	16618.16
692.69	16686.19
693.037	16608.45
693.383	16482.58
693.73	16557.15
694.077	16443.25
694.423	16375.69
694.769	16354.67
695.116	16239.87
695.462	16271.96
695.808	16231.73
696.155	16209.59
696.501	16052.98
696.847	16086.65
697.193	15975.92
697.539	16001.01
697.885	15788.13
698.231	15805.98
698.577	15813.89
698.923	15795.14
699.269	15689.38
699.614	15550.62
699.96	15541.36
700.306	15470.17
700.651	15494.13
700.997	15394.69
701.342	15395.37
701.688	15324.87
702.033	15248.03
702.379	15272.66
702.724	15137.07
703.069	15271.53
703.415	15034.48
703.76	14977.53
704.105	14963.74
704.45	14966.23
704.795	14844.2
705.14	14831.55
705.485	14855.27
705.83	14752.9
706.175	14755.16
706.52	14695.73
706.865	14653.47
707.209	14598.1
707.554	14575.96
707.899	14600.59
708.243	14431.56
708.588	14452.57
708.932	14382.07
709.277	14361.73
709.621	14359.02
709.966	14214.84
710.31	14349.98
710.654	14168.96
710.998	14185.23
711.342	14149.98
711.687	14255.29
712.031	14056.88
712.375	14088.51
712.719	14064.33
713.063	13940.95
713.407	14030.66
713.75	13935.3
714.094	13902.3
714.438	13884.23
714.782	13908.41
715.125	13794.28
715.469	13819.14
715.812	13684.68
716.156	13652.82
716.499	13724.91
716.843	13728.52
717.186	13613.95
717.53	13685.81
717.873	13700.73
718.216	13567.17
718.559	13492.15
718.902	13462.32
719.246	13617.57
719.589	13525.36
719.932	13505.48
720.275	13490.34
720.617	13460.96
720.96	13343.67
721.303	13438.36
721.646	13427.51
721.989	13373.96
722.331	13375.99
722.674	13294.86
723.016	13370.79
723.359	13313.39
723.701	13228.42
724.044	13168.09
724.386	13140.29
724.729	13162.89
725.071	13151.36
725.413	13153.17
725.755	13126.51
726.097	13190.23
726.439	13045.6
726.782	13030.24
727.124	13104.36
727.465	13037.92
727.807	13112.04
728.149	12963.8
728.491	12961.76
728.833	13018.71
729.175	13040.41
729.516	12929.22
729.858	12936
730.199	12990.46
730.541	12963.57
730.882	12930.8
731.224	12964.02
731.565	12917.7
731.906	12941.88
732.248	12876.79
732.589	12893.06
732.93	12911.37
733.271	12882.9
733.612	12976.23
733.953	12870.47
734.294	12904.82
734.635	12851.94
734.976	12903.46
735.317	12882.22
735.658	12874.99
735.999	12910.01
736.339	12801.54
736.68	12841.31
737.021	12860.52
737.361	12828.89
737.702	12910.92
738.042	12876.34
738.383	12886.96
738.723	12893.29
739.063	12924.02
739.404	12883.35
739.744	12846.96
740.084	12879.28
740.424	12936.23
740.764	12910.01
741.104	13007.86
741.444	12919.5
741.784	12866.17
742.124	12963.57
742.464	12886.74
742.804	12953.18
743.143	12961.76
743.483	13014.42
743.823	12986.4
744.162	12943.91
744.502	13064.13
744.841	12990.01
745.181	13140.74
745.52	13103.68
745.86	13117.92
746.199	13181.87
746.538	13166.28
746.877	13236.56
747.216	13216.45
747.556	13258.71
747.895	13349.55
748.234	13366.5
748.573	13333.51
748.911	13477
749.25	13438.59
749.589	13501.86
749.928	13601.97
750.267	13711.8
750.605	13684.91
750.944	13677
751.283	13846.49
751.621	13951.79
751.96	13877.9
752.298	13990.44
752.636	14127.61
752.975	14133.03
753.313	14156.31
753.651	14371.44
753.989	14382.97
754.327	14429.97
754.666	14555.17
755.004	14696.63
755.342	14766.01
755.679	14860.92
756.017	15017.98
756.355	15068.83
756.693	15077.19
