Data from hue_40_FLMS001491_5.txt Node
Date: Mon Feb 06 15:07:21 GMT 2017
User: dcchb
Spectrometer: FLMS00149
Trigger mode: 0
Integration Time (sec): 2.000000E-2
Scans to average: 10
Electric dark correction enabled: true
Nonlinearity correction enabled: false
Boxcar width: 0
XAxis mode: Wavelengths
Number of Pixels in Spectrum: 2048
>>>>>Begin Spectral Data<<<<<
341.393	-21.71
341.776	-21.71
342.16	-21.71
342.543	-53.8
342.927	-47.47
343.31	-67.58
343.693	-72.33
344.077	-55.38
344.46	-43.85
344.843	-81.82
345.226	-56.06
345.61	-37.98
345.993	-7.47
346.376	-9.96
346.759	-12.44
347.142	43.83
347.525	38.63
347.908	68.68
348.291	78.85
348.674	97.84
349.057	117.04
349.44	129.47
349.823	141.68
350.206	155.01
350.588	184.84
350.971	203.6
351.354	226.87
351.737	243.82
352.119	241.11
352.502	253.99
352.884	269.36
353.267	300.32
353.65	299.64
354.032	299.41
354.414	284.27
354.797	312.52
355.179	333.08
355.562	333.54
355.944	327.21
356.326	344.38
356.709	336.25
357.091	332.86
357.473	347.77
357.855	343.25
358.238	335.12
358.62	339.64
359.002	325.4
359.384	345.51
359.766	343.25
360.148	334.89
360.53	329.24
360.912	345.51
361.294	348.9
361.676	346.42
362.057	336.47
362.439	330.82
362.821	347.1
363.203	335.34
363.584	323.14
363.966	335.57
364.348	338.06
364.729	320.66
365.111	331.5
365.493	319.07
365.874	317.27
366.256	327.66
366.637	317.94
367.019	319.3
367.4	319.98
367.781	333.31
368.163	315.23
368.544	334.21
368.925	322.01
369.306	327.89
369.688	316.14
370.069	321.56
370.45	304.38
370.831	324.72
371.212	327.21
371.593	310.03
371.974	314.33
372.355	310.94
372.736	308.45
373.117	323.14
373.498	343.25
373.879	306.64
374.26	325.4
374.641	305.51
375.021	310.94
375.402	333.99
375.783	322.01
376.163	338.28
376.544	322.46
376.925	342.58
377.305	331.05
377.686	329.24
378.066	336.02
378.447	330.15
378.827	341.45
379.208	357.72
379.588	339.86
379.968	333.99
380.349	335.12
380.729	326.98
381.109	343.48
381.489	324.95
381.87	337.15
382.25	322.46
382.63	366.3
383.01	340.77
383.39	335.34
383.77	332.86
384.15	325.4
384.53	323.14
384.91	353.87
385.29	355.68
385.67	355.91
386.049	359.98
386.429	357.49
386.809	351.39
387.189	354.1
387.568	369.92
387.948	344.38
388.328	371.05
388.707	351.39
389.087	351.16
389.466	374.89
389.846	356.13
390.225	363.82
390.605	354.33
390.984	351.16
391.363	344.16
391.743	372.86
392.122	345.06
392.501	378.51
392.881	362.24
393.26	389.58
393.639	363.59
394.018	378.28
394.397	364.27
394.776	393.42
395.155	393.42
395.534	401.56
395.913	380.54
396.292	401.33
396.671	388.68
397.05	370.37
397.429	383.03
397.808	389.13
398.186	389.58
398.565	402.46
398.944	396.81
399.323	386.64
399.701	383.7
400.08	388
400.458	399.07
400.837	397.94
401.215	388.68
401.594	384.61
401.972	395.68
402.351	404.5
402.729	406.53
403.107	413.31
403.486	404.95
403.864	401.33
404.242	413.53
404.62	418.05
404.999	421.22
405.377	412.18
405.755	413.53
406.133	421.9
406.511	422.57
406.889	431.84
407.267	407.43
407.645	451.05
408.023	450.14
408.401	443.36
408.779	449.69
409.156	441.1
409.534	452.86
409.912	468
410.29	459.86
410.667	458.5
411.045	465.06
411.422	448.11
411.8	452.63
412.178	469.13
412.555	473.65
412.933	460.31
413.31	480.65
413.687	470.26
414.065	460.31
414.442	456.47
414.819	487.88
415.197	489.01
415.574	485.62
415.951	497.37
416.328	492.18
416.705	528.33
417.082	506.87
417.46	511.38
417.837	519.07
418.214	484.49
418.591	518.84
418.967	493.98
419.344	533.76
419.721	520.88
420.098	504.15
420.475	515.9
420.852	508
421.228	538.05
421.605	530.59
421.982	546.41
422.358	530.82
422.735	555.9
423.111	539.86
423.488	536.92
423.864	530.59
424.241	581.89
424.617	554.32
424.994	555.45
425.37	571.95
425.746	576.69
426.123	573.98
426.499	563.59
426.875	598.84
427.251	583.93
427.627	595.45
428.003	611.95
428.379	613.3
428.756	600.2
429.132	592.96
429.507	615.34
429.883	619.18
430.259	642
430.635	623.92
431.011	644.26
431.387	648.1
431.763	650.82
432.138	653.3
432.514	665.51
432.89	642.68
433.265	645.62
433.641	660.99
434.016	664.38
434.392	669.12
434.767	671.61
435.143	665.96
435.518	697.14
435.894	724.03
436.269	733.3
436.644	722.9
437.02	714.54
437.395	719.29
437.77	728.1
438.145	735.11
438.52	720.87
438.895	722.9
439.271	724.94
439.646	749.8
440.021	749.8
440.395	751.38
440.77	748.89
441.145	774.43
441.52	766.75
441.895	787.08
442.27	798.38
442.645	793.86
443.019	794.09
443.394	797.71
443.769	825.95
444.143	807.87
444.518	812.39
444.892	821.89
445.267	829.57
445.641	842.68
446.016	849.23
446.39	853.75
446.764	836.57
447.139	847.87
447.513	843.35
447.887	864.82
448.262	846.97
448.636	844.26
449.01	862.56
449.384	874.09
449.758	879.74
450.132	876.35
450.506	880.19
450.88	880.64
451.254	884.93
451.628	892.17
452.002	916.35
452.376	926.52
452.75	926.52
453.123	920.87
453.497	937.14
453.871	943.01
454.244	949.11
454.618	963.12
454.992	960.41
455.365	991.82
455.739	1026.63
456.112	998.83
456.486	1018.04
456.859	1020.3
457.232	1062.33
457.606	1059.62
457.979	1061.65
458.352	1074.76
458.725	1087.41
459.099	1107.08
459.472	1088.54
459.845	1104.59
460.218	1104.82
460.591	1133.29
460.964	1121.54
461.337	1179.84
461.71	1154.76
462.083	1197.24
462.456	1169.67
462.829	1196.79
463.201	1214.42
463.574	1228.88
463.947	1261.42
464.32	1299.16
464.692	1274.3
465.065	1306.84
465.438	1326.96
465.81	1335.32
466.183	1362.66
466.555	1396.56
466.928	1400.63
467.3	1386.62
467.672	1396.11
468.045	1466.39
468.417	1473.62
468.789	1458.25
469.161	1493.28
469.534	1526.5
469.906	1548.87
470.278	1591.81
470.65	1579.15
471.022	1615.99
471.394	1648.98
471.766	1628.64
472.138	1670.22
472.51	1728.3
472.882	1768.07
473.253	1762.2
473.625	1825.93
473.997	1893.5
474.369	1880.61
474.74	1896.66
475.112	1955.19
475.484	2014.17
475.855	2043.55
476.227	2090.33
476.598	2124.68
476.97	2194.28
477.341	2261.17
477.713	2257.78
478.084	2309.08
478.455	2378.91
478.827	2402.63
479.198	2488.06
479.569	2529.18
479.94	2597.43
480.311	2661.84
480.682	2738.44
481.053	2856.41
481.424	2884.88
481.795	2942.06
482.166	3003.75
482.537	3063.63
482.908	3176.4
483.279	3237.41
483.65	3309.28
484.021	3391.31
484.391	3472.66
484.762	3583.17
485.133	3571.87
485.503	3723.05
485.874	3814.12
486.244	3925.08
486.615	3999.88
486.985	4065.87
487.356	4152.87
487.726	4219.99
488.097	4383.37
488.467	4469.92
488.837	4519.87
489.207	4619.75
489.578	4741.1
489.948	4843.7
490.318	4932.06
490.688	5019.06
491.058	5141.55
491.428	5245.27
491.798	5329.56
492.168	5493.63
492.538	5612.95
492.908	5628.99
493.278	5817.69
493.648	5800.29
494.017	5962.99
494.387	6042.31
494.757	6148.98
495.126	6281.18
495.496	6380.16
495.866	6438.01
496.235	6521.85
496.605	6645.69
496.974	6768.62
497.344	6865.12
497.713	6898.11
498.082	6999.12
498.452	7167.93
498.821	7162.96
499.19	7254.26
499.559	7385.33
499.928	7455.38
500.298	7496.51
500.667	7637.3
501.036	7701.93
501.405	7873
501.774	7907.57
502.143	8000.45
502.512	8044.75
502.88	8098.3
503.249	8229.6
503.618	8352.31
503.987	8348.24
504.356	8481.57
504.724	8564.28
505.093	8519.08
505.462	8701.23
505.83	8784.39
506.199	8935.12
506.567	9009.24
506.936	9007.88
507.304	9132.4
507.672	9210.37
508.041	9255.11
508.409	9326.97
508.777	9484.03
509.145	9606.06
509.514	9490.13
509.882	9665.49
510.25	9653.52
510.618	9741.88
510.986	9859.39
511.354	10011.25
511.722	10019.16
512.09	10143.22
512.458	10100.06
512.826	10295.53
513.193	10348.41
513.561	10389.54
513.929	10420.73
514.297	10565.58
514.664	10673.6
515.032	10665.02
515.4	10825.01
515.767	10826.59
516.135	10889.42
516.502	10909.53
516.869	11006.25
517.237	11060.49
517.604	11128.51
517.972	11267.49
518.339	11290.76
518.706	11308.39
519.073	11429.52
519.44	11503.86
519.808	11577.53
520.175	11619.34
520.542	11822.05
520.909	11820.24
521.276	11805.55
521.643	11941.37
522.009	12009.39
522.376	12147.01
522.743	12217.07
523.11	12248.7
523.477	12379.1
523.843	12500
524.21	12561.46
524.577	12686.43
524.943	12637.85
525.31	12777.5
525.676	12907.67
526.043	12935.01
526.409	13011.62
526.776	13173.65
527.142	13211.84
527.508	13277.83
527.874	13387.2
528.241	13486.41
528.607	13534.77
528.973	13575.9
529.339	13598.5
529.705	13843.46
530.071	13931.82
530.437	13898.38
530.803	14022.89
531.169	14138.37
531.535	14072.84
531.901	14091.59
532.267	14289.1
532.632	14308.08
532.998	14445.48
533.364	14409.78
533.73	14480.06
534.095	14606.61
534.461	14649.77
534.826	14750.33
535.192	14779.71
535.557	14889.31
535.923	14920.27
536.288	15037.78
536.653	15095.18
537.019	15106.93
537.384	15191.68
537.749	15198.91
538.114	15236.2
538.479	15317.55
538.845	15334.95
539.21	15355.29
539.575	15459.24
539.94	15560.48
540.305	15661.95
540.67	15689.52
541.034	15696.97
541.399	15743.53
541.764	15798.89
542.129	15797.54
542.494	15981.71
542.858	15995.72
543.223	15974.93
543.587	16198.66
543.952	16177.41
544.316	16231.65
544.681	16133.8
545.045	16365.43
545.41	16491.76
545.774	16515.26
546.138	16556.16
546.503	16552.32
546.867	16590.51
547.231	16765.65
547.595	16793.67
547.959	16867.11
548.324	16823.95
548.688	16878.19
549.052	16977.39
549.416	17034.11
549.779	17024.4
550.143	17059.42
550.507	17259.87
550.871	17233.43
551.235	17327.44
551.599	17518.4
551.962	17489.92
552.326	17611.5
552.689	17660.09
553.053	17552.29
553.417	17612.63
553.78	17884.04
554.143	17780.99
554.507	17884.49
554.87	17881.55
555.234	18097.59
555.597	17935.11
555.96	18075.22
556.323	18215.33
556.686	18209
557.05	18359.05
557.413	18358.6
557.776	18470.46
558.139	18503.91
558.502	18570.8
558.865	18605.15
559.228	18624.81
559.59	18645.15
559.953	18797.68
560.316	19009.2
560.679	18980.73
561.041	19018.92
561.404	19192.7
561.767	19292.13
562.129	19203.32
562.492	19463.88
562.854	19405.13
563.217	19455.29
563.579	19517.89
563.941	19613.48
564.304	19810.09
564.666	19818.9
565.028	19848.73
565.39	19807.6
565.753	20056.86
566.115	20048.27
566.477	20127.82
566.839	20228.38
567.201	20267.02
567.563	20417.08
567.925	20429.05
568.287	20434.7
568.648	20573.46
569.01	20715.83
569.372	20844.86
569.734	20712.89
570.095	20849.38
570.457	21095.7
570.819	21120.11
571.18	21083.27
571.542	21201.69
571.903	21207.34
572.265	21372.31
572.626	21514.22
572.987	21539.31
573.349	21564.62
573.71	21697.49
574.071	21857.94
574.432	21878.73
574.794	22079.41
575.155	22142
575.516	22157.37
575.877	22375.22
576.238	22404.14
576.599	22460.19
576.96	22612.27
577.32	22663.34
577.681	22843.68
578.042	22922.77
578.403	23016.1
578.763	23074.41
579.124	23304.68
579.485	23368.41
579.845	23547.62
580.206	23670.78
580.566	23789.64
580.927	23896.31
581.287	24109.18
581.648	24198.22
582.008	24390.08
582.368	24555.5
582.728	24573.58
583.089	24858.09
583.449	24938.99
583.809	25060.12
584.169	25259.66
584.529	25195.48
584.889	25658.07
585.249	25701.01
585.609	25801.34
585.969	26196.59
586.329	26186.42
586.688	26461.66
587.048	26612.85
587.408	26733.75
587.768	26849.68
588.127	27091.48
588.487	27317.91
588.846	27622.76
589.206	27605.36
589.565	27755.41
589.925	28135.74
590.284	28243.76
590.643	28428.16
591.003	28726.01
591.362	28918.55
591.721	29029.73
592.08	29194.25
592.44	29460
592.799	29620.68
593.158	29808.92
593.517	29901.57
593.876	30079.19
594.235	30335.69
594.593	30389.02
594.952	30692.74
595.311	30723.47
595.67	31171.14
596.029	31292.5
596.387	31600.06
596.746	31753.28
597.104	31619.27
597.463	31979.94
597.822	32215.86
598.18	32260.38
598.538	32367.5
598.897	32787.15
599.255	32649.3
599.613	33333.12
599.972	33112.56
600.33	33366.11
600.688	33397.98
601.046	33633.23
601.404	33877.74
601.762	33942.6
602.12	34321.34
602.478	34348.01
602.836	34486.76
603.194	34434.11
603.552	34645.85
603.91	34761.78
604.268	34950.03
604.625	35022.57
604.983	35294.2
605.341	35284.48
605.698	35461.2
606.056	35516.34
606.413	35717.46
606.771	36039.49
607.128	36009.89
607.485	36021.19
607.843	36143.44
608.2	36370.33
608.557	36524.68
608.914	36594.5
609.272	36881.95
609.629	37116.98
609.986	37183.64
610.343	37063.42
610.7	37434.71
611.057	37447.14
611.414	37515.16
611.771	37697.98
612.127	37853.91
612.484	37961.93
612.841	38009.61
613.198	38086.44
613.554	38057.29
613.911	38250.28
614.267	38403.72
614.624	38324.4
614.98	38531.18
615.337	38807.78
615.693	38703.37
616.05	38800.77
616.406	39002.58
616.762	38993.54
617.118	39117.38
617.475	39052.52
617.831	39228.78
618.187	39352.62
618.543	39629.9
618.899	39629.45
619.255	39656.34
619.611	39812.27
619.967	39811.14
620.323	39992.15
620.678	40042.77
621.034	39856.11
621.39	39979.73
621.746	39905.83
622.101	40514.4
622.457	40243.22
622.812	40313.5
623.168	40361.64
623.523	40445.48
623.879	40548.52
624.234	40340.39
624.589	40496.77
624.945	40561.63
625.3	40665.13
625.655	40578.35
626.01	40661.52
626.365	40792.59
626.72	40733.83
627.075	40758.46
627.43	40849.08
627.785	40792.81
628.14	40804.56
628.495	41001.62
628.85	40835.52
629.205	40741.51
629.559	41019.7
629.914	40821.06
630.269	40847.5
630.623	40885.92
630.978	40790.1
631.332	41005.01
631.687	41025.57
632.041	40818.57
632.396	40868.97
632.75	40853.83
633.104	40861.28
633.459	40830.1
633.813	40897.67
634.167	40792.81
634.521	40837.56
634.875	41038.91
635.229	40879.59
635.583	40752.36
635.937	40797.33
636.291	40656.54
636.645	40702.19
636.999	40675.53
637.352	40703.32
637.706	40495.87
638.06	40621.74
638.413	40575.87
638.767	40460.84
639.121	40650.67
639.474	40305.59
639.828	40374.29
640.181	40426.27
640.534	40457.91
640.888	40332.94
641.241	40327.74
641.594	40307.4
641.947	40377.68
642.301	40233.05
642.654	40360.05
643.007	40316.89
643.36	40362.77
643.713	40204.13
644.066	40298.14
644.419	40207.97
644.771	40036
645.124	39599.4
645.477	39638.27
645.83	39370.48
646.182	39197.37
646.535	39127.54
646.888	39114.66
647.24	38899.08
647.593	39240.99
647.945	39059.3
648.298	38993.08
648.65	38924.61
649.002	38881.9
649.355	39072.18
649.707	38827.67
650.059	39093.65
650.411	39504.03
650.763	39422.23
651.115	39874.87
651.467	39693.18
651.819	39726.4
652.171	39542
652.523	39585.61
652.875	39610.92
653.227	39371.15
653.578	39537.93
653.93	39671.71
654.282	39335.22
654.633	39445.5
654.985	39474.43
655.337	39308.56
655.688	39465.16
656.039	39531.83
656.391	39243.02
656.742	39274.89
657.094	39371.83
657.445	39331.38
657.796	39219.29
658.147	39341.32
658.498	39263.59
658.849	39400.08
659.2	39344.04
659.551	39185.17
659.902	39354.43
660.253	39272.85
660.604	39311.49
660.955	38982.69
661.306	39243.25
661.656	39085.06
662.007	39119.86
662.358	39170.03
662.708	39085.96
663.059	39180.2
663.409	38921.9
663.76	39243.02
664.11	39115.12
664.461	39163.93
664.811	39196.92
665.161	39178.16
665.511	39078.51
665.862	39126.19
666.212	39281.44
666.562	39125.06
666.912	39176.13
667.262	39180.88
667.612	39048.22
667.962	39164.61
668.312	39073.31
668.662	39084.61
669.011	39078.28
669.361	38947.44
669.711	38907.44
670.06	38963.71
670.41	38770.72
670.76	38826.54
671.109	38981.79
671.459	38986.08
671.808	38838.06
672.157	38815.24
672.507	38677.16
672.856	38688.69
673.205	38671.74
673.554	38897.04
673.904	38765.52
674.253	38859.3
674.602	38789.02
674.951	38297.74
675.3	37966.67
675.649	38616.37
675.998	38487.79
676.346	38656.14
676.695	38711.06
677.044	38338.41
677.393	38631.06
677.741	38642.13
678.09	38522.59
678.438	38347.68
678.787	38432.2
679.135	38417.96
679.484	38159.43
679.832	38336.6
680.181	38152.2
680.529	38305.87
680.877	38212.77
681.225	38140.9
681.573	38213.44
681.922	38060.23
682.27	37859.1
682.618	37954.47
682.966	37829.27
683.314	37896.62
683.661	37929.38
684.009	37806.45
684.357	37607.58
684.705	37552.9
685.053	37669.05
685.4	37608.49
685.748	37321.49
686.095	37399.45
686.443	37185.45
686.79	37345.9
687.138	37243.75
687.485	37169.63
687.832	36973.7
688.18	37234.49
688.527	36909.07
688.874	36956.98
689.221	36996.53
689.568	36828.85
689.915	36859.13
690.262	36650.55
690.609	36547.5
690.956	36418.24
691.303	36463.21
691.65	36335.3
691.997	36250.33
692.344	36028.64
692.69	36138.47
693.037	36144.8
693.383	35750.23
693.73	35867.52
694.077	35752.49
694.423	35641.76
694.769	35656
695.116	35411.71
695.462	35410.13
695.808	35232.51
696.155	35348.66
696.501	35184.82
696.847	35102.79
697.193	34809.01
697.539	35038.16
697.885	34775.57
698.231	34692.41
698.577	34556.82
698.923	34450.15
699.269	34398.18
699.614	34229.59
699.96	34224.62
700.306	34288.8
700.651	34057.4
700.997	34086.1
701.342	34032.54
701.688	33905.31
702.033	33781.47
702.379	33739.44
702.724	33739.89
703.069	33702.6
703.415	33282.95
703.76	33224.87
704.105	33376.28
704.45	33390.07
704.795	33104.43
705.14	32937.88
705.485	32879.8
705.83	32838.67
706.175	32843.19
706.52	32683.19
706.865	32676.41
707.209	32694.04
707.554	32524.1
707.899	32538.57
708.243	32446.36
708.588	32267.61
708.932	32238.91
709.277	32161.85
709.621	32229.42
709.966	31936.77
710.31	32059.03
710.654	31765.03
710.998	31741.75
711.342	31746.95
711.687	31623.34
712.031	31580.4
712.375	31521.87
712.719	31478.71
713.063	31573.62
713.407	31579.95
713.75	31434.64
714.094	31295.21
714.438	31154.65
714.782	31251.82
715.125	31023.12
715.469	31186.74
715.812	30994.65
716.156	30806.41
716.499	30888.44
716.843	30769.8
717.186	30681.21
717.53	30792.4
717.873	30796.92
718.216	30626.53
718.559	30415.46
718.902	30429.02
719.246	30445.29
719.589	30312.64
719.932	30188.34
720.275	30170.27
720.617	30203.71
720.96	30128.91
721.303	30113.54
721.646	30022.47
721.989	29777.51
722.331	30085.97
722.674	29850.73
723.016	29948.35
723.359	29850.73
723.701	29795.81
724.044	29683.05
724.386	29420.23
724.729	29661.8
725.071	29570.73
725.413	29499.1
725.755	29475.6
726.097	29282.61
726.439	29166.9
726.782	29245.54
727.124	29321.25
727.465	29259.78
727.807	29097.98
728.149	29128.49
728.491	28991.77
728.833	29097.53
729.175	29006.91
729.516	28960.13
729.858	28860.02
730.199	28938.21
730.541	28768.27
730.882	28803.3
731.224	28840.81
731.565	28617.76
731.906	28622.06
732.248	28631.55
732.589	28540.25
732.93	28346.36
733.271	28443.31
733.612	28478.79
733.953	28439.24
734.294	28408.05
734.635	28297.55
734.976	28284.89
735.317	28201.73
735.658	28168.74
735.999	28166.7
736.339	28195.18
736.68	28198.34
737.021	28093.94
737.361	27867.28
737.702	28117.89
738.042	27930.1
738.383	27895.3
738.723	27948.18
739.063	27684.46
739.404	27908.18
739.744	27635.64
740.084	27711.8
740.424	27670.44
740.764	27522.88
741.104	27707.96
741.444	27417.57
741.784	27443.56
742.124	27430.45
742.464	27421.64
742.804	27348.87
743.143	27272.72
743.483	27399.49
743.823	27165.37
744.162	27074.08
744.502	27254.64
744.841	26989.11
745.181	27155.2
745.52	27104.36
745.86	27186.39
746.199	27044.7
746.538	26960.63
746.877	27043.34
747.216	26947.98
747.556	26894.65
747.895	26824.82
748.234	26711.15
748.573	26683.58
748.911	26713.41
749.25	26525.39
749.589	26434.77
749.928	26492.17
750.267	26640.19
750.605	26420.76
750.944	26382.79
751.283	26367.88
751.621	26273.65
751.96	26052.63
752.298	26179.86
752.636	26157.49
752.975	26069.36
753.313	25910.72
753.651	26076.59
753.989	25896.48
754.327	25884.5
754.666	25770.83
755.004	25780.78
755.342	25783.26
755.679	25696.71
756.017	25556.15
756.355	25523.38
756.693	25558.86
757.031	25502.14
757.368	25291.52
