Data from hue_210_FLMS001491_00056.txt Node
Date: Tue Feb 07 16:41:24 GMT 2017
User: dcchb
Spectrometer: FLMS00149
Trigger mode: 0
Integration Time (sec): 2.000000E-2
Scans to average: 10
Electric dark correction enabled: true
Nonlinearity correction enabled: false
Boxcar width: 0
XAxis mode: Wavelengths
Number of Pixels in Spectrum: 2048
>>>>>Begin Spectral Data<<<<<
341.393	-15.85
341.776	-15.85
342.16	-15.85
342.543	-56.75
342.927	-84.77
343.31	-77.31
343.693	-79.8
344.077	-59.01
344.46	-50.87
344.843	-51.33
345.226	-42.51
345.61	-42.51
345.993	-25.56
346.376	-27.15
346.759	25.28
347.142	35.23
347.525	34.32
347.908	63.92
348.291	86.75
348.674	90.14
349.057	120.42
349.44	122.23
349.823	152.06
350.206	154.54
350.588	176.46
350.971	200.42
351.354	217.14
351.737	222.79
352.119	250.36
352.502	258.04
352.884	261.43
353.267	284.71
353.65	265.5
354.032	285.84
354.414	300.08
354.797	315.9
355.179	319.06
355.562	312.96
355.944	324.93
356.326	308.44
356.709	326.29
357.091	331.49
357.473	345.27
357.855	334.2
358.238	307.76
358.62	336.01
359.002	313.64
359.384	341.66
359.766	334.65
360.148	332.39
360.53	337.82
360.912	316.12
361.294	305.73
361.676	316.35
362.057	314.31
362.439	334.88
362.821	310.02
363.203	315.22
363.584	323.35
363.966	311.15
364.348	313.64
364.729	307.53
365.111	335.56
365.493	311.6
365.874	314.31
366.256	302.56
366.637	304.37
367.019	312.51
367.4	306.18
367.781	290.59
368.163	301.88
368.544	307.08
368.925	295.78
369.306	294.2
369.688	300.53
370.069	311.6
370.45	303.69
370.831	307.99
371.212	305.5
371.593	291.94
371.974	298.49
372.355	302.56
372.736	295.78
373.117	294.2
373.498	277.93
373.879	319.74
374.26	282
374.641	310.47
375.021	316.35
375.402	310.02
375.783	322.22
376.163	315.22
376.544	317.48
376.925	300.53
377.305	322
377.686	307.31
378.066	323.35
378.447	314.54
378.827	318.61
379.208	303.47
379.588	302.11
379.968	310.02
380.349	321.77
380.729	333.75
381.109	317.93
381.489	328.32
381.87	321.09
382.25	314.99
382.63	334.43
383.01	318.61
383.39	337.82
383.77	314.09
384.15	339.4
384.53	342.34
384.91	322.45
385.29	338.49
385.67	339.85
386.049	340.98
386.429	357.7
386.809	332.39
387.189	346.18
387.568	337.59
387.948	347.76
388.328	345.27
388.707	348.21
389.087	356.57
389.466	343.69
389.846	352.73
390.225	360.19
390.605	354.99
390.984	368.55
391.363	364.93
391.743	351.37
392.122	333.52
392.501	352.05
392.881	366.06
393.26	356.8
393.639	362.9
394.018	362.22
394.397	387.31
394.776	372.17
395.155	380.3
395.534	369
395.913	359.51
396.292	374.65
396.671	391.37
397.05	374.43
397.429	384.37
397.808	364.48
398.186	405.38
398.565	388.21
398.944	390.92
399.323	366.06
399.701	386.18
400.08	389.11
400.458	392.96
400.837	397.93
401.215	368.1
401.594	392.05
401.972	395.44
402.351	411.94
402.729	414.65
403.107	411.49
403.486	403.12
403.864	426.4
404.242	421.2
404.62	422.79
404.999	406.97
405.377	430.69
405.755	438.15
406.133	411.03
406.511	454.42
406.889	436.8
407.267	462.56
407.645	460.98
408.023	473.41
408.401	467.3
408.779	464.37
409.156	484.93
409.534	493.29
409.912	492.16
410.29	502.33
410.667	507.98
411.045	517.47
411.422	496.91
411.8	510.47
412.178	534.19
412.555	544.82
412.933	535.32
413.31	560.41
413.687	557.7
414.065	590.69
414.442	567.64
414.819	583.69
415.197	596.57
415.574	606.51
415.951	623.01
416.328	610.13
416.705	630.69
417.082	629.79
417.46	665.04
417.837	667.3
418.214	687.64
418.591	673.17
418.967	693.06
419.344	702.78
419.721	686.96
420.098	719.73
420.475	727.64
420.852	743.91
421.228	736.68
421.605	734.87
421.982	769.9
422.358	778.03
422.735	797.24
423.111	808.31
423.488	824.81
423.864	845.6
424.241	840.18
424.617	849.21
424.994	863.45
425.37	863.68
425.746	869.33
426.123	930.57
426.499	915.65
426.875	934.18
427.251	936.44
427.627	964.69
428.003	967.4
428.379	986.61
428.756	1014.18
429.132	1027.29
429.507	1039.72
429.883	1051.24
430.259	1018.93
430.635	1047.85
431.011	1078.36
431.387	1075.65
431.763	1106.16
432.138	1092.37
432.514	1116.55
432.89	1144.8
433.265	1176.21
433.641	1194.06
434.016	1205.59
434.392	1218.7
434.767	1250.11
435.143	1278.36
435.518	1269.09
435.894	1321.74
436.269	1333.5
436.644	1358.13
437.02	1365.59
437.395	1399.93
437.77	1420.27
438.145	1462.08
438.52	1453.27
438.895	1508.18
439.271	1502.31
439.646	1524.23
440.021	1556.99
440.395	1561.96
440.77	1585.24
441.145	1621.4
441.52	1663.43
441.895	1658.46
442.27	1677.44
442.645	1680.83
443.019	1710.21
443.394	1749.98
443.769	1728.51
444.143	1735.75
444.518	1764.45
444.892	1793.82
445.267	1787.95
445.641	1826.36
446.016	1800.83
446.39	1835.63
446.764	1881.5
447.139	1826.59
447.513	1900.94
447.887	1875.18
448.262	1899.13
448.636	1908.17
449.01	1941.62
449.384	1940.94
449.758	1963.08
450.132	1996.76
450.506	1980.94
450.88	2021.39
451.254	2038.11
451.628	2046.7
452.002	2039.47
452.376	2081.05
452.75	2107.03
453.123	2154.27
453.497	2161.5
453.871	2158.56
454.244	2189.97
454.618	2211.67
454.992	2229.97
455.365	2281.95
455.739	2274.94
456.112	2320.81
456.486	2348.16
456.859	2349.74
457.232	2430.19
457.606	2368.05
457.979	2376.18
458.352	2488.04
458.725	2491.43
459.099	2513.8
459.472	2544.31
459.845	2568.72
460.218	2602.84
460.591	2614.59
460.964	2653.69
461.337	2689.17
461.71	2722.16
462.083	2774.14
462.456	2770.07
462.829	2757.41
463.201	2787.7
463.574	2800.12
463.947	2871.76
464.32	2940.91
464.692	2961.02
465.065	2965.09
465.438	3038.54
465.81	3068.37
466.183	3107.91
466.555	3136.16
466.928	3151.53
467.3	3166.67
467.672	3180.23
468.045	3274.46
468.417	3280.79
468.789	3317.17
469.161	3348.13
469.534	3424.97
469.906	3453.89
470.278	3487.11
470.65	3507.22
471.022	3574.12
471.394	3604.4
471.766	3652.98
472.138	3696.15
472.51	3782.92
472.882	3827.67
473.253	3846.88
473.625	3901.34
473.997	3997.38
474.369	4040.54
474.74	4027.89
475.112	4097.94
475.484	4178.84
475.855	4227.43
476.227	4248
476.598	4332.29
476.97	4380.87
477.341	4455
477.713	4555.78
478.084	4536.58
478.455	4691.6
478.827	4707.19
479.198	4838.26
479.569	4844.36
479.94	4937.92
480.311	4940.86
480.682	5087.75
481.053	5194.64
481.424	5215.88
481.795	5254.52
482.166	5361.41
482.537	5389.43
482.908	5520.73
483.279	5532.71
483.65	5652.25
484.021	5731.12
484.391	5802.31
484.762	5787.16
485.133	5886.6
485.503	5918.01
485.874	6049.3
486.244	6121.62
486.615	6164.1
486.985	6209.07
487.356	6358
487.726	6329.3
488.097	6481.84
488.467	6550.31
488.837	6636.41
489.207	6658.33
489.578	6739
489.948	6801.15
490.318	6869.4
490.688	6886.57
491.058	6993.23
491.428	7076.85
491.798	7137.19
492.168	7240.23
492.538	7277.75
492.908	7264.64
493.278	7331.76
493.648	7344.86
494.017	7481.81
494.387	7529.27
494.757	7577.85
495.126	7640.67
495.496	7690.62
495.866	7731.52
496.235	7787.11
496.605	7869.82
496.974	7868.47
497.344	7902.36
497.713	7968.35
498.082	7981.91
498.452	8047.67
498.821	8075.01
499.19	8041.34
499.559	8153.43
499.928	8188.46
500.298	8233.65
500.667	8265.74
501.036	8245.18
501.405	8250.38
501.774	8239.53
502.143	8328.11
502.512	8367.66
502.88	8368.34
503.249	8417.6
503.618	8431.39
503.987	8410.6
504.356	8478.39
504.724	8507.09
505.093	8515.45
505.462	8580.54
505.83	8583.25
506.199	8645.62
506.567	8670.7
506.936	8615.34
507.304	8670.25
507.672	8665.96
508.041	8795.22
508.409	8722.68
508.777	8777.37
509.145	8836.12
509.514	8837.71
509.882	8811.04
510.25	8903.01
510.618	8845.61
510.986	8901.88
511.354	8955.67
511.722	8988.21
512.09	8937.82
512.458	9059.85
512.826	8963.58
513.193	9028.43
513.561	9037.93
513.929	9082.44
514.297	9093.97
514.664	9124.03
515.032	9041.54
515.4	9170.58
515.767	9087.87
516.135	9159.05
516.502	9088.09
516.869	9115.44
517.237	9147.08
517.604	9090.58
517.972	9181.88
518.339	9225.49
518.706	9163.8
519.073	9169.45
519.44	9135.32
519.808	9148.88
520.175	9241.99
520.542	9268.2
520.909	9220.29
521.276	9160.63
521.643	9270.91
522.009	9246.28
522.376	9252.16
522.743	9268.65
523.11	9322.89
523.477	9374.41
523.843	9327.18
524.21	9334.42
524.577	9384.36
524.943	9372.83
525.31	9337.81
525.676	9377.13
526.043	9460.97
526.409	9387.52
526.776	9509.33
527.142	9349.56
527.508	9412.38
527.874	9433.85
528.241	9421.87
528.607	9354.75
528.973	9408.09
529.339	9358.37
529.705	9458.25
530.071	9448.99
530.437	9417.8
530.803	9401.76
531.169	9396.56
531.535	9374.87
531.901	9331.93
532.267	9265.94
532.632	9288.32
532.998	9276.56
533.364	9301.65
533.73	9240.86
534.095	9346.17
534.461	9290.57
534.826	9295.77
535.192	9258.71
535.557	9264.81
535.923	9164.48
536.288	9159.05
536.653	9140.75
537.019	8999.06
537.384	9065.27
537.749	9096.68
538.114	9020.98
538.479	8931.04
538.845	8998.15
539.21	8933.97
539.575	8918.61
539.94	8828.44
540.305	8864.37
540.67	8849.23
541.034	8787.31
541.399	8749.12
541.764	8769.46
542.129	8688.1
542.494	8618.73
542.858	8610.59
543.223	8646.75
543.587	8648.78
543.952	8528.34
544.316	8432.97
544.681	8487.66
545.045	8439.98
545.41	8446.53
545.774	8395.91
546.138	8369.24
546.503	8402.01
546.867	8356.81
547.231	8289.7
547.595	8235.46
547.959	8273.88
548.324	8202.69
548.688	8142.81
549.052	8107.33
549.416	8129.02
549.779	8048.35
550.143	8014
550.507	8053.32
550.871	8082.25
551.235	7951.18
551.599	7951.18
551.962	7904.85
552.326	7917.5
552.689	7920.44
553.053	7861.23
553.417	7756.6
553.78	7836.15
554.143	7804.74
554.507	7763.16
554.87	7670.5
555.234	7799.09
555.597	7734.23
555.96	7718.86
556.323	7616.27
556.686	7576.72
557.05	7642.03
557.413	7578.53
557.776	7474.13
558.139	7571.52
558.502	7535.37
558.865	7533.78
559.228	7556.84
559.59	7507.12
559.953	7451.75
560.316	7515.03
560.679	7518.42
561.041	7549.38
561.404	7441.58
561.767	7453.11
562.129	7465.54
562.492	7482.94
562.854	7408.82
563.217	7416.95
563.579	7435.26
563.941	7418.99
564.304	7435.93
564.666	7434.58
565.028	7442.49
565.39	7422.83
565.753	7415.82
566.115	7468.25
566.477	7452.21
566.839	7433
567.201	7472.09
567.563	7476.61
567.925	7540.79
568.287	7408.36
568.648	7456.95
569.01	7467.8
569.372	7495.14
569.734	7437.74
570.095	7433.22
570.457	7448.14
570.819	7503.96
571.18	7432.77
571.542	7502.37
571.903	7474.35
572.265	7472.32
572.626	7480.23
572.987	7490.85
573.349	7526.55
573.71	7549.83
574.071	7501.7
574.432	7586.66
574.794	7608.81
575.155	7571.07
575.516	7472.77
575.877	7566.55
576.238	7545.08
576.599	7594.12
576.96	7527.23
577.32	7604.74
577.681	7579.66
578.042	7593.22
578.403	7650.84
578.763	7609.94
579.124	7617.4
579.485	7624.18
579.845	7619.43
580.206	7651.97
580.566	7661.69
580.927	7654.69
581.287	7687.91
581.648	7633.22
582.008	7723.61
582.368	7737.62
582.728	7697.62
583.089	7654.69
583.449	7660.79
583.809	7739.66
584.169	7722.03
584.529	7730.16
584.889	7742.14
585.249	7744.85
585.609	7705.98
585.969	7776.94
586.329	7751.63
586.688	7751.18
587.048	7776.72
587.408	7791.86
587.768	7751.18
588.127	7739.66
588.487	7721.8
588.846	7771.52
589.206	7706.66
589.565	7749.37
589.925	7824.17
590.284	7744.85
590.643	7802.93
591.003	7861.23
591.362	7745.3
591.721	7864.17
592.08	7815.81
592.44	7826.88
592.799	7811.97
593.158	7801.57
593.517	7830.5
593.876	7794.57
594.235	7828.01
594.593	7853.32
594.952	7829.6
595.311	7804.51
595.67	7854.68
596.029	7935.58
596.387	7870.95
596.746	7857.84
597.104	7796.38
597.463	7805.42
597.822	7818.75
598.18	7848.13
598.538	7817.39
598.897	7863.27
599.255	7857.84
599.613	7839.99
599.972	7916.37
600.33	7908.24
600.688	7868.01
601.046	7847.68
601.404	7942.36
601.762	7835.92
602.12	7877.96
602.478	7930.38
602.836	7898.75
603.194	7864.62
603.552	7914.79
603.91	7843.16
604.268	7840.67
604.625	7826.66
604.983	7852.42
605.341	7823.49
605.698	7881.57
606.056	7892.87
606.413	7896.04
606.771	7876.15
607.128	7916.37
607.485	7906.66
607.843	7909.14
608.2	7983.26
608.557	7961.8
608.914	7896.71
609.272	7911.4
609.629	7983.04
609.986	7945.07
610.343	7919.54
610.7	7999.76
611.057	7973.32
611.414	7948.01
611.771	8008.35
612.127	7965.41
612.484	8011.06
612.841	7954.34
613.198	7980.33
613.554	7917.28
613.911	7983.72
614.267	8013.55
614.624	7960.44
614.98	8026.43
615.337	8089.02
615.693	7951.85
616.05	8053.55
616.406	8072.08
616.762	8014
617.118	7987.11
617.475	8036.82
617.831	8070.27
618.187	8041.79
618.543	8053.55
618.899	8155.46
619.255	8078.4
619.611	8109.59
619.967	8115.24
620.323	8119.76
620.678	8073.21
621.034	8134.45
621.39	8098.97
621.746	8100.1
622.101	8171.28
622.457	8183.49
622.812	8150.94
623.168	8106.43
623.523	8180.1
623.879	8194.11
624.234	8125.63
624.589	8102.58
624.945	8094.67
625.3	8103.26
625.655	8108.01
626.01	8101
626.365	8139.87
626.72	8041.12
627.075	8181.9
627.43	8063.04
627.785	8065.75
628.14	8109.36
628.495	8125.18
628.85	8062.36
629.205	8035.01
629.559	8105.3
629.914	8063.26
630.269	8061.68
630.623	8059.19
630.978	7990.95
631.332	7957.5
631.687	8024.85
632.041	8003.15
632.396	8018.07
632.75	8015.58
633.104	8040.21
633.459	7960.44
633.813	8004.28
634.167	7975.81
634.521	7955.02
634.875	7992.08
635.229	8008.8
635.583	7892.42
635.937	7900.55
636.291	7880.22
636.645	7948.01
636.999	7831.4
637.352	7886.32
637.706	7862.36
638.06	7911.63
638.413	7797.73
638.767	7847
639.121	7870.27
639.474	7836.6
639.828	7826.21
640.181	7795.92
640.534	7856.71
640.888	7801.35
641.241	7804.74
641.594	7828.01
641.947	7844.51
642.301	7790.05
642.654	7722.71
643.007	7812.65
643.36	7783.5
643.713	7798.41
644.066	7841.35
644.419	7722.25
644.771	7719.99
645.124	7611.3
645.477	7623.5
645.83	7514.12
646.182	7529.72
646.535	7544.18
646.888	7530.85
647.24	7487.68
647.593	7522.49
647.945	7495.59
648.298	7484.29
648.65	7485.88
649.002	7501.02
649.355	7501.92
649.707	7491.98
650.059	7475.71
650.411	7611.97
650.763	7646.55
651.115	7661.47
651.467	7672.76
651.819	7640.22
652.171	7645.19
652.523	7687.23
652.875	7639.09
653.227	7615.82
653.578	7704.85
653.93	7632.54
654.282	7649.71
654.633	7595.25
654.985	7661.24
655.337	7667.57
655.688	7667.11
656.039	7684.97
656.391	7672.54
656.742	7669.37
657.094	7658.08
657.445	7681.8
657.796	7709.6
658.147	7648.36
658.498	7649.49
658.849	7680.67
659.2	7694.91
659.551	7708.24
659.902	7752.99
660.253	7717.73
660.604	7660.11
660.955	7708.7
661.306	7677.51
661.656	7737.4
662.007	7707.79
662.358	7707.11
662.708	7731.07
663.059	7755.93
663.409	7664.4
663.76	7788.47
664.11	7740.33
664.461	7759.32
664.811	7753.21
665.161	7731.52
665.511	7742.14
665.862	7731.97
666.212	7776.72
666.562	7810.39
666.912	7739.88
667.262	7775.59
667.612	7734.91
667.962	7787.56
668.312	7728.81
668.662	7840.67
669.011	7798.18
669.361	7772.87
669.711	7800.44
670.06	7703.5
670.41	7736.27
670.76	7767.23
671.109	7746.89
671.459	7719.09
671.808	7694.46
672.157	7802.7
672.507	7674.8
672.856	7750.95
673.205	7719.54
673.554	7774.23
673.904	7675.25
674.253	7785.08
674.602	7684.52
674.951	7606.78
675.3	7522.94
675.649	7693.1
675.998	7634.35
676.346	7662.6
676.695	7618.98
677.044	7627.57
677.393	7637.29
677.741	7653.78
678.09	7614.69
678.438	7583.28
678.787	7578.53
679.135	7616.49
679.484	7555.48
679.832	7576.04
680.181	7511.64
680.529	7519.77
680.877	7468.7
681.225	7479.1
681.573	7554.8
681.922	7440.23
682.27	7427.8
682.618	7505.09
682.966	7404.97
683.314	7414.01
683.661	7461.92
684.009	7395.48
684.357	7324.98
684.705	7336.73
685.053	7408.59
685.4	7373.34
685.748	7324.3
686.095	7272.77
686.443	7269.16
686.79	7235.04
687.138	7259.22
687.485	7267.35
687.832	7249.5
688.18	7246.79
688.527	7171.99
688.874	7162.27
689.221	7153
689.568	7042.5
689.915	7118.65
690.262	7098.09
690.609	7067.36
690.956	7054.48
691.303	7038.66
691.65	6981.94
691.997	6950.75
692.344	6976.51
692.69	6913.24
693.037	6939
693.383	6820.36
693.73	6894.93
694.077	6841.15
694.423	6779.68
694.769	6762.73
695.116	6759.57
695.462	6732
695.808	6702.39
696.155	6753.69
696.501	6659.68
696.847	6646.8
697.193	6613.81
697.539	6649.97
697.885	6603.41
698.231	6543.08
698.577	6541.72
698.923	6485.45
699.269	6502.85
699.614	6472.8
699.96	6402.29
700.306	6390.76
700.651	6407.03
700.997	6368.84
701.342	6344.89
701.688	6318.68
702.033	6302.63
702.379	6246.36
702.724	6281.61
703.069	6292.46
703.415	6168.17
703.76	6189.64
704.105	6224.44
704.45	6205.46
704.795	6102.18
705.14	6109.87
705.485	6054.05
705.83	6069.19
706.175	6077.78
706.52	6030.1
706.865	5973.6
707.209	5984.67
707.554	5946.48
707.899	5942.87
708.243	5942.64
708.588	5887.73
708.932	5873.94
709.277	5892.47
709.621	5857.22
709.966	5840.72
710.31	5807.73
710.654	5770.44
710.998	5765.7
711.342	5817.9
711.687	5774.06
712.031	5751.91
712.375	5724.34
712.719	5770.89
713.063	5768.41
713.407	5739.48
713.75	5653.16
714.094	5641.41
714.438	5676.43
714.782	5689.31
715.125	5681.18
715.469	5676.66
715.812	5639.6
716.156	5616.1
716.499	5638.47
716.843	5644.57
717.186	5584.23
717.53	5564.8
717.873	5608.19
718.216	5588.07
718.559	5564.57
718.902	5576.1
719.246	5561.86
719.589	5474.4
719.932	5480.96
720.275	5532.93
720.617	5517.79
720.96	5517.79
721.303	5510.56
721.646	5482.31
721.989	5492.03
722.331	5454.74
722.674	5485.48
723.016	5463.1
723.359	5484.57
723.701	5525.25
724.044	5421.52
724.386	5433.5
724.729	5439.6
725.071	5487.74
725.413	5430.11
725.755	5438.25
726.097	5467.62
726.439	5410
726.782	5408.64
727.124	5400.28
727.465	5428.3
727.807	5385.59
728.149	5409.55
728.491	5405.71
728.833	5409.77
729.175	5405.25
729.516	5355.76
729.858	5410.68
730.199	5428.08
730.541	5390.11
730.882	5456.1
731.224	5424.01
731.565	5365.71
731.906	5394.63
732.248	5383.11
732.589	5421.52
732.93	5390.79
733.271	5401.86
733.612	5366.38
733.953	5421.98
734.294	5382.2
734.635	5394.63
734.976	5427.85
735.317	5430.79
735.658	5372.71
735.999	5438.02
736.339	5423.33
736.68	5491.58
737.021	5461.75
737.361	5436.21
737.702	5449.09
738.042	5426.72
738.383	5477.57
738.723	5474.63
739.063	5500.39
739.404	5440.73
739.744	5479.83
740.084	5474.86
740.424	5495.19
740.764	5555.31
741.104	5578.58
741.444	5537.45
741.784	5533.16
742.124	5559.37
742.464	5609.32
742.804	5600.95
743.143	5584.23
743.483	5668.75
743.823	5612.71
744.162	5663.1
744.502	5713.04
744.841	5684.12
745.181	5784.23
745.52	5696.32
745.86	5864
746.199	5831.91
746.538	5847.5
746.877	5943.54
747.216	6012.7
747.556	6012.24
747.895	6089.98
748.234	6068.06
748.573	6127.04
748.911	6193.93
749.25	6262.86
749.589	6316.42
749.928	6410.2
750.267	6427.83
750.605	6484.32
750.944	6560.48
751.283	6515.05
751.621	6698.33
751.96	6797.08
752.298	6831.43
752.636	6964.76
752.975	6996.4
753.313	7175.38
753.651	7259.22
753.989	7257.86
754.327	7350.29
754.666	7543.28
755.004	7610.39
755.342	7799.54
755.679	7876.6
756.017	7955.92
756.355	8193.65
756.693	8261
757.031	8412.41
757.368	8510.71
757.706	8722.45
758.044	8801.77
758.381	8986.18
758.719	9076.8
759.056	9294.42
759.394	9399.27
759.731	9598.82
760.068	9719.26
760.405	9860.5
760.743	10020.05
761.08	10156.31
761.417	10323.09
761.754	10509.53
762.091	10709.07
762.428	10840.82
762.765	11002.62
763.102	11140.7
763.438	11251.43
763.775	11559.44
764.112	11662.72
764.449	11855.48
764.785	11913.56
765.122	12060.22
765.458	12289.14
765.795	12407.78
766.131	12528.91
766.467	12720.54
766.804	12798.28
767.14	13007.54
767.476	13128.21
767.812	13245.05
768.148	13471.26
768.485	13540.41
768.821	13681.65
769.157	13823.79
769.492	13945.82
