Data from hue_22_FLMS001491_00062.txt Node
Date: Tue Feb 07 17:10:28 GMT 2017
User: dcchb
Spectrometer: FLMS00149
Trigger mode: 0
Integration Time (sec): 2.000000E-2
Scans to average: 10
Electric dark correction enabled: true
Nonlinearity correction enabled: false
Boxcar width: 0
XAxis mode: Wavelengths
Number of Pixels in Spectrum: 2048
>>>>>Begin Spectral Data<<<<<
341.393	-31.02
341.776	-31.02
342.16	-31.02
342.543	-67.17
342.927	-70.79
343.31	-68.3
343.693	-65.59
344.077	-79.15
344.46	-65.59
344.843	-60.62
345.226	-33.28
345.61	-33.95
345.993	-21.75
346.376	-2.32
346.759	7.4
347.142	42.2
347.525	63.67
347.908	70
348.291	77.23
348.674	72.26
349.057	97.79
349.44	139.6
349.823	138.47
350.206	128.53
350.588	197.68
350.971	201.75
351.354	210.56
351.737	247.62
352.119	260.28
352.502	260.28
352.884	254.17
353.267	307.51
353.65	283.33
354.032	284.46
354.414	317.9
354.797	300.5
355.179	324
355.562	338.92
355.944	316.55
356.326	317.22
356.709	327.17
357.091	344.57
357.473	333.04
357.855	343.66
358.238	330.33
358.62	340.5
359.002	347.5
359.384	333.27
359.766	351.57
360.148	322.19
360.53	318.13
360.912	341.4
361.294	324.45
361.676	335.3
362.057	318.81
362.439	332.36
362.821	346.38
363.203	339.6
363.584	337.56
363.966	319.48
364.348	347.05
364.729	314.29
365.111	312.48
365.493	308.41
365.874	304.34
366.256	314.51
366.637	330.78
367.019	330.33
367.4	319.94
367.781	330.33
368.163	325.81
368.544	301.63
368.925	293.27
369.306	327.17
369.688	301.18
370.069	312.48
370.45	293.04
370.831	320.84
371.212	313.61
371.593	327.39
371.974	301.86
372.355	309.09
372.736	295.98
373.117	305.02
373.498	326.26
373.879	304.12
374.26	314.74
374.641	316.32
375.021	317.68
375.402	313.61
375.783	335.08
376.163	335.53
376.544	329.2
376.925	319.94
377.305	332.36
377.686	334.17
378.066	350.44
378.447	324.45
378.827	331.23
379.208	342.53
379.588	331.23
379.968	345.02
380.349	337.34
380.729	344.57
381.109	336.66
381.489	350.89
381.87	350.44
382.25	344.57
382.63	342.53
383.01	344.12
383.39	337.79
383.77	361.06
384.15	350.22
384.53	346.15
384.91	354.28
385.29	330.78
385.67	371.23
386.049	361.29
386.429	352.48
386.809	367.84
387.189	357.9
387.568	349.31
387.948	340.5
388.328	367.39
388.707	381.4
389.087	381.4
389.466	340.27
389.846	366.26
390.225	379.37
390.605	361.52
390.984	384.11
391.363	363.55
391.743	400.61
392.122	383.44
392.501	366.94
392.881	395.41
393.26	378.01
393.639	378.01
394.018	384.57
394.397	386.83
394.776	408.75
395.155	380.95
395.534	403.55
395.913	367.62
396.292	405.81
396.671	395.64
397.05	397.9
397.429	397.67
397.808	406.03
398.186	387.73
398.565	405.36
398.944	401.97
399.323	406.26
399.701	422.31
400.08	399.48
400.458	404.9
400.837	417.11
401.215	428.41
401.594	393.38
401.972	390.89
402.351	411.01
402.729	429.31
403.107	394.28
403.486	432.25
403.864	428.18
404.242	439.03
404.62	430.44
404.999	446.03
405.377	451.23
405.755	450.78
406.133	441.74
406.511	428.86
406.889	435.86
407.267	428.18
407.645	462.53
408.023	443.32
408.401	470.89
408.779	462.08
409.156	440.61
409.534	455.3
409.912	466.37
410.29	472.93
410.667	488.07
411.045	485.81
411.422	458.69
411.8	483.32
412.178	476.77
412.555	496.88
412.933	473.38
413.31	496.2
413.687	469.76
414.065	496.88
414.442	506.14
414.819	509.76
415.197	496.43
415.574	518.12
415.951	531.45
416.328	517.9
416.705	510.66
417.082	514.96
417.46	542.08
417.837	526.48
418.214	546.82
418.591	537.33
418.967	558.12
419.344	554.28
419.721	566.26
420.098	543.21
420.475	540.27
420.852	570.32
421.228	580.04
421.605	571
421.982	552.02
422.358	574.17
422.735	572.81
423.111	590.66
423.488	590.44
423.864	599.7
424.241	617.1
424.617	606.03
424.994	592.92
425.37	600.15
425.746	626.37
426.123	631.11
426.499	607.84
426.875	621.85
427.251	631.11
427.627	614.62
428.003	655.52
428.379	629.31
428.756	638.34
429.132	662.3
429.507	660.27
429.883	655.07
430.259	659.36
430.635	676.76
431.011	670.43
431.387	679.25
431.763	702.98
432.138	696.42
432.514	707.27
432.89	737.1
433.265	719.25
433.641	703.2
434.016	717.89
434.392	753.37
434.767	741.84
435.143	727.83
435.518	744.56
435.894	766.7
436.269	747.95
436.644	761.73
437.02	785.91
437.395	774.39
437.77	797.21
438.145	795.63
438.52	776.87
438.895	798.11
439.271	812.8
439.646	832.24
440.021	824.1
440.395	823.42
440.77	827.72
441.145	844.22
441.52	840.6
441.895	809.64
442.27	852.35
442.645	827.94
443.019	846.47
443.394	872.46
443.769	874.95
444.143	874.27
444.518	884.44
444.892	884.21
445.267	907.94
445.641	907.49
446.016	916.98
446.39	895.74
446.764	910.65
447.139	905
447.513	898.68
447.887	957.21
448.262	907.49
448.636	932.35
449.01	920.37
449.384	951.33
449.758	946.13
450.132	972.35
450.506	982.29
450.88	970.54
451.254	987.04
451.628	986.58
452.002	987.71
452.376	1020.03
452.75	1015.06
453.123	1033.59
453.497	1032.68
453.871	1016.64
454.244	1086.92
454.618	1059.12
454.992	1079.46
455.365	1080.59
455.739	1081.05
456.112	1093.93
456.486	1098.67
456.859	1116.75
457.232	1148.39
457.606	1109.29
457.979	1179.12
458.352	1170.76
458.725	1194.94
459.099	1211.44
459.472	1211.21
459.845	1193.13
460.218	1232.23
460.591	1252.57
460.964	1258.44
461.337	1274.94
461.71	1284.2
462.083	1311.1
462.456	1304.54
462.829	1328.27
463.201	1330.3
463.574	1352
463.947	1338.21
464.32	1388.16
464.692	1427.48
465.065	1407.59
465.438	1410.53
465.81	1453.01
466.183	1448.27
466.555	1497.76
466.928	1485.1
467.3	1495.5
467.672	1530.3
468.045	1559.45
468.417	1547.7
468.789	1591.77
469.161	1576.4
469.534	1614.36
469.906	1662.5
470.278	1661.37
470.65	1671.76
471.022	1726.9
471.394	1731.88
471.766	1761.93
472.138	1785.43
472.51	1855.04
472.882	1855.49
473.253	1874.7
473.625	1909.05
473.997	1951.08
474.369	1968.93
474.74	1984.75
475.112	2003.73
475.484	2069.04
475.855	2083.73
476.227	2110.62
476.598	2165.76
476.97	2197.17
477.341	2225.87
477.713	2281.01
478.084	2333.44
478.455	2396.94
478.827	2375.7
479.198	2477.62
479.569	2477.84
479.94	2525.53
480.311	2586.99
480.682	2611.4
481.053	2676.71
481.424	2735.69
481.795	2768.68
482.166	2815.69
482.537	2867.66
482.908	2927.32
483.279	2975.68
483.65	3038.51
484.021	3102.91
484.391	3157.83
484.762	3154.89
485.133	3164.83
485.503	3266.52
485.874	3326.64
486.244	3372.06
486.615	3459.74
486.985	3483.69
487.356	3550.81
487.726	3629.45
488.097	3701.54
488.467	3769.56
488.837	3807.3
489.207	3865.6
489.578	3911.93
489.948	3927.3
490.318	3993.51
490.688	4028.54
491.058	4095.43
491.428	4203
491.798	4200.29
492.168	4306.27
492.538	4301.07
492.908	4372.26
493.278	4442.99
493.648	4473.5
494.017	4489.09
494.387	4573.38
494.757	4624
495.126	4675.98
495.496	4700.84
495.866	4729.31
496.235	4820.38
496.605	4840.27
496.974	4860.83
497.344	4923.88
497.713	4918.01
498.082	4976.08
498.452	5052.24
498.821	5069.87
499.19	5062.18
499.559	5112.13
499.928	5148.06
500.298	5193.48
500.667	5253.36
501.036	5256.75
501.405	5329.52
501.774	5299.24
502.143	5370.2
502.512	5398.22
502.88	5438.22
503.249	5447.03
503.618	5493.36
503.987	5490.19
504.356	5546.01
504.724	5549.18
505.093	5609.51
505.462	5666.91
505.83	5656.07
506.199	5678.66
506.567	5740.13
506.936	5759.11
507.304	5829.39
507.672	5836.17
508.041	5860.81
508.409	5859.68
508.777	5991.65
509.145	5982.16
509.514	5971.54
509.882	6038.2
510.25	6012.21
510.618	6087.24
510.986	6078.88
511.354	6202.49
511.722	6213.11
512.09	6244.07
512.458	6177.63
512.826	6308.93
513.193	6324.07
513.561	6342.83
513.929	6365.43
514.297	6424.41
514.664	6484.07
515.032	6432.09
515.4	6500.11
515.767	6562.48
516.135	6559.55
516.502	6546.44
516.869	6587.11
517.237	6654.68
517.604	6611.3
517.972	6658.98
518.339	6689.49
518.706	6720.9
519.073	6771.52
519.44	6791.4
519.808	6839.54
520.175	6801.12
520.542	6940.55
520.909	6961.34
521.276	6921.12
521.643	7006.76
522.009	7056.71
522.376	7089.7
522.743	7136.03
523.11	7136.48
523.477	7224.61
523.843	7315.46
524.21	7343.71
524.577	7374.21
524.943	7358.39
525.31	7386.42
525.676	7464.15
526.043	7546.64
526.409	7538.95
526.776	7581.67
527.142	7595.45
527.508	7653.98
527.874	7780.53
528.241	7777.82
528.607	7828.21
528.973	7878.15
529.339	7878.61
529.705	7969.9
530.071	7996.8
530.437	8061.88
530.803	8088.54
531.169	8168.77
531.535	8091.93
531.901	8150.01
532.267	8234.76
532.632	8232.72
532.998	8260.29
533.364	8292.61
533.73	8319.5
534.095	8417.8
534.461	8476.56
534.826	8451.92
535.192	8502.54
535.557	8540.74
535.923	8572.6
536.288	8634.29
536.653	8611.24
537.019	8645.82
537.384	8683.33
537.749	8664.57
538.114	8821.86
538.479	8822.31
538.845	8780.28
539.21	8793.38
539.575	8900.05
539.94	8942.31
540.305	8961.29
540.67	8962.87
541.034	9031.8
541.399	9037.67
541.764	9053.94
542.129	9077.22
542.494	9138.01
542.858	9156.09
543.223	9221.85
543.587	9262.3
543.952	9233.83
544.316	9402.18
544.681	9356.31
545.045	9406.93
545.41	9361.96
545.774	9403.76
546.138	9529.64
546.503	9497.09
546.867	9560.14
547.231	9625.23
547.595	9641.95
547.959	9599.69
548.324	9677.88
548.688	9650.09
549.052	9726.92
549.416	9742.29
549.779	9791.32
550.143	9895.28
550.507	9889.63
550.871	9921.26
551.235	9967.82
551.599	9975.05
551.962	9986.8
552.326	9995.39
552.689	10088.04
553.053	10063.18
553.417	10123.75
553.78	10259.79
554.143	10241.48
554.507	10261.14
554.87	10246.23
555.234	10408.26
555.597	10316.96
555.96	10407.81
556.323	10379.78
556.686	10387.69
557.05	10532.1
557.413	10513.11
557.776	10537.07
558.139	10526.67
558.502	10730.28
558.865	10700.68
559.228	10703.84
559.59	10710.85
559.953	10780.45
560.316	10805.76
560.679	10799.43
561.041	10896.61
561.404	11041.69
561.767	11062.48
562.129	10951.52
562.492	11151.51
562.854	11083.72
563.217	11061.12
563.579	11187.45
563.941	11231.74
564.304	11208.46
564.666	11202.36
565.028	11291.62
565.39	11340.44
565.753	11404.84
566.115	11422.24
566.477	11488.91
566.839	11503.6
567.201	11641.9
567.563	11546.98
567.925	11678.28
568.287	11694.55
568.648	11729.58
569.01	11723.7
569.372	11879.63
569.734	11870.14
570.095	11899.29
570.457	12020.64
570.819	11957.37
571.18	12002.34
571.542	12168.66
571.903	12158.27
572.265	12243.01
572.626	12320.75
572.987	12330.01
573.349	12418.83
573.71	12337.92
574.071	12463.12
574.432	12545.15
574.794	12726.84
575.155	12735.2
575.516	12772.49
575.877	12808.65
576.238	12863.79
576.599	13012.71
576.96	13061.75
577.32	13179.71
577.681	13296.09
578.042	13363.66
578.403	13410.44
578.763	13473.71
579.124	13597.55
579.485	13711.22
579.845	13872.12
580.206	13948.96
580.566	14024.43
580.927	14158.89
581.287	14336.52
581.648	14356.4
582.008	14576.74
582.368	14685.21
582.728	14885.43
583.089	15046.1
583.449	15165.87
583.809	15319.09
584.169	15556.14
584.529	15751.85
584.889	16060.76
585.249	16086.53
585.609	16320.19
585.969	16580.52
586.329	16740.75
586.688	17029.33
587.048	17278.13
587.408	17464.8
587.768	17658.24
588.127	17929.42
588.487	18190.43
588.846	18488.95
589.206	18535.5
589.565	18896.17
589.925	19169.61
590.284	19358.08
590.643	19768.46
591.003	20105.18
591.362	20338.39
591.721	20618.16
592.08	20915.55
592.44	21352.6
592.799	21571.58
593.158	21809.99
593.517	22139.02
593.876	22670.76
594.235	22827.37
594.593	23143.97
594.952	23512.55
595.311	23646.55
595.67	24164.73
596.029	24561.78
596.387	24928.1
596.746	25322.89
597.104	25391.14
597.463	25730.34
597.822	26255.3
598.18	26380.04
598.538	26707.72
598.897	27227.93
599.255	27332.78
599.613	27963.73
599.972	28013.9
600.33	28552.19
600.688	28676.25
601.046	29047.99
601.404	29538.83
601.762	29726.85
602.12	30110.56
602.478	30410.44
602.836	30843.43
603.194	30854.27
603.552	31307.14
603.91	31472.56
604.268	31794.81
604.625	31995.49
604.983	32509.6
605.341	32651.97
605.698	33050.6
606.056	33437.48
606.413	33599.51
606.771	33972.61
607.128	34288.99
607.485	34433.16
607.843	34658.69
608.2	35192.92
608.557	35516.3
608.914	35631.77
609.272	35991.09
609.629	36084.42
609.986	36631.52
610.343	36524.63
610.7	36978.86
611.057	37241.45
611.414	37419.75
611.771	37647.09
612.127	37931.83
612.484	38081.43
612.841	38409.78
613.198	38521.87
613.554	38614.97
613.911	38985.36
614.267	39220.16
614.624	39371.79
614.98	39473.48
615.337	40014.26
615.693	40002.28
616.05	40097.19
616.406	40506.9
616.762	40544.19
617.118	40577.63
617.475	40821.24
617.831	41180.1
618.187	41417.16
618.543	41555.24
618.899	41799.97
619.255	41823.02
619.611	41949.12
619.967	42254.2
620.323	42411.26
620.678	42431.82
621.034	42416.91
621.39	42521.76
621.746	42591.37
622.101	43171.01
622.457	42961.53
622.812	43080.17
623.168	43439.48
623.523	43378.92
623.879	43692.58
624.234	43411.91
624.589	43771.67
624.945	43768.51
625.3	43904.33
625.655	43923.53
626.01	43999.24
626.365	44083.08
626.72	44118.11
627.075	44106.58
627.43	44151.1
627.785	44298.21
628.14	44469.28
628.495	44605.55
628.85	44493.46
629.205	44446.68
629.559	44679.67
629.914	44649.16
630.269	44831.08
630.623	44614.36
630.978	44753.34
631.332	44990.85
631.687	45059.32
632.041	44888.48
632.396	44986.11
632.75	44813
633.104	44876.5
633.459	44873.11
633.813	44944.75
634.167	44952.43
634.521	44963.28
634.875	45066.78
635.229	44951.53
635.583	44911.3
635.937	44961.47
636.291	44862.49
636.645	44943.17
636.999	44896.62
637.352	45052.09
637.706	44770.74
638.06	45065.88
638.413	45033.34
638.767	44876.5
639.121	45027.46
639.474	44797.41
639.828	44985.65
640.181	44921.7
640.534	45054.35
640.888	44877.86
641.241	44812.1
641.594	44937.97
641.947	45060.23
642.301	44858.88
642.654	44996.05
643.007	44998.31
643.36	44883.06
643.713	44789.5
644.066	45039.89
644.419	44850.74
644.771	44683.97
645.124	44131.66
645.477	44020.03
645.83	43809.41
646.182	43824.78
646.535	43645.12
646.888	43659.13
647.24	43525.35
647.593	43837.89
647.945	43819.58
648.298	43536.88
648.65	43473.15
649.002	43479.48
649.355	43672.47
649.707	43683.31
650.059	43769.19
650.411	44328.27
650.763	44256.63
651.115	44689.84
651.467	44636.28
651.819	44470.86
652.171	44355.39
652.523	44426.8
652.875	44328.72
653.227	44192.45
653.578	44566.68
653.93	44414.82
654.282	44410.08
654.633	44277.2
654.985	44238.33
655.337	44393.8
655.688	44295.95
656.039	44461.15
656.391	44201.95
656.742	44263.64
657.094	44239.46
657.445	44350.64
657.796	44328.95
658.147	44324.88
658.498	44161.04
658.849	44356.07
659.2	44300.7
659.551	44149.52
659.902	44225
660.253	44153.36
660.604	44180.48
660.955	44068.39
661.306	44223.87
661.656	44122.63
662.007	44115.85
662.358	44104.09
662.708	44136.64
663.059	44184.77
663.409	43823.42
663.76	44168.05
664.11	44151.1
664.461	44249.63
664.811	44152.91
665.161	43974.61
665.511	44007.83
665.862	43882.41
666.212	44147.03
666.562	44080.37
666.912	44089.63
667.262	44085.56
667.612	44058.22
667.962	44170.31
668.312	43996.53
668.662	44109.97
669.011	43985
669.361	44021.61
669.711	43946.58
670.06	43849.86
670.41	43851.22
670.76	43876.3
671.109	43934.38
671.459	43955.4
671.808	43827.94
672.157	43973.25
672.507	43738.91
672.856	43739.81
673.205	43834.95
673.554	43816.64
673.904	43756.99
674.253	43975.28
674.602	43869.52
674.951	43233.83
675.3	42960.85
675.649	43736.19
675.998	43735.52
676.346	43668.4
676.695	43757.21
677.044	43515.64
677.393	43503.43
677.741	43593.15
678.09	43462.53
678.438	43375.07
678.787	43500.95
679.135	43469.08
679.484	43294.4
679.832	43201.75
680.181	43246.49
680.529	43184.12
680.877	43192.25
681.225	43162.88
681.573	43341.4
681.922	43165.36
682.27	42972.6
682.618	43027.06
682.966	42894.18
683.314	42934.63
683.661	42688.76
684.009	42662.78
684.357	42682.66
684.705	42518.6
685.053	42633.62
685.4	42584.36
685.748	42389.79
686.095	42339.85
686.443	42254.88
686.79	42124.49
687.138	42282.67
687.485	42245.84
687.832	42025.96
688.18	42071.83
688.527	41799.3
688.874	41972.85
689.221	41868.45
689.568	41723.59
689.915	41662.35
690.262	41579.87
690.609	41465.75
690.956	41350.95
691.303	41372.87
691.65	41153.89
691.997	41200.67
692.344	40927.23
692.69	40923.16
693.037	41018.98
693.383	40582.61
693.73	40762.49
694.077	40416.28
694.423	40433.46
694.769	40354.59
695.116	40264.42
695.462	40319.11
695.808	40320.24
696.155	40213.8
696.501	39948.27
696.847	39892
697.193	39696.98
697.539	39876.64
697.885	39567.72
698.231	39481.84
698.577	39439.58
698.923	39511.45
699.269	39219.03
699.614	39164.11
699.96	39044.57
700.306	39010.44
700.651	38700.17
700.997	38602.77
701.342	38711.24
701.688	38689.55
702.033	38305.6
702.379	38418.82
702.724	38372.49
703.069	38365.71
703.415	37925.95
703.76	38028.55
704.105	38000.75
704.45	37991.26
704.795	37678.5
705.14	37704.71
705.485	37658.16
705.83	37458.17
706.175	37601.89
706.52	37233.77
706.865	37324.16
707.209	37268.57
707.554	37144.96
707.899	37172.3
708.243	36939.09
708.588	36804.4
708.932	36623.39
709.277	36693.22
709.621	36633.1
709.966	36476.5
710.31	36525.08
710.654	36180.91
710.998	36336.62
711.342	36264.98
711.687	36143.17
712.031	36049.62
712.375	35979.11
712.719	35969.85
713.063	35892.11
713.407	35992.67
713.75	35653.24
714.094	35673.81
714.438	35563.75
714.782	35497.77
715.125	35424.55
715.469	35568.5
715.812	35463.19
716.156	35214.38
716.499	35187.27
716.843	35167.15
717.186	34975.07
717.53	35201.05
717.873	35163.99
718.216	35070.66
718.559	34804
718.902	34696.43
719.246	34801.29
719.589	34756.77
719.932	34558.58
720.275	34470
720.617	34512.03
720.96	34385.25
721.303	34421.64
721.646	34375.31
721.989	34188.2
722.331	34193.17
722.674	34224.58
723.016	34224.13
723.359	34031.59
723.701	34031.82
724.044	33748.66
724.386	33703.24
724.729	33899.62
725.071	33764.93
725.413	33715.44
725.755	33696.23
726.097	33527.2
726.439	33407.43
726.782	33447.43
727.124	33569.23
727.465	33480.87
727.807	33380.08
728.149	33308.9
728.491	33166.98
728.833	33417.6
729.175	33251.95
729.516	33119.75
729.858	33029.13
730.199	33169.69
730.541	33033.2
730.882	33143.48
731.224	33074.33
731.565	32765.86
731.906	32769.25
732.248	32921.56
732.589	32624.4
732.93	32546.21
733.271	32583.72
733.612	32579.65
733.953	32479.99
734.294	32388.24
734.635	32285.42
734.976	32401.35
735.317	32220.79
735.658	32207.68
735.999	32289.72
736.339	32280.9
736.68	32265.08
737.021	32164.07
737.361	32113
737.702	32171.08
738.042	32010.85
738.383	32010.18
738.723	32025.54
739.063	32029.84
739.404	32024.64
739.744	31899.9
740.084	31760.69
740.424	31764.08
740.764	31847.24
741.104	31753.46
741.444	31632.56
741.784	31481.6
742.124	31508.95
742.464	31532.45
742.804	31511.43
743.143	31428.5
743.483	31340.81
743.823	31263.98
744.162	31207.94
744.502	31283.41
744.841	30965.46
745.181	31144.66
745.52	31009.98
745.86	31133.59
746.199	31079.13
746.538	31054.27
746.877	31180.82
747.216	30962.07
747.556	30967.26
747.895	30906.25
748.234	30713.26
748.573	30774.5
748.911	30661.96
749.25	30655.63
749.589	30659.25
749.928	30672.58
750.267	30639.82
750.605	30470.33
750.944	30483.89
751.283	30320.5
751.621	30511.91
751.96	30194.63
752.298	30265.81
752.636	30403.44
752.975	30101.98
753.313	29980.4
753.651	30032.37
753.989	29847.52
754.327	29839.61
754.666	29766.62
755.004	29821.08
755.342	29706.28
755.679	29823.34
756.017	29631.25
756.355	29562.56
756.693	29568.43
757.031	29554.65
757.368	29399.4
757.706	29420.86
758.044	29258.61
758.381	29191.49
758.719	29114.66
759.056	29128.44
759.394	29091.38
