Data from hue_190_FLMS001491_00085.txt Node
Date: Tue Feb 07 16:45:54 GMT 2017
User: dcchb
Spectrometer: FLMS00149
Trigger mode: 0
Integration Time (sec): 2.000000E-2
Scans to average: 10
Electric dark correction enabled: true
Nonlinearity correction enabled: false
Boxcar width: 0
XAxis mode: Wavelengths
Number of Pixels in Spectrum: 2048
>>>>>Begin Spectral Data<<<<<
341.393	-22.3
341.776	-22.3
342.16	-22.3
342.543	-63.88
342.927	-47.84
343.31	-79.25
343.693	-63.88
344.077	-76.76
344.46	-69.98
344.843	-43.32
345.226	-32.47
345.61	-27.27
345.993	-19.59
346.376	-9.19
346.759	0.97
347.142	46.17
347.525	54.31
347.908	60.18
348.291	86.17
348.674	72.61
349.057	101.31
349.44	127.3
349.823	163.23
350.206	167.52
350.588	175.43
350.971	214.53
351.354	243.23
351.737	214.3
352.119	266.96
352.502	263.79
352.884	298.37
353.267	279.39
353.65	297.24
354.032	292.49
354.414	322.77
354.797	310.57
355.179	311.47
355.562	325.03
355.944	324.58
356.326	337.46
356.709	333.62
357.091	328.2
357.473	346.05
357.855	343.34
358.238	334.07
358.62	334.53
359.002	340.85
359.384	338.14
359.766	348.08
360.148	346.05
360.53	323
360.912	329.55
361.294	337.01
361.676	352.6
362.057	318.03
362.439	330.68
362.821	338.82
363.203	318.25
363.584	332.49
363.966	328.88
364.348	306.28
364.729	317.8
365.111	309.44
365.493	295.88
365.874	327.52
366.256	305.15
366.637	293.62
367.019	310.57
367.4	310.57
367.781	313.06
368.163	327.97
368.544	295.66
368.925	305.6
369.306	320.29
369.688	312.6
370.069	318.25
370.45	304.24
370.831	309.44
371.212	326.39
371.593	314.19
371.974	305.83
372.355	305.83
372.736	307.41
373.117	315.54
373.498	328.42
373.879	318.48
374.26	317.35
374.641	298.82
375.021	308.09
375.402	319.16
375.783	327.07
376.163	335.2
376.544	324.58
376.925	330.23
377.305	308.76
377.686	323
378.066	330.46
378.447	346.5
378.827	311.02
379.208	336.56
379.588	322.1
379.968	329.78
380.349	306.28
380.729	305.6
381.109	337.01
381.489	317.35
381.87	333.85
382.25	339.95
382.63	334.3
383.01	368.87
383.39	338.82
383.77	356.45
384.15	343.56
384.53	333.85
384.91	333.4
385.29	349.67
385.67	361.64
386.049	340.85
386.429	364.35
386.809	356.67
387.189	353.06
387.568	348.54
387.948	367.74
388.328	379.72
388.707	350.12
389.087	345.82
389.466	388.53
389.846	346.28
390.225	378.37
390.605	343.56
390.984	362.55
391.363	372.49
391.743	368.87
392.122	382.66
392.501	387.63
392.881	393.05
393.26	355.99
393.639	380.63
394.018	374.3
394.397	396.44
394.776	386.95
395.155	395.31
395.534	384.02
395.913	378.59
396.292	393.28
396.671	381.76
397.05	397.35
397.429	406.39
397.808	426.27
398.186	401.87
398.565	402.55
398.944	385.15
399.323	405.71
399.701	413.39
400.08	398.03
400.458	423.56
400.837	439.38
401.215	413.17
401.594	419.72
401.972	419.04
402.351	430.34
402.729	419.49
403.107	414.3
403.486	431.25
403.864	419.95
404.242	426.27
404.62	433.05
404.999	430.57
405.377	450.68
405.755	447.29
406.133	457.46
406.511	441.41
406.889	474.18
407.267	476.22
407.645	470.11
408.023	467.18
408.401	492.71
408.779	469.66
409.156	505.82
409.534	506.72
409.912	499.94
410.29	507.4
410.667	515.54
411.045	537.91
411.422	532.49
411.8	522.77
412.178	522.32
412.555	549.66
412.933	569.32
413.31	586.27
413.687	594.63
414.065	585.37
414.442	578.59
414.819	605.7
415.197	605.25
415.574	632.82
415.951	646.38
416.328	637.79
416.705	633.27
417.082	631.24
417.46	654.06
417.837	668.75
418.214	654.74
418.591	678.92
418.967	667.62
419.344	683.67
419.721	693.84
420.098	704.01
420.475	732.25
420.852	729.77
421.228	741.97
421.605	763.44
421.982	741.29
422.358	802.76
422.735	798.92
423.111	784.23
423.488	821.07
423.864	827.39
424.241	838.69
424.617	844.57
424.994	858.13
425.37	896.32
425.746	889.76
426.123	899.48
426.499	915.07
426.875	918.24
427.251	941.06
427.627	936.32
428.003	949.88
428.379	964.57
428.756	967.73
429.132	1010.67
429.507	1039.82
429.883	1037.11
430.259	1031
430.635	1032.81
431.011	1040.04
431.387	1097.67
431.763	1093.38
432.138	1107.61
432.514	1118.23
432.89	1139.7
433.265	1173.6
433.641	1200.94
434.016	1217.89
434.392	1198.23
434.767	1235.29
435.143	1250.43
435.518	1279.36
435.894	1271.22
436.269	1326.82
436.644	1327.27
437.02	1352.35
437.395	1391.22
437.77	1394.38
438.145	1427.38
438.52	1435.74
438.895	1451.78
439.271	1488.39
439.646	1494.27
440.021	1553.25
440.395	1524.55
440.77	1537.21
441.145	1576.53
441.52	1635.06
441.895	1624.66
442.27	1647.26
442.645	1642.97
443.019	1677.54
443.394	1692.46
443.769	1724.32
444.143	1689.07
444.518	1737.65
444.892	1748.95
445.267	1779.46
445.641	1786.24
446.016	1802.51
446.39	1848.38
446.764	1857.2
447.139	1867.82
447.513	1898.1
447.887	1879.8
448.262	1912.34
448.636	1905.78
449.01	1947.82
449.384	1937.19
449.758	1991.88
450.132	1962.05
450.506	2017.64
450.88	2008.61
451.254	2012
451.628	2060.81
452.002	2102.39
452.376	2112.11
452.75	2134.48
453.123	2118.43
453.497	2186
453.871	2196.62
454.244	2248.15
454.618	2221.03
454.992	2294.47
455.365	2281.59
455.739	2346.45
456.112	2361.36
456.486	2361.14
456.859	2403.85
457.232	2438.88
457.606	2440.46
457.979	2489.5
458.352	2518.87
458.725	2544.86
459.099	2596.39
459.472	2623.28
459.845	2666.22
460.218	2670.73
460.591	2755.7
460.964	2689.94
461.337	2770.17
461.71	2878.19
462.083	2832.99
462.456	2910.5
462.829	2924.29
463.201	2966.77
463.574	2995.47
463.947	3021.46
464.32	3084.96
464.692	3122.93
465.065	3105.75
465.438	3184.17
465.81	3248.35
466.183	3264.17
466.555	3311.85
466.928	3379.64
467.3	3383.48
467.672	3397.72
468.045	3486.53
468.417	3494.22
468.789	3555.46
469.161	3593.2
469.534	3689.24
469.906	3749.8
470.278	3764.94
470.65	3790.71
471.022	3923.81
471.394	3957.25
471.766	3963.13
472.138	4026.86
472.51	4157.25
472.882	4250.58
473.253	4249.9
473.625	4311.37
473.997	4407.64
474.369	4423.46
474.74	4533.74
475.112	4561.76
475.484	4646.05
475.855	4785.26
476.227	4791.81
476.598	4963.78
476.97	4980.5
477.341	5081.74
477.713	5136.21
478.084	5229.09
478.455	5331.23
478.827	5381.17
479.198	5551.34
479.569	5606.7
479.94	5772.12
480.311	5803.99
480.682	5908.62
481.053	6021.83
481.424	6128.27
481.795	6197.65
482.166	6302.73
482.537	6355.38
482.908	6567.81
483.279	6553.34
483.65	6718.09
484.021	6819.33
484.391	6853
484.762	6983.62
485.133	7050.51
485.503	7183.61
485.874	7282.14
486.244	7368.69
486.615	7488.01
486.985	7586.09
487.356	7763.26
487.726	7817.72
488.097	7958.05
488.467	7954.89
488.837	8166.86
489.207	8264.71
489.578	8359.17
489.948	8450.02
490.318	8558.94
490.688	8579.28
491.058	8650.92
491.428	8855.43
491.798	8902.89
492.168	9056.56
492.538	9129.1
492.908	9239.15
493.278	9295.19
493.648	9330.9
494.017	9510.78
494.387	9486.15
494.757	9616.54
495.126	9619.25
495.496	9663.32
495.866	9810.89
496.235	9788.51
496.605	9953.93
496.974	9954.16
497.344	10033.25
497.713	10088.39
498.082	10134.04
498.452	10214.72
498.821	10173.59
499.19	10327.93
499.559	10350.31
499.928	10400.93
500.298	10399.8
500.667	10532.22
501.036	10577.65
501.405	10612.9
501.774	10550.75
502.143	10742.61
502.512	10717.08
502.88	10692.44
503.249	10753.01
503.618	10869.16
503.987	10866.9
504.356	10832.78
504.724	10989.84
505.093	10937.86
505.462	11037.52
505.83	10996.84
506.199	11091.53
506.567	11236.84
506.936	11173.11
507.304	11274.58
507.672	11243.84
508.041	11342.82
508.409	11322.48
508.777	11415.82
509.145	11417.4
509.514	11394.12
509.882	11451.29
510.25	11392.54
510.618	11490.39
510.986	11430.28
511.354	11531.29
511.722	11627.34
512.09	11686.32
512.458	11638.63
512.826	11700.78
513.193	11660.1
513.561	11712.53
513.929	11705.53
514.297	11792.53
514.664	11844.05
515.032	11847.22
515.4	11808.8
515.767	11855.13
516.135	11861.91
516.502	11790.72
516.869	11959.98
517.237	11958.85
517.604	11856.93
517.972	11896.71
518.339	11898.74
518.706	11962.92
519.073	11988.91
519.44	12031.17
519.808	12052.41
520.175	12021.9
520.542	12088.34
520.909	12081.56
521.276	12044.27
521.643	12028.23
522.009	12140.77
522.376	12082.24
522.743	12131.05
523.11	12195.91
523.477	12162.69
523.843	12182.8
524.21	12256.47
524.577	12267.54
524.943	12282.91
525.31	12301.22
525.676	12363.14
526.043	12349.8
526.409	12332.18
526.776	12327.88
527.142	12300.54
527.508	12374.21
527.874	12348.45
528.241	12375.56
528.607	12284.95
528.973	12321.1
529.339	12306.64
529.705	12409.91
530.071	12369.69
530.437	12254.89
530.803	12267.32
531.169	12294.21
531.535	12222.8
531.901	12191.84
532.267	12187.09
532.632	12284.72
532.998	12153.88
533.364	12181.67
533.73	12093.31
534.095	12106.19
534.461	12063.93
534.826	12100.32
535.192	11992.75
535.557	12004.5
535.923	11958.63
536.288	11900.55
536.653	11853.32
537.019	11802.25
537.384	11830.72
537.749	11846.54
538.114	11705.53
538.479	11715.47
538.845	11662.14
539.21	11560.67
539.575	11586.43
539.94	11565.19
540.305	11534.91
540.67	11425.53
541.034	11386.66
541.399	11425.53
541.764	11309.6
542.129	11263.96
542.494	11180.34
542.858	11186.22
543.223	11150.74
543.587	11068.71
543.952	11135.6
544.316	11034.58
544.681	10943.51
545.045	10979.89
545.41	10935.38
545.774	10884.53
546.138	10790.07
546.503	10724.08
546.867	10650.41
547.231	10656.51
547.595	10635.27
547.959	10576.06
548.324	10505.78
548.688	10518.44
549.052	10463.3
549.416	10380.14
549.779	10309.86
550.143	10329.29
550.507	10396.63
550.871	10348.95
551.235	10218.11
551.599	10183.53
551.962	10170.42
552.326	10113.48
552.689	10137.88
553.053	10019.69
553.417	9963.65
553.78	10094.72
554.143	9924.1
554.507	9943.76
554.87	9892.92
555.234	9972.69
555.597	9787.38
555.96	9822.64
556.323	9777.44
556.686	9719.59
557.05	9762.98
557.413	9662.87
557.776	9682.53
558.139	9742.64
558.502	9651.79
558.865	9645.92
559.228	9610.44
559.59	9629.2
559.953	9646.14
560.316	9645.01
560.679	9578.35
561.041	9623.32
561.404	9612.47
561.767	9643.66
562.129	9522.08
562.492	9551.23
562.854	9527.96
563.217	9483.66
563.579	9460.84
563.941	9462.87
564.304	9514.17
564.666	9567.05
565.028	9525.02
565.39	9480.5
565.753	9569.31
566.115	9547.16
566.477	9476.88
566.839	9521.4
567.201	9584.9
567.563	9543.1
567.925	9558.69
568.287	9529.31
568.648	9549.2
569.01	9539.25
569.372	9536.32
569.734	9495.41
570.095	9527.73
570.457	9593.49
570.819	9567.95
571.18	9558.92
571.542	9515.53
571.903	9487.05
572.265	9544.23
572.626	9513.27
572.987	9599.82
573.349	9567.28
573.71	9555.75
574.071	9581.97
574.432	9629.42
574.794	9640.72
575.155	9545.13
575.516	9523.44
575.877	9594.85
576.238	9578.35
576.599	9523.89
576.96	9534.51
577.32	9589.42
577.681	9526.83
578.042	9625.58
578.403	9564.56
578.763	9507.17
579.124	9593.26
579.485	9634.17
579.845	9601.4
580.206	9520.72
580.566	9558.46
580.927	9536.54
581.287	9636.65
581.648	9525.47
582.008	9569.54
582.368	9532.48
582.728	9591.46
583.089	9480.5
583.449	9561.4
583.809	9543.77
584.169	9538.35
584.529	9497.45
584.889	9501.74
585.249	9486.37
585.609	9417.68
585.969	9528.86
586.329	9440.95
586.688	9480.95
587.048	9473.72
587.408	9459.93
587.768	9387.85
588.127	9405.02
588.487	9376.1
588.846	9457.45
589.206	9360.73
589.565	9380.39
589.925	9355.98
590.284	9323.22
590.643	9420.16
591.003	9352.82
591.362	9388.52
591.721	9345.81
592.08	9373.16
592.44	9381.52
592.799	9330.67
593.158	9307.62
593.517	9345.36
593.876	9293.16
594.235	9338.58
594.593	9319.83
594.952	9287.28
595.311	9273.73
595.67	9311.24
596.029	9312.59
596.387	9334.06
596.746	9220.85
597.104	9301.29
597.463	9231.47
597.822	9259.94
598.18	9234.4
598.538	9197.79
598.897	9294.06
599.255	9231.92
599.613	9340.84
599.972	9239.83
600.33	9271.24
600.688	9249.09
601.046	9236.21
601.404	9252.48
601.762	9220.39
602.12	9260.84
602.478	9232.82
602.836	9172.48
603.194	9241.86
603.552	9245.25
603.91	9205.48
604.268	9220.17
604.625	9176.1
604.983	9214.07
605.341	9147.63
605.698	9255.87
606.056	9244.35
606.413	9245.93
606.771	9235.53
607.128	9236.89
607.485	9193.5
607.843	9179.72
608.2	9235.31
608.557	9199.15
608.914	9261.52
609.272	9303.33
609.629	9350.33
609.986	9386.94
610.343	9256.32
610.7	9294.06
611.057	9314.4
611.414	9319.6
611.771	9327.96
612.127	9347.4
612.484	9315.31
612.841	9398.02
613.198	9305.59
613.554	9297.45
613.911	9323.89
614.267	9423.55
614.624	9372.25
614.98	9406.38
615.337	9357.79
615.693	9418.13
616.05	9381.97
616.406	9386.49
616.762	9386.26
617.118	9362.99
617.475	9378.81
617.831	9377.9
618.187	9406.15
618.543	9440.27
618.899	9413.61
619.255	9398.92
619.611	9452.25
619.967	9441.4
620.323	9502.65
620.678	9453.16
621.034	9422.65
621.39	9480.5
621.746	9362.76
622.101	9534.96
622.457	9418.13
622.812	9435.75
623.168	9373.38
623.523	9434.4
623.879	9479.82
624.234	9392.37
624.589	9475.53
624.945	9513.27
625.3	9497
625.655	9462.42
626.01	9437.11
626.365	9468.97
626.72	9448.18
627.075	9337.9
627.43	9437.11
627.785	9415.87
628.14	9417.68
628.495	9398.47
628.85	9446.15
629.205	9399.82
629.559	9392.14
629.914	9405.47
630.269	9388.52
630.623	9366.15
630.978	9272.6
631.332	9346.94
631.687	9321.86
632.041	9371.8
632.396	9373.16
632.75	9254.29
633.104	9340.84
633.459	9249.77
633.813	9282.54
634.167	9282.31
634.521	9261.3
634.875	9264.01
635.229	9212.03
635.583	9198.92
635.937	9207.96
636.291	9129.32
636.645	9217.68
636.999	9143.33
637.352	9137.68
637.706	9057.23
638.06	9200.51
638.413	9138.81
638.767	9141.3
639.121	9086.61
639.474	9059.49
639.828	9123.9
640.181	9038.7
640.534	9080.06
640.888	8967.97
641.241	9004.35
641.594	9045.26
641.947	9069.66
642.301	9020.85
642.654	9024.24
643.007	9010.91
643.36	9006.61
643.713	8913.96
644.066	9059.95
644.419	8949.89
644.771	8955.99
645.124	8801.65
645.477	8852.49
645.83	8839.16
646.182	8779.95
646.535	8723.23
646.888	8708.77
647.24	8674.19
647.593	8731.14
647.945	8706.06
648.298	8573.4
648.65	8604.82
649.002	8608.88
649.355	8666.74
649.707	8698.37
650.059	8644.82
650.411	8826.05
650.763	8790.57
651.115	8847.75
651.467	8888.65
651.819	8890.23
652.171	8865.37
652.523	8821.31
652.875	8853.62
653.227	8807.97
653.578	8815.66
653.93	8819.5
654.282	8806.84
654.633	8821.99
654.985	8814.53
655.337	8794.87
655.688	8860.18
656.039	8875.09
656.391	8800.29
656.742	8788.77
657.094	8829.67
657.445	8884.58
657.796	8882.55
658.147	8817.47
658.498	8788.31
658.849	8896.33
659.2	8826.96
659.551	8814.75
659.902	8927.07
660.253	8841.19
660.604	8883.68
660.955	8830.8
661.306	8917.35
661.656	8870.8
662.007	8831.48
662.358	8850.69
662.708	8870.57
663.059	8882.55
663.409	8792.16
663.76	8936.56
664.11	8873.74
664.461	8938.82
664.811	8962.09
665.161	8880.29
665.511	8826.51
665.862	8954.64
666.212	8859.27
666.562	8901.08
666.912	8892.72
667.262	8904.24
667.612	8929.33
667.962	8904.7
668.312	8869.89
668.662	8902.21
669.011	8886.62
669.361	8855.88
669.711	8897.92
670.06	8908.76
670.41	8845.04
670.76	8857.01
671.109	8920.97
671.459	8826.73
671.808	8835.09
672.157	8848.65
672.507	8780.4
672.856	8779.95
673.205	8819.73
673.554	8886.62
673.904	8774.08
674.253	8869.67
674.602	8724.59
674.951	8646.17
675.3	8671.03
675.649	8823.34
675.998	8744.47
676.346	8767.52
676.695	8786.05
677.044	8661.31
677.393	8728.43
677.741	8748.09
678.09	8751.25
678.438	8654.31
678.787	8671.26
679.135	8672.84
679.484	8659.28
679.832	8639.62
680.181	8623.57
680.529	8631.93
680.877	8647.75
681.225	8586.74
681.573	8640.07
681.922	8620.86
682.27	8512.84
682.618	8509.45
682.966	8523.24
683.314	8504.25
683.661	8473.07
684.009	8426.06
684.357	8435.1
684.705	8452.05
685.053	8424.26
685.4	8335.9
685.748	8378.83
686.095	8321.89
686.443	8330.93
686.79	8324.82
687.138	8306.07
687.485	8299.29
687.832	8270.81
688.18	8315.33
688.527	8226.97
688.874	8223.58
689.221	8182.23
689.568	8137.26
689.915	8143.13
690.262	8142.46
690.609	8081.44
690.956	8057.03
691.303	8070.82
691.65	8033.98
691.997	8063.36
692.344	7970.93
692.69	7882.58
693.037	7919.86
693.383	7824.27
693.73	7825.4
694.077	7848.68
694.423	7859.3
694.769	7794.89
695.116	7728
695.462	7766.65
695.808	7677.61
696.155	7707.21
696.501	7654.11
696.847	7579.98
697.193	7560.1
697.539	7587.89
697.885	7516.94
698.231	7531.17
698.577	7478.29
698.923	7493.66
699.269	7463.6
699.614	7349.71
699.96	7417.5
700.306	7369.14
700.651	7325.08
700.997	7308.35
701.342	7255.02
701.688	7287.11
702.033	7215.25
702.379	7200.79
702.724	7178.86
703.069	7216.38
703.415	7143.39
703.76	7169.37
704.105	7119.21
704.45	7103.84
704.795	7020
705.14	7017.74
705.485	7042.15
705.83	6989.49
706.175	6998.3
706.52	6969.38
706.865	6947.68
707.209	6878.99
707.554	6923.73
707.899	6915.82
708.243	6860
708.588	6842.38
708.932	6732.55
709.277	6796.5
709.621	6742.72
709.966	6770.29
710.31	6796.28
710.654	6704.08
710.998	6693.91
711.342	6707.92
711.687	6713.34
712.031	6653
712.375	6626.34
712.719	6662.04
713.063	6602.38
713.407	6596.06
713.75	6628.82
714.094	6562.38
714.438	6558.99
714.782	6555.6
715.125	6523.97
715.469	6514.7
715.812	6465.21
716.156	6447.58
716.499	6486.68
716.843	6450.07
717.186	6408.94
717.53	6429.73
717.873	6452.33
718.216	6468.6
718.559	6381.6
718.902	6419.34
719.246	6431.99
719.589	6431.54
719.932	6392.67
720.275	6324.88
720.617	6330.98
720.96	6301.15
721.303	6364.65
721.646	6354.25
721.989	6337.76
722.331	6295.27
722.674	6345.44
723.016	6349.06
723.359	6330.98
723.701	6359.45
724.044	6287.14
724.386	6226.35
724.729	6303.63
725.071	6264.09
725.413	6298.44
725.755	6285.78
726.097	6257.08
726.439	6212.56
726.782	6228.83
727.124	6234.93
727.465	6217.08
727.807	6251.43
728.149	6248.95
728.491	6223.64
728.833	6266.35
729.175	6236.74
729.516	6209.85
729.858	6247.14
730.199	6239
730.541	6188.61
730.882	6202.62
731.224	6234.71
731.565	6190.87
731.906	6176.18
732.248	6195.61
732.589	6179.12
732.93	6170.76
733.271	6166.24
733.612	6215.05
733.953	6225.22
734.294	6189.96
734.635	6203.07
734.976	6226.12
735.317	6239.23
735.658	6205.78
735.999	6155.39
736.339	6202.62
736.68	6222.51
737.021	6177.08
737.361	6243.52
737.702	6218.89
738.042	6179.57
738.383	6237.19
738.723	6230.42
739.063	6203.52
739.404	6306.35
739.744	6233.58
740.084	6275.39
740.424	6270.87
740.764	6264.99
741.104	6273.8
741.444	6280.58
741.784	6313.12
742.124	6341.15
742.464	6367.13
742.804	6340.02
743.143	6349.06
743.483	6427.02
743.823	6395.16
744.162	6343.18
744.502	6450.75
744.841	6455.49
745.181	6477.41
745.52	6562.16
745.86	6561.93
746.199	6558.09
746.538	6619.78
746.877	6661.36
747.216	6709.27
747.556	6742.27
747.895	6812.09
748.234	6742.04
748.573	6846.9
748.911	6925.54
749.25	6952.66
749.589	7003.5
749.928	7061.58
750.267	7174.12
750.605	7227.45
750.944	7241.46
751.283	7290.5
751.621	7402.14
751.96	7402.36
752.298	7569.14
752.636	7609.59
752.975	7743.6
753.313	7797.83
753.651	7928
753.989	8030.59
754.327	8132.96
754.666	8280.53
755.004	8345.39
755.342	8484.82
755.679	8652.5
756.017	8677.81
756.355	8854.75
756.693	8949.67
757.031	9166.38
757.368	9244.8
757.706	9419.26
758.044	9554.62
758.381	9676.43
758.719	9849.3
759.056	9972.69
759.394	10112.57
759.731	10274.15
760.068	10399.12
760.405	10604.76
760.743	10661.26
761.08	10906
761.417	11016.05
761.754	11182.15
762.091	11458.53
762.428	11587.56
762.765	11697.39
763.102	11927.21
763.438	12052.18
763.775	12163.82
764.112	12449.01
764.449	12658.95
764.785	12691.04
765.122	12856
765.458	12972.61
765.795	13155.66
766.131	13423.45
