Data from hue_260_FLMS001491_00048.txt Node
Date: Tue Feb 07 15:59:04 GMT 2017
User: dcchb
Spectrometer: FLMS00149
Trigger mode: 0
Integration Time (sec): 2.000000E-2
Scans to average: 10
Electric dark correction enabled: true
Nonlinearity correction enabled: false
Boxcar width: 0
XAxis mode: Wavelengths
Number of Pixels in Spectrum: 2048
>>>>>Begin Spectral Data<<<<<
341.393	-19.05
341.776	-19.05
342.16	-19.05
342.543	-79.16
342.927	-69
343.31	-57.24
343.693	-76.45
344.077	-75.1
344.46	-39.17
344.843	-46.4
345.226	-37.81
345.61	-15.21
345.993	-13.63
346.376	-14.76
346.759	8.52
347.142	23.88
347.525	37.44
347.908	40.61
348.291	76.09
348.674	89.42
349.057	99.81
349.44	118.12
349.823	156.99
350.206	161.96
350.588	180.26
350.971	194.95
351.354	209.19
351.737	215.06
352.119	230.21
352.502	266.14
352.884	246.02
353.267	256.19
353.65	277.44
354.032	282.63
354.414	287.83
354.797	317.44
355.179	296.87
355.562	326.93
355.944	315.4
356.326	319.69
356.709	324.89
357.091	306.59
357.473	340.94
357.855	313.82
358.238	311.79
358.62	306.36
359.002	328.96
359.384	343.2
359.766	347.49
360.148	329.64
360.53	332.35
360.912	316.08
361.294	323.99
361.676	320.82
362.057	343.65
362.439	320.15
362.821	313.82
363.203	298.23
363.584	316.31
363.966	308.17
364.348	306.36
364.729	316.76
365.111	310.43
365.493	310.43
365.874	308.85
366.256	309.53
366.637	308.62
367.019	297.32
367.4	300.49
367.781	298.23
368.163	314.72
368.544	309.98
368.925	292.58
369.306	311.33
369.688	313.59
370.069	297.32
370.45	298.9
370.831	295.06
371.212	319.47
371.593	289.64
371.974	292.8
372.355	299.13
372.736	302.07
373.117	309.3
373.498	299.81
373.879	279.92
374.26	309.98
374.641	308.4
375.021	298.9
375.402	314.05
375.783	330.99
376.163	313.37
376.544	322.18
376.925	307.49
377.305	312.24
377.686	317.66
378.066	316.53
378.447	310.88
378.827	311.33
379.208	312.01
379.588	341.39
379.968	328.51
380.349	320.15
380.729	324.67
381.109	324.44
381.489	327.15
381.87	338
382.25	324.21
382.63	318.11
383.01	339.58
383.39	330.54
383.77	345.91
384.15	326.93
384.53	334.61
384.91	337.32
385.29	340.49
385.67	325.8
386.049	337.32
386.429	332.35
386.809	329.19
387.189	337.77
387.568	332.8
387.948	345.68
388.328	329.19
388.707	351.78
389.087	335.51
389.466	354.04
389.846	354.27
390.225	347.94
390.605	342.97
390.984	359.47
391.363	353.37
391.743	359.02
392.122	360.6
392.501	383.42
392.881	361.73
393.26	357.21
393.639	354.04
394.018	365.57
394.397	351.33
394.776	392.91
395.155	371.45
395.534	387.04
395.913	379.35
396.292	356.08
396.671	371.67
397.05	393.37
397.429	389.52
397.808	402.4
398.186	384.1
398.565	394.5
398.944	389.52
399.323	386.36
399.701	381.16
400.08	396.76
400.458	403.08
400.837	410.31
401.215	419.58
401.594	399.92
401.972	422.74
402.351	399.47
402.729	420.03
403.107	431.78
403.486	434.95
403.864	428.62
404.242	403.76
404.62	413.25
404.999	431.78
405.377	466.13
405.755	431.33
406.133	427.71
406.511	430.65
406.889	476.98
407.267	456.41
407.645	486.92
408.023	467.71
408.401	474.27
408.779	475.62
409.156	445.57
409.534	480.82
409.912	488.73
410.29	490.76
410.667	530.08
411.045	507.49
411.422	523.53
411.8	519.69
412.178	533.02
412.555	528.05
412.933	535.28
413.31	534.38
413.687	547.03
414.065	561.04
414.442	554.72
414.819	592.46
415.197	575.06
415.574	594.72
415.951	577.99
416.328	583.87
416.705	582.96
417.082	602.17
417.46	591.33
417.837	629.97
418.214	596.3
418.591	616.18
418.967	639.23
419.344	633.13
419.721	667.93
420.098	654.15
420.475	681.95
420.852	672.68
421.228	690.08
421.605	722.4
421.982	730.08
422.358	715.62
422.735	743.19
423.111	708.61
423.488	739.57
423.864	781.38
424.241	763.53
424.617	789.06
424.994	801.94
425.37	810.76
425.746	794.48
426.123	818.66
426.499	818.66
426.875	839.91
427.251	843.3
427.627	862.73
428.003	850.53
428.379	887.36
428.756	882.39
429.132	881.26
429.507	889.4
429.883	925.55
430.259	934.37
430.635	938.21
431.011	968.72
431.387	967.14
431.763	965.55
432.138	992.45
432.514	1003.74
432.89	1035.83
433.265	1039.9
433.641	1070.64
434.016	1041.94
434.392	1099.79
434.767	1115.38
435.143	1137.98
435.518	1123.97
435.894	1136.17
436.269	1164.64
436.644	1143.4
437.02	1184.53
437.395	1192.44
437.77	1225.66
438.145	1263.17
438.52	1257.75
438.895	1300.01
439.271	1294.81
439.646	1332.32
440.021	1298.88
440.395	1333.23
440.77	1312.21
441.145	1347.69
441.52	1345.66
441.895	1373.68
442.27	1392.44
442.645	1423.17
443.019	1427.01
443.394	1438.54
443.769	1453.45
444.143	1462.26
444.518	1465.43
444.892	1482.15
445.267	1495.71
445.641	1492.77
446.016	1515.14
446.39	1531.41
446.764	1528.93
447.139	1525.76
447.513	1548.59
447.887	1559.44
448.262	1563.73
448.636	1603.28
449.01	1582.26
449.384	1608.25
449.758	1621.58
450.132	1634.91
450.506	1638.53
450.88	1657.29
451.254	1673.78
451.628	1710.39
452.002	1677.85
452.376	1721.69
452.75	1727.34
453.123	1705.2
453.497	1788.13
453.871	1773.44
454.244	1794.46
454.618	1808.02
454.992	1806.66
455.365	1829.49
455.739	1856.38
456.112	1893.21
456.486	1894.79
456.859	1917.85
457.232	1960.1
457.606	1950.16
457.979	1989.03
458.352	1999.42
458.725	2060.21
459.099	2027.67
459.472	2076.94
459.845	2062.93
460.218	2075.36
460.591	2103.6
460.964	2134.56
461.337	2182.47
461.71	2215.69
462.083	2254.11
462.456	2254.79
462.829	2268.12
463.201	2259.31
463.574	2288.23
463.947	2299.76
464.32	2389.92
464.692	2357.83
465.065	2366.19
465.438	2396.93
465.81	2459.98
466.183	2469.92
466.555	2501.78
466.928	2517.38
467.3	2507.43
467.672	2581.1
468.045	2632.85
468.417	2616.81
468.789	2636.47
469.161	2671.5
469.534	2707.88
469.906	2733.19
470.278	2783.59
470.65	2797.37
471.022	2865.62
471.394	2870.81
471.766	2910.36
472.138	2954.2
472.51	2993.07
472.882	3016.57
473.253	3059.96
473.625	3080.53
473.997	3148.1
474.369	3174.54
474.74	3219.51
475.112	3229.9
475.484	3292.72
475.855	3327.3
476.227	3396.45
476.598	3452.72
476.97	3471.93
477.341	3499.05
477.713	3575.88
478.084	3608.2
478.455	3712.15
478.827	3700.85
479.198	3788.98
479.569	3821.98
479.94	3867.62
480.311	3918.7
480.682	3983.55
481.053	4025.81
481.424	4126.6
481.795	4142.65
482.166	4198.46
482.537	4230.33
482.908	4288.63
483.279	4362.98
483.65	4401.62
484.021	4488.85
484.391	4517.78
484.762	4536.08
485.133	4583.54
485.503	4658.11
485.874	4778.56
486.244	4736.08
486.615	4840.48
486.985	4874.38
487.356	4936.07
487.726	4952.34
488.097	5076.18
488.467	5062.62
488.837	5166.8
489.207	5247.93
489.578	5256.51
489.948	5303.07
490.318	5354.14
490.688	5409.5
491.058	5469.84
491.428	5541.7
491.798	5540.8
492.168	5615.83
492.538	5677.97
492.908	5721.81
493.278	5760.68
493.648	5752.55
494.017	5843.84
494.387	5912.09
494.757	5922.94
495.126	5982.82
495.496	5945.08
495.866	6007
496.235	6048.13
496.605	6110.73
496.974	6121.8
497.344	6200.22
497.713	6173.55
498.082	6227.11
498.452	6295.13
498.821	6261.91
499.19	6317.28
499.559	6331.74
499.928	6422.81
500.298	6439.31
500.667	6491.06
501.036	6413.77
501.405	6496.03
501.774	6518.85
502.143	6485.41
502.512	6546.88
502.88	6611.05
503.249	6544.84
503.618	6630.94
503.987	6605.18
504.356	6671.84
504.724	6662.81
505.093	6750.71
505.462	6699.87
505.83	6768.79
506.199	6823.48
506.567	6886.75
506.936	6849.92
507.304	6944.83
507.672	6900.31
508.041	6928.33
508.409	6975.34
508.777	7057.37
509.145	7025.06
509.514	6986.41
509.882	7098.5
510.25	7058.27
510.618	7066.41
510.986	7054.89
511.354	7131.04
511.722	7175.11
512.09	7209.01
512.458	7171.94
512.826	7197.03
513.193	7274.99
513.561	7264.6
513.929	7253.98
514.297	7274.54
514.664	7286.52
515.032	7275.22
515.4	7319.51
515.767	7324.71
516.135	7340.75
516.502	7308.66
516.869	7471.37
517.237	7433.63
517.604	7393.18
517.972	7452.16
518.339	7479.51
518.706	7484.7
519.073	7485.38
519.44	7542.56
519.808	7536.45
520.175	7557.02
520.542	7578.49
520.909	7539.62
521.276	7567.41
521.643	7635.21
522.009	7656.45
522.376	7634.76
522.743	7715.43
523.11	7757.24
523.477	7718.6
523.843	7743.45
524.21	7764.02
524.577	7736
524.943	7794.53
525.31	7828.88
525.676	7853.06
526.043	7895.32
526.409	7860.06
526.776	7910.68
527.142	7902.09
527.508	7909.33
527.874	7953.62
528.241	7967.18
528.607	7959.04
528.973	7973.73
529.339	7958.82
529.705	8071.58
530.071	7994.75
530.437	8030.23
530.803	8087.4
531.169	8048.31
531.535	8059.38
531.901	8014.41
532.267	8041.53
532.632	8031.36
532.998	8032.49
533.364	8066.61
533.73	8006.72
534.095	8031.58
534.461	7989.1
534.826	8152.03
535.192	8061.41
535.557	8099.83
535.923	8032.49
536.288	8043.33
536.653	8062.77
537.019	8043.56
537.384	8041.75
537.749	8039.72
538.114	8004.24
538.479	8067.74
538.845	7949.32
539.21	8021.41
539.575	8020.96
539.94	7989.78
540.305	7992.26
540.67	7982.77
541.034	8040.62
541.399	7951.81
541.764	7935.54
542.129	7964.69
542.494	8043.11
542.858	7959.95
543.223	7912.72
543.587	7973.73
543.952	7921.98
544.316	7965.6
544.681	7891.02
545.045	7900.29
545.41	7935.09
545.774	7910.91
546.138	7849.89
546.503	7889.44
546.867	7855.32
547.231	7886.95
547.595	7838.37
547.959	7907.07
548.324	7907.97
548.688	7840.63
549.052	7820.74
549.416	7841.08
549.779	7790.01
550.143	7773.06
550.507	7823.23
550.871	7779.84
551.235	7746.39
551.599	7762.44
551.962	7799.27
552.326	7806.5
552.689	7799.72
553.053	7739.16
553.417	7800.85
553.78	7815.09
554.143	7780.52
554.507	7811.02
554.87	7744.58
555.234	7729.22
555.597	7731.03
555.96	7794.07
556.323	7731.25
556.686	7674.98
557.05	7804.7
557.413	7757.69
557.776	7716.11
558.139	7781.42
558.502	7743
558.865	7761.08
559.228	7765.83
559.59	7818.48
559.953	7787.52
560.316	7847.63
560.679	7833.4
561.041	7878.37
561.404	7872.72
561.767	7919.95
562.129	7887.18
562.492	7900.74
562.854	7928.53
563.217	7934.18
563.579	7898.25
563.941	7946.39
564.304	7978.93
564.666	7983.67
565.028	8010.11
565.39	8043.56
565.753	8038.36
566.115	8025.48
566.477	8067.51
566.839	8035.42
567.201	8076.1
567.563	8020.74
567.925	8111.35
568.287	8120.62
568.648	8126.95
569.01	8128.76
569.372	8170.56
569.734	8232.48
570.095	8180.51
570.457	8232.71
570.819	8271.58
571.18	8213.72
571.542	8244.23
571.903	8238.81
572.265	8243.55
572.626	8352.93
572.987	8328.07
573.349	8320.84
573.71	8389.09
574.071	8363.33
574.432	8443.32
574.794	8439.03
575.155	8454.62
575.516	8422.31
575.877	8480.84
576.238	8505.02
576.599	8588.4
576.96	8520.84
577.32	8513.6
577.681	8572.81
578.042	8553.83
578.403	8642.87
578.763	8623.88
579.124	8636.54
579.485	8656.42
579.845	8750.89
580.206	8703.66
580.566	8740.94
580.927	8721.96
581.287	8793.6
581.648	8810.77
582.008	8786.37
582.368	8757.44
582.728	8817.78
583.089	8822.52
583.449	8837.66
583.809	8870.2
584.169	8850.77
584.529	8834.05
584.889	8967.38
585.249	8872.69
585.609	8883.31
585.969	8921.05
586.329	8927.83
586.688	8963.54
587.048	8982.97
587.408	8965.8
587.768	9025.91
588.127	8963.31
588.487	8980.71
588.846	9063.42
589.206	8997.88
589.565	9024.32
589.925	9043.76
590.284	9114.04
590.643	9065.91
591.003	9098.22
591.362	9231.33
591.721	9081.95
592.08	9201.95
592.44	9133.02
592.799	9162.85
593.158	9199.24
593.517	9202.17
593.876	9220.48
594.235	9201.72
594.593	9196.52
594.952	9220.25
595.311	9169.63
595.67	9297.54
596.029	9262.06
596.387	9279.46
596.746	9266.35
597.104	9269.74
597.463	9241.27
597.822	9342.51
598.18	9280.82
598.538	9243.75
598.897	9290.98
599.255	9269.29
599.613	9493.92
599.972	9350.19
600.33	9391.77
600.688	9333.24
601.046	9366.69
601.404	9491.88
601.762	9320.81
602.12	9433.35
602.478	9408.5
602.836	9394.94
603.194	9318.33
603.552	9368.27
603.91	9365.11
604.268	9422.73
604.625	9369.85
604.983	9465.22
605.341	9374.6
605.698	9446.46
606.056	9402.62
606.413	9475.39
606.771	9493.69
607.128	9522.84
607.485	9527.81
607.843	9400.59
608.2	9495.5
608.557	9596.06
608.914	9539.11
609.272	9528.27
609.629	9524.65
609.986	9515.61
610.343	9580.24
610.7	9685.78
611.057	9600.13
611.414	9551.99
611.771	9582.28
612.127	9622.05
612.484	9614.59
612.841	9639
613.198	9594.25
613.554	9624.99
613.911	9702.73
614.267	9673.12
614.624	9634.48
614.98	9629.73
615.337	9721.03
615.693	9676.74
616.05	9668.38
616.406	9773.01
616.762	9688.71
617.118	9699.11
617.475	9700.24
617.831	9730.97
618.187	9790.18
618.543	9767.36
618.899	9768.94
619.255	9728.94
619.611	9739.56
619.967	9821.59
620.323	9864.08
620.678	9797.64
621.034	9752.44
621.39	9720.13
621.746	9739.11
622.101	9866.79
622.457	9794.25
622.812	9784.53
623.168	9783.4
623.523	9723.97
623.879	9812.1
624.234	9817.3
624.589	9817.98
624.945	9841.25
625.3	9789.73
625.655	9812.1
626.01	9781.82
626.365	9869.5
626.72	9812.78
627.075	9784.08
627.43	9786.34
627.785	9763.29
628.14	9787.47
628.495	9776.85
628.85	9778.88
629.205	9690.97
629.559	9782.72
629.914	9731.42
630.269	9770.29
630.623	9681.03
630.978	9689.17
631.332	9814.36
631.687	9766.23
632.041	9679.45
632.396	9650.52
632.75	9652.56
633.104	9676.74
633.459	9662.27
633.813	9657.53
634.167	9605.55
634.521	9653.01
634.875	9603.07
635.229	9605.78
635.583	9583.86
635.937	9629.96
636.291	9547.47
636.645	9603.74
636.999	9554.48
637.352	9599.45
637.706	9548.38
638.06	9576.17
638.413	9527.14
638.767	9503.86
639.121	9550.41
639.474	9512.45
639.828	9421.6
640.181	9477.19
640.534	9440.59
640.888	9427.7
641.241	9374.82
641.594	9380.25
641.947	9511.09
642.301	9420.25
642.654	9462.73
643.007	9429.29
643.36	9367.59
643.713	9391.32
644.066	9368.95
644.419	9339.12
644.771	9213.02
645.124	9190.42
645.477	9150.42
645.83	9118.11
646.182	9124.44
646.535	9013.03
646.888	9096.41
647.24	9019.81
647.593	9044.89
647.945	9065.23
648.298	9012.8
648.65	9032.46
649.002	9053.25
649.355	9127.37
649.707	9059.13
650.059	9059.13
650.411	9106.58
650.763	9204.43
651.115	9250.76
651.467	9246.92
651.819	9280.14
652.171	9225.22
652.523	9163.08
652.875	9220.7
653.227	9205.56
653.578	9208.5
653.93	9217.09
654.282	9228.39
654.633	9223.87
654.985	9241.27
655.337	9243.08
655.688	9188.61
656.039	9218.22
656.391	9146.36
656.742	9183.42
657.094	9168.05
657.445	9258.67
657.796	9214.38
658.147	9185
658.498	9179.8
658.849	9214.83
659.2	9210.08
659.551	9199.69
659.902	9231.78
660.253	9272
660.604	9183.42
660.955	9163.08
661.306	9225.45
661.656	9226.58
662.007	9227.71
662.358	9213.02
662.708	9261.15
663.059	9243.08
663.409	9168.73
663.76	9260.48
664.11	9190.87
664.461	9259.35
664.811	9211.66
665.161	9210.53
665.511	9227.26
665.862	9281.49
666.212	9257.99
666.562	9326.46
666.912	9217.77
667.262	9199.91
667.612	9204.66
667.962	9196.3
668.312	9246.01
668.662	9245.56
669.011	9258.22
669.361	9178.9
669.711	9260.93
670.06	9166.69
670.41	9158.11
670.76	9202.63
671.109	9229.74
671.459	9165.34
671.808	9173.93
672.157	9216.86
672.507	9120.37
672.856	9183.42
673.205	9166.92
673.554	9184.77
673.904	9119.46
674.253	9169.86
674.602	9108.16
674.951	8988.62
675.3	8930.32
675.649	9106.13
675.998	9135.73
676.346	9104.77
676.695	9108.62
677.044	9008.96
677.393	9043.08
677.741	9096.64
678.09	9065.23
678.438	9035.4
678.787	9072.23
679.135	9008.28
679.484	8958.34
679.832	8959.69
680.181	8979.13
680.529	8902.07
680.877	8958.34
681.225	8893.25
681.573	8981.84
681.922	8890.09
682.27	8918.56
682.618	8914.5
682.966	8841.5
683.314	8861.17
683.661	8840.37
684.009	8788.62
684.357	8828.62
684.705	8741.39
685.053	8785.69
685.4	8738.68
685.748	8721.51
686.095	8683.77
686.443	8728.06
686.79	8637.22
687.138	8619.36
687.485	8691.9
687.832	8573.72
688.18	8598.12
688.527	8531.91
688.874	8540.95
689.221	8539.37
689.568	8528.74
689.915	8452.36
690.262	8429.76
690.609	8496.88
690.956	8413.04
691.303	8376.43
691.65	8383.21
691.997	8291.01
692.344	8302.76
692.69	8269.99
693.037	8234.52
693.383	8172.14
693.73	8213.95
694.077	8216.21
694.423	8183.67
694.769	8090.11
695.116	8139.6
695.462	8106.38
695.808	8038.81
696.155	8017.57
696.501	8030.9
696.847	7960.17
697.193	7948.42
697.539	7928.53
697.885	7873.62
698.231	7810.8
698.577	7816
698.923	7809.22
699.269	7771.02
699.614	7741.42
699.96	7691.7
700.306	7728.54
700.651	7651.03
700.997	7652.84
701.342	7601.76
701.688	7608.77
702.033	7566.74
702.379	7525.38
702.724	7556.79
703.069	7553.4
703.415	7444.71
703.76	7432.73
704.105	7457.59
704.45	7394.31
704.795	7365.39
705.14	7366.52
705.485	7329.45
705.83	7282.45
706.175	7319.74
706.52	7268.89
706.865	7242.45
707.209	7215.33
707.554	7223.47
707.899	7251.04
708.243	7153.87
708.588	7113.19
708.932	7074.55
709.277	7070.03
709.621	7071.38
709.966	7027.32
710.31	7067.54
710.654	6927.2
710.998	7027.09
711.342	7049.24
711.687	7038.61
712.031	6980.54
712.375	6916.13
712.719	6962.01
713.063	6887.88
713.407	6933.53
713.75	6918.17
714.094	6853.31
714.438	6861.22
714.782	6925.17
715.125	6860.77
715.469	6868.68
715.812	6822.57
716.156	6764.27
716.499	6759.07
716.843	6737.83
717.186	6779.86
717.53	6805.63
717.873	6806.08
718.216	6805.85
718.559	6779.86
718.902	6678.62
719.246	6702.58
719.589	6708.68
719.932	6742.8
720.275	6712.07
720.617	6670.71
720.96	6680.43
721.303	6627.78
721.646	6677.27
721.989	6657.16
722.331	6571.96
722.674	6642.92
723.016	6638.85
723.359	6605.63
723.701	6651.51
724.044	6612.64
724.386	6529.48
724.729	6610.83
725.071	6569.02
725.413	6567.67
725.755	6576.03
726.097	6544.16
726.439	6490.83
726.782	6509.59
727.124	6539.87
727.465	6549.14
727.807	6548.23
728.149	6479.98
728.491	6493.09
728.833	6520.89
729.175	6534.9
729.516	6516.82
729.858	6520.89
730.199	6515.24
730.541	6466.65
730.882	6521.79
731.224	6503.94
731.565	6484.96
731.906	6444.96
732.248	6488.57
732.589	6485.63
732.93	6466.2
733.271	6491.28
733.612	6475.92
733.953	6469.14
734.294	6415.35
734.635	6489.7
734.976	6491.74
735.317	6427.33
735.658	6469.36
735.999	6446.99
736.339	6463.49
736.68	6449.03
737.021	6411.51
737.361	6419.42
737.702	6484.73
738.042	6456.48
738.383	6470.04
738.723	6437.5
739.063	6463.94
739.404	6441.57
739.744	6474.56
740.084	6472.53
740.424	6535.12
740.764	6475.92
741.104	6539.87
741.444	6492.41
741.784	6518.85
742.124	6510.49
742.464	6562.69
742.804	6547.55
743.143	6552.75
743.483	6590.72
743.823	6479.98
744.162	6547.33
744.502	6632.07
744.841	6632.52
745.181	6716.36
745.52	6637.04
745.86	6714.1
746.199	6739.64
746.538	6719.75
746.877	6781.45
747.216	6855.57
747.556	6869.58
747.895	6954.1
748.234	6950.03
748.573	7007.43
748.911	6965.17
749.25	7047.2
749.589	7082.46
749.928	7128.33
750.267	7212.4
750.605	7201.55
750.944	7297.59
751.283	7305.95
751.621	7424.14
751.96	7453.29
752.298	7556.79
752.636	7626.17
752.975	7695.77
753.313	7723.57
753.651	7882.21
753.989	7867.07
754.327	7980.96
754.666	8049.89
755.004	8172.82
755.342	8303.21
755.679	8328.52
756.017	8475.86
756.355	8578.23
756.693	8610.55
757.031	8794.05
757.368	8891.22
757.706	8971.44
758.044	9060.93
758.381	9190.65
758.719	9282.62
759.056	9427.03
759.394	9486.23
759.731	9537.08
760.068	9763.06
760.405	9870.86
760.743	9997.63
761.08	10153.33
761.417	10186.55
761.754	10370.73
762.091	10504.29
762.428	10615.24
762.765	10636.26
763.102	10810.94
763.438	10933.88
763.775	11000.77
764.112	11188.11
764.449	11291.16
764.785	11361.89
765.122	11444.15
765.458	11627.19
765.795	11725.72
766.131	11848.66
766.467	11951.48
766.804	11996.22
767.14	12086.62
767.476	12221.98
767.812	12291.81
768.148	12437.79
768.485	12510.33
768.821	12610.67
