Data from hue_36_FLMS001491_00071.txt Node
Date: Tue Feb 07 17:30:15 GMT 2017
User: dcchb
Spectrometer: FLMS00149
Trigger mode: 0
Integration Time (sec): 2.000000E-2
Scans to average: 10
Electric dark correction enabled: true
Nonlinearity correction enabled: false
Boxcar width: 0
XAxis mode: Wavelengths
Number of Pixels in Spectrum: 2048
>>>>>Begin Spectral Data<<<<<
341.393	-16.5
341.776	-16.5
342.16	-16.5
342.543	-57.63
342.927	-64.63
343.31	-79.55
343.693	-77.29
344.077	-65.31
344.46	-54.24
344.843	-56.5
345.226	-39.1
345.61	-23.05
345.993	-29.15
346.376	-18.53
346.759	22.82
347.142	21.69
347.525	44.07
347.908	69.83
348.291	59.21
348.674	99.43
349.057	125.65
349.44	127.68
349.823	163.61
350.206	169.26
350.588	198.86
350.971	191.41
351.354	221.46
351.737	246.32
352.119	258.07
352.502	254.91
352.884	291.74
353.267	294.91
353.65	291.74
354.032	285.42
354.414	309.14
354.797	310.95
355.179	322.25
355.562	323.61
355.944	324.96
356.326	315.25
356.709	331.52
357.091	330.39
357.473	344.4
357.855	338.97
358.238	346.43
358.62	345.75
359.002	338.97
359.384	356.6
359.766	352.08
360.148	344.62
360.53	320.44
360.912	329.26
361.294	348.01
361.676	340.33
362.057	329.93
362.439	345.98
362.821	324.51
363.203	297.39
363.584	315.92
363.966	324.74
364.348	319.77
364.729	326.77
365.111	328.58
365.493	320.22
365.874	324.06
366.256	312.31
366.637	291.52
367.019	321.12
367.4	348.24
367.781	291.97
368.163	317.05
368.544	315.92
368.925	308.47
369.306	335.36
369.688	322.7
370.069	319.31
370.45	310.95
370.831	318.18
371.212	323.38
371.593	313.89
371.974	299.2
372.355	315.92
372.736	326.77
373.117	320.22
373.498	319.54
373.879	312.53
374.26	298.52
374.641	327.45
375.021	294.23
375.402	338.07
375.783	324.51
376.163	347.79
376.544	315.25
376.925	332.65
377.305	319.54
377.686	307.79
378.066	333.32
378.447	322.93
378.827	308.01
379.208	331.97
379.588	336.04
379.968	336.26
380.349	324.74
380.729	317.28
381.109	344.85
381.489	346.21
381.87	328.35
382.25	348.47
382.63	332.42
383.01	347.56
383.39	320.44
383.77	335.36
384.15	338.52
384.53	343.04
384.91	343.49
385.29	338.75
385.67	350.73
386.049	363.83
386.429	362.02
386.809	345.3
387.189	349.82
387.568	349.14
387.948	345.08
388.328	363.38
388.707	352.76
389.087	362.48
389.466	366.32
389.846	358.41
390.225	360.22
390.605	367.67
390.984	372.42
391.363	363.83
391.743	367.22
392.122	366.54
392.501	377.62
392.881	371.74
393.26	374.45
393.639	365.19
394.018	363.61
394.397	369.48
394.776	379.65
395.155	376.26
395.534	360.89
395.913	391.85
396.292	366.09
396.671	383.49
397.05	382.14
397.429	386.43
397.808	373.78
398.186	387.79
398.565	374.91
398.944	402.93
399.323	404.28
399.701	403.83
400.08	416.49
400.458	392.98
400.837	403.61
401.215	394.79
401.594	401.35
401.972	396.37
402.351	405.64
402.729	429.14
403.107	411.97
403.486	403.83
403.864	390.72
404.242	420.1
404.62	422.59
404.999	420.55
405.377	413.55
405.755	423.27
406.133	426.2
406.511	420.78
406.889	414.9
407.267	440.67
407.645	429.82
408.023	401.57
408.401	444.06
408.779	438.63
409.156	439.76
409.534	438.18
409.912	449.25
410.29	453.55
410.667	450.84
411.045	464.17
411.422	458.74
411.8	447.67
412.178	447.22
412.555	469.37
412.933	440.21
413.31	452.19
413.687	465.98
414.065	482.25
414.442	470.5
414.819	464.85
415.197	476.82
415.574	488.35
415.951	479.76
416.328	494
416.705	492.64
417.082	511.62
417.46	486.31
417.837	501.91
418.214	522.02
418.591	514.34
418.967	520.89
419.344	496.03
419.721	508.01
420.098	522.7
420.475	518.4
420.852	529.7
421.228	499.42
421.605	534.45
421.982	535.58
422.358	520.89
422.735	536.03
423.111	519.31
423.488	535.81
423.864	518.4
424.241	562.47
424.617	562.92
424.994	536.03
425.37	550.49
425.746	563.83
426.123	551.4
426.499	560.66
426.875	564.28
427.251	585.97
427.627	585.3
428.003	580.1
428.379	590.49
428.756	581.23
429.132	599.08
429.507	572.64
429.883	588.46
430.259	616.25
430.635	600.21
431.011	609.25
431.387	627.55
431.763	638.85
432.138	622.13
432.514	640.44
432.89	637.05
433.265	657.84
433.641	645.41
434.016	678.17
434.392	667.33
434.767	666.2
435.143	662.36
435.518	662.58
435.894	703.26
436.269	687.21
436.644	701.68
437.02	700.32
437.395	683.6
437.77	705.07
438.145	680.43
438.52	703.03
438.895	709.81
439.271	712.07
439.646	748.68
440.021	727.66
440.395	748.91
440.77	731.73
441.145	750.94
441.52	762.24
441.895	746.87
442.27	746.42
442.645	770.38
443.019	758.17
443.394	799.3
443.769	785.52
444.143	778.51
444.518	778.06
444.892	788.23
445.267	803.59
445.641	777.61
446.016	787.32
446.39	802.01
446.764	800.66
447.139	801.33
447.513	816.93
447.887	833.2
448.262	817.15
448.636	815.8
449.01	822.58
449.384	854.67
449.758	824.84
450.132	856.47
450.506	896.47
450.88	851.73
451.254	857.15
451.628	872.97
452.002	903.48
452.376	886.98
452.75	889.69
453.123	910.48
453.497	881.78
453.871	893.76
454.244	925.4
454.618	935.57
454.992	949.81
455.365	952.97
455.739	971.5
456.112	947.09
456.486	982.35
456.859	962.69
457.232	1002.01
457.606	1006.3
457.979	993.19
458.352	1007.66
458.725	1016.47
459.099	1044.49
459.472	1058.05
459.845	1064.6
460.218	1066.19
460.591	1074.1
460.964	1087.66
461.337	1113.19
461.71	1129.46
462.083	1106.64
462.456	1128.33
462.829	1131.95
463.201	1131.95
463.574	1144.15
463.947	1166.97
464.32	1190.25
464.692	1201.55
465.065	1225.28
465.438	1248.78
465.81	1260.31
466.183	1273.64
466.555	1267.76
466.928	1298.5
467.3	1303.47
467.672	1325.16
468.045	1346.86
468.417	1352.51
468.789	1346.86
469.161	1403.13
469.534	1422.11
469.906	1451.26
470.278	1476.35
470.65	1465.72
471.022	1502.33
471.394	1553.18
471.766	1578.49
472.138	1581.88
472.51	1605.61
472.882	1654.42
473.253	1681.54
473.625	1689
473.997	1758.82
474.369	1757.92
474.74	1779.16
475.112	1826.39
475.484	1876.79
475.855	1902.1
476.227	1939.16
476.598	1996.78
476.97	2042.66
477.341	2080.4
477.713	2108.65
478.084	2117.23
478.455	2261.86
478.827	2257.57
479.198	2312.03
479.569	2328.75
479.94	2462.76
480.311	2480.16
480.682	2567.84
481.053	2628.41
481.424	2709.53
481.795	2756.54
482.166	2787.05
482.537	2840.83
482.908	2964.44
483.279	2975.74
483.65	3116.08
484.021	3202.4
484.391	3231.1
484.762	3289.41
485.133	3357.88
485.503	3493.24
485.874	3580.92
486.244	3673.35
486.615	3742.27
486.985	3830.41
487.356	3942.72
487.726	4004.64
488.097	4064.3
488.467	4180.46
488.837	4303.39
489.207	4358.3
489.578	4532.31
489.948	4549.03
490.318	4709.25
490.688	4782.7
491.058	4852.98
491.428	4981.56
491.798	5084.39
492.168	5200.32
492.538	5243.93
492.908	5353.98
493.278	5501.55
493.648	5540.87
494.017	5684.6
494.387	5759.62
494.757	5850.47
495.126	5993.29
495.496	5988.32
495.866	6122.78
496.235	6217.69
496.605	6292.49
496.974	6366.61
497.344	6480.73
497.713	6579.71
498.082	6630.79
498.452	6780.84
498.821	6844.34
499.19	6916.88
499.559	6981.51
499.928	7101.28
500.298	7155.07
500.667	7223.76
501.036	7275.74
501.405	7344.44
501.774	7437.77
502.143	7572.23
502.512	7612.23
502.88	7701.72
503.249	7764.99
503.618	7870.75
503.987	7926.57
504.356	8011.99
504.724	8057.42
505.093	8137.19
505.462	8170.86
505.83	8274.13
506.199	8349.61
506.567	8526.56
506.936	8553.9
507.304	8574.92
507.672	8687
508.041	8683.16
508.409	8787.79
508.777	8866.89
509.145	8945.98
509.514	8948.24
509.882	9109.37
510.25	9149.36
510.618	9155.01
510.986	9217.61
511.354	9305.52
511.722	9411.5
512.09	9537.83
512.458	9481.78
512.826	9540.31
513.193	9694.43
513.561	9695.56
513.929	9794.54
514.297	9875.22
514.664	9960.19
515.032	9934.43
515.4	10081.99
515.767	10152.28
516.135	10227.3
516.502	10119.28
516.869	10383.68
517.237	10329.22
517.604	10348.43
517.972	10453.51
518.339	10539.16
518.706	10586.39
519.073	10623.45
519.44	10718.36
519.808	10784.35
520.175	10787.51
520.542	10912.48
520.909	10984.34
521.276	11003.55
521.643	11101.85
522.009	11123.32
522.376	11237.44
522.743	11334.84
523.11	11427.04
523.477	11490.77
523.843	11521.28
524.21	11664.55
524.577	11794.04
524.943	11825.45
525.31	11882.17
525.676	11945.67
526.043	12018.67
526.409	12086.01
526.776	12219.34
527.142	12227.7
527.508	12346.79
527.874	12392.67
528.241	12488.49
528.607	12517.64
528.973	12619.33
529.339	12631.31
529.705	12804.41
530.071	12784.75
530.437	12903.62
530.803	12956.04
531.169	13060.67
531.535	13072.65
531.901	13130.05
532.267	13201.91
532.632	13216.15
532.998	13292.98
533.364	13433.77
533.73	13449.59
534.095	13554.45
534.461	13579.98
534.826	13675.57
535.192	13716.25
535.557	13720.09
535.923	13746.08
536.288	13819.98
536.653	13912.18
537.019	13886.64
537.384	13969.12
537.749	14039.4
538.114	14069.91
538.479	14109.01
538.845	14149.68
539.21	14235.11
539.575	14276.01
539.94	14380.86
540.305	14486.4
540.67	14449.79
541.034	14422.67
541.399	14611.37
541.764	14620.63
542.129	14781.53
542.494	14682.55
542.858	14761.42
543.223	14808.42
543.587	14901.98
543.952	14934.97
544.316	15081.19
544.681	15081.41
545.045	15092.26
545.41	15186.27
545.774	15201.41
546.138	15248.41
546.503	15307.17
546.867	15414.96
547.231	15493.83
547.595	15508.29
547.959	15476.66
548.324	15633.71
548.688	15612.7
549.052	15653.37
549.416	15802.97
549.779	15778.79
550.143	15790.55
550.507	15884.78
550.871	15901.95
551.235	15906.47
551.599	16067.83
551.962	16151.21
552.326	16147.37
552.689	16233.92
553.053	16151.21
553.417	16282.96
553.78	16457.42
554.143	16437.99
554.507	16490.41
554.87	16573.58
555.234	16768.15
555.597	16630.3
555.96	16664.87
556.323	16786.45
556.686	16779.9
557.05	17009.5
557.413	16903.06
557.776	16985.77
558.139	17149.38
558.502	17067.35
558.865	17206.78
559.228	17302.14
559.59	17241.81
559.953	17468.47
560.316	17522.48
560.679	17538.52
561.041	17607.9
561.404	17679.76
561.767	17792.53
562.129	17744.62
562.492	17962.69
562.854	17952.3
563.217	17961.11
563.579	17954.78
563.941	18033.65
564.304	18188.9
564.666	18346.86
565.028	18329.91
565.39	18336.92
565.753	18489.01
566.115	18595.22
566.477	18656.23
566.839	18739.62
567.201	18810.13
567.563	18834.53
567.925	18900.07
568.287	18955.43
568.648	19088.31
569.01	19094.64
569.372	19239.04
569.734	19207.86
570.095	19387.96
570.457	19387.74
570.819	19484.23
571.18	19497.57
571.542	19596.77
571.903	19733.49
572.265	19746.6
572.626	19892.36
572.987	19942.53
573.349	20008.51
573.71	20182.97
574.071	20085.57
574.432	20278.34
574.794	20465.9
575.155	20534.6
575.516	20536.86
575.877	20745.9
576.238	20789.96
576.599	20950.41
576.96	20997.87
577.32	21121.7
577.681	21183.62
578.042	21366.9
578.403	21365.09
578.763	21673.55
579.124	21700.67
579.485	21868.35
579.845	21970.95
580.206	22113.54
580.566	22351.28
580.927	22410.71
581.287	22595.11
581.648	22719.18
582.008	22890.25
582.368	22956.46
582.728	23228.54
583.089	23278.03
583.449	23401.64
583.809	23688.87
584.169	23874.85
584.529	23897.45
584.889	24384.9
585.249	24438
585.609	24556.42
585.969	24841.83
586.329	24997.31
586.688	25362.72
587.048	25375.15
587.408	25558.65
587.768	25889.26
588.127	25953.67
588.487	26177.84
588.846	26701.9
589.206	26504.16
589.565	26801.33
589.925	27100.98
590.284	27266.18
590.643	27698.03
591.003	27767.63
591.362	28071.35
591.721	28190.45
592.08	28459.82
592.44	28701.39
592.799	28930.54
593.158	29215.28
593.517	29339.57
593.876	29626.57
594.235	29730.74
594.593	30085.31
594.952	30407.11
595.311	30427.9
595.67	30842.8
596.029	31165.51
596.387	31335.45
596.746	31610.69
597.104	31633.74
597.463	31773.18
597.822	32176.56
598.18	32240.73
598.538	32351.01
598.897	32761.4
599.255	32837.1
599.613	33394.83
599.972	33160.71
600.33	33539.68
600.688	33654.26
601.046	33934.02
601.404	34132.66
601.762	34317.06
602.12	34628.24
602.478	34749.14
602.836	34959.76
603.194	34877.28
603.552	35222.8
603.91	35211.05
604.268	35585.28
604.625	35733.07
604.983	35948.21
605.341	35916.8
605.698	36196.79
606.056	36364.02
606.413	36522.88
606.771	36647.4
607.128	36815.76
607.485	36846.04
607.843	37171.9
608.2	37458.9
608.557	37534.15
608.914	37468.17
609.272	37891.21
609.629	38035.16
609.986	38123.97
610.343	38247.36
610.7	38569.16
611.057	38406
611.414	38592.21
611.771	38873.78
612.127	38996.04
612.484	39179.31
612.841	39303.15
613.198	39221.57
613.554	39331.62
613.911	39737.03
614.267	39823.36
614.624	39718.05
614.98	39917.59
615.337	40084.14
615.693	40153.97
616.05	40168.21
616.406	40520.97
616.762	40521.42
617.118	40656.56
617.475	40610.91
617.831	40769.78
618.187	41003.89
618.543	40861.3
618.899	41211.8
619.255	41311.68
619.611	41143.55
619.967	41388.29
620.323	41617.66
620.678	41580.15
621.034	41489.3
621.39	41794.83
621.746	41604.1
622.101	41991.66
622.457	41735.17
622.812	41932.91
623.168	42013.58
623.523	42006.13
623.879	42228.49
624.234	42065.33
624.589	42100.81
624.945	42274.59
625.3	42271.2
625.655	42324.31
626.01	42451.31
626.365	42499.9
626.72	42488.6
627.075	42564.98
627.43	42502.39
627.785	42480.24
628.14	42645.43
628.495	42722.27
628.85	42515.04
629.205	42439.34
629.559	42918.42
629.914	42623.51
630.269	42569.05
630.623	42674.58
630.978	42482.5
631.332	42684.53
631.687	42964.07
632.041	42617.18
632.396	42573.34
632.75	42720.46
633.104	42819.67
633.459	42604.53
633.813	42696.05
634.167	42748.48
634.521	42699.89
634.875	42884.75
635.229	42777.63
635.583	42558.88
635.937	42584.42
636.291	42672.78
636.645	42544.64
636.999	42546.45
637.352	42658.09
637.706	42541.93
638.06	42617.86
638.413	42541.25
638.767	42547.36
639.121	42609.95
639.474	42342.84
639.828	42360.69
640.181	42438.88
640.534	42597.52
640.888	42244.99
641.241	42258.1
641.594	42343.07
641.947	42406.12
642.301	42282.05
642.654	42277.31
643.007	42313.46
643.36	42333.12
643.713	42252.45
644.066	42400.92
644.419	42216.74
644.771	41721.16
645.124	41480.49
645.477	41473.03
645.83	41285.02
646.182	41127.51
646.535	41031.46
646.888	41142.87
647.24	40890
647.593	41237.56
647.945	41097.68
648.298	40862.65
648.65	40835.31
649.002	40777.91
649.355	40888.64
649.707	40970.22
650.059	40952.82
650.411	41428.52
650.763	41508.29
651.115	41831.44
651.467	41765
651.819	41752.12
652.171	41593.03
652.523	41649.53
652.875	41569.53
653.227	41291.57
653.578	41654.27
653.93	41561.62
654.282	41403.43
654.633	41446.59
654.985	41411.34
655.337	41344.22
655.688	41488.4
656.039	41599.36
656.391	41378.57
656.742	41335.86
657.094	41285.24
657.445	41503.54
657.796	41401.62
658.147	41428.97
658.498	41375.18
658.849	41435.52
659.2	41495.41
659.551	41213.38
659.902	41442.07
660.253	41359.36
660.604	41468.06
660.955	41191.01
661.306	41451.11
661.656	41273.94
662.007	41185.81
662.358	41362.08
662.708	41217.45
663.059	41355.52
663.409	41002.76
663.76	41268.75
664.11	41199.59
664.461	41186.71
664.811	41183.32
665.161	41038.02
665.511	41055.64
665.862	40985.36
666.212	41232.14
666.562	41042.76
666.912	41026.49
667.262	40885.48
667.612	41007.74
667.962	41038.24
668.312	40987.4
668.662	41340.38
669.011	41080.28
669.361	41018.58
669.711	41039.82
670.06	40944.23
670.41	40965.93
670.76	40900.62
671.109	40986.27
671.459	41016.77
671.808	40918.92
672.157	41055.87
672.507	40789.21
672.856	40874.86
673.205	40876.44
673.554	40939.71
673.904	40861.75
674.253	40871.69
674.602	40924.8
674.951	40249.56
675.3	40153.97
675.649	40880.06
675.998	40762.77
676.346	40662.66
676.695	40826.72
677.044	40515.77
677.393	40760.74
677.741	40661.76
678.09	40689.1
678.438	40475.09
678.787	40452.5
679.135	40536.34
679.484	40249.79
679.832	40527.52
680.181	40302.22
680.529	40452.27
680.877	40191.71
681.225	40256.79
681.573	40376.57
681.922	39999.4
682.27	39958.5
682.618	39976.8
682.966	39873.53
683.314	40011.38
683.661	39961.89
684.009	39757.6
684.357	39788.11
684.705	39724.61
685.053	39802.12
685.4	39621.33
685.748	39404.16
686.095	39470.37
686.443	39441
686.79	39215.01
687.138	39291.62
687.485	39444.61
687.832	39217.73
688.18	39217.73
688.527	39064.51
688.874	38924.17
689.221	38925.08
689.568	38875.36
689.915	38717.4
690.262	38846.89
690.609	38720.34
690.956	38589.95
691.303	38523.96
691.65	38384.53
691.997	38187.24
692.344	38020.92
692.69	38160.35
693.037	38257.3
693.383	37857.76
693.73	37960.36
694.077	37709.97
694.423	37682.17
694.769	37652.8
695.116	37658.44
695.462	37472.69
695.808	37553.36
696.155	37525.12
696.501	37180.49
696.847	37227.04
697.193	36896.66
697.539	37068.86
697.885	36772.59
698.231	36783.44
698.577	36610.34
698.923	36764.68
699.269	36384.81
699.614	36388.87
699.96	36318.37
700.306	36242.89
700.651	36025.95
700.997	36028.66
701.342	35920.86
701.688	36039.05
702.033	35768.1
702.379	35805.61
702.724	35660.76
703.069	35671.38
703.415	35434.32
703.76	35385.06
704.105	35298.51
704.45	35299.18
704.795	35094.67
705.14	34986.42
705.485	34940.55
705.83	34816.26
706.175	34779.65
706.52	34771.06
706.865	34592.31
707.209	34568.81
707.554	34536.49
707.899	34572.88
708.243	34349.61
708.588	34232.55
708.932	34060.12
709.277	34037.75
709.621	34010.86
709.966	33881.37
710.31	33972.67
710.654	33703.75
710.998	33754.59
711.342	33752.56
711.687	33539.68
712.031	33552.34
712.375	33373.13
712.719	33482.51
713.063	33450.87
713.407	33436.18
713.75	33230.31
714.094	33189.41
714.438	33134.5
714.782	33185.57
715.125	32929.08
715.469	32996.42
715.812	32898.8
716.156	32607.05
716.499	32801.4
716.843	32708.07
717.186	32567.28
717.53	32650.44
717.873	32788.97
718.216	32554.17
718.559	32493.61
718.902	32195.54
719.246	32354.18
719.589	32208.42
719.932	31975.2
720.275	31972.04
720.617	32025.37
720.96	31940.4
721.303	32109.21
721.646	32074.64
721.989	31700.86
722.331	31856.56
722.674	31546.97
723.016	31757.81
723.359	31739.73
723.701	31723.46
724.044	31351.94
724.386	31424.48
724.729	31618.83
725.071	31346.75
725.413	31472.39
725.755	31444.82
726.097	31237.37
726.439	31118.96
726.782	31102.46
727.124	31292.96
727.465	31024.27
727.807	31046.87
728.149	31060.2
728.491	30911.05
728.833	30976.36
729.175	30749.7
729.516	30724.39
729.858	30587.44
730.199	30626.99
730.541	30713.99
730.882	30579.53
731.224	30685.75
731.565	30502.93
731.906	30500.89
732.248	30493.66
732.589	30270.39
732.93	30282.82
733.271	30280.56
733.612	30429.71
733.953	30362.37
734.294	30087.34
734.635	30123.28
734.976	30118.08
735.317	29993.56
735.658	29946.56
735.999	29866.79
736.339	29948.82
736.68	29910.4
737.021	29867.01
737.361	29594.7
737.702	29810.29
738.042	29774.36
738.383	29723.51
738.723	29768.93
739.063	29596.74
739.404	29630.63
739.744	29613.46
740.084	29390.87
740.424	29484.42
740.764	29293.69
741.104	29530.52
741.444	29357.65
741.784	29418.44
742.124	29280.81
742.464	29178.44
742.804	29134.6
743.143	29154.71
743.483	29060.25
743.823	28948.62
744.162	28850.99
744.502	28933.02
744.841	28926.7
745.181	28888.73
745.52	28758.34
745.86	28845.12
746.199	28824.1
746.538	28676.99
746.877	28678.57
747.216	28696.87
747.556	28560.6
747.895	28611.23
748.234	28430.89
748.573	28513.37
748.911	28480.61
749.25	28386.37
749.589	28248.75
749.928	28325.13
750.267	28234.06
750.605	28172.14
750.944	27955.88
751.283	28156.1
751.621	28176.66
751.96	28034.07
752.298	27915.65
752.636	28064.35
752.975	27752.94
753.313	27687.86
753.651	27799.27
753.989	27665.94
754.327	27673.4
754.666	27396.79
755.004	27644.92
755.342	27594.08
755.679	27471.37
756.017	27353.41
756.355	27484.7
756.693	27168.55
757.031	27267.08
