Data from hue_90_FLMS001491_8.txt Node
Date: Mon Feb 06 15:24:36 GMT 2017
User: dcchb
Spectrometer: FLMS00149
Trigger mode: 0
Integration Time (sec): 2.000000E-2
Scans to average: 10
Electric dark correction enabled: true
Nonlinearity correction enabled: false
Boxcar width: 0
XAxis mode: Wavelengths
Number of Pixels in Spectrum: 2048
>>>>>Begin Spectral Data<<<<<
341.393	-15.72
341.776	-15.72
342.16	-15.72
342.543	-84.64
342.927	-83.29
343.31	-82.16
343.693	-59.56
344.077	-66.57
344.46	-66.57
344.843	-48.94
345.226	-40.35
345.61	-24.76
345.993	-29.28
346.376	4.39
346.759	19.53
347.142	19.31
347.525	29.93
347.908	73.54
348.291	65.18
348.674	92.3
349.057	113.99
349.44	122.81
349.823	126.2
350.206	157.16
350.588	198.51
350.971	212.3
351.354	206.65
351.737	237.61
352.119	253.88
352.502	265.85
352.884	262.46
353.267	278.74
353.65	268.57
354.032	303.14
354.414	303.59
354.797	298.4
355.179	296.14
355.562	333.88
355.944	311.73
356.326	309.47
356.709	337.04
357.091	314.67
357.473	321.22
357.855	332.07
358.238	339.07
358.62	342.01
359.002	329.36
359.384	321.67
359.766	330.71
360.148	328.45
360.53	319.19
360.912	330.03
361.294	318.73
361.676	308.79
362.057	326.42
362.439	307.44
362.821	311.96
363.203	322.8
363.584	323.93
363.966	334.1
364.348	324.84
364.729	305.4
365.111	308.79
365.493	315.34
365.874	307.44
366.256	302.92
366.637	337.72
367.019	310.15
367.4	287.55
367.781	307.66
368.163	306.53
368.544	328.68
368.925	307.66
369.306	287.32
369.688	317.6
370.069	313.76
370.45	321.9
370.831	308.79
371.212	291.16
371.593	309.24
371.974	304.05
372.355	311.5
372.736	304.5
373.117	315.57
373.498	313.31
373.879	319.64
374.26	313.99
374.641	307.89
375.021	287.77
375.402	288.9
375.783	324.16
376.163	297.72
376.544	322.35
376.925	332.29
377.305	296.59
377.686	304.05
378.066	310.83
378.447	322.12
378.827	321.22
379.208	298.62
379.588	317.38
379.968	330.94
380.349	328
380.729	331.39
381.109	341.11
381.489	322.12
381.87	306.53
382.25	356.02
382.63	325.29
383.01	333.2
383.39	340.65
383.77	350.6
384.15	330.03
384.53	328.23
384.91	333.2
385.29	358.96
385.67	338.85
386.049	351.05
386.429	334.33
386.809	363.25
387.189	330.94
387.568	333.65
387.948	360.99
388.328	366.42
388.707	349.02
389.087	363.93
389.466	332.97
389.846	363.03
390.225	359.86
390.605	350.82
390.984	369.35
391.363	363.93
391.743	357.6
392.122	363.48
392.501	349.92
392.881	373.65
393.26	372.29
393.639	379.75
394.018	372.74
394.397	380.88
394.776	365.96
395.155	358.96
395.534	372.74
395.913	360.09
396.292	372.97
396.671	372.74
397.05	399.18
397.429	375
397.808	367.09
398.186	372.97
398.565	389.24
398.944	385.4
399.323	394.66
399.701	393.76
400.08	386.98
400.458	392.4
400.837	388.79
401.215	400.31
401.594	398.51
401.972	417.72
402.351	394.66
402.729	397.38
403.107	406.64
403.486	395.34
403.864	386.08
404.242	415.91
404.62	405.51
404.999	435.34
405.377	409.35
405.755	399.86
406.133	437.38
406.511	419.97
406.889	436.02
407.267	429.24
407.645	437.15
408.023	428.11
408.401	417.49
408.779	429.47
409.156	419.97
409.534	420.2
409.912	457.71
410.29	432.63
410.667	439.64
411.045	463.14
411.422	439.18
411.8	456.81
412.178	455.23
412.555	456.36
412.933	478.05
413.31	442.57
413.687	464.04
414.065	463.14
414.442	482.12
414.819	490.71
415.197	493.19
415.574	490.03
415.951	473.76
416.328	479.41
416.705	469.24
417.082	493.19
417.46	491.39
417.837	500.88
418.214	488.45
418.591	496.81
418.967	503.59
419.344	509.92
419.721	515.11
420.098	528.45
420.475	516.92
420.852	517.15
421.228	535.68
421.605	534.77
421.982	527.09
422.358	550.59
422.735	535.9
423.111	526.19
423.488	543.14
423.864	541.78
424.241	549.91
424.617	557.6
424.994	550.14
425.37	552.85
425.746	553.98
426.123	560.08
426.499	555.34
426.875	575
427.251	574.55
427.627	600.54
428.003	574.77
428.379	611.16
428.756	593.76
429.132	604.15
429.507	606.18
429.883	610.93
430.259	616.58
430.635	609.8
431.011	620.87
431.387	619.29
431.763	652.06
432.138	631.95
432.514	675.11
432.89	637.37
433.265	643.47
433.641	648.9
434.016	670.36
434.392	645.05
434.767	679.63
435.143	698.16
435.518	700.19
435.894	682.57
436.269	690.93
436.644	704.71
437.02	699.74
437.395	738.61
437.77	708.78
438.145	721.44
438.52	726.18
438.895	739.06
439.271	744.03
439.646	760.76
440.021	765.5
440.395	770.93
440.77	774.99
441.145	770.47
441.52	774.99
441.895	780.19
442.27	798.72
442.645	791.72
443.019	772.96
443.394	784.49
443.769	805.95
444.143	793.07
444.518	807.76
444.892	805.5
445.267	802.79
445.641	811.6
446.016	832.17
446.39	849.79
446.764	858.61
447.139	826.29
447.513	862
447.887	862.68
448.262	849.57
448.636	872.17
449.01	875.78
449.384	881.43
449.758	897.7
450.132	877.14
450.506	896.57
450.88	926.63
451.254	909.91
451.628	913.3
452.002	900.19
452.376	919.17
452.75	942.67
453.123	960.07
453.497	952.62
453.871	954.88
454.244	961.43
454.618	1001.65
454.992	985.84
455.365	993.52
455.739	995.33
456.112	998.49
456.486	1046.17
456.859	1059.28
457.232	1036.46
457.606	1068.77
457.979	1077.36
458.352	1094.31
458.725	1118.04
459.099	1097.92
459.472	1137.02
459.845	1113.29
460.218	1129.79
460.591	1156.9
460.964	1139.96
461.337	1196.23
461.71	1207.3
462.083	1209.11
462.456	1202.33
462.829	1251.37
463.201	1236.45
463.574	1244.81
463.947	1276
464.32	1282.78
464.692	1300.18
465.065	1339.05
465.438	1356
465.81	1360.52
466.183	1356
466.555	1417.91
466.928	1419.27
467.3	1449.78
467.672	1455.2
468.045	1489.1
468.417	1497.69
468.789	1498.82
469.161	1537.23
469.534	1567.52
469.906	1628.3
470.278	1621.75
470.65	1662.65
471.022	1660.85
471.394	1720.51
471.766	1728.87
472.138	1780.17
472.51	1795.53
472.882	1855.64
473.253	1871.46
473.625	1907.85
473.997	1940.16
474.369	1998.01
474.74	2064.23
475.112	2036.2
475.484	2126.82
475.855	2149.42
476.227	2174.73
476.598	2283.43
476.97	2280.94
477.341	2358.23
477.713	2394.84
478.084	2438.68
478.455	2499.92
478.827	2607.26
479.198	2655.4
479.569	2670.99
479.94	2807.48
480.311	2828.5
480.682	2900.36
481.053	2989.62
481.424	3094.71
481.795	3159.56
482.166	3233.91
482.537	3292.22
482.908	3407.01
483.279	3482.72
483.65	3567.01
484.021	3645.43
484.391	3756.16
484.762	3829.83
485.133	3873.44
485.503	4031.18
485.874	4151.18
486.244	4252.19
486.615	4318.86
486.985	4445.18
487.356	4521.34
487.726	4655.57
488.097	4804.04
488.467	4846.07
488.837	4943.47
489.207	5079.74
489.578	5218.49
489.948	5280.64
490.318	5409
490.688	5504.13
491.058	5690.12
491.428	5811.25
491.798	5928.98
492.168	6037.23
492.538	6134.17
492.908	6265.47
493.278	6370.78
493.648	6484.67
494.017	6629.53
494.387	6749.3
494.757	6833.14
495.126	6923.53
495.496	7051.89
495.866	7148.39
496.235	7284.88
496.605	7387.25
496.974	7482.39
497.344	7554.7
497.713	7695.26
498.082	7767.58
498.452	7900.23
498.821	7993.56
499.19	8042.83
499.559	8178.41
499.928	8265.64
500.298	8323.5
500.667	8396.94
501.036	8484.17
501.405	8610.04
501.774	8608.91
502.143	8749.93
502.512	8844.84
502.88	8923.71
503.249	8953.76
503.618	9052.74
503.987	9191.5
504.356	9245.28
504.724	9310.59
505.093	9371.6
505.462	9464.71
505.83	9540.86
506.199	9673.97
506.567	9774.98
506.936	9709.22
507.304	9792.84
507.672	9896.11
508.041	9930.23
508.409	10083
508.777	10106.27
509.145	10143.79
509.514	10195.09
509.882	10280.51
510.25	10299.49
510.618	10363.44
510.986	10385.14
511.354	10437.34
511.722	10547.17
512.09	10692.93
512.458	10579.71
512.826	10716.43
513.193	10690.67
513.561	10722.75
513.929	10752.13
514.297	10924.11
514.664	10952.35
515.032	10996.65
515.4	11051.11
515.767	11059.7
516.135	11047.94
516.502	11047.04
516.869	11179.47
517.237	11224.44
517.604	11195.28
517.972	11233.02
518.339	11249.75
518.706	11274.15
519.073	11375.84
519.44	11330.42
519.808	11452.68
520.175	11387.82
520.542	11570.42
520.909	11532.23
521.276	11534.26
521.643	11658.32
522.009	11651.32
522.376	11684.54
522.743	11729.51
523.11	11782.84
523.477	11827.58
523.843	11877.07
524.21	11930.86
524.577	11929.73
524.943	11971.31
525.31	11990.07
525.676	12074.81
526.043	12038.43
526.409	12083.85
526.776	12125.2
527.142	12156.62
527.508	12155.49
527.874	12215.82
528.241	12167.69
528.607	12213.11
528.973	12274.13
529.339	12242.04
529.705	12285.2
530.071	12273.45
530.437	12307.8
530.803	12352.09
531.169	12301.7
531.535	12294.69
531.901	12296.5
532.267	12329.49
532.632	12331.53
532.998	12309.61
533.364	12336.5
533.73	12293.11
534.095	12385.08
534.461	12319.55
534.826	12349.83
535.192	12252.66
535.557	12332.2
535.923	12290.62
536.288	12247.23
536.653	12301.92
537.019	12135.82
537.384	12138.76
537.749	12220.57
538.114	12181.25
538.479	12164.07
538.845	12198.65
539.21	12045.21
539.575	12075.26
539.94	12072.1
540.305	12151.42
540.67	11946.68
541.034	12023.74
541.399	11994.59
541.764	11995.72
542.129	12071.19
542.494	11935.38
542.858	11935.83
543.223	11909.84
543.587	11927.92
543.952	11900.35
544.316	11844.31
544.681	11783.74
545.045	11771.31
545.41	11831.2
545.774	11740.36
546.138	11696.29
546.503	11696.97
546.867	11577.87
547.231	11686.57
547.595	11636.63
547.959	11633.69
548.324	11569.51
548.688	11529.06
549.052	11545.11
549.416	11559.12
549.779	11506.46
550.143	11465.56
550.507	11518.44
550.871	11520.93
551.235	11452
551.599	11483.86
551.962	11354.15
552.326	11473.24
552.689	11410.42
553.053	11377.2
553.417	11292.01
553.78	11479.12
554.143	11323.19
554.507	11285.23
554.87	11420.59
555.234	11454.94
555.597	11265.11
555.96	11293.59
556.323	11292.91
556.686	11329.97
557.05	11313.25
557.413	11276.64
557.776	11210.65
558.139	11322.29
558.502	11284.32
558.865	11222.85
559.228	11212.46
559.59	11214.04
559.953	11256.75
560.316	11353.47
560.679	11332.46
561.041	11352.12
561.404	11357.54
561.767	11347.15
562.129	11299.01
562.492	11476.41
562.854	11396.18
563.217	11397.54
563.579	11327.94
563.941	11384.21
564.304	11336.52
564.666	11388.05
565.028	11375.84
565.39	11371.55
565.753	11571.77
566.115	11489.97
566.477	11492.23
566.839	11423.53
567.201	11555.5
567.563	11510.08
567.925	11577.65
568.287	11587.59
568.648	11479.57
569.01	11582.62
569.372	11693.8
569.734	11539.46
570.095	11664.65
570.457	11682.5
570.819	11688.61
571.18	11636.4
571.542	11650.64
571.903	11721.15
572.265	11663.07
572.626	11704.65
572.987	11748.26
573.349	11713.01
573.71	11680.47
574.071	11765.89
574.432	11787.81
574.794	11875.49
575.155	11803.18
575.516	11729.28
575.877	11782.39
576.238	11842.5
576.599	11813.8
576.96	11796.4
577.32	11818.55
577.681	11877.07
578.042	11863.52
578.403	11881.37
578.763	11912.1
579.124	11886.11
579.485	11900.58
579.845	11960.91
580.206	11942.38
580.566	11861.26
580.927	11888.6
581.287	11892.44
581.648	11869.84
582.008	11821.26
582.368	11867.58
582.728	11921.37
583.089	11857.64
583.449	11829.62
583.809	11916.62
584.169	11811.31
584.529	11829.39
584.889	11898.54
585.249	11812.22
585.609	11740.81
585.969	11832.33
586.329	11768.83
586.688	11811.99
587.048	11817.64
587.408	11777.64
587.768	11751.2
588.127	11774.48
588.487	11767.93
588.846	11840.69
589.206	11600.92
589.565	11760.24
589.925	11844.76
590.284	11650.87
590.643	11681.15
591.003	11773.57
591.362	11799.56
591.721	11729.28
592.08	11767.7
592.44	11664.2
592.799	11663.52
593.158	11687.48
593.517	11751.65
593.876	11727.02
594.235	11677.98
594.593	11681.83
594.952	11690.41
595.311	11706.23
595.67	11643.86
596.029	11779.45
596.387	11691.77
596.746	11756.17
597.104	11704.2
597.463	11648.61
597.822	11677.98
598.18	11619.91
598.538	11715.05
598.897	11628.95
599.255	11547.82
599.613	11691.32
599.972	11651.32
600.33	11594.14
600.688	11557.54
601.046	11687.7
601.404	11692.22
601.762	11566.57
602.12	11659.45
602.478	11661.04
602.836	11596.63
603.194	11631.66
603.552	11741.26
603.91	11557.31
604.268	11696.97
604.625	11627.14
604.983	11642.05
605.341	11524.99
605.698	11717.76
606.056	11671.88
606.413	11706.91
606.771	11661.49
607.128	11757.76
607.485	11632.56
607.843	11751.88
608.2	11681.83
608.557	11736.74
608.914	11636.63
609.272	11793.24
609.629	11769.73
609.986	11817.87
610.343	11730.41
610.7	11813.35
611.057	11815.61
611.414	11761.82
611.771	11750.3
612.127	11868.49
612.484	11829.17
612.841	11900.58
613.198	11785.78
613.554	11782.16
613.911	11943.74
614.267	11911.42
614.624	11828.71
614.98	11865.55
615.337	12000.01
615.693	11907.58
616.05	11908.94
616.406	11999.56
616.762	11889.05
617.118	11874.36
617.475	11908.49
617.831	11958.2
618.187	12016.96
618.543	11991.87
618.899	12054.02
619.255	12034.81
619.611	12006.34
619.967	12104.19
620.323	12022.38
620.678	12029.39
621.034	11947.81
621.39	11949.62
621.746	12013.12
622.101	12159.78
622.457	11987.13
622.812	12065.77
623.168	12058.54
623.523	12060.12
623.879	12063.06
624.234	11971.31
624.589	12030.52
624.945	12000.91
625.3	12065.09
625.655	12124.07
626.01	12030.29
626.365	12011.76
626.72	12016.51
627.075	12004.53
627.43	12029.16
627.785	12028.26
628.14	12010.86
628.495	11936.06
628.85	12048.6
629.205	11928.37
629.559	12041.82
629.914	11931.54
630.269	11959.56
630.623	11934.47
630.978	11900.8
631.332	11948.49
631.687	11933.8
632.041	11843.4
632.396	11886.57
632.75	11909.62
633.104	11877.07
633.459	11812.67
633.813	11804.99
634.167	11871.43
634.521	11817.64
634.875	11844.76
635.229	11769.51
635.583	11758.89
635.937	11769.28
636.291	11691.09
636.645	11743.97
636.999	11709.85
637.352	11734.93
637.706	11685.67
638.06	11727.25
638.413	11630.75
638.767	11723.63
639.121	11709.85
639.474	11592.34
639.828	11641.37
640.181	11681.6
640.534	11664.2
640.888	11593.69
641.241	11446.35
641.594	11585.1
641.947	11647.48
642.301	11535.61
642.654	11449.29
643.007	11461.72
643.36	11536.52
643.713	11498.1
644.066	11553.92
644.419	11406.8
644.771	11375.84
645.124	11277.99
645.477	11258.11
645.83	11237.09
646.182	11176.08
646.535	11103.08
646.888	11222.63
647.24	11132.01
647.593	11160.03
647.945	11096.08
648.298	11099.47
648.65	11080.26
649.002	11084.78
649.355	11058.34
649.707	11051.56
650.059	11109.64
650.411	11238.45
650.763	11281.61
651.115	11451.1
651.467	11358.9
651.819	11330.87
652.171	11234.15
652.523	11275.96
652.875	11320.71
653.227	11296.53
653.578	11370.65
653.93	11339.69
654.282	11292.01
654.633	11317.32
654.985	11274.15
655.337	11369.74
655.688	11339.91
656.039	11395.51
656.391	11254.72
656.742	11361.16
657.094	11315.51
657.445	11264.21
657.796	11331.78
658.147	11223.98
658.498	11265.79
658.849	11227.15
659.2	11223.53
659.551	11289.29
659.902	11278.9
660.253	11300.82
660.604	11347.82
660.955	11245.45
661.306	11280.03
661.656	11287.94
662.007	11254.94
662.358	11261.27
662.708	11261.27
663.059	11319.58
663.409	11225.57
663.76	11336.07
664.11	11292.68
664.461	11365.22
664.811	11360.25
665.161	11370.2
665.511	11346.24
665.862	11340.59
666.212	11407.48
666.562	11407.48
666.912	11301.95
667.262	11376.52
667.612	11363.64
667.962	11409.06
668.312	11342.4
668.662	11409.97
669.011	11349.86
669.361	11316.64
669.711	11340.82
670.06	11323.87
670.41	11299.69
670.76	11308.28
671.109	11270.76
671.459	11277.32
671.808	11311.67
672.157	11264.44
672.507	11227.15
672.856	11213.59
673.205	11173.14
673.554	11236.64
673.904	11226.24
674.253	11291.78
674.602	11155.29
674.951	11029.19
675.3	10991
675.649	11175.85
675.998	11195.51
676.346	11172.91
676.695	11216.08
677.044	11107.6
677.393	11138.34
677.741	11173.36
678.09	11160.26
678.438	11086.36
678.787	11117.32
679.135	11017.89
679.484	11014.27
679.832	11052.01
680.181	11043.42
680.529	11048.4
680.877	11021.28
681.225	10965.69
681.573	11005.46
681.922	10984.89
682.27	10929.08
682.618	10845.46
682.966	10909.87
683.314	10936.08
683.661	10847.72
684.009	10794.17
684.357	10727.05
684.705	10702.42
685.053	10768.4
685.4	10697.44
685.748	10657.67
686.095	10714.39
686.443	10647.95
686.79	10644.79
687.138	10643.66
687.485	10595.75
687.832	10600.27
688.18	10638.24
688.527	10493.38
688.874	10540.39
689.221	10478.92
689.568	10385.14
689.915	10382.65
690.262	10444.12
690.609	10370.9
690.956	10353.05
691.303	10317.12
691.65	10317.57
691.997	10248.19
692.344	10172.26
692.69	10210
693.037	10143.33
693.383	10109.66
693.73	10161.41
694.077	10094.52
694.423	10066.05
694.769	9979.27
695.116	9991.02
695.462	9923.68
695.808	9922.1
696.155	9918.71
696.501	9810.24
696.847	9786.28
697.193	9797.58
697.539	9802.78
697.885	9663.12
698.231	9694.08
698.577	9689.11
698.923	9692.5
699.269	9630.58
699.614	9519.85
699.96	9520.98
700.306	9507.65
700.651	9404.6
700.997	9445.95
701.342	9436.46
701.688	9353.98
702.033	9386.29
702.379	9293.41
702.724	9245.96
703.069	9346.75
703.415	9182
703.76	9254.09
704.105	9189.46
704.45	9147.65
704.795	9062.01
705.14	9041.9
705.485	9024.27
705.83	9001.44
706.175	8977.26
706.52	8999.18
706.865	8946.08
707.209	8923.93
707.554	8922.12
707.899	8865.4
708.243	8822.92
708.588	8797.61
708.932	8779.3
709.277	8760.09
709.621	8766.42
709.966	8660.89
710.31	8725.75
710.654	8630.61
710.998	8616.6
711.342	8626.31
711.687	8660.21
712.031	8608.23
712.375	8559.87
712.719	8541.12
713.063	8586.54
713.407	8604.17
713.75	8505.19
714.094	8476.49
714.438	8424.51
714.782	8495.24
715.125	8462.02
715.469	8447.56
715.812	8393.78
716.156	8406.43
716.499	8371.63
716.843	8369.6
717.186	8342.93
717.53	8393.1
717.873	8306.77
718.216	8322.82
718.559	8294.57
718.902	8217.74
719.246	8263.61
719.589	8210.73
719.932	8218.64
720.275	8195.82
720.617	8252.54
720.96	8253.44
721.303	8183.61
721.646	8197.17
721.989	8164.63
722.331	8178.41
722.674	8181.58
723.016	8214.12
723.359	8171.86
723.701	8108.81
724.044	8114.24
724.386	8096.84
724.729	8082.82
725.071	8092.32
725.413	8133.22
725.755	8124.41
726.097	8057.74
726.439	8102.03
726.782	8084.41
727.124	8076.5
727.465	7999.89
727.807	8063.16
728.149	8030.85
728.491	8060.9
728.833	7994.01
729.175	8001.92
729.516	7987.91
729.858	8074.69
730.199	8026.78
730.541	8003.73
730.882	7941.36
731.224	7922.15
731.565	7969.15
731.906	8033.79
732.248	8009.15
732.589	7921.02
732.93	7900.23
733.271	7977.74
733.612	7974.8
733.953	7914.47
734.294	7889.38
734.635	7920.12
734.976	8005.76
735.317	7927.57
735.658	7994.01
735.999	7969.61
736.339	7965.09
736.68	7965.54
737.021	7989.27
737.361	7884.86
737.702	7983.62
738.042	7980.91
738.383	7967.35
738.723	7968.93
739.063	7954.47
739.404	8000.57
739.744	7990.17
740.084	7935.03
740.424	8006.89
740.764	8021.36
741.104	8030.62
741.444	7991.98
741.784	7995.14
742.124	7967.35
742.464	7965.09
742.804	8017.74
743.143	8053.45
743.483	8074.01
743.823	8035.59
744.162	8031.53
744.502	8090.51
744.841	8098.19
745.181	8205.08
745.52	8128.02
745.86	8220.22
746.199	8215.25
746.538	8330.05
746.877	8340.44
747.216	8356.49
747.556	8385.42
747.895	8397.62
748.234	8372.31
748.573	8475.58
748.911	8544.06
749.25	8553.09
749.589	8621.79
749.928	8664.5
750.267	8750.6
750.605	8815.46
750.944	8869.47
751.283	8845.29
751.621	8993.99
751.96	8964.61
752.298	9094.32
752.636	9209.8
752.975	9262.23
753.313	9302
753.651	9472.62
753.989	9448.89
754.327	9525.27
754.666	9623.57
755.004	9785.83
755.342	9772.27
755.679	9972.72
756.017	10011.36
756.355	10256.55
756.693	10246.16
757.031	10403.22
757.368	10517.56
757.706	10675.52
758.044	10726.37
758.381	10866.48
758.719	10921.17
759.056	11125.68
759.394	11195.51
759.731	11298.78
760.068	11466.24
760.405	11596.86
