Data from hue_28_FLMS001491_00013.txt Node
Date: Tue Feb 07 17:16:55 GMT 2017
User: dcchb
Spectrometer: FLMS00149
Trigger mode: 0
Integration Time (sec): 2.000000E-2
Scans to average: 10
Electric dark correction enabled: true
Nonlinearity correction enabled: false
Boxcar width: 0
XAxis mode: Wavelengths
Number of Pixels in Spectrum: 2048
>>>>>Begin Spectral Data<<<<<
341.393	-30.42
341.776	-30.42
342.16	-30.42
342.543	-73.13
342.927	-73.36
343.31	-69.29
343.693	-59.12
344.077	-68.84
344.46	-78.78
344.843	-59.35
345.226	-41.5
345.61	-33.81
345.993	12.74
346.376	-5.11
346.759	-2.63
347.142	26.52
347.525	34.66
347.908	59.07
348.291	83.47
348.674	91.38
349.057	110.59
349.44	123.47
349.823	147.2
350.206	146.07
350.588	201.21
350.971	226.52
351.354	236.91
351.737	228.33
352.119	243.92
352.502	256.12
352.884	263.35
353.267	283.02
353.65	287.08
354.032	312.84
354.414	321.43
354.797	316.91
355.179	330.25
355.562	320.08
355.944	316.23
356.326	329.12
356.709	328.44
357.091	330.47
357.473	357.36
357.855	342.22
358.238	330.02
358.62	323.69
359.002	354.65
359.384	347.65
359.766	330.25
360.148	344.26
360.53	323.69
360.912	348.55
361.294	326.86
361.676	328.66
362.057	320.08
362.439	318.72
362.821	325.73
363.203	318.95
363.584	312.39
363.966	319.85
364.348	330.92
364.729	295.67
365.111	315.1
365.493	316.91
365.874	323.24
366.256	321.88
366.637	306.29
367.019	310.59
367.4	315.56
367.781	318.49
368.163	305.61
368.544	303.58
368.925	303.58
369.306	322.79
369.688	312.84
370.069	309
370.45	332.96
370.831	311.71
371.212	323.24
371.593	329.57
371.974	329.79
372.355	321.21
372.736	311.94
373.117	346.06
373.498	318.72
373.879	304.03
374.26	322.56
374.641	298.61
375.021	308.78
375.402	329.34
375.783	313.97
376.163	314.88
376.544	326.18
376.925	309.68
377.305	332.96
377.686	318.04
378.066	308.78
378.447	329.34
378.827	313.3
379.208	333.18
379.588	335.44
379.968	316.91
380.349	309
380.729	329.57
381.109	332.05
381.489	350.13
381.87	328.21
382.25	330.47
382.63	319.85
383.01	338.15
383.39	307.42
383.77	342.45
384.15	348.32
384.53	333.64
384.91	345.16
385.29	340.87
385.67	344.26
386.049	352.39
386.429	343.35
386.809	339.28
387.189	343.13
387.568	357.36
387.948	353.07
388.328	330.7
388.707	346.29
389.087	356.46
389.466	362.56
389.846	384.03
390.225	352.39
390.605	357.14
390.984	340.64
391.363	363.24
391.743	370.02
392.122	360.08
392.501	346.74
392.881	372.28
393.26	380.87
393.639	355.78
394.018	379.74
394.397	372.73
394.776	378.38
395.155	370.47
395.534	393.29
395.913	369.11
396.292	388.78
396.671	390.58
397.05	394.65
397.429	395.55
397.808	377.02
398.186	374.31
398.565	369.11
398.944	358.27
399.323	370.02
399.701	375.89
400.08	377.02
400.458	379.06
400.837	414.54
401.215	367.31
401.594	389.91
401.972	398.04
402.351	412.28
402.729	401.2
403.107	396.68
403.486	381.54
403.864	383.8
404.242	420.86
404.62	419.51
404.999	411.6
405.377	422.22
405.755	401.2
406.133	408.44
406.511	435.1
406.889	426.29
407.267	408.66
407.645	423.12
408.023	424.25
408.401	423.58
408.779	443.69
409.156	417.7
409.534	453.86
409.912	446.4
410.29	451.15
410.667	453.41
411.045	445.5
411.422	458.15
411.8	442.78
412.178	470.13
412.555	451.15
412.933	457.25
413.31	444.82
413.687	467.19
414.065	475.1
414.442	462.22
414.819	475.55
415.197	469.68
415.574	482.78
415.951	476
416.328	468.77
416.705	487.08
417.082	495.44
417.46	491.82
417.837	463.58
418.214	483.46
418.591	483.91
418.967	496.57
419.344	501.09
419.721	499.51
420.098	501.77
420.475	506.29
420.852	517.59
421.228	521.43
421.605	511.03
421.982	514.87
422.358	527.08
422.735	520.75
423.111	533.4
423.488	522.78
423.864	528.43
424.241	534.08
424.617	522.78
424.994	547.41
425.37	525.95
425.746	548.54
426.123	559.84
426.499	556.45
426.875	545.16
427.251	558.04
427.627	562.56
428.003	572.73
428.379	579.5
428.756	571.37
429.132	561.65
429.507	599.84
429.883	593.52
430.259	579.28
430.635	600.75
431.011	595.78
431.387	592.84
431.763	598.49
432.138	640.29
432.514	625.15
432.89	633.51
433.265	622.67
433.641	630.8
434.016	636.68
434.392	643.23
434.767	660.86
435.143	659.5
435.518	678.71
435.894	696.56
436.269	676.9
436.644	687.07
437.02	657.24
437.395	698.37
437.77	686.39
438.145	684.59
438.52	700.86
438.895	694.98
439.271	701.76
439.646	710.8
440.021	729.33
440.395	716
440.77	696.56
441.145	716
441.52	754.19
441.895	720.07
442.27	742.44
442.645	739.95
443.019	761.19
443.394	755.77
443.769	718.26
444.143	748.31
444.518	782.89
444.892	763.91
445.267	758.26
445.641	762.1
446.016	780.18
446.39	792.38
446.764	797.35
447.139	793.06
447.513	798.48
447.887	795.77
448.262	806.62
448.636	783.79
449.01	819.05
449.384	810.46
449.758	826.28
450.132	839.61
450.506	823.57
450.88	827.63
451.254	823.79
451.628	857.46
452.002	866.28
452.376	879.16
452.75	857.69
453.123	878.93
453.497	887.07
453.871	885.26
454.244	909.67
454.618	908.99
454.992	910.57
455.365	902.21
455.739	929.33
456.112	932.04
456.486	944.01
456.859	943.34
457.232	960.96
457.606	982.66
457.979	986.95
458.352	1023.33
458.725	1025.37
459.099	1000.51
459.472	1024.46
459.845	1050.23
460.218	1039.61
460.591	1044.58
460.964	1044.13
461.337	1079.6
461.71	1090.23
462.083	1118.47
462.456	1104.01
462.829	1106.95
463.201	1101.3
463.574	1134.07
463.947	1134.29
464.32	1171.13
464.692	1180.17
465.065	1159.6
465.438	1190.79
465.81	1210.45
466.183	1205.48
466.555	1229.2
466.928	1257.45
467.3	1254.97
467.672	1285.02
468.045	1292.93
468.417	1332.03
468.789	1321.63
469.161	1336.55
469.534	1356.43
469.906	1378.35
470.278	1396.21
470.65	1400.05
471.022	1459.26
471.394	1474.62
471.766	1450.89
472.138	1486.6
472.51	1534.96
472.882	1531.57
473.253	1552.36
473.625	1576.54
473.997	1617.9
474.369	1617.67
474.74	1663.54
475.112	1700.15
475.484	1731.56
475.855	1758.68
476.227	1781.73
476.598	1815.63
476.97	1847.49
477.341	1877.55
477.713	1920.26
478.084	1939.92
478.455	1969.98
478.827	2019.92
479.198	2079.8
479.569	2092.69
479.94	2165.9
480.311	2173.13
480.682	2224.21
481.053	2281.61
481.424	2313.7
481.795	2350.53
482.166	2432.79
482.537	2408.16
482.908	2493.13
483.279	2509.17
483.65	2581.03
484.021	2670.75
484.391	2700.13
484.762	2688.6
485.133	2747.58
485.503	2839.11
485.874	2900.8
486.244	2912.55
486.615	3012.43
486.985	3027.35
487.356	3097.86
487.726	3112.32
488.097	3184.86
488.467	3242.94
488.837	3318.19
489.207	3360.67
489.578	3397.28
489.948	3474.34
490.318	3534.46
490.688	3560.44
491.058	3636.15
491.428	3652.64
491.798	3732.87
492.168	3788.69
492.538	3800.21
492.908	3889.02
493.278	3973.54
493.648	3989.58
494.017	4063.25
494.387	4078.4
494.757	4112.97
495.126	4212.18
495.496	4222.57
495.866	4255.57
496.235	4319.07
496.605	4374.88
496.974	4434.77
497.344	4444.94
497.713	4470.48
498.082	4491.27
498.452	4573.98
498.821	4613.07
499.19	4594.09
499.559	4679.74
499.928	4721.32
500.298	4754.76
500.667	4773.74
501.036	4793.63
501.405	4802.44
501.774	4844.93
502.143	4906.17
502.512	4971.03
502.88	4980.97
503.249	4989.78
503.618	5037.47
503.987	5042.66
504.356	5058.03
504.724	5104.36
505.093	5145.26
505.462	5182.77
505.83	5190
506.199	5236.78
506.567	5310.68
506.936	5336.89
507.304	5373.05
507.672	5409.89
508.041	5407.4
508.409	5400.17
508.777	5494.86
509.145	5524.69
509.514	5510.9
509.882	5531.24
510.25	5591.58
510.618	5587.96
510.986	5615.53
511.354	5709.99
511.722	5712.25
512.09	5778.92
512.458	5728.07
512.826	5811.23
513.193	5851.46
513.561	5828.41
513.929	5860.27
514.297	5905.47
514.664	5902.08
515.032	5946.82
515.4	5991.34
515.767	6003.09
516.135	6094.61
516.502	6039.02
516.869	6098.68
517.237	6144.1
517.604	6092.81
517.972	6139.13
518.339	6194.95
518.706	6206.93
519.073	6196.53
519.44	6232.92
519.808	6327.38
520.175	6276.08
520.542	6313.82
520.909	6360.37
521.276	6361.05
521.643	6460.25
522.009	6467.26
522.376	6567.14
522.743	6518.11
523.11	6613.7
523.477	6653.24
523.843	6677.42
524.21	6743.64
524.577	6740.7
524.943	6813.46
525.31	6781.83
525.676	6888.27
526.043	6932.33
526.409	6947.25
526.776	6964.42
527.142	6962.39
527.508	6996.28
527.874	7053.46
528.241	7096.17
528.607	7079.45
528.973	7165.32
529.339	7211.42
529.705	7276.96
530.071	7327.8
530.437	7347.01
530.803	7345.65
531.169	7415.71
531.535	7396.05
531.901	7424.07
532.267	7459.32
532.632	7482.37
532.998	7485.31
533.364	7610.28
533.73	7623.84
534.095	7685.08
534.461	7732.54
534.826	7720.11
535.192	7764.4
535.557	7806.43
535.923	7832.42
536.288	7818.86
536.653	7823.83
537.019	7907.22
537.384	7902.93
537.749	8008.69
538.114	7961.91
538.479	7991.51
538.845	8013.21
539.21	8010.72
539.575	8064.05
539.94	8151.73
540.305	8189.7
540.67	8197.61
541.034	8218.63
541.399	8274.44
541.764	8341.33
542.129	8336.81
542.494	8351.5
542.858	8398.28
543.223	8461.78
543.587	8478.96
543.952	8467.66
544.316	8506.98
544.681	8506.53
545.045	8575.23
545.41	8622.46
545.774	8701.1
546.138	8645.51
546.503	8695.68
546.867	8725.96
547.231	8799.63
547.595	8763.7
547.959	8845.5
548.324	8866.07
548.688	8818.84
549.052	8824.94
549.416	8867.2
549.779	8961.43
550.143	9015.89
550.507	9043.46
550.871	9119.62
551.235	9067.42
551.599	9159.84
551.962	9132.95
552.326	9174.31
552.689	9266.06
553.053	9189.22
553.417	9297.92
553.78	9401.87
554.143	9297.92
554.507	9289.11
554.87	9358.71
555.234	9436.45
555.597	9435.77
555.96	9389.22
556.323	9467.18
556.686	9520.96
557.05	9657.23
557.413	9523
557.776	9623.79
558.139	9659.49
558.502	9698.13
558.865	9739.72
559.228	9768.19
559.59	9777.91
559.953	9793.73
560.316	9965.47
560.679	9932.7
561.041	9948.3
561.404	9997.11
561.767	10072.59
562.129	10115.07
562.492	10106.49
562.854	10110.1
563.217	10074.4
563.579	10175.64
563.941	10239.82
564.304	10219.25
564.666	10305.35
565.028	10335.86
565.39	10314.39
565.753	10376.31
566.115	10407.72
566.477	10446.82
566.839	10543.54
567.201	10553.48
567.563	10525.01
567.925	10640.26
568.287	10579.24
568.648	10680.93
569.01	10693.81
569.372	10852.91
569.734	10834.6
570.095	10929.74
570.457	10950.08
570.819	10932
571.18	10950.53
571.542	11023.75
571.903	11035.05
572.265	11174.48
572.626	11196.4
572.987	11165.89
573.349	11291.99
573.71	11379.45
574.071	11358.66
574.432	11519.1
574.794	11616.28
575.155	11590.74
575.516	11615.37
575.877	11704.41
576.238	11765.88
576.599	11913.67
576.96	11992.99
577.32	12056.26
577.681	12132.87
578.042	12243.6
578.403	12329.93
578.763	12458.06
579.124	12521.11
579.485	12711.39
579.845	12782.8
580.206	12914.55
580.566	13000.65
580.927	13142.79
581.287	13306.63
581.648	13457.13
582.008	13611.93
582.368	13663.91
582.728	13913.62
583.089	13993.39
583.449	14212.37
583.809	14418.01
584.169	14608.97
584.529	14675.63
584.889	15027.03
585.249	15183.87
585.609	15202.62
585.969	15577.98
586.329	15721.25
586.688	16044.41
587.048	16201.92
587.408	16374.12
587.768	16717.39
588.127	16897.27
588.487	17105.4
588.846	17477.59
589.206	17638.94
589.565	17889.11
589.925	18290.9
590.284	18397.34
590.643	18665.13
591.003	19023.09
591.362	19366.81
591.721	19572.23
592.08	19770.19
592.44	20174.24
592.799	20378.31
593.158	20595.48
593.517	21037.5
593.876	21283.37
594.235	21555.45
594.593	21804.71
594.952	22212.38
595.311	22382.32
595.67	22806.04
596.029	23104.11
596.387	23432.46
596.746	23764.21
597.104	23893.92
597.463	24209.39
597.822	24581.59
598.18	24744.97
598.538	25169.37
598.897	25449.13
599.255	25598.28
599.613	26305.16
599.972	26314.65
600.33	26582.89
600.688	26961.64
601.046	27242.53
601.404	27585.12
601.762	27849.3
602.12	28188.5
602.478	28482.5
602.836	28687.24
603.194	28871.64
603.552	29102.14
603.91	29304.4
604.268	29765.63
604.625	29832.29
604.983	30115.9
605.341	30324.49
605.698	30729.22
606.056	31077.01
606.413	31012.38
606.771	31469.99
607.128	31641.06
607.485	31771.68
607.843	32119.69
608.2	32527.14
608.557	32696.17
608.914	32721.26
609.272	33172.55
609.629	33416.38
609.986	33733.21
610.343	33707.22
610.7	34233.53
611.057	34195.8
611.414	34311.27
611.771	34572.28
612.127	34795.78
612.484	35062.21
612.841	35258.82
613.198	35253.85
613.554	35416.55
613.911	35869.88
614.267	35960.04
614.624	36140.38
614.98	36261.05
615.337	36559.35
615.693	36660.36
616.05	36723.64
616.406	37160.24
616.762	37250.4
617.118	37200.24
617.475	37285.88
617.831	37621.02
618.187	37810.84
618.543	37880.44
618.899	38145.52
619.255	38221
619.611	38390.49
619.967	38539.18
620.323	38684.27
620.678	38609.01
621.034	38635
621.39	38852.17
621.746	38829.12
622.101	39306.17
622.457	39034.54
622.812	39295.32
623.168	39375.55
623.523	39440.86
623.879	39566.95
624.234	39472.95
624.589	39783.45
624.945	39731.02
625.3	39891.69
625.655	39992.03
626.01	40091.01
626.365	40088.97
626.72	40271.12
627.075	40229.54
627.43	40352.02
627.785	40251
628.14	40439.02
628.495	40496.2
628.85	40444.45
629.205	40328.52
629.559	40827.26
629.914	40544.78
630.269	40591.11
630.623	40582.07
630.978	40612.8
631.332	40787.49
631.687	40857.09
632.041	40756.08
632.396	40989.06
632.75	40724.66
633.104	41028.16
633.459	40774.15
633.813	40833.36
634.167	40823.87
634.521	40795.85
634.875	40922.85
635.229	40891.89
635.583	40710.88
635.937	40843.76
636.291	40872.46
636.645	40774.83
636.999	40692.8
637.352	41004.2
637.706	40712.01
638.06	40793.81
638.413	40695.96
638.767	40754.27
639.121	40820.71
639.474	40491.22
639.828	40755.4
640.181	40694.38
640.534	40736.41
640.888	40713.36
641.241	40658
641.594	40640.37
641.947	40875.17
642.301	40754.04
642.654	40718.79
643.007	40552.69
643.36	40719.69
643.713	40644.67
644.066	40567.83
644.419	40482.64
644.771	40305.24
645.124	40066.83
645.477	39818.47
645.83	39627.52
646.182	39590.23
646.535	39557.46
646.888	39580.96
647.24	39372.83
647.593	39638.36
647.945	39515.88
648.298	39352.27
648.65	39284.25
649.002	39214.87
649.355	39421.87
649.707	39420.29
650.059	39567.41
650.411	40010.78
650.763	39839.49
651.115	40443.54
651.467	40282.64
651.819	40186.15
652.171	40140.95
652.523	40106.37
652.875	40137.33
653.227	40071.8
653.578	40236.31
653.93	40176.66
654.282	40069.09
654.633	39874.06
654.985	39955.87
655.337	40095.98
655.688	40110.89
656.039	40083.1
656.391	39898.24
656.742	39943.22
657.094	40005.59
657.445	40156.99
657.796	40158.35
658.147	39917
658.498	40024.34
658.849	39982.31
659.2	39867.06
659.551	40018.69
659.902	40030.67
660.253	39855.08
660.604	40019.15
660.955	39865.48
661.306	40057.79
661.656	39918.36
662.007	39915.19
662.358	39991.35
662.708	39815.08
663.059	39844.91
663.409	39602.43
663.76	39954.29
664.11	39971.92
664.461	39953.16
664.811	39929.43
665.161	39787.97
665.511	39717.23
665.862	39747.06
666.212	39885.59
666.562	39802.43
666.912	39861.64
667.262	39685.37
667.612	39858.25
667.962	39825.93
668.312	39757.46
668.662	39995.42
669.011	39857.12
669.361	39849.21
669.711	39763.33
670.06	39754.29
670.41	39811.92
670.76	39846.27
671.109	39687.63
671.459	39733.5
671.808	39550.46
672.157	39673.84
672.507	39445.15
672.856	39456.9
673.205	39526.05
673.554	39525.83
673.904	39399.5
674.253	39697.12
674.602	39658.7
674.951	39009
675.3	38819.85
675.649	39411.25
675.998	39343.68
676.346	39495.54
676.695	39582.55
677.044	39266.17
677.393	39533.06
677.741	39503.23
678.09	39281.31
678.438	39303.91
678.787	39224.82
679.135	39402.44
679.484	39137.59
679.832	39170.58
680.181	39040.19
680.529	39106.18
680.877	38958.83
681.225	38964.03
681.573	39228.66
681.922	39004.71
682.27	38871.61
682.618	38899.17
682.966	38710.25
683.314	38825.28
683.661	38795.9
684.009	38559.3
684.357	38448.11
684.705	38359.75
685.053	38448.57
685.4	38481.78
685.748	38258.06
686.095	38393.43
686.443	38104.62
686.79	38109.59
687.138	38140.78
687.485	38120.89
687.832	37976.49
688.18	37899.2
688.527	37675.48
688.874	37630.28
689.221	37696.49
689.568	37676.38
689.915	37521.81
690.262	37484.52
690.609	37432.32
690.956	37284.98
691.303	37323.4
691.65	37192.1
691.997	37134.48
692.344	36853.13
692.69	36971.99
693.037	36960.02
693.383	36654.26
693.73	36855.39
694.077	36482.74
694.423	36609.29
694.769	36538.56
695.116	36387.15
695.462	36375.17
695.808	36130.21
696.155	36212.47
696.501	35835.75
696.847	35966.14
697.193	35821.29
697.539	35885.47
697.885	35557.79
698.231	35562.77
698.577	35539.26
698.923	35361.87
699.269	35413.39
699.614	35304.69
699.96	35084.36
700.306	35094.98
700.651	34887.53
700.997	34981.54
701.342	34826.51
701.688	34746.52
702.033	34567.31
702.379	34718.95
702.724	34548.78
703.069	34474.88
703.415	34242.8
703.76	34267.66
704.105	34232.4
704.45	34230.37
704.795	33967.1
705.14	33876.48
705.485	34020.89
705.83	33782.02
706.175	33694.34
706.52	33712.19
706.865	33535.93
707.209	33476.04
707.554	33552.42
707.899	33438.3
708.243	33461.13
708.588	33195.14
708.932	33048.03
709.277	33031.76
709.621	33003.51
709.966	32754.7
710.31	32820.46
710.654	32621.15
710.998	32767.58
711.342	32627.25
711.687	32554.26
712.031	32465.22
712.375	32259.35
712.719	32324.66
713.063	32315.17
713.407	32404.2
713.75	32102.52
714.094	32059.13
714.438	32047.6
714.782	31870.21
715.125	31905.69
715.469	32033.37
715.812	31786.14
716.156	31671.12
716.499	31663.43
716.843	31651
717.186	31521.74
717.53	31582.76
717.873	31538.24
718.216	31519.93
718.559	31360.16
718.902	31168.08
719.246	31301.18
719.589	31188.19
719.932	31076.1
720.275	31020.51
720.617	30992.04
720.96	30946.16
721.303	31028.42
721.646	31004.92
721.989	30735.32
722.331	30865.49
722.674	30811.93
723.016	30744.14
723.359	30768.32
723.701	30743.01
724.044	30467.08
724.386	30307.31
724.729	30546.17
725.071	30505.05
725.413	30443.13
725.755	30362
726.097	30225.28
726.439	30152.74
726.782	30157.71
727.124	30180.53
727.465	30049.01
727.807	29965.17
728.149	29952.97
728.491	30017.83
728.833	29951.84
729.175	29958.62
729.516	29818.96
729.858	29828.9
730.199	29756.36
730.541	29574.45
730.882	29706.2
731.224	29824.84
731.565	29592.3
731.906	29589.14
732.248	29649.02
732.589	29287.22
732.93	29302.82
733.271	29324.51
733.612	29475.69
733.953	29397.28
734.294	29247.45
734.635	29181.01
734.976	29240.45
735.317	29125.87
735.658	29018.53
735.999	29098.75
736.339	28975.14
736.68	29035.25
737.021	28906.67
737.361	28807.24
737.702	28933.11
738.042	28803.62
738.383	28775.37
738.723	28811.08
739.063	28717.07
739.404	28842.49
739.744	28680.69
740.084	28536.06
740.424	28614.47
740.764	28508.49
741.104	28531.99
741.444	28311.88
741.784	28405.21
742.124	28513.46
742.464	28357.08
742.804	28296.52
743.143	28200.02
743.483	28197.76
743.823	28073.92
744.162	28150.08
744.502	28107.14
744.841	27889.97
745.181	28197.99
745.52	27878.45
745.86	27941.04
746.199	27951.21
746.538	27905.79
746.877	27890.42
747.216	27852.01
747.556	27685.68
747.895	27772.91
748.234	27719.36
748.573	27673.71
748.911	27598
749.25	27534.73
749.589	27396.2
749.928	27511
750.267	27554.61
750.605	27546.93
750.944	27456.09
751.283	27332.7
751.621	27364.34
751.96	27148.75
752.298	27193.72
752.636	27250.67
752.975	27034.63
753.313	27008.87
753.651	27182.42
753.989	27000.96
754.327	26885.48
754.666	26890.68
755.004	26770.68
755.342	26935.2
755.679	26841.86
756.017	26574.75
756.355	26668.08
756.693	26480.29
757.031	26585.83
757.368	26418.37
757.706	26391.93
758.044	26225.84
758.381	26368.2
758.719	26180.87
759.056	26182.22
759.394	26150.58
759.731	25936.13
760.068	26071.72
