Data from hue_350_FLMS001491_63.txt Node
Date: Mon Feb 06 15:38:21 GMT 2017
User: dcchb
Spectrometer: FLMS00149
Trigger mode: 0
Integration Time (sec): 2.000000E-2
Scans to average: 10
Electric dark correction enabled: true
Nonlinearity correction enabled: false
Boxcar width: 0
XAxis mode: Wavelengths
Number of Pixels in Spectrum: 2048
>>>>>Begin Spectral Data<<<<<
341.393	-20.9
341.776	-20.9
342.16	-20.9
342.543	-76.27
342.927	-62.71
343.31	-55.48
343.693	-84.4
344.077	-71.98
344.46	-53.44
344.843	-47.57
345.226	-55.25
345.61	-28.81
345.993	-8.93
346.376	-5.76
346.759	11.64
347.142	12.77
347.525	36.04
347.908	57.51
348.291	96.61
348.674	86.44
349.057	110.62
349.44	132.99
349.823	156.95
350.206	141.13
350.588	193.55
350.971	206.89
351.354	215.02
351.737	226.32
352.119	232.42
352.502	233.55
352.884	271.97
353.267	283.72
353.65	285.3
354.032	286.43
354.414	315.36
354.797	309.03
355.179	317.62
355.562	307.45
355.944	318.97
356.326	321.23
356.709	344.28
357.091	330.27
357.473	326.66
357.855	328.01
358.238	322.36
358.62	346.09
359.002	341.8
359.384	347.9
359.766	339.31
360.148	330.73
360.53	325.3
360.912	319.65
361.294	330.5
361.676	335.25
362.057	325.75
362.439	326.88
362.821	325.08
363.203	317.62
363.584	317.84
363.966	310.39
364.348	318.3
364.729	320.1
365.111	325.3
365.493	308.81
365.874	312.42
366.256	311.52
366.637	305.42
367.019	311.07
367.4	314.46
367.781	306.32
368.163	302.93
368.544	310.84
368.925	303.38
369.306	311.29
369.688	304.96
370.069	295.25
370.45	300.44
370.831	302.03
371.212	304.51
371.593	314.68
371.974	301.12
372.355	309.48
372.736	302.25
373.117	314.23
373.498	297.96
373.879	313.78
374.26	307.9
374.641	295.47
375.021	303.16
375.402	325.53
375.783	337.96
376.163	305.64
376.544	307.9
376.925	316.04
377.305	316.26
377.686	309.48
378.066	321.01
378.447	308.35
378.827	321.46
379.208	301.35
379.588	306.32
379.968	320.33
380.349	316.49
380.729	316.04
381.109	298.18
381.489	318.3
381.87	322.59
382.25	326.66
382.63	334.12
383.01	328.92
383.39	333.44
383.77	326.88
384.15	336.38
384.53	325.75
384.91	326.43
385.29	356.49
385.67	335.7
386.049	352.87
386.429	325.98
386.809	346.09
387.189	339.77
387.568	343.38
387.948	342.48
388.328	361.46
388.707	339.77
389.087	324.85
389.466	359.43
389.846	337.73
390.225	338.41
390.605	335.47
390.984	359.88
391.363	343.61
391.743	354.45
392.122	347.22
392.501	350.61
392.881	371.63
393.26	368.92
393.639	358.3
394.018	361.69
394.397	359.2
394.776	357.84
395.155	345.87
395.534	362.14
395.913	364.17
396.292	387.45
396.671	366.66
397.05	361.23
397.429	384.74
397.808	382.25
398.186	381.8
398.565	396.94
398.944	363.04
399.323	356.71
399.701	372.76
400.08	366.21
400.458	396.49
400.837	381.35
401.215	368.92
401.594	392.42
401.972	368.01
402.351	388.35
402.729	384.51
403.107	392.87
403.486	382.93
403.864	402.59
404.242	401.01
404.62	389.71
404.999	394.23
405.377	403.49
405.755	401.01
406.133	391.74
406.511	416.15
406.889	416.37
407.267	394.9
407.645	400.78
408.023	423.83
408.401	405.07
408.779	431.74
409.156	434.9
409.534	406.88
409.912	418.63
410.29	403.04
410.667	413.21
411.045	436.94
411.422	427.67
411.8	436.71
412.178	445.75
412.555	436.71
412.933	428.12
413.31	445.98
413.687	446.43
414.065	443.94
414.442	458.63
414.819	466.54
415.197	460.67
415.574	453.89
415.951	475.13
416.328	492.53
416.705	467.22
417.082	497.5
417.46	493.43
417.837	493.21
418.214	486.43
418.591	497.05
418.967	503.15
419.344	499.76
419.721	509.25
420.098	513.55
420.475	507.44
420.852	508.57
421.228	499.99
421.605	521.46
421.982	509.25
422.358	522.13
422.735	534.79
423.111	532.3
423.488	525.3
423.864	531.85
424.241	541.12
424.617	548.57
424.994	554
425.37	540.89
425.746	548.8
426.123	541.34
426.499	551.28
426.875	554.67
427.251	558.74
427.627	568.46
428.003	580.89
428.379	577.27
428.756	577.72
429.132	582.02
429.507	598.06
429.883	593.54
430.259	612.75
430.635	611.17
431.011	636.25
431.387	604.39
431.763	611.62
432.138	621.34
432.514	644.84
432.89	633.99
433.265	646.88
433.641	633.99
434.016	653.88
434.392	670.38
434.767	676.25
435.143	663.15
435.518	664.73
435.894	696.14
436.269	669.47
436.644	687.55
437.02	702.69
437.395	685.52
437.77	697.5
438.145	689.81
438.52	716.03
438.895	705.63
439.271	695.46
439.646	715.35
440.021	744.95
440.395	710.6
440.77	750.15
441.145	735.23
441.52	733.43
441.895	765.29
442.27	753.54
442.645	743.14
443.019	781.79
443.394	771.84
443.769	764.16
444.143	777.95
444.518	779.75
444.892	756.03
445.267	780.88
445.641	781.79
446.016	783.82
446.39	792.18
446.764	789.47
447.139	787.44
447.513	798.06
447.887	802.13
448.262	808.23
448.636	804.84
449.01	803.26
449.384	793.09
449.758	794.44
450.132	832.41
450.506	851.39
450.88	842.8
451.254	827.89
451.628	858.17
452.002	852.29
452.376	857.72
452.75	854.55
453.123	864.27
453.497	863.14
453.871	885.74
454.244	897.04
454.618	899.07
454.992	916.7
455.365	920.31
455.739	917.6
456.112	934.78
456.486	936.59
456.859	956.02
457.232	970.71
457.606	961.22
457.979	947.43
458.352	944.49
458.725	988.11
459.099	987.66
459.472	976.81
459.845	1001.22
460.218	996.7
460.591	1026.98
460.964	1027.43
461.337	1038.5
461.71	1049.12
462.083	1069.92
462.456	1076.47
462.829	1090.03
463.201	1080.54
463.574	1089.12
463.947	1111.04
464.32	1124.15
464.692	1145.85
465.065	1151.27
465.438	1150.59
465.81	1140.65
466.183	1167.09
466.555	1201.44
466.928	1212.06
467.3	1188.33
467.672	1219.29
468.045	1248.44
468.417	1249.8
468.789	1252.06
469.161	1284.6
469.534	1287.99
469.906	1306.29
470.278	1336.12
470.65	1330.25
471.022	1346.29
471.394	1351.72
471.766	1399.4
472.138	1392.84
472.51	1419.96
472.882	1445.27
473.253	1457.7
473.625	1472.84
473.997	1499.06
474.369	1496.12
474.74	1509
475.112	1539.06
475.484	1568.89
475.855	1604.82
476.227	1613.4
476.598	1657.47
476.97	1652.72
477.341	1736.11
477.713	1712.84
478.084	1751.93
478.455	1779.05
478.827	1792.83
479.198	1847.07
479.569	1854.3
479.94	1906.05
480.311	1915.99
480.682	1958.03
481.053	2017.91
481.424	2047.74
481.795	2088.65
482.166	2088.19
482.537	2086.84
482.908	2174.97
483.279	2204.57
483.65	2224.69
484.021	2259.04
484.391	2294.06
484.762	2296.1
485.133	2335.87
485.503	2382.2
485.874	2405.25
486.244	2440.05
486.615	2500.39
486.985	2544.23
487.356	2547.16
487.726	2584.23
488.097	2655.18
488.467	2655.18
488.837	2697.67
489.207	2766.37
489.578	2751.91
489.948	2792.81
490.318	2834.61
490.688	2857.66
491.058	2951
491.428	2946.7
491.798	2949.64
492.168	3006.14
492.538	3054.5
492.908	3090.65
493.278	3146.24
493.648	3110.09
494.017	3152.8
494.387	3192.57
494.757	3231.44
495.126	3252.68
495.496	3261.95
495.866	3312.34
496.235	3338.1
496.605	3360.02
496.974	3371.32
497.344	3449.06
497.713	3435.5
498.082	3444.77
498.452	3497.42
498.821	3518.66
499.19	3513.69
499.559	3539.91
499.928	3564.09
500.298	3577.87
500.667	3615.16
501.036	3620.81
501.405	3660.13
501.774	3684.08
502.143	3670.3
502.512	3688.83
502.88	3753.46
503.249	3734.25
503.618	3750.3
503.987	3775.38
504.356	3845.44
504.724	3818.32
505.093	3835.27
505.462	3878.2
505.83	3883.85
506.199	3856.96
506.567	3955.72
506.936	3942.61
507.304	3977.18
507.672	3962.04
508.041	4013.34
508.409	4004.53
508.777	4053.11
509.145	4063.06
509.514	4061.48
509.882	4083.4
510.25	4105.54
510.618	4153.45
510.986	4149.83
511.354	4156.16
511.722	4176.73
512.09	4190.06
512.458	4201.58
512.826	4225.31
513.193	4258.76
513.561	4235.26
513.929	4286.1
514.297	4288.81
514.664	4390.28
515.032	4347.12
515.4	4382.37
515.767	4335.37
516.135	4374.46
516.502	4343.28
516.869	4455.36
517.237	4413.56
517.604	4404.97
517.972	4444.29
518.339	4473.67
518.706	4486.55
519.073	4494.01
519.44	4496.72
519.808	4527.23
520.175	4570.84
520.542	4589.6
520.909	4623.04
521.276	4606.55
521.643	4661.01
522.009	4651.06
522.376	4606.32
522.743	4736.71
523.11	4774.68
523.477	4771.96
523.843	4730.16
524.21	4794.34
524.577	4814.68
524.943	4887.89
525.31	4864.39
525.676	4925.41
526.043	4920.44
526.409	4926.54
526.776	4982.35
527.142	5015.12
527.508	5008.34
527.874	5040.43
528.241	5091.05
528.607	5049.7
528.973	5119.98
529.339	5140.77
529.705	5121.79
530.071	5191.84
530.437	5231.39
530.803	5286.98
531.169	5238.17
531.535	5251.73
531.901	5271.16
532.267	5338.96
532.632	5371.05
532.998	5342.8
533.364	5376.69
533.73	5374.43
534.095	5477.03
534.461	5437.48
534.826	5424.6
535.192	5467.31
535.557	5536.69
535.923	5533.75
536.288	5549.35
536.653	5559.97
537.019	5592.28
537.384	5586.86
537.749	5636.8
538.114	5646.97
538.479	5708.21
538.845	5713.18
539.21	5721.77
539.575	5715.22
539.94	5763.58
540.305	5802.9
540.67	5807.87
541.034	5816.68
541.399	5873.63
541.764	5812.62
542.129	5906.4
542.494	5942.78
542.858	5978.26
543.223	5974.42
543.587	5994.76
543.952	6010.12
544.316	6033.17
544.681	6001.54
545.045	6105.04
545.41	6128.77
545.774	6158.6
546.138	6115.21
546.503	6155.21
546.867	6175.32
547.231	6241.98
547.595	6276.78
547.959	6275.43
548.324	6281.3
548.688	6308.2
549.052	6346.39
549.416	6327.86
549.779	6376.22
550.143	6397.46
550.507	6420.74
550.871	6391.13
551.235	6422.32
551.599	6462.77
551.962	6484.69
552.326	6518.36
552.689	6606.94
553.053	6495.31
553.417	6549.32
553.78	6663.67
554.143	6606.27
554.507	6623.44
554.87	6606.49
555.234	6722.42
555.597	6741.63
555.96	6769.88
556.323	6687.85
556.686	6735.98
557.05	6773.72
557.413	6776.88
557.776	6763.55
558.139	6834.74
558.502	6909.99
558.865	6884.9
559.228	6870.89
559.59	6932.36
559.953	6955.41
560.316	7001.28
560.679	7008.74
561.041	7075.41
561.404	7088.51
561.767	7093.94
562.129	7091.23
562.492	7191.79
562.854	7163.99
563.217	7137.55
563.579	7205.57
563.941	7215.52
564.304	7266.14
564.666	7245.8
565.028	7281.05
565.39	7326.02
565.753	7291.22
566.115	7332.8
566.477	7401.73
566.839	7444.21
567.201	7520.82
567.563	7473.59
567.925	7542.51
568.287	7547.26
568.648	7558.78
569.01	7607.82
569.372	7619.8
569.734	7649.4
570.095	7722.85
570.457	7679.69
570.819	7741.83
571.18	7808.5
571.542	7772.34
571.903	7837.65
572.265	7864.54
572.626	7927.14
572.987	8015.72
573.349	7986.57
573.71	8092.33
574.071	8057.98
574.432	8156.51
574.794	8288.48
575.155	8307.69
575.516	8257.97
575.877	8321.48
576.238	8379.33
576.599	8467.91
576.96	8549.27
577.32	8598.98
577.681	8733.67
578.042	8813.21
578.403	8837.17
578.763	8835.36
579.124	9007.56
579.485	9038.07
579.845	9182.7
580.206	9207.55
580.566	9278.29
580.927	9413.65
581.287	9550.6
581.648	9739.29
582.008	9775.9
582.368	9855.22
582.728	10042.33
583.089	10130.69
583.449	10323.23
583.809	10466.73
584.169	10681.64
584.529	10828.08
584.889	11043.89
585.249	11080.5
585.609	11263.09
585.969	11521.62
586.329	11699.24
586.688	11864.66
587.048	12080.25
587.408	12311.88
587.768	12413.57
588.127	12705.09
588.487	12877.74
588.846	13195.7
589.206	13308.69
589.565	13567.67
589.925	13868.9
590.284	14163.81
590.643	14377.81
591.003	14680.4
591.362	14936.44
591.721	15144.12
592.08	15416.66
592.44	15711.34
592.799	15922.41
593.158	16173.47
593.517	16469.96
593.876	16809.16
594.235	17024.75
594.593	17320.79
594.952	17626.32
595.311	17876.93
595.67	18173.42
596.029	18534.54
596.387	18811.37
596.746	19182.21
597.104	19301.53
597.463	19616.55
597.822	19925.24
598.18	20114.39
598.538	20402.51
598.897	20730.64
599.255	20981.93
599.613	21435.71
599.972	21597.74
600.33	21962.7
600.688	22091.74
601.046	22544.83
601.404	22852.17
601.762	23161.09
602.12	23484.92
602.478	23704.57
602.836	23933.95
603.194	24077.45
603.552	24479.24
603.91	24639.69
604.268	25043.3
604.625	25210.75
604.983	25455.71
605.341	25663.84
605.698	25999.88
606.056	26388.35
606.413	26492.98
606.771	26875.79
607.128	27029.23
607.485	27223.8
607.843	27444.59
608.2	27832.15
608.557	28112.59
608.914	28275.3
609.272	28582.41
609.629	28817.89
609.986	29128.39
610.343	29275.73
610.7	29517.08
611.057	29651.76
611.414	29859.67
611.771	30024.86
612.127	30305.3
612.484	30433.44
612.841	30765.18
613.198	30702.58
613.554	31107.09
613.911	31308.89
614.267	31461.66
614.624	31568.1
614.98	31791.82
615.337	32085.6
615.693	32112.49
616.05	32348.41
616.406	32617.79
616.762	32564.23
617.118	32709.76
617.475	33028.17
617.831	33260.03
618.187	33110.65
618.543	33346.58
618.899	33692.79
619.255	33805.33
619.611	33820.47
619.967	34069.73
620.323	34147.69
620.678	34162.38
621.034	34134.81
621.39	34293.22
621.746	34470.17
622.101	34985.63
622.457	34659.99
622.812	34836.03
623.168	35043.49
623.523	35167.32
623.879	35341.78
624.234	35171.39
624.589	35377.94
624.945	35487.32
625.3	35584.71
625.655	35603.02
626.01	35749.23
626.365	35809.57
626.72	35926.63
627.075	35991.48
627.43	36083.46
627.785	36042.1
628.14	36004.36
628.495	36150.8
628.85	36202.1
629.205	36090.46
629.559	36352.15
629.914	36346.05
630.269	36414.3
630.623	36275.09
630.978	36343.56
631.332	36504.69
631.687	36557.34
632.041	36436.67
632.396	36544.69
632.75	36444.35
633.104	36677.79
633.459	36486.39
633.813	36517.34
634.167	36547.17
634.521	36665.82
634.875	36593.05
635.229	36577.23
635.583	36531.81
635.937	36467.18
636.291	36523.45
636.645	36509.89
636.999	36525.93
637.352	36615.87
637.706	36461.75
638.06	36731.12
638.413	36563.45
638.767	36411.58
639.121	36545.14
639.474	36432.83
639.828	36531.58
640.181	36617.68
640.534	36548.76
640.888	36576.55
641.241	36366.61
641.594	36504.24
641.947	36549.21
642.301	36513.5
642.654	36669.66
643.007	36476.67
643.36	36508.31
643.713	36470.79
644.066	36566.84
644.419	36388.53
644.771	36091.82
645.124	35811.83
645.477	35892.73
645.83	35659.74
646.182	35502
646.535	35377.26
646.888	35465.17
647.24	35348.79
647.593	35514.43
647.945	35306.98
648.298	35264.95
648.65	35174.1
649.002	35254.55
649.355	35277.15
649.707	35188.11
650.059	35433.76
650.411	35775.9
650.763	35744.03
651.115	36228.99
651.467	36047.07
651.819	36073.06
652.171	36042.56
652.523	36014.31
652.875	36061.31
653.227	35799.4
653.578	36131.14
653.93	35931.6
654.282	35894.54
654.633	35909.9
654.985	35840.53
655.337	35937.02
655.688	35904.25
656.039	35992.61
656.391	35726.18
656.742	35773.18
657.094	35827.87
657.445	35912.39
657.796	35754.88
658.147	35716.46
658.498	35707.65
658.849	35763.92
659.2	35765.05
659.551	35687.76
659.902	35953.74
660.253	35773.86
660.604	35839.62
660.955	35658.38
661.306	35723.69
661.656	35795.78
662.007	35763.92
662.358	35712.85
662.708	35695.67
663.059	35798.04
663.409	35400.54
663.76	35779.29
664.11	35672.62
664.461	35839.17
664.811	35650.02
665.161	35560.31
665.511	35611.15
665.862	35572.74
666.212	35749.23
666.562	35745.16
666.912	35683.92
667.262	35652.51
667.612	35629.01
667.962	35661.32
668.312	35595.56
668.662	35903.58
669.011	35657.48
669.361	35667.88
669.711	35504.49
670.06	35570.7
670.41	35455.68
670.76	35453.87
671.109	35575.67
671.459	35518.28
671.808	35402.8
672.157	35412.29
672.507	35205.97
672.856	35226.08
673.205	35311.5
673.554	35479.86
673.904	35394.44
674.253	35552.4
674.602	35396.24
674.951	34764.4
675.3	34782.93
675.649	35206.87
675.998	35075.35
676.346	35284.38
676.695	35288
677.044	35064.95
677.393	35177.95
677.741	35183.82
678.09	35163.26
678.438	35097.95
678.787	35057.27
679.135	35198.96
679.484	34837.16
679.832	35097.72
680.181	34909.93
680.529	34988.12
680.877	34845.75
681.225	34854.79
681.573	34946.31
681.922	34841.68
682.27	34537.51
682.618	34627.9
682.966	34630.84
683.314	34710.61
683.661	34575.93
684.009	34389.04
684.357	34403.05
684.705	34251.42
685.053	34370.06
685.4	34339.32
685.748	34131.42
686.095	34099.56
686.443	33972.55
686.79	33977.07
687.138	34032.66
687.485	33965.1
687.832	33796.51
688.18	33903.4
688.527	33739.56
688.874	33676.97
689.221	33612.56
689.568	33502.51
689.915	33340.71
690.262	33344.55
690.609	33259.58
690.956	33258.45
691.303	33275.17
691.65	33045.57
691.997	33028.62
692.344	32924.45
692.69	32780.27
693.037	32830.44
693.383	32608.75
693.73	32804.45
694.077	32531.91
694.423	32459.6
694.769	32496.89
695.116	32358.81
695.462	32244.46
695.808	32208.98
696.155	32321.07
696.501	32038.82
696.847	32008.54
697.193	31737.36
697.539	32000.18
697.885	31679.73
698.231	31638.38
698.577	31549.11
698.923	31512.28
699.269	31306.18
699.614	31291.27
699.96	31176.24
700.306	31295.56
700.651	31084.27
700.997	30954.1
701.342	31131.27
701.688	30898.06
702.033	30768.12
702.379	30789.59
702.724	30676.37
703.069	30891.96
703.415	30376.72
703.76	30385.98
704.105	30436.37
704.45	30432.53
704.795	30146.44
705.14	30118.42
705.485	29985.99
705.83	29940.57
706.175	30050.85
706.52	29772.21
706.865	29776.51
707.209	29834.58
707.554	29482.05
707.899	29688.15
708.243	29602.95
708.588	29407.48
708.932	29214.94
709.277	29239.57
709.621	29301.26
709.966	29086.81
710.31	29134.94
710.654	28921.84
710.998	28899.47
711.342	28913.03
711.687	28795.29
712.031	28848.85
712.375	28609.98
712.719	28763.88
713.063	28604.56
713.407	28687.49
713.75	28583.54
714.094	28575.18
714.438	28350.1
714.782	28491.79
715.125	28239.82
715.469	28415.41
715.812	28145.14
716.156	28174.74
716.499	28101.97
716.843	28285.02
717.186	27959.6
717.53	28113.05
717.873	28141.52
718.216	27961.19
718.559	27882.54
718.902	27648.65
719.246	27776.56
719.589	27619.27
719.932	27570.69
720.275	27460.41
720.617	27568.88
720.96	27459.96
721.303	27359.39
721.646	27381.54
721.989	27238.94
722.331	27363.91
722.674	27223.35
723.016	27191.49
723.359	27150.13
723.701	27262.22
724.044	26994.88
724.386	26851.16
724.729	27054.77
725.071	26874.66
725.413	26965.51
725.755	26882.8
726.097	26703.59
726.439	26611.16
726.782	26589.92
727.124	26754.89
727.465	26490.94
727.807	26586.76
728.149	26393.77
728.491	26536.82
728.833	26593.54
729.175	26470.15
729.516	26356.93
729.858	26385.41
730.199	26439.64
730.541	26196.03
730.882	26136.37
731.224	26304.05
731.565	26152.65
731.906	26120.78
732.248	26074.46
732.589	26039.65
732.93	26060.44
733.271	25912.43
733.612	25870.39
733.953	25946.55
734.294	25911.3
734.635	25756.5
734.976	25844.41
735.317	25761.24
735.658	25651.42
735.999	25596.05
736.339	25499.56
736.68	25645.09
737.021	25475.15
737.361	25372.78
737.702	25490.74
738.042	25439.9
738.383	25498.2
738.723	25469.27
739.063	25363.51
739.404	25451.87
739.744	25290.75
740.084	25217.98
740.424	25292.78
740.764	25158.55
741.104	25274.7
741.444	25080.58
741.784	25047.82
742.124	24966.24
742.464	25094.59
742.804	24907.93
743.143	24939.8
743.483	24949.29
743.823	24731.67
744.162	24791.33
744.502	24876.07
744.841	24642.4
745.181	24799.69
745.52	24639.92
745.86	24722.4
746.199	24607.15
746.538	24681.5
746.877	24623.42
747.216	24589.3
747.556	24494.38
747.895	24549.07
748.234	24361.73
748.573	24374.84
748.911	24332.35
749.25	24310.43
749.589	24174.62
749.928	24179.82
750.267	24227.5
750.605	24157.9
750.944	24065.24
751.283	24033.38
751.621	24141.63
751.96	23938.47
752.298	23920.16
752.636	24006.49
752.975	23904.8
753.313	23690.79
753.651	23926.26
753.989	23678.59
754.327	23685.82
754.666	23670.23
755.004	23634.29
755.342	23700.51
755.679	23568.08
756.017	23474.98
756.355	23568.53
756.693	23372.38
757.031	23360.85
757.368	23170.35
757.706	23221.42
758.044	23167.41
758.381	23235.43
758.719	23137.81
759.056	23081.99
759.394	22974.2
759.731	22872.96
760.068	22825.73
760.405	22783.92
760.743	22704.83
