Data from hue_100_FLMS001491_00100.txt Node
Date: Tue Feb 07 17:03:55 GMT 2017
User: dcchb
Spectrometer: FLMS00149
Trigger mode: 0
Integration Time (sec): 2.000000E-2
Scans to average: 10
Electric dark correction enabled: true
Nonlinearity correction enabled: false
Boxcar width: 0
XAxis mode: Wavelengths
Number of Pixels in Spectrum: 2048
>>>>>Begin Spectral Data<<<<<
341.393	-3.21
341.776	-3.21
342.16	-3.21
342.543	-63.77
342.927	-64
343.31	-75.75
343.693	-65.8
344.077	-55.86
344.46	-76.42
344.843	-53.37
345.226	-54.5
345.61	-38.91
345.993	-14.73
346.376	-15.18
346.759	24.82
347.142	37.47
347.525	41.09
347.908	73.4
348.291	68.66
348.674	101.65
349.057	103.46
349.44	138.71
349.823	164.47
350.206	154.3
350.588	204.02
350.971	220.97
351.354	218.93
351.737	224.58
352.119	260.06
352.502	258.48
352.884	261.87
353.267	270.01
353.65	284.24
354.032	291.93
354.414	319.72
354.797	312.27
355.179	343.45
355.562	307.97
355.944	327.41
356.326	323.79
356.709	334.86
357.091	337.12
357.473	335.09
357.855	329.44
358.238	324.47
358.62	326.05
359.002	362.21
359.384	340.74
359.766	329.89
360.148	326.95
360.53	337.8
360.912	328.76
361.294	324.24
361.676	335.77
362.057	342.1
362.439	327.86
362.821	340.74
363.203	329.89
363.584	320.85
363.966	328.54
364.348	319.72
364.729	320.18
365.111	305.71
365.493	328.76
365.874	329.89
366.256	305.94
366.637	300.06
367.019	327.63
367.4	290.8
367.781	313.17
368.163	315.2
368.544	305.49
368.925	326.95
369.306	314.3
369.688	331.25
370.069	326.95
370.45	322.89
370.831	323.56
371.212	314.07
371.593	324.02
371.974	315.66
372.355	304.58
372.736	337.35
373.117	321.08
373.498	317.01
373.879	315.43
374.26	322.89
374.641	326.5
375.021	305.26
375.402	330.34
375.783	322.44
376.163	308.65
376.544	319.27
376.925	350.46
377.305	309.78
377.686	332.15
378.066	325.82
378.447	343.45
378.827	326.73
379.208	335.32
379.588	316.56
379.968	341.87
380.349	339.61
380.729	353.85
381.109	327.86
381.489	341.19
381.87	362.21
382.25	345.03
382.63	350.68
383.01	336.67
383.39	322.89
383.77	343.23
384.15	345.71
384.53	348.2
384.91	341.87
385.29	356.56
385.67	370.8
386.049	361.3
386.429	335.99
386.809	351.36
387.189	366.95
387.568	368.31
387.948	358.59
388.328	377.57
388.707	361.3
389.087	375.31
389.466	359.72
389.846	352.72
390.225	383.45
390.605	365.6
390.984	382.77
391.363	383.45
391.743	380.51
392.122	382.09
392.501	375.54
392.881	394.52
393.26	379.61
393.639	391.81
394.018	375.54
394.397	380.06
394.776	384.35
395.155	399.04
395.534	394.3
395.913	392.49
396.292	411.7
396.671	411.47
397.05	393.85
397.429	404.92
397.808	384.35
398.186	373.28
398.565	419.83
398.944	404.01
399.323	371.7
399.701	416.22
400.08	395.88
400.458	423.22
400.837	418.7
401.215	419.83
401.594	420.96
401.972	404.01
402.351	423
402.729	442.43
403.107	408.31
403.486	429.78
403.864	419.16
404.242	437.46
404.62	431.13
404.999	408.99
405.377	448.31
405.755	449.66
406.133	434.75
406.511	433.62
406.889	460.06
407.267	445.82
407.645	462.54
408.023	452.83
408.401	440.62
408.779	450.57
409.156	468.42
409.534	479.04
409.912	460.96
410.29	490.11
410.667	474.97
411.045	490.11
411.422	524.92
411.8	484.92
412.178	497.8
412.555	494.18
412.933	511.58
413.31	510.45
413.687	517.46
414.065	517.46
414.442	512.49
414.819	496.89
415.197	535.54
415.574	517.23
415.951	533.28
416.328	527.4
416.705	513.16
417.082	547.06
417.46	557.46
417.837	559.94
418.214	538.7
418.591	554.52
418.967	573.5
419.344	569.66
419.721	544.58
420.098	570.79
420.475	573.95
420.852	559.49
421.228	570.79
421.605	584.35
421.982	599.04
422.358	579.83
422.735	578.25
423.111	604.91
423.488	575.31
423.864	601.3
424.241	578.7
424.617	607.4
424.994	601.52
425.37	618.47
425.746	618.02
426.123	625.25
426.499	624.8
426.875	622.99
427.251	628.64
427.627	645.14
428.003	659.38
428.379	660.28
428.756	672.26
429.132	667.51
429.507	693.27
429.883	672.03
430.259	703.44
430.635	681.97
431.011	687.62
431.387	711.35
431.763	712.71
432.138	712.26
432.514	704.57
432.89	731.24
433.265	738.7
433.641	748.86
434.016	747.28
434.392	759.94
434.767	754.29
435.143	758.36
435.518	763.1
435.894	762.88
436.269	803.78
436.644	802.65
437.02	807.62
437.395	813.04
437.77	832.03
438.145	833.61
438.52	834.06
438.895	857.79
439.271	848.07
439.646	834.51
440.021	846.04
440.395	868.86
440.77	861.86
441.145	857.79
441.52	870.22
441.895	882.65
442.27	891.91
442.645	876.77
443.019	907.5
443.394	904.11
443.769	901.18
444.143	897.56
444.518	918.13
444.892	924.45
445.267	934.17
445.641	955.19
446.016	920.16
446.39	934.4
446.764	942.08
447.139	970.78
447.513	954.51
447.887	989.31
448.262	1001.51
448.636	987.5
449.01	996.77
449.384	1032.25
449.758	1022.76
450.132	1045.35
450.506	1025.69
450.88	1040.16
451.254	1047.61
451.628	1030.44
452.002	1020.95
452.376	1071.12
452.75	1079.7
453.123	1087.16
453.497	1086.93
453.871	1125.35
454.244	1131.45
454.618	1131
454.992	1130.32
455.365	1156.54
455.739	1169.87
456.112	1193.37
456.486	1180.94
456.859	1198.12
457.232	1244.44
457.606	1242.86
457.979	1253.71
458.352	1295.06
458.725	1299.13
459.099	1300.04
459.472	1301.62
459.845	1337.1
460.218	1315.86
460.591	1360.83
460.964	1358.11
461.337	1386.36
461.71	1424.1
462.083	1424.1
462.456	1434.95
462.829	1469.07
463.201	1475.63
463.574	1478.11
463.947	1509.07
464.32	1560.82
464.692	1543.87
465.065	1545
465.438	1589.52
465.81	1648.28
466.183	1633.36
466.555	1661.38
466.928	1694.15
467.3	1714.49
467.672	1741.61
468.045	1759.01
468.417	1796.07
468.789	1814.6
469.161	1826.58
469.534	1863.86
469.906	1899.12
470.278	1959.68
470.65	1970.3
471.022	2034.93
471.394	2074.03
471.766	2086.91
472.138	2138.43
472.51	2161.93
472.882	2215.27
473.253	2264.53
473.625	2278.54
473.997	2361.03
474.369	2386.11
474.74	2436.5
475.112	2511.3
475.484	2543.39
475.855	2597.18
476.227	2637.85
476.598	2737.29
476.97	2776.16
477.341	2862.48
477.713	2935.93
478.084	2986.55
478.455	3055.92
478.827	3144.06
479.198	3230.38
479.569	3276.71
479.94	3411.85
480.311	3446.19
480.682	3547.66
481.053	3713.76
481.424	3795.56
481.795	3866.97
482.166	3975.67
482.537	4050.02
482.908	4171.83
483.279	4250.02
483.65	4378.6
484.021	4517.13
484.391	4608.2
484.762	4765.93
485.133	4823.33
485.503	4969.32
485.874	5076.21
486.244	5152.59
486.615	5331.79
486.985	5440.04
487.356	5636.19
487.726	5721.16
488.097	5901.95
488.467	5948.05
488.837	6161.83
489.207	6284.99
489.578	6399.79
489.948	6563.63
490.318	6750.74
490.688	6825.54
491.058	6973.11
491.428	7107.12
491.798	7298.75
492.168	7493.55
492.538	7558.4
492.908	7762.01
493.278	7893.76
493.648	8007.88
494.017	8176.24
494.387	8258.95
494.757	8445.39
495.126	8600.41
495.496	8700.75
495.866	8802.66
496.235	8952.04
496.605	9141.41
496.974	9266.15
497.344	9355.87
497.713	9473.83
498.082	9637.22
498.452	9763.54
498.821	9779.14
499.19	9898
499.559	10068.62
499.928	10156.07
500.298	10239.01
500.667	10465.45
501.036	10436.29
501.405	10607.36
501.774	10650.75
502.143	10822.95
502.512	10854.36
502.88	11045.99
503.249	11074.69
503.618	11274.46
503.987	11239.21
504.356	11320.34
504.724	11469.49
505.093	11483.72
505.462	11591.74
505.83	11716.49
506.199	11839.65
506.567	11982.47
506.936	11981.34
507.304	12131.62
507.672	12242.35
508.041	12356.69
508.409	12384.94
508.777	12481.44
509.145	12556.01
509.514	12585.39
509.882	12671.71
510.25	12663.81
510.618	12870.81
510.986	12800.75
511.354	12886.85
511.722	12980.18
512.09	13076.9
512.458	13106.73
512.826	13301.08
513.193	13304.92
513.561	13276.22
513.929	13340.85
514.297	13494.52
514.664	13536.55
515.032	13585.14
515.4	13719.37
515.767	13719.37
516.135	13754.85
516.502	13705.59
516.869	13896.54
517.237	13985.13
517.604	13919.37
517.972	14031.23
518.339	14102.41
518.706	13966.37
519.073	14099.7
519.44	14055.41
519.808	14242.3
520.175	14222.41
520.542	14327.49
520.909	14468.28
521.276	14446.36
521.643	14494.49
522.009	14529.75
522.376	14578.78
522.743	14603.42
523.11	14708.95
523.477	14857.19
523.843	14815.61
524.21	14876.63
524.577	15009.96
524.943	14967.25
525.31	14986
525.676	15047.25
526.043	15091.09
526.409	15193.91
526.776	15125.44
527.142	15188.03
527.508	15267.8
527.874	15229.61
528.241	15332.66
528.607	15332.89
528.973	15405.65
529.339	15317.75
529.705	15360.23
530.071	15491.53
530.437	15517.74
530.803	15478.87
531.169	15527.91
531.535	15400.68
531.901	15521.58
532.267	15481.13
532.632	15590.96
532.998	15512.09
533.364	15492.43
533.73	15452.43
534.095	15457.63
534.461	15539.89
534.826	15600.45
535.192	15481.81
535.557	15625.54
535.923	15490.4
536.288	15505.99
536.653	15524.52
537.019	15333.57
537.384	15553
537.749	15436.16
538.114	15372.21
538.479	15366.56
538.845	15409.95
539.21	15273.91
539.575	15374.47
539.94	15293.79
540.305	15280.69
540.67	15288.14
541.034	15288.14
541.399	15169.73
541.764	15211.54
542.129	15221.93
542.494	15154.81
542.858	15154.59
543.223	15108.03
543.587	15141.03
543.952	15197.52
544.316	15160.91
544.681	14992.78
545.045	15074.36
545.41	15052.67
545.774	14967.93
546.138	14902.84
546.503	14957.98
546.867	14928.83
547.231	14980.13
547.595	14920.47
547.959	14812.68
548.324	14811.32
548.688	14792.79
549.052	14798.89
549.416	14802.05
549.779	14746.46
550.143	14750.98
550.507	14696.52
550.871	14708.27
551.235	14683.87
551.599	14746.46
551.962	14636.41
552.326	14654.94
552.689	14723.64
553.053	14539.46
553.417	14587.82
553.78	14615.62
554.143	14524.55
554.507	14548.05
554.87	14641.15
555.234	14672.57
555.597	14487.71
555.96	14525.23
556.323	14452.23
556.686	14420.14
557.05	14534.04
557.413	14504.66
557.776	14436.41
558.139	14532
558.502	14418.34
558.865	14361.39
559.228	14523.19
559.59	14460.82
559.953	14470.99
560.316	14537.43
560.679	14506.02
561.041	14522.29
561.404	14591.44
561.767	14609.74
562.129	14553.7
562.492	14681.15
562.854	14603.19
563.217	14504.21
563.579	14602.74
563.941	14637.09
564.304	14688.16
564.666	14714.82
565.028	14770.42
565.39	14674.83
565.753	14710.53
566.115	14722.96
566.477	14805.9
566.839	14799.12
567.201	14790.3
567.563	14760.7
567.925	14869.4
568.287	14851.77
568.648	14936.97
569.01	14917.31
569.372	14920.47
569.734	14950.3
570.095	14888.83
570.457	14984.2
570.819	14902.84
571.18	14989.17
571.542	15025.33
571.903	15040.01
572.265	15037.75
572.626	15048.6
572.987	14932.9
573.349	15060.13
573.71	15060.13
574.071	15021.94
574.432	15137.19
574.794	15219.9
575.155	15201.82
575.516	15175.15
575.877	15201.59
576.238	15161.14
576.599	15221.7
576.96	15256.96
577.32	15199.11
577.681	15277.52
578.042	15252.44
578.403	15176.06
578.763	15247.01
579.124	15231.2
579.485	15247.92
579.845	15346.22
580.206	15357.97
580.566	15195.72
580.927	15331.53
581.287	15283.4
581.648	15316.84
582.008	15304.87
582.368	15273.45
582.728	15232.78
583.089	15245.66
583.449	15199.56
583.809	15246.34
584.169	15248.82
584.529	15158.88
584.889	15271.65
585.249	15161.14
585.609	15111.2
585.969	15266.9
586.329	15212.21
586.688	15188.48
587.048	15157.98
587.408	15178.32
587.768	15070.07
588.127	15152.78
588.487	15097.19
588.846	15180.8
589.206	15071.2
589.565	14978.55
589.925	15122.27
590.284	15037.75
590.643	15087.02
591.003	15046.79
591.362	15111.2
591.721	15059
592.08	15109.62
592.44	15025.55
592.799	15237.52
593.158	15066.23
593.517	15047.92
593.876	15071.43
594.235	14978.09
594.593	15053.57
594.952	15015.16
595.311	14991.2
595.67	15002.5
596.029	15108.03
596.387	15056.06
596.746	14967.25
597.104	14999.56
597.463	14924.99
597.822	15002.73
598.18	14933.8
598.538	14868.27
598.897	14978.55
599.255	14841.38
599.613	15105.1
599.972	15007.92
600.33	15044.31
600.688	14939.68
601.046	15033.69
601.404	15089.05
601.762	15078.66
602.12	15055.38
602.478	15034.82
602.836	15125.21
603.194	14947.81
603.552	14943.29
603.91	14922.73
604.268	14966.57
604.625	14927.47
604.983	14981.26
605.341	14931.54
605.698	14938.55
606.056	14962.5
606.413	14982.39
606.771	15040.69
607.128	15019.45
607.485	14963.63
607.843	15002.05
608.2	15070.75
608.557	15131.31
608.914	15010.64
609.272	15181.48
609.629	15073.23
609.986	15183.74
610.343	15031.43
610.7	15289.95
611.057	15124.53
611.414	15079.56
611.771	15126.79
612.127	15206.11
612.484	15140.8
612.841	15230.52
613.198	15119.33
613.554	15207.47
613.911	15276.62
614.267	15259.9
614.624	15198.65
614.98	15157.98
615.337	15254.47
615.693	15187.58
616.05	15291.53
616.406	15359.1
616.762	15390.74
617.118	15336.5
617.475	15332.21
617.831	15359.1
618.187	15365.88
618.543	15370.17
618.899	15445.43
619.255	15424.41
619.611	15413.79
619.967	15516.61
620.323	15512.09
620.678	15426.22
621.034	15441.36
621.39	15475.03
621.746	15433.22
622.101	15553
622.457	15409.04
622.812	15376.05
623.168	15494.24
623.523	15420.34
623.879	15599.32
624.234	15387.35
624.589	15492.21
624.945	15417.63
625.3	15504.86
625.655	15392.55
626.01	15361.36
626.365	15517.29
626.72	15484.3
627.075	15469.16
627.43	15416.28
627.785	15443.39
628.14	15378.99
628.495	15425.31
628.85	15349.84
629.205	15341.02
629.559	15473.68
629.914	15309.39
630.269	15364.98
630.623	15348.93
630.978	15348.71
631.332	15424.64
631.687	15379.44
632.041	15261.7
632.396	15361.81
632.75	15238.88
633.104	15210.86
633.459	15178.99
633.813	15159.56
634.167	15216.05
634.521	15179.67
634.875	15319.55
635.229	15207.02
635.583	15154.14
635.937	15122.95
636.291	15108.71
636.645	15041.37
636.999	15125.44
637.352	15047.7
637.706	14981.94
638.06	15067.13
638.413	14943.75
638.767	15032.33
639.121	14967.7
639.474	14847.7
639.828	14900.13
640.181	14901.71
640.534	14901.71
640.888	14903.29
641.241	14814.26
641.594	14903.75
641.947	14867.59
642.301	14815.16
642.654	14847.48
643.007	14777.42
643.36	14797.08
643.713	14777.87
644.066	14797.53
644.419	14717.54
644.771	14639.8
645.124	14509.86
645.477	14479.8
645.83	14455.17
646.182	14379.24
646.535	14239.36
646.888	14352.57
647.24	14288.62
647.593	14295.4
647.945	14262.18
648.298	14282.75
648.65	14276.64
649.002	14158
649.355	14314.84
649.707	14235.52
650.059	14331.33
650.411	14497.88
650.763	14508.28
651.115	14637.31
651.467	14575.39
651.819	14689.97
652.171	14640.93
652.523	14574.72
652.875	14585.11
653.227	14518.45
653.578	14616.75
653.93	14598.44
654.282	14531.55
654.633	14554.6
654.985	14537.65
655.337	14477.32
655.688	14609.74
656.039	14588.05
656.391	14425.57
656.742	14562.06
657.094	14494.04
657.445	14667.59
657.796	14539.91
658.147	14502.18
658.498	14541.72
658.849	14536.07
659.2	14587.82
659.551	14512.12
659.902	14569.97
660.253	14629.86
660.604	14617.43
660.955	14584.88
661.306	14561.83
661.656	14563.87
662.007	14641.83
662.358	14574.72
662.708	14666.46
663.059	14597.99
663.409	14544.66
663.76	14698.55
664.11	14610.87
664.461	14717.08
664.811	14709.18
665.161	14728.38
665.511	14692.45
665.862	14730.42
666.212	14680.48
666.562	14652
666.912	14599.57
667.262	14575.62
667.612	14655.84
667.962	14657.2
668.312	14657.2
668.662	14747.14
669.011	14708.95
669.361	14570.65
669.711	14565
670.06	14534.94
670.41	14521.16
670.76	14487.71
671.109	14601.83
671.459	14565.45
671.808	14468.05
672.157	14521.38
672.507	14443.65
672.856	14465.57
673.205	14498.79
673.554	14582.63
673.904	14441.16
674.253	14504.66
674.602	14449.07
674.951	14273.48
675.3	14201.84
675.649	14369.52
675.998	14365.46
676.346	14360.26
676.695	14435.96
677.044	14369.07
677.393	14409.97
677.741	14333.59
678.09	14307.6
678.438	14270.77
678.787	14300.15
679.135	14260.37
679.484	14206.82
679.832	14159.13
680.181	14190.09
680.529	14054.96
680.877	14141.51
681.225	14071.23
681.573	14243.2
681.922	14057.44
682.27	13929.31
682.618	14069.64
682.966	14006.37
683.314	14027.16
683.661	14017.44
684.009	13958.69
684.357	13911
684.705	13853.6
685.053	13824.23
685.4	13871.01
685.748	13794.4
686.095	13759.6
686.443	13678.24
686.79	13656.32
687.138	13687.51
687.485	13744.68
687.832	13622.88
688.18	13630.33
688.527	13544.01
688.874	13454.97
689.221	13533.84
689.568	13468.53
689.915	13447.74
690.262	13424.24
690.609	13401.19
690.956	13321.87
691.303	13280.29
691.65	13317.8
691.997	13246.61
692.344	13183.57
692.69	13080.07
693.037	13084.13
693.383	13002.55
693.73	13004.81
694.077	12998.71
694.423	12949.9
694.769	12869
695.116	12810.47
695.462	12819.51
695.808	12749.68
696.155	12756.23
696.501	12585.16
696.847	12653.86
697.193	12521.21
697.539	12571.38
697.885	12472.17
698.231	12384.72
698.577	12428.33
698.923	12379.97
699.269	12262.01
699.614	12186.53
699.96	12209.35
700.306	12209.35
700.651	12101.11
700.997	12135.91
701.342	11986.31
701.688	12005.97
702.033	11993.09
702.379	11985.86
702.724	11821.34
703.069	11950.6
703.415	11714.9
703.76	11723.04
704.105	11744.06
704.45	11717.16
704.795	11565.76
705.14	11582.7
705.485	11623.15
705.83	11514.68
706.175	11594.46
706.52	11491.63
706.865	11427.68
707.209	11459.54
707.554	11380.68
707.899	11387
708.243	11317.63
708.588	11206.67
708.932	11265.88
709.277	11204.86
709.621	11249.83
709.966	11168.03
710.31	11194.92
710.654	11053.68
710.998	11036.28
711.342	11038.54
711.687	10956.96
712.031	10987.24
712.375	10960.57
712.719	10989.05
713.063	10910.41
713.407	10990.4
713.75	10919.44
714.094	10903.63
714.438	10806.68
714.782	10830.18
715.125	10760.13
715.469	10843.97
715.812	10755.83
716.156	10687.13
716.499	10662.28
716.843	10662.95
717.186	10610.53
717.53	10651.2
717.873	10704.76
718.216	10660.47
718.559	10559
718.902	10469.74
719.246	10617.08
719.589	10537.31
719.932	10512.45
720.275	10434.03
720.617	10484.65
720.96	10456.63
721.303	10475.16
721.646	10418.21
721.989	10376.41
722.331	10366.46
722.674	10360.14
723.016	10381.83
723.359	10382.28
723.701	10372.34
724.044	10406.01
724.386	10329.86
724.729	10387.26
725.071	10321.72
725.413	10326.24
725.755	10332.57
726.097	10283.08
726.439	10246.47
726.782	10185.45
727.124	10304.32
727.465	10173.48
727.807	10282.63
728.149	10236.3
728.491	10160.37
728.833	10250.54
729.175	10112.23
729.516	10221.38
729.858	10169.86
730.199	10140.93
730.541	10192.23
730.882	10124.44
731.224	10265
731.565	10157.66
731.906	10174.61
732.248	10119.01
732.589	10124.66
732.93	10092.8
733.271	10091.9
733.612	10151.33
733.953	10120.6
734.294	10064.55
734.635	10053.93
734.976	10139.58
735.317	10083.31
735.658	10150.88
735.999	10092.8
736.339	10094.61
736.68	10216.41
737.021	10062.97
737.361	10089.86
737.702	10133.25
738.042	10122.4
738.383	10081.73
738.723	10170.31
739.063	10138.22
739.404	10224.77
739.744	10182.29
740.084	10140.26
740.424	10229.75
740.764	10185.45
741.104	10218.9
741.444	10225.45
741.784	10161.72
742.124	10283.76
742.464	10296.64
742.804	10306.81
743.143	10264.77
743.483	10349.29
743.823	10302.51
744.162	10364.43
744.502	10399.23
744.841	10333.92
745.181	10454.82
745.52	10435.62
745.86	10527.59
746.199	10552.45
746.538	10539.34
746.877	10548.61
747.216	10683.29
747.556	10733.46
747.895	10778.43
748.234	10789.73
748.573	10865.66
748.911	10954.92
749.25	10938.2
749.589	11066.56
749.928	11076.95
750.267	11182.94
750.605	11227.23
750.944	11340.45
751.283	11373.9
751.621	11421.8
751.96	11529.82
752.298	11697.96
752.636	11744.73
752.975	11745.41
753.313	11823.15
753.651	12047.1
753.989	12056.36
754.327	12201.44
754.666	12278.73
755.004	12443.25
755.342	12541.77
755.679	12715.78
756.017	12776.8
756.355	12939.5
756.693	13026.73
