Data from hue_32_FLMS001491_00097.txt Node
Date: Tue Feb 07 17:24:17 GMT 2017
User: dcchb
Spectrometer: FLMS00149
Trigger mode: 0
Integration Time (sec): 2.000000E-2
Scans to average: 10
Electric dark correction enabled: true
Nonlinearity correction enabled: false
Boxcar width: 0
XAxis mode: Wavelengths
Number of Pixels in Spectrum: 2048
>>>>>Begin Spectral Data<<<<<
341.393	-15.08
341.776	-15.08
342.16	-15.08
342.543	-57.12
342.927	-58.25
343.31	-63.22
343.693	-70.68
344.077	-68.64
344.46	-41.98
344.843	-72.48
345.226	-50.34
345.61	-40.39
345.993	-27.29
346.376	22.43
346.759	7.74
347.142	30.34
347.525	43.45
347.908	64.01
348.291	81.86
348.674	85.48
349.057	99.71
349.44	136.78
349.823	141.52
350.206	150.79
350.588	198.02
350.971	219.26
351.354	263.33
351.737	249.54
352.119	248.19
352.502	256.77
352.884	252.25
353.267	299.26
353.65	299.03
354.032	283.66
354.414	297
354.797	315.08
355.179	312.14
355.562	322.08
355.944	350.56
356.326	328.41
356.709	327.73
357.091	340.39
357.473	363.44
357.855	335.64
358.238	335.87
358.62	339.48
359.002	341.52
359.384	361.63
359.766	345.36
360.148	343.55
360.53	349.88
360.912	336.54
361.294	343.1
361.676	350.33
362.057	345.58
362.439	341.06
362.821	362.53
363.203	338.8
363.584	327.73
363.966	330.22
364.348	313.95
364.729	332.7
365.111	309.88
365.493	322.08
365.874	338.35
366.256	327.51
366.637	323.21
367.019	304.68
367.4	336.77
367.781	312.36
368.163	316.88
368.544	336.54
368.925	323.21
369.306	320.27
369.688	316.43
370.069	313.72
370.45	320.95
370.831	318.47
371.212	304.23
371.593	326.83
371.974	326.15
372.355	342.42
372.736	332.25
373.117	307.85
373.498	333.61
373.879	348.97
374.26	361.85
374.641	316.88
375.021	322.99
375.402	323.89
375.783	338.35
376.163	327.73
376.544	334.51
376.925	316.66
377.305	329.09
377.686	345.58
378.066	342.42
378.447	329.09
378.827	347.39
379.208	334.28
379.588	348.97
379.968	333.61
380.349	316.88
380.729	340.16
381.109	354.4
381.489	351.46
381.87	345.58
382.25	354.85
382.63	342.42
383.01	356.66
383.39	359.14
383.77	353.49
384.15	355.08
384.53	361.4
384.91	323.44
385.29	369.76
385.67	349.43
386.049	352.36
386.429	356.21
386.809	342.65
387.189	365.7
387.568	363.44
387.948	382.42
388.328	362.76
388.707	358.24
389.087	361.85
389.466	373.83
389.846	350.1
390.225	361.18
390.605	377.9
390.984	366.15
391.363	388.52
391.743	380.84
392.122	372.25
392.501	384.91
392.881	374.28
393.26	388.97
393.639	380.39
394.018	393.04
394.397	381.97
394.776	390.1
395.155	378.35
395.534	394.4
395.913	395.07
396.292	399.14
396.671	403.89
397.05	387.16
397.429	393.04
397.808	394.4
398.186	403.21
398.565	390.33
398.944	400.5
399.323	395.75
399.701	402.53
400.08	414.73
400.458	417.45
400.837	403.66
401.215	427.39
401.594	444.34
401.972	432.59
402.351	412.48
402.729	426.49
403.107	410.67
403.486	419.25
403.864	417.45
404.242	414.51
404.62	438.46
404.999	440.72
405.377	422.42
405.755	421.97
406.133	419.03
406.511	445.92
406.889	441.63
407.267	454.06
407.645	442.76
408.023	471
408.401	450.89
408.779	462.87
409.156	457.67
409.534	471
409.912	467.61
410.29	466.94
410.667	462.87
411.045	464
411.422	455.41
411.8	464.68
412.178	476.43
412.555	481.63
412.933	473.04
413.31	491.57
413.687	469.87
414.065	483.89
414.442	513.04
414.819	497.22
415.197	487.05
415.574	492.92
415.951	500.83
416.328	511.23
416.705	518.91
417.082	511.46
417.46	506.03
417.837	523.21
418.214	513.72
418.591	516.88
418.967	524.79
419.344	525.24
419.721	533.6
420.098	547.39
420.475	536.31
420.852	539.7
421.228	543.09
421.605	546.71
421.982	547.84
422.358	559.14
422.735	571.11
423.111	532.7
423.488	591.68
423.864	556.65
424.241	563.21
424.617	566.14
424.994	560.72
425.37	556.2
425.746	589.19
426.123	595.07
426.499	604.33
426.875	589.42
427.251	614.05
427.627	623.99
428.003	612.92
428.379	604.33
428.756	603.2
429.132	617.67
429.507	619.93
429.883	616.09
430.259	635.52
430.635	647.95
431.011	642.75
431.387	642.53
431.763	654.05
432.138	660.38
432.514	654.28
432.89	639.81
433.265	698.8
433.641	674.62
434.016	668.97
434.392	697.89
434.767	708.96
435.143	702.18
435.518	714.16
435.894	696.31
436.269	702.86
436.644	752.35
437.02	700.6
437.395	736.53
437.77	736.53
438.145	732.92
438.52	749.19
438.895	767.95
439.271	756.65
439.646	772.24
440.021	768.62
440.395	770.66
440.77	767.49
441.145	783.09
441.52	781.05
441.895	794.61
442.27	773.14
442.645	818.57
443.019	810.43
443.394	808.85
443.769	817.21
444.143	808.17
444.518	791.22
444.892	818.34
445.267	820.6
445.641	828.28
446.016	833.48
446.39	858.11
446.764	827.61
447.139	849.07
447.513	861.28
447.887	847.94
448.262	852.69
448.636	871.45
449.01	874.38
449.384	866.93
449.758	870.09
450.132	894.95
450.506	908.06
450.88	896.76
451.254	897.21
451.628	903.54
452.002	926.59
452.376	925.68
452.75	914.83
453.123	930.88
453.497	936.76
453.871	947.38
454.244	969.3
454.618	990.76
454.992	1009.07
455.365	990.54
455.739	1007.04
456.112	1020.14
456.486	1014.72
456.859	1028.5
457.232	1029.41
457.606	1059.69
457.979	1059.92
458.352	1075.51
458.725	1092.46
459.099	1099.69
459.472	1107.37
459.845	1112.34
460.218	1113.7
460.591	1114.6
460.964	1157.54
461.337	1162.74
461.71	1166.35
462.083	1188.73
462.456	1217.2
462.829	1218.78
463.201	1218.78
463.574	1228.95
463.947	1255.16
464.32	1279.34
464.692	1270.31
465.065	1282.06
465.438	1310.53
465.81	1355.73
466.183	1345.78
466.555	1381.26
466.928	1337.2
467.3	1361.38
467.672	1414.93
468.045	1449.06
468.417	1444.09
468.789	1428.27
469.161	1448.61
469.534	1490.86
469.906	1509.4
470.278	1525.89
470.65	1566.34
471.022	1586.91
471.394	1608.38
471.766	1639.34
472.138	1666.68
472.51	1685.44
472.882	1741.25
473.253	1724.08
473.625	1787.13
473.997	1838.2
474.369	1845.88
474.74	1863.74
475.112	1895.15
475.484	1901.7
475.855	1978.99
476.227	1971.3
476.598	2056.5
476.97	2087.01
477.341	2122.49
477.713	2185.08
478.084	2159.77
478.455	2293.78
478.827	2305.08
479.198	2349.15
479.569	2385.76
479.94	2449.03
480.311	2477.96
480.682	2555.7
481.053	2643.83
481.424	2705.97
481.795	2746.65
482.166	2837.27
482.537	2853.99
482.908	2922.24
483.279	2959.98
483.65	3060.09
484.021	3162.91
484.391	3184.83
484.762	3224.6
485.133	3313.87
485.503	3346.18
485.874	3470.02
486.244	3516.8
486.615	3624.82
486.985	3663.01
487.356	3778.49
487.726	3818.04
488.097	3945.04
488.467	3982.32
488.837	4077.24
489.207	4187.07
489.578	4229.32
489.948	4308.42
490.318	4391.35
490.688	4437.68
491.058	4540.28
491.428	4607.17
491.798	4688.29
492.168	4823.66
492.538	4898.68
492.908	4986.14
493.278	5112.69
493.648	5088.28
494.017	5175.06
494.387	5313.82
494.757	5353.36
495.126	5413.25
495.496	5462.06
495.866	5508.84
496.235	5679.91
496.605	5697.08
496.974	5815.27
497.344	5832.45
497.713	5909.73
498.082	5970.29
498.452	6051.87
498.821	6070.41
499.19	6169.84
499.559	6244.64
499.928	6296.61
500.298	6407.12
500.667	6450.06
501.036	6470.39
501.405	6586.32
501.774	6588.13
502.143	6671.52
502.512	6776.38
502.88	6814.57
503.249	6799.88
503.618	6884.4
503.987	6915.58
504.356	6983.38
504.724	6993.32
505.093	7085.97
505.462	7118.74
505.83	7198.74
506.199	7215.23
506.567	7358.28
506.936	7333.42
507.304	7449.13
507.672	7518.28
508.041	7523.7
508.409	7613.42
508.777	7639.86
509.145	7681.44
509.514	7710.36
509.882	7826.52
510.25	7819.96
510.618	7912.84
510.986	7913.07
511.354	7974.99
511.722	8059.51
512.09	8120.75
512.458	8172.5
512.826	8229.44
513.193	8280.06
513.561	8273.06
513.929	8359.84
514.297	8446.84
514.664	8512.38
515.032	8535.88
515.4	8539.72
515.767	8583.79
516.135	8636.21
516.502	8621.98
516.869	8721.64
517.237	8751.92
517.604	8738.58
517.972	8839.15
518.339	8945.13
518.706	8933.15
519.073	8911.69
519.44	8967.96
519.808	9099.25
520.175	9064.9
520.542	9249.53
520.909	9211.57
521.276	9189.65
521.643	9244.79
522.009	9372.24
522.376	9379.24
522.743	9465.8
523.11	9542.18
523.477	9588.73
523.843	9629.18
524.21	9763.87
524.577	9884.99
524.943	9809.97
525.31	9929.74
525.676	9983.97
526.043	9999.79
526.409	10032.11
526.776	10182.61
527.142	10205.21
527.508	10255.38
527.874	10334.02
528.241	10383.51
528.607	10444.53
528.973	10475.94
529.339	10441.36
529.705	10590.74
530.071	10728.14
530.437	10705.09
530.803	10746.44
531.169	10835.93
531.535	10791.41
531.901	10925.64
532.267	10942.82
532.632	11037.28
532.998	11008.13
533.364	11089.48
533.73	11123.38
534.095	11209.71
534.461	11283.15
534.826	11306.2
535.192	11395.24
535.557	11417.16
535.923	11470.49
536.288	11483.82
536.653	11555.68
537.019	11546.87
537.384	11616.02
537.749	11692.18
538.114	11645.4
538.479	11665.96
538.845	11750.93
539.21	11835.9
539.575	11819.41
539.94	11871.61
540.305	11992.74
540.67	11982.11
541.034	12037.93
541.399	12082.22
541.764	12136.46
542.129	12156.12
542.494	12263.91
542.858	12345.27
543.223	12311.37
543.587	12417.13
543.952	12379.62
544.316	12463.46
544.681	12406.28
545.045	12618.93
545.41	12691.02
545.774	12666.39
546.138	12652.38
546.503	12746.16
546.867	12790.23
547.231	12863.22
547.595	12906.61
547.959	12908.64
548.324	13017.57
548.688	12969.66
549.052	12979.6
549.416	13076.77
549.779	13097.34
550.143	13241.97
550.507	13248.07
550.871	13325.36
551.235	13311.12
551.599	13408.07
551.962	13498.91
552.326	13449.42
552.689	13549.08
553.053	13476.09
553.417	13513.15
553.78	13656.87
554.143	13710.43
554.507	13720.37
554.87	13759.24
555.234	13813.25
555.597	13856.42
555.96	13867.26
556.323	13949.29
556.686	14012.12
557.05	13986.58
557.413	14128.05
557.776	14159.91
558.139	14210.98
558.502	14271.77
558.865	14236.74
559.228	14377.53
559.59	14391.99
559.953	14392.9
560.316	14571.88
560.679	14509.96
561.041	14674.25
561.404	14687.58
561.767	14783.62
562.129	14751.53
562.492	14967.12
562.854	14892.55
563.217	14847.8
563.579	14915.82
563.941	15021.13
564.304	15037.4
564.666	15129.38
565.028	15121.01
565.39	15231.07
565.753	15308.58
566.115	15362.59
566.477	15399.43
566.839	15458.63
567.201	15517.61
567.563	15593.32
567.925	15612.98
568.287	15658.4
568.648	15732.07
569.01	15819.53
569.372	15884.38
569.734	15834.89
570.095	15901.11
570.457	16092.97
570.819	16105.85
571.18	16186.3
571.542	16224.94
571.903	16317.59
572.265	16370.93
572.626	16431.49
572.987	16487.76
573.349	16640.75
573.71	16656.57
574.071	16713.06
574.432	16875.32
574.794	17041.87
575.155	17034.18
575.516	16953.74
575.877	17188.98
576.238	17262.2
576.599	17428.75
576.96	17485.25
577.32	17567.5
577.681	17739.48
578.042	17797.33
578.403	17906.7
578.763	17988.96
579.124	18150.09
579.485	18284.32
579.845	18429.18
580.206	18564.31
580.566	18641.83
580.927	18857.64
581.287	19119.55
581.648	19084.3
582.008	19404.97
582.368	19514.57
582.728	19766.09
583.089	19875.47
583.449	20036.82
583.809	20262.8
584.169	20515.9
584.529	20696.01
584.889	20993.18
585.249	20999.96
585.609	21231.36
585.969	21495.76
586.329	21684.23
586.688	22019.82
587.048	22246.03
587.408	22315.18
587.768	22665.22
588.127	22797.42
588.487	23035.38
588.846	23331.87
589.206	23467.69
589.565	23722.37
589.925	24125.52
590.284	24282.36
590.643	24708.33
591.003	24847.31
591.362	25150.36
591.721	25370.24
592.08	25712.83
592.44	26075.53
592.799	26221.74
593.158	26497.44
593.517	26772.01
593.876	26981.04
594.235	27237.76
594.593	27418.77
594.952	27829.83
595.311	28036.83
595.67	28341.91
596.029	28738.74
596.387	29062.12
596.746	29397.25
597.104	29341.21
597.463	29624.14
597.822	30039.04
598.18	30182.54
598.538	30318.13
598.897	30705.69
599.255	30741.62
599.613	31564.2
599.972	31496.63
600.33	31825.21
600.688	31978.42
601.046	32192.66
601.404	32661.34
601.762	32703.38
602.12	33144.95
602.478	33355.11
602.836	33422.45
603.194	33577.03
603.552	33839.84
603.91	33814.31
604.268	34324.35
604.625	34358.93
604.983	34772.02
605.341	34865.81
605.698	35084.33
606.056	35419.92
606.413	35450.65
606.771	35731.55
607.128	35933.12
607.485	36051.09
607.843	36162.27
608.2	36509.15
608.557	36731.07
608.914	36811.74
609.272	37137.61
609.629	37320.66
609.986	37455.34
610.343	37605.4
610.7	38074.99
611.057	38071.37
611.414	38192.72
611.771	38337.13
612.127	38594.52
612.484	38766.27
612.841	38960.84
613.198	38911.12
613.554	39036.32
613.911	39459.13
614.267	39429.53
614.624	39432.24
614.98	39692.8
615.337	40166.91
615.693	39912.23
616.05	40062.96
616.406	40409.16
616.762	40307.25
617.118	40454.36
617.475	40634.69
617.831	40876.72
618.187	40925.08
618.543	41072.87
618.899	41267.22
619.255	41355.58
619.611	41231.51
619.967	41590.6
620.323	41772.52
620.678	41754.44
621.034	41652.52
621.39	41681.45
621.746	41784.04
622.101	42258.38
622.457	42039.18
622.812	42180.64
623.168	42393.29
623.523	42432.39
623.879	42559.39
624.234	42339.28
624.589	42501.99
624.945	42655.66
625.3	42750.12
625.655	42648.88
626.01	42756.22
626.365	42897.23
626.72	42848.65
627.075	42849.78
627.43	42874.86
627.785	42727.29
628.14	42873.73
628.495	43086.83
628.85	42936.78
629.205	42938.36
629.559	43214.97
629.914	43094.74
630.269	43137.68
630.623	43203.67
630.978	43026.5
631.332	43227.85
631.687	43384.23
632.041	43266.49
632.396	43390.55
632.75	43231.01
633.104	43391.46
633.459	43186.72
633.813	43166.15
634.167	43200.05
634.521	43203.89
634.875	43236.43
635.229	43090.22
635.583	43109.66
635.937	43162.31
636.291	43183.1
636.645	43263.33
636.999	43120.28
637.352	43294.51
637.706	42881.41
638.06	43300.61
638.413	43217.9
638.767	43020.85
639.121	43183.33
639.474	42863.34
639.828	43055.65
640.181	43059.72
640.534	43120.73
640.888	43005.71
641.241	42822.89
641.594	43028.76
641.947	42973.62
642.301	43037.12
642.654	42968.64
643.007	42934.52
643.36	42999.83
643.713	42897.01
644.066	43107.4
644.419	42721.19
644.771	42529.11
645.124	42377.47
645.477	42190.13
645.83	41920.31
646.182	41791.73
646.535	41664.72
646.888	41838.28
647.24	41573.43
647.593	41763.48
647.945	41673.31
648.298	41441
648.65	41361.45
649.002	41394.67
649.355	41497.5
649.707	41504.95
650.059	41732.29
650.411	42210.92
650.763	42207.99
651.115	42488.2
651.467	42287.08
651.819	42579.05
652.171	42371.15
652.523	42292.28
652.875	42390.35
653.227	42149.91
653.578	42379.06
653.93	42381.32
654.282	42268.1
654.633	42119.85
654.985	42287.31
655.337	42200.3
655.688	42258.83
656.039	42462.67
656.391	42057.48
656.742	42174.09
657.094	42175.22
657.445	42233.3
657.796	42186.07
658.147	42088.67
658.498	42079.63
658.849	42166.86
659.2	42185.84
659.551	42003.92
659.902	42177.93
660.253	42062
660.604	42138.38
660.955	41955.79
661.306	42282.33
661.656	41980.87
662.007	42064.71
662.358	42001.44
662.708	41906.3
663.059	42065.84
663.409	41653.42
663.76	42167.08
664.11	42021.55
664.461	42032.17
664.811	42151.72
665.161	42041.89
665.511	41895.23
665.862	41999.63
666.212	41929.8
666.562	41868.56
666.912	41790.6
667.262	41662.01
667.612	41797.15
667.962	41989.91
668.312	41755.12
668.662	41840.99
669.011	41763.7
669.361	41879.41
669.711	41775.68
670.06	41679.19
670.41	41667.66
670.76	41772.29
671.109	41859.29
671.459	41785.62
671.808	41820.43
672.157	41784.72
672.507	41512.19
672.856	41539.76
673.205	41591.73
673.554	41762.35
673.904	41660.88
674.253	41763.93
674.602	41613.65
674.951	41242.14
675.3	40923.73
675.649	41428.57
675.998	41471.96
676.346	41479.64
676.695	41518.29
677.044	41312.42
677.393	41423.83
677.741	41569.58
678.09	41363.26
678.438	41240.33
678.787	41386.31
679.135	41405.97
679.484	41066.32
679.832	41268.58
680.181	40883.05
680.529	41189.93
680.877	40972.54
681.225	41003.05
681.573	41296.15
681.922	40935.48
682.27	40721.7
682.618	40875.14
682.966	40659.78
683.314	40801.47
683.661	40767.57
684.009	40468.6
684.357	40491.42
684.705	40475.38
685.053	40495.49
685.4	40450.29
685.748	40157.87
686.095	40149.51
686.443	40132.56
686.79	39981.15
687.138	40046.91
687.485	40138.44
687.832	40069.51
688.18	40004.2
688.527	39836.3
688.874	39776.86
689.221	39730.99
689.568	39521.73
689.915	39561.73
690.262	39599.24
690.609	39387.95
690.956	39165.81
691.303	39245.13
691.65	39099.59
691.997	39010.1
692.344	38825.02
692.69	38754.97
693.037	38776.44
693.383	38540.74
693.73	38689.89
694.077	38345.26
694.423	38487.63
694.769	38364.7
695.116	38257.13
695.462	38251.93
695.808	38151.6
696.155	38116.34
696.501	37881.77
696.847	37888.1
697.193	37595
697.539	37728.78
697.885	37552.74
698.231	37397.49
698.577	37444.04
698.923	37305.06
699.269	37069.36
699.614	37075.92
699.96	36974.23
700.306	37018.07
700.651	36877.73
700.997	36723.61
701.342	36588.92
701.688	36506.22
702.033	36577.4
702.379	36433.67
702.724	36298.76
703.069	36508.7
703.415	35957.76
703.76	36090.63
704.105	36015.83
704.45	36000.47
704.795	35829.4
705.14	35706.91
705.485	35751.43
705.83	35529.52
706.175	35539.01
706.52	35314.38
706.865	35356.87
707.209	35351.67
707.554	35294.04
707.899	35340.82
708.243	35032.13
708.588	34977.89
708.932	34837.78
709.277	34796.43
709.621	34888.4
709.966	34488.87
710.31	34656.77
710.654	34377.91
710.998	34347.63
711.342	34485.25
711.687	34380.4
712.031	34252.94
712.375	34066.51
712.719	34111.93
713.063	34131.14
713.407	34172.94
713.75	33874.65
714.094	33889.33
714.438	33741.09
714.782	33853.86
715.125	33617.7
715.469	33708.77
715.812	33473.07
716.156	33269.46
716.499	33328.45
716.843	33367.54
717.186	33055.01
717.53	33384.94
717.873	33176.59
718.216	33293.42
718.559	32958.51
718.902	32851.4
719.246	32867.21
719.589	32803.49
719.932	32571.63
720.275	32727.78
720.617	32724.85
720.96	32591.97
721.303	32574.12
721.646	32695.24
721.989	32352.43
722.331	32527.11
722.674	32384.74
723.016	32502.48
723.359	32365.99
723.701	32301.81
724.044	32056.84
724.386	32031.98
724.729	32066.33
725.071	32098.65
725.413	32053.68
725.755	31983.17
726.097	31818.2
726.439	31623.41
726.782	31624.08
727.124	31818.43
727.465	31634.93
727.807	31568.72
728.149	31621.82
728.491	31512
728.833	31626.8
729.175	31371.66
729.516	31337.09
729.858	31315.84
730.199	31322.17
730.541	31242.62
730.882	31297.54
731.224	31276.75
731.565	31116.53
731.906	31003.54
732.248	31012.12
732.589	30915.63
732.93	30733.71
733.271	30901.39
733.612	30834.73
733.953	30920.37
734.294	30693.26
734.635	30761.51
734.976	30737.1
735.317	30620.04
735.658	30603.55
735.999	30549.31
736.339	30451.46
736.68	30610.55
737.021	30246.04
737.361	30367.17
737.702	30437.9
738.042	30361.74
738.383	30315.87
738.723	30324
739.063	30318.36
739.404	30143.22
739.744	30026.61
740.084	30032.49
740.424	30107.74
740.764	29992.94
741.104	30068.87
741.444	29869.55
741.784	29763.12
742.124	29850.12
742.464	29687.64
742.804	29793.17
743.143	29682.67
743.483	29695.32
743.823	29623.68
744.162	29569.67
744.502	29546.85
744.841	29467.08
745.181	29595.21
745.52	29322.22
745.86	29381.66
746.199	29340.3
746.538	29355.22
746.877	29360.19
747.216	29387.76
747.556	29283.58
747.895	29268.67
748.234	29145.73
748.573	29169.68
748.911	28956.13
749.25	28968.56
749.589	28924.04
749.928	28884.49
750.267	28891.73
750.605	28880.88
750.944	28832.29
751.283	28695.35
751.621	28703.03
751.96	28496.26
752.298	28540.1
752.636	28608.34
752.975	28374.9
753.313	28348.69
753.651	28510.49
753.989	28167
754.327	28265.3
754.666	28154.34
755.004	28100.79
755.342	28184.85
755.679	28096.72
756.017	27854.69
756.355	28005.87
756.693	27749.84
757.031	27986.89
757.368	27791.64
757.706	27647.69
