Data from hue_70_FLMS001491_12.txt Node
Date: Mon Feb 06 15:20:10 GMT 2017
User: dcchb
Spectrometer: FLMS00149
Trigger mode: 0
Integration Time (sec): 2.000000E-2
Scans to average: 10
Electric dark correction enabled: true
Nonlinearity correction enabled: false
Boxcar width: 0
XAxis mode: Wavelengths
Number of Pixels in Spectrum: 2048
>>>>>Begin Spectral Data<<<<<
341.393	-13.47
341.776	-13.47
342.16	-13.47
342.543	-77.2
342.927	-67.94
343.31	-66.58
343.693	-82.4
344.077	-78.33
344.46	-57.77
344.843	-36.3
345.226	-33.59
345.61	-39.01
345.993	-23.42
346.376	7.54
346.759	1.67
347.142	26.52
347.525	24.72
347.908	64.94
348.291	77.14
348.674	97.71
349.057	117.14
349.44	122.79
349.823	139.52
350.206	157.59
350.588	183.81
350.971	204.15
351.354	226.97
351.737	239.63
352.119	237.37
352.502	269.23
352.884	295.22
353.267	278.72
353.65	292.28
354.032	289.79
354.414	290.25
354.797	308.1
355.179	307.65
355.562	301.55
355.944	326.18
356.326	325.27
356.709	329.34
357.091	325.05
357.473	338.15
357.855	333.86
358.238	340.87
358.62	351.26
359.002	333.86
359.384	329.79
359.766	340.87
360.148	333.64
360.53	334.99
360.912	318.72
361.294	328.44
361.676	334.99
362.057	311.71
362.439	328.89
362.821	361.21
363.203	306.29
363.584	331.83
363.966	313.52
364.348	298.61
364.729	309.91
365.111	316.46
365.493	298.38
365.874	324.6
366.256	303.13
366.637	308.55
367.019	305.39
367.4	302.22
367.781	299.74
368.163	332.05
368.544	301.55
368.925	317.36
369.306	326.63
369.688	329.57
370.069	320.3
370.45	305.61
370.831	309
371.212	313.07
371.593	305.84
371.974	319.62
372.355	302.45
372.736	299.96
373.117	329.57
373.498	291.6
373.879	322.34
374.26	300.64
374.641	311.94
375.021	311.94
375.402	330.47
375.783	313.07
376.163	325.5
376.544	312.62
376.925	337.7
377.305	332.51
377.686	329.79
378.066	306.29
378.447	335.9
378.827	319.17
379.208	325.05
379.588	335.22
379.968	333.18
380.349	332.73
380.729	313.75
381.109	341.09
381.489	319.85
381.87	316.69
382.25	314.2
382.63	312.62
383.01	333.86
383.39	325.73
383.77	334.77
384.15	338.15
384.53	327.99
384.91	329.57
385.29	339.96
385.67	349
386.049	344.26
386.429	344.03
386.809	344.93
387.189	358.95
387.568	341.32
387.948	340.41
388.328	346.06
388.707	336.12
389.087	353.07
389.466	373.86
389.846	349.45
390.225	362.56
390.605	343.13
390.984	337.48
391.363	356.91
391.743	361.21
392.122	332.51
392.501	356.23
392.881	368.21
393.26	345.84
393.639	336.12
394.018	373.41
394.397	360.75
394.776	343.8
395.155	364.14
395.534	355.78
395.913	356.91
396.292	350.13
396.671	350.36
397.05	353.97
397.429	349.68
397.808	363.01
398.186	394.65
398.565	358.27
398.944	374.09
399.323	373.41
399.701	370.7
400.08	382.67
400.458	378.61
400.837	382.45
401.215	382.45
401.594	404.14
401.972	378.38
402.351	370.7
402.729	379.06
403.107	385.84
403.486	406.85
403.864	379.06
404.242	385.84
404.62	398.94
404.999	382.22
405.377	397.36
405.755	395.78
406.133	391.26
406.511	396.68
406.889	390.36
407.267	395.1
407.645	407.53
408.023	416.34
408.401	407.53
408.779	395.1
409.156	430.13
409.534	419.51
409.912	425.84
410.29	420.64
410.667	428.32
411.045	423.58
411.422	409.57
411.8	421.54
412.178	432.39
412.555	437.36
412.933	408.66
413.31	421.99
413.687	412.73
414.065	473.07
414.442	441.43
414.819	440.75
415.197	454.54
415.574	465.16
415.951	452.28
416.328	475.55
416.705	476
417.082	461.09
417.46	454.31
417.837	456.12
418.214	473.07
418.591	470.81
418.967	470.58
419.344	474.42
419.721	459.28
420.098	476.23
420.475	466.51
420.852	491.37
421.228	473.29
421.605	477.59
421.982	468.77
422.358	488.21
422.735	497.92
423.111	488.43
423.488	505.61
423.864	496.34
424.241	510.81
424.617	503.57
424.994	506.06
425.37	499.05
425.746	501.09
426.123	519.62
426.499	532.95
426.875	509
427.251	525.04
427.627	517.81
428.003	531.6
428.379	532.05
428.756	542.9
429.132	550.35
429.507	520.75
429.883	543.8
430.259	557.13
430.635	567.08
431.011	544.48
431.387	548.32
431.763	593.06
432.138	576.34
432.514	573.18
432.89	569.56
433.265	603.91
433.641	591.93
434.016	620.18
434.392	604.14
434.767	616.79
435.143	613.85
435.518	615.89
435.894	609.79
436.269	629.45
436.644	617.92
437.02	614.31
437.395	634.64
437.77	642.55
438.145	660.18
438.52	651.14
438.895	653.17
439.271	657.24
439.646	670.8
440.021	658.6
440.395	668.09
440.77	663.34
441.145	657.02
441.52	666.06
441.895	677.58
442.27	681.87
442.645	679.84
443.019	688.2
443.394	662.44
443.769	704.47
444.143	696.56
444.518	711.93
444.892	700.18
445.267	696.34
445.641	696.56
446.016	701.99
446.39	729.11
446.764	740.4
447.139	715.55
447.513	713.29
447.887	725.49
448.262	740.63
448.636	741.99
449.01	744.02
449.384	756.22
449.758	747.64
450.132	749.9
450.506	746.05
450.88	755.32
451.254	760.74
451.628	767.3
452.002	770.23
452.376	806.39
452.75	798.26
453.123	783.34
453.497	794.64
453.871	798.93
454.244	824.7
454.618	830.35
454.992	821.08
455.365	832.38
455.739	851.36
456.112	846.84
456.486	837.12
456.859	863.34
457.232	896.56
457.606	859.72
457.979	879.61
458.352	906.05
458.725	916.22
459.099	940.85
459.472	921.42
459.845	920.51
460.218	948.53
460.591	944.01
460.964	973.17
461.337	987.4
461.71	1005.03
462.083	992.15
462.456	989.89
462.829	1018.14
463.201	1022.66
463.574	1057.46
463.947	1045.03
464.32	1064.69
464.692	1087.97
465.065	1097.46
465.438	1114.41
465.81	1143.78
466.183	1132.94
466.555	1171.81
466.928	1167.29
467.3	1173.39
467.672	1217
468.045	1251.13
468.417	1243.22
468.789	1231.92
469.161	1272.37
469.534	1320.5
469.906	1297.45
470.278	1313.27
470.65	1345.13
471.022	1382.87
471.394	1392.59
471.766	1457.22
472.138	1464
472.51	1483.66
472.882	1545.35
473.253	1565.47
473.625	1580.38
473.997	1642.53
474.369	1630.78
474.74	1649.98
475.112	1729.53
475.484	1737.44
475.855	1811.34
476.227	1850.88
476.598	1908.74
476.97	1955.51
477.341	2000.71
477.713	2054.49
478.084	2079.8
478.455	2139.69
478.827	2179.01
479.198	2273.25
479.569	2337.65
479.94	2358.21
480.311	2422.62
480.682	2516.18
481.053	2645.66
481.424	2655.83
481.795	2727.92
482.166	2836.85
482.537	2897.64
482.908	2999.1
483.279	3079.78
483.65	3164.07
484.021	3222.37
484.391	3347.34
484.762	3487.68
485.133	3521.12
485.503	3629.82
485.874	3744.17
486.244	3841.11
486.615	3965.63
486.985	4082.69
487.356	4233.42
487.726	4253.31
488.097	4400.87
488.467	4490.36
488.837	4653.75
489.207	4741.88
489.578	4905.04
489.948	5044.02
490.318	5124.7
490.688	5223.68
491.058	5370.57
491.428	5510.9
491.798	5609.88
492.168	5818.01
492.538	5930.55
492.908	6091
493.278	6255.06
493.648	6310.65
494.017	6455.06
494.387	6598.1
494.757	6711.55
495.126	6955.16
495.496	6991.31
495.866	7114.47
496.235	7290.06
496.605	7388.37
496.974	7431.98
497.344	7689.83
497.713	7732.76
498.082	7878.3
498.452	8036.71
498.821	8190.83
499.19	8317.61
499.559	8422.46
499.928	8494.32
500.298	8636.02
500.667	8855.45
501.036	8910.13
501.405	9024.25
501.774	9164.82
502.143	9287.52
502.512	9346.96
502.88	9544.92
503.249	9617.01
503.618	9721.64
503.987	9787.85
504.356	9897.9
504.724	10007.96
505.093	10089.76
505.462	10215.41
505.83	10325.46
506.199	10446.36
506.567	10673.7
506.936	10715.28
507.304	10876.86
507.672	10915.96
508.041	11011.77
508.409	11189.4
508.777	11269.62
509.145	11363.63
509.514	11460.8
509.882	11589.84
510.25	11621.25
510.618	11792.54
510.986	11816.5
511.354	11976.94
511.722	12097.62
512.09	12229.37
512.458	12280.89
512.826	12456.71
513.193	12453.32
513.561	12453.99
513.929	12654.22
514.297	12827.09
514.664	12811.73
515.032	12905.96
515.4	13046.07
515.767	13161.09
516.135	13230.25
516.502	13206.97
516.869	13389.56
517.237	13436.12
517.604	13453.74
517.972	13604.7
518.339	13614.87
518.706	13689.89
519.073	13817.12
519.44	13847.18
519.808	14021.19
520.175	14046.27
520.542	14166.04
520.909	14317
521.276	14316.54
521.643	14471.79
522.009	14482.19
522.376	14659.81
522.743	14743.65
523.11	14785.91
523.477	14936.64
523.843	15039.01
524.21	15151.78
524.577	15218.89
524.943	15262.51
525.31	15350.19
525.676	15540.69
526.043	15611.65
526.409	15616.4
526.776	15829.73
527.142	15819.1
527.508	15888.71
527.874	16091.64
528.241	16098.87
528.607	16094.58
528.973	16172.31
529.339	16275.59
529.705	16307.9
530.071	16509.93
530.437	16440.33
530.803	16516.26
531.169	16682.81
531.535	16641.91
531.901	16613.43
532.267	16674.45
532.632	16858.4
532.998	16809.59
533.364	17007.32
533.73	16902.01
534.095	17026.08
534.461	17040.77
534.826	17132.29
535.192	17178.16
535.557	17210.93
535.923	17201.89
536.288	17257.26
536.653	17399.4
537.019	17237.6
537.384	17258.61
537.749	17325.5
538.114	17356.69
538.479	17414.77
538.845	17496.35
539.21	17406.63
539.575	17478.27
539.94	17481.88
540.305	17658.83
540.67	17451.15
541.034	17603.92
541.399	17650.24
541.764	17651.15
542.129	17640.07
542.494	17654.99
542.858	17675.1
543.223	17752.84
543.587	17830.12
543.952	17751.71
544.316	17808.2
544.681	17805.04
545.045	17833.06
545.41	17858.37
545.774	17830.58
546.138	17945.83
546.503	17876.22
546.867	17833.97
547.231	17998.26
547.595	17975.66
547.959	18022.44
548.324	17949.67
548.688	18057.24
549.052	18029.67
549.416	18118.7
549.779	18049.33
550.143	18111.92
550.507	18215.2
550.871	18163.45
551.235	18132.04
551.599	18277.57
551.962	18128.42
552.326	18258.59
552.689	18429.88
553.053	18167.97
553.417	18295.42
553.78	18515.76
554.143	18379.71
554.507	18407.74
554.87	18460.62
555.234	18609.54
555.597	18516.89
555.96	18489.32
556.323	18551.91
556.686	18554.63
557.05	18724.79
557.413	18751
557.776	18702.87
558.139	18774.51
558.502	18779.7
558.865	18818.57
559.228	18988.06
559.59	18942.19
559.953	18955.52
560.316	19114.84
560.679	19231.44
561.041	19136.76
561.404	19148.06
561.767	19388.73
562.129	19264.21
562.492	19466.69
562.854	19445.22
563.217	19417.88
563.579	19481.15
563.941	19553.92
564.304	19573.81
564.666	19707.59
565.028	19686.12
565.39	19761.83
565.753	19826.23
566.115	19920.69
566.477	19925.44
566.839	19989.84
567.201	20109.39
567.563	19964.31
567.925	20189.61
568.287	20126.56
568.648	20145.77
569.01	20307.57
569.372	20371.98
569.734	20251.08
570.095	20437.74
570.457	20551.18
570.819	20561.58
571.18	20600.9
571.542	20721.12
571.903	20639.09
572.265	20719.77
572.626	20778.07
572.987	20788.24
573.349	20959.31
573.71	20928.8
574.071	20886.99
574.432	21002.24
574.794	21177.16
575.155	21161.11
575.516	21006.31
575.877	21089.02
576.238	21137.38
576.599	21217.15
576.96	21211.5
577.32	21205.63
577.681	21300.54
578.042	21197.49
578.403	21254.22
578.763	21263.48
579.124	21330.82
579.485	21427.54
579.845	21573.75
580.206	21445.17
580.566	21470.93
580.927	21469.58
581.287	21486.75
581.648	21447.66
582.008	21540.76
582.368	21498.95
582.728	21623.92
583.089	21532.17
583.449	21540.54
583.809	21545.05
584.169	21503.25
584.529	21468.9
584.889	21705.5
585.249	21575.79
585.609	21589.12
585.969	21620.99
586.329	21499.18
586.688	21712.73
587.048	21529.69
587.408	21478.84
587.768	21599.06
588.127	21598.39
588.487	21518.39
588.846	21643.36
589.206	21456.02
589.565	21609.01
589.925	21630.25
590.284	21570.37
590.643	21604.26
591.003	21601.55
591.362	21606.07
591.721	21601.78
592.08	21623.7
592.44	21570.59
592.799	21729.46
593.158	21675.45
593.517	21593.42
593.876	21643.13
594.235	21637.03
594.593	21553.42
594.952	21661.21
595.311	21526.52
595.67	21666.86
596.029	21776.91
596.387	21793.86
596.746	21796.8
597.104	21605.17
597.463	21735.56
597.822	21729.46
598.18	21627.31
598.538	21709.34
598.897	21737.37
599.255	21622.34
599.613	21981.88
599.972	21746.63
600.33	21885.61
600.688	21731.49
601.046	21911.82
601.404	21946.63
601.762	21780.08
602.12	21903.01
602.478	21922.22
602.836	21917.93
603.194	21753.64
603.552	21847.87
603.91	21821.66
604.268	21952.5
604.625	21860.3
604.983	21966.74
605.341	21772.85
605.698	21999.73
606.056	22038.6
606.413	21914.31
606.771	22070.46
607.128	22134.87
607.485	21980.3
607.843	22098.03
608.2	22187.52
608.557	22311.59
608.914	22089
609.272	22309.78
609.629	22243.57
609.986	22351.59
610.343	22260.52
610.7	22474.75
611.057	22424.35
611.414	22376.45
611.771	22342.32
612.127	22487.4
612.484	22508.87
612.841	22519.49
613.198	22403.56
613.554	22526.05
613.911	22777.11
614.267	22540.74
614.624	22680.17
614.98	22599.49
615.337	22895.98
615.693	22740.5
616.05	22676.55
616.406	22840.39
616.762	22713.39
617.118	22814.85
617.475	22731.69
617.831	22868.41
618.187	22949.76
618.543	22865.02
618.899	23061.4
619.255	23030.44
619.611	23045.13
619.967	23088.29
620.323	23178.91
620.678	23142.75
621.034	22999.25
621.39	22944.34
621.746	22955.64
622.101	23242.41
622.457	23064.56
622.812	23082.64
623.168	23126.48
623.523	23187.72
623.879	23260.94
624.234	23123.32
624.589	23228.63
624.945	23089.42
625.3	23265.01
625.655	23221.85
626.01	23128.06
626.365	23245.8
626.72	23176.65
627.075	23293.03
627.43	23200.38
627.785	23048.97
628.14	23275.4
628.495	23267.04
628.85	23228.63
629.205	23041.06
629.559	23375.52
629.914	23116.09
630.269	23349.75
630.623	23117.89
630.978	23095.97
631.332	23261.85
631.687	23272.69
632.041	23124.67
632.396	23015.07
632.75	23129.42
633.104	23055.3
633.459	23096.65
633.813	23119.48
634.167	23044
634.521	22975.53
634.875	22948.86
635.229	22941.85
635.583	22855.08
635.937	22918.13
636.291	22859.6
636.645	22932.82
636.999	22907.51
637.352	22937.56
637.706	22768.53
638.06	22771.69
638.413	22753.61
638.767	22716.78
639.121	22855.53
639.474	22595.2
639.828	22822.08
640.181	22731.46
640.534	22813.72
640.888	22554.07
641.241	22599.26
641.594	22571.47
641.947	22746.83
642.301	22653.73
642.654	22606.04
643.007	22593.61
643.36	22578.47
643.713	22562.88
644.066	22708.87
644.419	22442.21
644.771	22356.11
645.124	22171.25
645.477	22013.52
645.83	21865.72
646.182	21978.94
646.535	21931.71
646.888	21859.85
647.24	21819.62
647.593	21879.96
647.945	21846.74
648.298	21826.86
648.65	21780.53
649.002	21659.18
649.355	21815.78
649.707	21791.6
650.059	21912.73
650.411	22168.54
650.763	22173.74
651.115	22365.6
651.467	22224.59
651.819	22255.54
652.171	22259.39
652.523	22201.53
652.875	22285.6
653.227	22244.92
653.578	22200.4
653.93	22110.69
654.282	22100.07
654.633	22037.7
654.985	22228.2
655.337	22266.62
655.688	22263.68
656.039	22230.23
656.391	22096.9
656.742	22103.68
657.094	22111.59
657.445	22248.09
657.796	22195.89
658.147	22126.51
658.498	22154.08
658.849	22189.11
659.2	22084.7
659.551	22173.29
659.902	22236.11
660.253	22085.15
660.604	22252.16
660.955	22141.2
661.306	22183
661.656	22086.06
662.007	22138.71
662.358	22136.68
662.708	22089.22
663.059	22146.4
663.409	22019.17
663.76	22233.62
664.11	22193.4
664.461	22141.65
664.811	22247.18
665.161	22174.87
665.511	22222.55
665.862	22237.01
666.212	22271.82
666.562	22178.26
666.912	22133.74
667.262	22157.24
667.612	22044.93
667.962	22235.66
668.312	22093.52
668.662	22300.29
669.011	22102.1
669.361	22079.96
669.711	22135.1
670.06	22037.47
670.41	22084.7
670.76	22003.8
671.109	22106.4
671.459	22070.92
671.808	22008.77
672.157	22100.52
672.507	21811.71
672.856	21907.98
673.205	21884.03
673.554	22044.7
673.904	21970.13
674.253	22012.39
674.602	21972.84
674.951	21575.56
675.3	21500.31
675.649	21888.32
675.998	21873.18
676.346	21871.37
676.695	21959.28
677.044	21773.3
677.393	21843.13
677.741	21845.16
678.09	21739.17
678.438	21667.31
678.787	21715.67
679.135	21892.84
679.484	21654.88
679.832	21752.96
680.181	21491.05
680.529	21567.65
680.877	21589.35
681.225	21493.76
681.573	21617.6
681.922	21537.37
682.27	21521.55
682.618	21493.98
682.966	21494.89
683.314	21367.88
683.661	21269.58
684.009	21106.65
684.357	21165.86
684.705	21196.14
685.053	21175.12
685.4	21061.68
685.748	20969.93
686.095	21071.4
686.443	20769.26
686.79	20923.6
687.138	20942.81
687.485	20963.6
687.832	20777.17
688.18	20899.2
688.527	20741.01
688.874	20668.69
689.221	20697.85
689.568	20608.58
689.915	20522.48
690.262	20541.92
690.609	20417.85
690.956	20445.87
691.303	20418.53
691.65	20208.14
691.997	20188.25
692.344	20159.55
692.69	20061.93
693.037	20024.87
693.383	19920.46
693.73	20064.64
694.077	19883.18
694.423	19869.39
694.769	19851.77
695.116	19773.35
695.462	19753.92
695.808	19628.04
696.155	19732.45
696.501	19479.12
696.847	19509.63
697.193	19423.98
697.539	19506.92
697.885	19264.44
698.231	19248.62
698.577	19116.42
698.923	19111.67
699.269	19136.08
699.614	18947.16
699.96	19017.21
700.306	18848.4
700.651	18815.86
700.997	18762.76
701.342	18730.67
701.688	18639.59
702.033	18689.54
702.379	18584.68
702.724	18504.23
703.069	18510.33
703.415	18342.43
703.76	18400.5
704.105	18354.18
704.45	18342.43
704.795	18190.79
705.14	18116.22
705.485	18138.36
705.83	18014.3
706.175	17989.44
706.52	18010.23
706.865	17819.96
707.209	17867.64
707.554	17778.37
707.899	17826.96
708.243	17676
708.588	17671.26
708.932	17503.35
709.277	17457.93
709.621	17439.4
709.966	17497.7
710.31	17523.24
710.654	17329.8
710.998	17389.23
711.342	17417.93
711.687	17355.11
712.031	17325.5
712.375	17295.68
712.719	17248.44
713.063	17189.69
713.407	17144.94
713.75	17073.08
714.094	17121.44
714.438	17014.55
714.782	17109.24
715.125	16897.49
715.469	17003.48
715.812	16902.92
716.156	16732.07
716.499	16918.74
716.843	16794.22
717.186	16724.84
717.53	16762.58
717.873	16781.11
718.216	16721.45
718.559	16611.4
718.902	16443.27
719.246	16554.45
719.589	16485.3
719.932	16426.32
720.275	16459.54
720.617	16412.31
720.96	16363.95
721.303	16335.25
721.646	16422.48
721.989	16372.99
722.331	16379.09
722.674	16279.88
723.016	16380.22
723.359	16273.1
723.701	16377.28
724.044	16129.38
724.386	16161.02
724.729	16161.24
725.071	16141.13
725.413	16101.13
725.755	16189.49
726.097	16071.07
726.439	16039.89
726.782	16003.28
727.124	16045.54
727.465	15977.97
727.807	15971.87
728.149	15941.81
728.491	15910.4
728.833	15867.92
729.175	15885.77
729.516	15827.69
729.858	15812.32
730.199	15863.62
730.541	15820.01
730.882	15835.15
731.224	15902.94
731.565	15780.23
731.906	15863.4
732.248	15818.2
732.589	15713.34
732.93	15647.13
733.271	15641.71
733.612	15669.96
733.953	15801.7
734.294	15614.36
734.635	15656.17
734.976	15656.85
735.317	15650.29
735.658	15624.08
735.999	15670.18
736.339	15620.24
736.68	15623.4
737.021	15638.77
737.361	15509.51
737.702	15676.73
738.042	15608.94
738.383	15549.51
738.723	15599
739.063	15539.34
739.404	15563.52
739.744	15637.64
740.084	15547.92
740.424	15569.39
740.764	15524.2
741.104	15675.83
741.444	15573.69
741.784	15565.33
742.124	15601.03
742.464	15580.24
742.804	15584.31
743.143	15581.37
743.483	15657.53
743.823	15589.73
744.162	15608.71
744.502	15515.61
744.841	15633.8
745.181	15654.59
745.52	15660.01
745.86	15685.55
746.199	15664.98
746.538	15780.69
746.877	15750.41
747.216	15795.38
747.556	15795.6
747.895	15843.51
748.234	15909.04
748.573	15965.99
748.911	15880.8
749.25	15880.57
749.589	15973.45
749.928	15995.14
750.267	16065.43
750.605	16019.55
750.944	16193.33
751.283	16086.22
751.621	16240.56
751.96	16231.75
752.298	16331.41
752.636	16326.89
752.975	16376.15
753.313	16288.47
753.651	16537.73
753.989	16445.98
754.327	16529.82
754.666	16608.46
755.004	16601
755.342	16723.49
755.679	16745.41
756.017	16793.99
756.355	16935.68
756.693	17072.86
757.031	17098.39
757.368	17125.28
