Data from hue_80_FLMS001491_84.txt Node
Date: Mon Feb 06 15:23:53 GMT 2017
User: dcchb
Spectrometer: FLMS00149
Trigger mode: 0
Integration Time (sec): 2.000000E-2
Scans to average: 10
Electric dark correction enabled: true
Nonlinearity correction enabled: false
Boxcar width: 0
XAxis mode: Wavelengths
Number of Pixels in Spectrum: 2048
>>>>>Begin Spectral Data<<<<<
341.393	-6.1
341.776	-6.1
342.16	-6.1
342.543	-71.41
342.927	-70.28
343.31	-83.16
343.693	-73.44
344.077	-62.15
344.46	-71.18
344.843	-56.04
345.226	-43.39
345.61	-29.38
345.993	-17.63
346.376	0
346.759	3.62
347.142	15.14
347.525	30.73
347.908	61.47
348.291	78.64
348.674	127
349.057	119.77
349.44	124.97
349.823	135.59
350.206	160.45
350.588	194.35
350.971	202.93
351.354	227.79
351.737	240.67
352.119	255.36
352.502	245.64
352.884	273.89
353.267	278.41
353.65	292.87
354.032	298.3
354.414	317.96
354.797	309.37
355.179	322.93
355.562	319.09
355.944	321.57
356.326	331.52
356.709	329.93
357.091	340.56
357.473	334.68
357.855	334.45
358.238	338.75
358.62	317.96
359.002	343.04
359.384	348.69
359.766	360.44
360.148	340.78
360.53	334.23
360.912	331.29
361.294	325.42
361.676	321.12
362.057	336.26
362.439	332.87
362.821	328.58
363.203	324.06
363.584	326.77
363.966	317.28
364.348	323.38
364.729	305.3
365.111	302.59
365.493	324.29
365.874	318.41
366.256	312.99
366.637	314.34
367.019	309.82
367.4	312.53
367.781	303.95
368.163	306.21
368.544	288.13
368.925	303.04
369.306	314.57
369.688	299.88
370.069	316.6
370.45	318.41
370.831	333.1
371.212	303.27
371.593	318.41
371.974	314.12
372.355	320.22
372.736	329.93
373.117	299.2
373.498	323.16
373.879	341.91
374.26	330.16
374.641	318.86
375.021	299.88
375.402	296.26
375.783	322.93
376.163	327.9
376.544	322.03
376.925	314.79
377.305	332.42
377.686	318.18
378.066	331.52
378.447	329.26
378.827	327.22
379.208	326.77
379.588	323.61
379.968	289.48
380.349	325.64
380.729	325.87
381.109	326.32
381.489	340.56
381.87	342.14
382.25	351.63
382.63	323.61
383.01	350.73
383.39	335.13
383.77	331.97
384.15	346.43
384.53	342.82
384.91	341.01
385.29	350.5
385.67	372.19
386.049	343.04
386.429	341.91
386.809	347.79
387.189	340.56
387.568	347.56
387.948	317.73
388.328	357.5
388.707	352.53
389.087	350.95
389.466	364.28
389.846	367.22
390.225	367.67
390.605	342.82
390.984	329.48
391.363	335.13
391.743	362.48
392.122	365.64
392.501	353.44
392.881	346.88
393.26	355.92
393.639	341.46
394.018	358.18
394.397	344.85
394.776	353.66
395.155	361.8
395.534	392.76
395.913	386.88
396.292	361.12
396.671	351.18
397.05	375.81
397.429	365.64
397.808	377.17
398.186	377.84
398.565	359.99
398.944	371.97
399.323	394.57
399.701	399.31
400.08	390.95
400.458	378.52
400.837	385.98
401.215	390.5
401.594	387.79
401.972	401.35
402.351	392.53
402.729	407.22
403.107	396.15
403.486	421.46
403.864	389.82
404.242	398.18
404.62	407.22
404.999	391.18
405.377	414.9
405.755	392.98
406.133	395.02
406.511	409.03
406.889	418.07
407.267	398.18
407.645	412.87
408.023	411.97
408.401	426.43
408.779	407.67
409.156	446.99
409.534	417.84
409.912	411.74
410.29	425.07
410.667	433.43
411.045	441.34
411.422	424.85
411.8	431.85
412.178	444.73
412.555	437.95
412.933	464.62
413.31	469.82
413.687	454.45
414.065	454.23
414.442	444.28
414.819	445.86
415.197	475.47
415.574	475.24
415.951	467.78
416.328	466.43
416.705	467.78
417.082	479.54
417.46	466.43
417.837	489.25
418.214	466.2
418.591	485.86
418.967	472.76
419.344	499.42
419.721	477.28
420.098	465.07
420.475	490.38
420.852	501.46
421.228	524.28
421.605	530.16
421.982	500.78
422.358	523.15
422.735	533.32
423.111	501
423.488	515.92
423.864	521.12
424.241	527.9
424.617	528.12
424.994	530.61
425.37	540.78
425.746	538.52
426.123	528.35
426.499	551.85
426.875	556.6
427.251	573.54
427.627	553.66
428.003	552.08
428.379	583.71
428.756	556.6
429.132	575.35
429.507	562.92
429.883	583.26
430.259	587.56
430.635	577.16
431.011	600.44
431.387	570.38
431.763	601.79
432.138	605.41
432.514	607.89
432.89	595.92
433.265	634.79
433.641	621.45
434.016	639.76
434.392	636.59
434.767	640.89
435.143	615.35
435.518	641.11
435.894	652.86
436.269	646.54
436.644	648.57
437.02	658.97
437.395	667.55
437.77	686.31
438.145	683.6
438.52	663.71
438.895	705.97
439.271	689.47
439.646	722.01
440.021	697.38
440.395	707.55
440.77	702.58
441.145	697.61
441.52	728.34
441.895	746.42
442.27	742.81
442.645	734.22
443.019	720.66
443.394	726.99
443.769	734.22
444.143	729.47
444.518	749.13
444.892	747.1
445.267	771.96
445.641	757.49
446.016	763.82
446.39	781
446.764	790.49
447.139	771.96
447.513	783.93
447.887	778.96
448.262	787.1
448.636	788
449.01	820.54
449.384	821.67
449.758	802.01
450.132	830.49
450.506	826.87
450.88	818.74
451.254	813.31
451.628	865.74
452.002	851.73
452.376	855.12
452.75	861.67
453.123	876.36
453.497	879.3
453.871	875.01
454.244	919.52
454.618	907.32
454.992	904.16
455.365	917.26
455.739	926.08
456.112	930.6
456.486	947.77
456.859	932.63
457.232	966.53
457.606	954.55
457.979	957.04
458.352	1005.85
458.725	1011.05
459.099	989.13
459.472	1035.23
459.845	1041.55
460.218	1064.15
460.591	1071.16
460.964	1052.85
461.337	1098.73
461.71	1100.54
462.083	1103.25
462.456	1121.78
462.829	1111.61
463.201	1164.26
463.574	1184.83
463.947	1194.54
464.32	1188.67
464.692	1186.41
465.065	1204.49
465.438	1219.4
465.81	1262.57
466.183	1269.8
466.555	1303.24
466.928	1300.08
467.3	1314.99
467.672	1344.82
468.045	1339.63
468.417	1376.46
468.789	1371.72
469.161	1392.73
469.534	1431.83
469.906	1484.03
470.278	1502.33
470.65	1491.71
471.022	1574.65
471.394	1578.94
471.766	1619.84
472.138	1602.22
472.51	1656.68
472.882	1695.77
473.253	1751.59
473.625	1768.77
473.997	1813.29
474.369	1842.66
474.74	1883.79
475.112	1912.04
475.484	1973.06
475.855	1981.19
476.227	2073.17
476.598	2127.63
476.97	2153.16
477.341	2234.07
477.713	2281.97
478.084	2307.74
478.455	2366.49
478.827	2441.52
479.198	2542.76
479.569	2550.44
479.94	2630.44
480.311	2687.16
480.682	2769.42
481.053	2899.13
481.424	2959.47
481.795	3041.05
482.166	3098
482.537	3188.16
482.908	3300.25
483.279	3359.46
483.65	3527.59
484.021	3586.8
484.391	3698.43
484.762	3780.47
485.133	3815.49
485.503	3943.63
485.874	4094.36
486.244	4173.22
486.615	4287.57
486.985	4395.14
487.356	4529.37
487.726	4658.18
488.097	4802.36
488.467	4871.28
488.837	5062.92
489.207	5157.83
489.578	5297.49
489.948	5401.67
490.318	5570.7
490.688	5660.19
491.058	5782.45
491.428	5953.29
491.798	6039.84
492.168	6195.77
492.538	6388.31
492.908	6464.91
493.278	6622.42
493.648	6705.36
494.017	6865.81
494.387	6959.37
494.757	7162.07
495.126	7303.76
495.496	7344.21
495.866	7557.09
496.235	7621.72
496.605	7812.22
496.974	7881.83
497.344	8023.74
497.713	8136.06
498.082	8315.26
498.452	8408.37
498.821	8515.03
499.19	8622.15
499.559	8756.83
499.928	8869.6
500.298	8995.02
500.667	9136.03
501.036	9214.22
501.405	9328.79
501.774	9457.83
502.143	9554.33
502.512	9658.5
502.88	9784.6
503.249	9860.31
503.618	9945.05
503.987	10089.9
504.356	10082.9
504.724	10326.06
505.093	10357.24
505.462	10432.27
505.83	10573.28
506.199	10636.78
506.567	10864.12
506.936	10799.26
507.304	11053.04
507.672	11059.82
508.041	11172.59
508.409	11254.62
508.777	11292.58
509.145	11474.95
509.514	11535.06
509.882	11550.66
510.25	11640.82
510.618	11734.83
510.986	11834.04
511.354	11949.74
511.722	12003.98
512.09	12117.65
512.458	12214.82
512.826	12300.02
513.193	12284.42
513.561	12333.91
513.929	12481.71
514.297	12628.82
514.664	12656.84
515.032	12688.25
515.4	12870.85
515.767	12892.99
516.135	12915.14
516.502	12849.61
516.869	13092.31
517.237	13147
517.604	13090.73
517.972	13183.16
518.339	13330.95
518.706	13315.13
519.073	13442.13
519.44	13432.87
519.808	13582.92
520.175	13600.55
520.542	13761.9
520.909	13767.55
521.276	13786.53
521.643	13908.33
522.009	13948.79
522.376	13995.34
522.743	14115.34
523.11	14157.59
523.477	14292.96
523.843	14370.24
524.21	14435.55
524.577	14558.94
524.943	14581.99
525.31	14570.69
525.676	14706.05
526.043	14801.64
526.409	14778.14
526.776	14976.78
527.142	14942.66
527.508	14966.84
527.874	15035.99
528.241	15040.96
528.607	15034.86
528.973	15211.8
529.339	15148.98
529.705	15158.7
530.071	15392.36
530.437	15373.83
530.803	15420.84
531.169	15539.25
531.535	15406.6
531.901	15510.78
532.267	15515.3
532.632	15589.19
532.998	15569.76
533.364	15629.19
533.73	15622.64
534.095	15712.36
534.461	15616.99
534.826	15720.49
535.192	15746.25
535.557	15761.85
535.923	15729.98
536.288	15828.28
536.653	15748.29
537.019	15734.05
537.384	15696.54
537.749	15805.46
538.114	15751.9
538.479	15762.75
538.845	15816.76
539.21	15767.95
539.575	15712.13
539.94	15857.44
540.305	15872.8
540.67	15708.29
541.034	15829.19
541.399	15856.53
541.764	15769.75
542.129	15739.7
542.494	15750.77
542.858	15781.73
543.223	15827.15
543.587	15877.55
543.952	15740.83
544.316	15763.65
544.681	15738.12
545.045	15785.12
545.41	15878.45
545.774	15811.56
546.138	15728.4
546.503	15754.61
546.867	15687.95
547.231	15835.52
547.595	15834.84
547.959	15764.78
548.324	15677.55
548.688	15672.36
549.052	15713.94
549.416	15703.32
549.779	15672.13
550.143	15731.79
550.507	15755.74
550.871	15814.73
551.235	15701.28
551.599	15785.35
551.962	15791.22
552.326	15782.64
552.689	15799.81
553.053	15711
553.417	15738.57
553.78	15887.04
554.143	15787.61
554.507	15790.55
554.87	15756.42
555.234	15872.8
555.597	15807.04
555.96	15814.95
556.323	15816.08
556.686	15874.38
557.05	15822.41
557.413	15852.46
557.776	15772.69
558.139	15957.09
558.502	15892.24
558.865	15879.36
559.228	15971.56
559.59	15905.57
559.953	15946.47
560.316	16069.86
560.679	16000.71
561.041	16090.42
561.404	16126.13
561.767	16148.05
562.129	16189.86
562.492	16200.93
562.854	16165.68
563.217	16183.53
563.579	16181.27
563.941	16261.72
564.304	16402.73
564.666	16401.15
565.028	16402.28
565.39	16446.12
565.753	16421.04
566.115	16505.55
566.477	16472.11
566.839	16522.28
567.201	16606.79
567.563	16552.33
567.925	16627.81
568.287	16610.18
568.648	16608.38
569.01	16640.01
569.372	16735.83
569.734	16764.53
570.095	16748.26
570.457	16988.03
570.819	16862.16
571.18	16824.19
571.542	16905.32
571.903	16884.08
572.265	16944.41
572.626	16913.45
572.987	17014.47
573.349	16994.13
573.71	17038.42
574.071	17118.65
574.432	17084.75
574.794	17190.73
575.155	17190.28
575.516	16991.19
575.877	17201.36
576.238	17169.27
576.599	17254.01
576.96	17232.77
577.32	17329.04
577.681	17317.96
578.042	17464.4
578.403	17253.11
578.763	17324.06
579.124	17364.74
579.485	17366.55
579.845	17438.19
580.206	17314.12
580.566	17343.95
580.927	17393.44
581.287	17383.72
581.648	17389.83
582.008	17386.21
582.368	17397.96
582.728	17467.79
583.089	17402.93
583.449	17393.67
583.809	17485.19
584.169	17423.27
584.529	17308.47
584.889	17437.28
585.249	17414.68
585.609	17292.2
585.969	17462.14
586.329	17385.08
586.688	17366.78
587.048	17329.71
587.408	17214.24
587.768	17306.66
588.127	17375.59
588.487	17314.57
588.846	17383.72
589.206	17270.73
589.565	17261.47
589.925	17355.7
590.284	17246.1
590.643	17313.44
591.003	17432.08
591.362	17374.01
591.721	17334.69
592.08	17358.41
592.44	17360
592.799	17319.54
593.158	17247.68
593.517	17322.26
593.876	17347.57
594.235	17326.1
594.593	17261.24
594.952	17297.85
595.311	17196.61
595.67	17297.85
596.029	17358.19
596.387	17317.28
596.746	17370.39
597.104	17258.53
597.463	17307.12
597.822	17303.73
598.18	17187.8
598.538	17293.33
598.897	17374.23
599.255	17160.9
599.613	17373.78
599.972	17387.79
600.33	17310.96
600.688	17317.51
601.046	17251.3
601.404	17417.85
601.762	17395.02
602.12	17363.61
602.478	17442.93
602.836	17409.49
603.194	17275.48
603.552	17406.77
603.91	17237.06
604.268	17382.37
604.625	17335.14
604.983	17320.67
605.341	17227.12
605.698	17322.48
606.056	17401.58
606.413	17336.04
606.771	17355.25
607.128	17447.22
607.485	17308.25
607.843	17344.4
608.2	17501.23
608.557	17525.87
608.914	17368.36
609.272	17537.17
609.629	17546.66
609.986	17600.44
610.343	17557.05
610.7	17627.33
611.057	17556.83
611.414	17693.77
611.771	17589.59
612.127	17676.37
612.484	17663.72
612.841	17750.27
613.198	17643.38
613.554	17710.49
613.911	17875.46
614.267	17769.7
614.624	17717.5
614.98	17767.44
615.337	17911.39
615.693	17880.43
616.05	17806.09
616.406	17917.72
616.762	17866.87
617.118	17832.75
617.475	17845.63
617.831	17910.49
618.187	17842.02
618.543	17920.88
618.899	18017.61
619.255	17974.67
619.611	18028.9
619.967	17982.35
620.323	18118.39
620.678	18075.46
621.034	17955.46
621.39	18018.96
621.746	17906.65
622.101	18134.66
622.457	18077.72
622.812	18053.08
623.168	18180.76
623.523	18143.25
623.879	18119.3
624.234	18004.27
624.589	18129.01
624.945	18028.23
625.3	18124.27
625.655	18020.77
626.01	18162.69
626.365	18092.18
626.72	18012.41
627.075	18081.33
627.43	18101.44
627.785	18062.58
628.14	18114.1
628.495	18123.59
628.85	18076.81
629.205	17932.41
629.559	18028
629.914	17973.31
630.269	18004.72
630.623	17973.54
630.978	17979.87
631.332	18006.98
631.687	18129.69
632.041	17876.14
632.396	18034.33
632.75	17975.12
633.104	17905.52
633.459	17888.34
633.813	17856.25
634.167	17857.38
634.521	17815.58
634.875	17889.47
635.229	17745.52
635.583	17788.23
635.937	17769.02
636.291	17717.73
636.645	17696.26
636.999	17685.18
637.352	17802.47
637.706	17684.28
638.06	17739.42
638.413	17631.17
638.767	17568.8
639.121	17658.97
639.474	17604.06
639.828	17575.58
640.181	17505.98
640.534	17554.11
640.888	17450.16
641.241	17459.65
641.594	17511.63
641.947	17575.58
642.301	17440.67
642.654	17491.07
643.007	17420.11
643.36	17369.49
643.713	17439.99
644.066	17452.65
644.419	17335.14
644.771	17287.68
645.124	17097.4
645.477	17052.66
645.83	16940.35
646.182	16847.69
646.535	16908.48
646.888	16937.63
647.24	16806.56
647.593	16977.41
647.945	16944.64
648.298	16831.2
648.65	16773.8
649.002	16773.8
649.355	16831.42
649.707	16780.58
650.059	16954.36
650.411	17075.26
650.763	17060.12
651.115	17294.46
651.467	17183.5
651.819	17137.85
652.171	17207.01
652.523	17104.86
652.875	17188.02
653.227	17033
653.578	17207.68
653.93	17161.13
654.282	17169.49
654.633	17053.34
654.985	17107.57
655.337	17175.14
655.688	17142.15
656.039	17171.07
656.391	17070.74
656.742	17070.51
657.094	17121.36
657.445	17212.43
657.796	17082.94
658.147	17223.05
658.498	17148.93
658.849	17115.93
659.2	17062.15
659.551	17024.41
659.902	17131.3
660.253	17104.86
660.604	17126.56
660.955	17080.45
661.306	17184.18
661.656	17146.22
662.007	17162.26
662.358	17153
662.708	17201.81
663.059	17213.56
663.409	17102.38
663.76	17158.87
664.11	17183.95
664.461	17288.58
664.811	17239.55
665.161	17211.75
665.511	17171.98
665.862	17216.5
666.212	17215.82
666.562	17258.98
666.912	17286.55
667.262	17249.26
667.612	17199.32
667.962	17224.86
668.312	17166.33
668.662	17270.96
669.011	17195.03
669.361	17138.08
669.711	17132.88
670.06	17150.51
670.41	17123.84
670.76	17085.65
671.109	17193.45
671.459	17114.8
671.808	17092.43
672.157	17073.22
672.507	17042.72
672.856	16929.27
673.205	17050.63
673.554	17056.5
673.904	17063.28
674.253	17169.72
674.602	16986.9
674.951	16820.12
675.3	16649.73
675.649	16917.52
675.998	16900.8
676.346	16836.62
676.695	16950.74
677.044	16833.91
677.393	16813.12
677.741	16811.76
678.09	16861.03
678.438	16776.06
678.787	16775.38
679.135	16868.03
679.484	16732.89
679.832	16821.03
680.181	16659.9
680.529	16721.14
680.877	16635.27
681.225	16636.85
681.573	16762.5
681.922	16625.1
682.27	16597.76
682.618	16557.98
682.966	16520.7
683.314	16489.51
683.661	16468.72
684.009	16386.46
684.357	16315.96
684.705	16368.61
685.053	16315.28
685.4	16276.63
685.748	16156.64
686.095	16157.09
686.443	16195.73
686.79	16086.36
687.138	16126.13
687.485	16112.8
687.832	16075.96
688.18	16062.18
688.527	15985.79
688.874	15981.27
689.221	15933.14
689.568	15879.36
689.915	15851.33
690.262	15789.87
690.609	15711.9
690.956	15732.92
691.303	15620.83
691.65	15663.99
691.997	15663.09
692.344	15505.13
692.69	15382.19
693.037	15420.84
693.383	15415.87
693.73	15392.36
694.077	15292.93
694.423	15294.51
694.769	15205.48
695.116	15168.87
695.462	15093.16
695.808	15116.89
696.155	15067.85
696.501	14993.05
696.847	14913.05
697.193	14814.07
697.539	14808.2
697.885	14756.45
698.231	14669.44
698.577	14659.73
698.923	14609.11
699.269	14530.92
699.614	14416.8
699.96	14382.22
700.306	14390.13
700.651	14413.86
700.997	14273.52
701.342	14318.27
701.688	14202.34
702.033	14273.07
702.379	14160.53
702.724	14077.37
703.069	14102.23
703.415	13949.24
703.76	13963.47
704.105	13986.07
704.45	13962.34
704.795	13869.01
705.14	13832.63
705.485	13773.65
705.83	13777.49
706.175	13695.01
706.52	13673.09
706.865	13638.96
707.209	13609.59
707.554	13546.99
707.899	13635.35
708.243	13447.33
708.588	13472.19
708.932	13299.31
709.277	13363.04
709.621	13295.24
709.966	13241.46
710.31	13294.57
710.654	13129.37
710.998	13251.63
711.342	13150.61
711.687	13101.8
712.031	13035.36
712.375	12994.23
712.719	12990.84
713.063	12982.26
713.407	12976.83
713.75	12909.94
714.094	12958.76
714.438	12884.63
714.782	12849.61
715.125	12765.99
715.469	12835.14
715.812	12753.34
716.156	12690.29
716.499	12758.99
716.843	12729.16
717.186	12647.35
717.53	12762.38
717.873	12683.96
718.216	12644.87
718.559	12570.52
718.902	12567.35
719.246	12587.92
719.589	12546.11
719.932	12507.92
720.275	12480.12
720.617	12510.41
720.96	12538.43
721.303	12476.28
721.646	12421.59
721.989	12313.57
722.331	12396.96
722.674	12260.02
723.016	12285.78
723.359	12364.19
723.701	12408.71
724.044	12246.46
724.386	12267.25
724.729	12316.29
725.071	12291.65
725.413	12226.8
725.755	12237.87
726.097	12251.88
726.439	12175.27
726.782	12157.19
727.124	12257.53
727.465	12090.08
727.807	12125.33
728.149	12166.23
728.491	12074.26
728.833	12057.99
729.175	12162.84
729.516	12165.56
729.858	12098.21
730.199	12022.73
730.541	12017.76
730.882	12059.8
731.224	12022.06
731.565	11940.25
731.906	12022.28
732.248	12098.21
732.589	12013.47
732.93	11949.97
733.271	11985.22
733.612	11956.52
733.953	12039.23
734.294	11927.37
734.635	11892.12
734.976	11898.9
735.317	11942.74
735.658	11915.84
735.999	12005.33
736.339	11968.72
736.68	12018.22
737.021	11912.68
737.361	11912.68
737.702	11991.78
738.042	11957.43
738.383	11913.13
738.723	11986.13
739.063	11932.79
739.404	11977.31
739.744	11954.49
740.084	11878.78
740.424	11928.95
740.764	11933.92
741.104	11992.23
741.444	12043.98
741.784	11976.41
742.124	12045.33
742.464	12012.79
742.804	12010.31
743.143	12048.5
743.483	12051.66
743.823	11964.43
744.162	12137.53
744.502	12090.3
744.841	12157.65
745.181	12192.67
745.52	12240.36
745.86	12208.27
746.199	12207.14
746.538	12325.1
746.877	12423.4
747.216	12410.3
747.556	12399.22
747.895	12462.72
748.234	12520.35
748.573	12534.13
748.911	12605.77
749.25	12658.42
749.589	12738.65
749.928	12777.74
750.267	12827.01
750.605	12896.61
750.944	12935.93
751.283	13043.72
751.621	13145.64
751.96	13065.87
752.298	13219.54
752.636	13277.62
752.975	13387.9
753.313	13441.23
753.651	13563.26
753.989	13601.45
754.327	13641
754.666	13670.6
755.004	13832.18
755.342	13983.59
755.679	14017.26
756.017	14097.71
756.355	14291.6
756.693	14290.7
