Data from hue_60_FLMS001491_1.txt Node
Date: Mon Feb 06 15:11:50 GMT 2017
User: dcchb
Spectrometer: FLMS00149
Trigger mode: 0
Integration Time (sec): 2.000000E-2
Scans to average: 10
Electric dark correction enabled: true
Nonlinearity correction enabled: false
Boxcar width: 0
XAxis mode: Wavelengths
Number of Pixels in Spectrum: 2048
>>>>>Begin Spectral Data<<<<<
341.393	-7.64
341.776	-7.64
342.16	-7.64
342.543	-65.27
342.927	-46.51
343.31	-72.27
343.693	-74.76
344.077	-69.33
344.46	-32.95
344.843	-65.72
345.226	-34.76
345.61	-34.76
345.993	-20.97
346.376	-6.29
346.759	24.9
347.142	26.48
347.525	61.06
347.908	51.57
348.291	85.01
348.674	85.01
349.057	77.78
349.44	124.78
349.823	147.61
350.206	169.53
350.588	196.65
350.971	202.97
351.354	220.6
351.737	229.64
352.119	245.69
352.502	254.05
352.884	276.42
353.267	283.2
353.65	294.27
354.032	302.63
354.414	308.51
354.797	318
355.179	320.71
355.562	331.56
355.944	318.45
356.326	338.34
356.709	348.96
357.091	345.12
357.473	348.28
357.855	336.53
358.238	348.96
358.62	348.28
359.002	351.9
359.384	344.44
359.766	341.5
360.148	333.82
360.53	336.3
360.912	348.28
361.294	354.38
361.676	343.76
362.057	339.69
362.439	349.64
362.821	336.53
363.203	322.75
363.584	317.1
363.966	341.95
364.348	323.88
364.729	314.84
365.111	320.94
365.493	334.72
365.874	316.64
366.256	317.32
366.637	315.97
367.019	336.08
367.4	313.03
367.781	338.79
368.163	320.71
368.544	297.21
368.925	313.03
369.306	339.24
369.688	323.2
370.069	306.47
370.45	309.41
370.831	332.24
371.212	321.16
371.593	323.65
371.974	336.53
372.355	317.1
372.736	318.68
373.117	315.74
373.498	309.64
373.879	309.86
374.26	325.23
374.641	336.53
375.021	336.76
375.402	310.32
375.783	325.91
376.163	334.95
376.544	311.22
376.925	321.62
377.305	333.82
377.686	342.41
378.066	335.4
378.447	339.47
378.827	329.3
379.208	331.11
379.588	335.85
379.968	332.69
380.349	327.72
380.729	353.25
381.109	361.39
381.489	339.24
381.87	338.11
382.25	337.21
382.63	334.27
383.01	339.02
383.39	367.04
383.77	345.12
384.15	343.99
384.53	352.35
384.91	345.12
385.29	359.81
385.67	366.59
386.049	359.13
386.429	361.16
386.809	348.51
387.189	371.33
387.568	380.6
387.948	365.46
388.328	359.35
388.707	371.11
389.087	380.15
389.466	369.75
389.846	362.52
390.225	364.33
390.605	347.6
390.984	371.78
391.363	369.52
391.743	365.46
392.122	346.93
392.501	374.95
392.881	381.95
393.26	387.15
393.639	369.52
394.018	372.91
394.397	394.83
394.776	369.07
395.155	379.02
395.534	385.34
395.913	379.92
396.292	386.02
396.671	362.52
397.05	382.63
397.429	382.41
397.808	377.66
398.186	391.67
398.565	383.99
398.944	395.74
399.323	395.06
399.701	407.26
400.08	426.25
400.458	390.77
400.837	407.94
401.215	409.07
401.594	379.02
401.972	394.83
402.351	418.79
402.729	421.5
403.107	418.79
403.486	408.62
403.864	429.64
404.242	386.7
404.62	398.68
404.999	420.82
405.377	411.56
405.755	431.44
406.133	441.61
406.511	424.21
406.889	455.17
407.267	435.96
407.645	414.95
408.023	421.27
408.401	421.73
408.779	413.59
409.156	446.58
409.534	447.26
409.912	468.96
410.29	435.96
410.667	441.16
411.045	447.71
411.422	456.75
411.8	462.4
412.178	463.53
412.555	470.76
412.933	481.61
413.31	464.66
413.687	481.61
414.065	479.58
414.442	469.86
414.819	488.39
415.197	467.83
415.574	470.99
415.951	505.79
416.328	484.32
416.705	475.06
417.082	488.39
417.46	497.88
417.837	503.08
418.214	526.58
418.591	484.1
418.967	514.83
419.344	528.62
419.721	524.1
420.098	504.66
420.475	523.19
420.852	544.43
421.228	537.88
421.605	505.34
421.982	526.36
422.358	546.47
422.735	555.96
423.111	543.98
423.488	525.9
423.864	549.18
424.241	538.79
424.617	548.73
424.994	568.84
425.37	560.93
425.746	553.02
426.123	553.93
426.499	565.9
426.875	569.97
427.251	574.26
427.627	581.72
428.003	583.98
428.379	590.76
428.756	600.93
429.132	598.22
429.507	598.44
429.883	609.29
430.259	594.6
430.635	621.27
431.011	610.42
431.387	633.92
431.763	638.22
432.138	644.77
432.514	648.61
432.89	636.41
433.265	641.38
433.641	645.22
434.016	663.98
434.392	655.17
434.767	670.08
435.143	661.72
435.518	695.84
435.894	680.02
436.269	695.84
436.644	697.43
437.02	705.56
437.395	685.22
437.77	700.36
438.145	719.57
438.52	722.96
438.895	708.72
439.271	737.65
439.646	735.62
440.021	748.95
440.395	727.93
440.77	734.03
441.145	740.59
441.52	758.89
441.895	748.05
442.27	755.95
442.645	777.42
443.019	777.65
443.394	796.63
443.769	784.43
444.143	754.15
444.518	772
444.892	774.26
445.267	790.98
445.641	776.97
446.016	790.98
446.39	772.68
446.764	816.74
447.139	804.54
447.513	830.08
447.887	829.63
448.262	823.75
448.636	826.24
449.01	847.03
449.384	840.7
449.758	818.1
450.132	866.69
450.506	854.94
450.88	839.12
451.254	883.63
451.628	870.3
452.002	869.62
452.376	903.3
452.75	886.35
453.123	889.96
453.497	897.19
453.871	881.6
454.244	915.5
454.618	948.27
454.992	955.27
455.365	962.05
455.739	971.09
456.112	964.99
456.486	964.08
456.859	1000.69
457.232	987.14
457.606	990.75
457.979	1006.8
458.352	1047.7
458.725	1045.89
459.099	1025.55
459.472	1071.65
459.845	1086.79
460.218	1095.61
460.591	1075.27
460.964	1102.84
461.337	1124.76
461.71	1140.8
462.083	1137.64
462.456	1166.11
462.829	1144.65
463.201	1198.88
463.574	1221.48
463.947	1223.06
464.32	1219.45
464.692	1251.08
465.065	1276.39
465.438	1260.8
465.81	1274.36
466.183	1312.1
466.555	1334.92
466.928	1356.62
467.3	1346.45
467.672	1392.32
468.045	1400.68
468.417	1404.53
468.789	1413.11
469.161	1456.73
469.534	1493.79
469.906	1539.21
470.278	1573.11
470.65	1587.35
471.022	1610.85
471.394	1664.63
471.766	1680.45
472.138	1687.23
472.51	1728.81
472.882	1762.26
473.253	1809.94
473.625	1837.73
473.997	1904.63
474.369	1925.64
474.74	2005.64
475.112	2033.21
475.484	2067.56
475.855	2123.6
476.227	2192.08
476.598	2205.18
476.97	2265.07
477.341	2347.78
477.713	2406.76
478.084	2455.8
478.455	2526.53
478.827	2605.4
479.198	2689.24
479.569	2768.78
479.94	2818.73
480.311	2923.58
480.682	3018.95
481.053	3112.05
481.424	3162.9
481.795	3307.75
482.166	3386.85
482.537	3462.78
482.908	3568.31
483.279	3716.55
483.65	3781.41
484.021	3898.02
484.391	4012.59
484.762	4095.75
485.133	4180.5
485.503	4300.49
485.874	4495.97
486.244	4581.84
486.615	4723.53
486.985	4867.26
487.356	5059.8
487.726	5161.26
488.097	5300.02
488.467	5386.12
488.837	5608.48
489.207	5750.17
489.578	5867.91
489.948	6061.13
490.318	6244.17
490.688	6370.04
491.058	6529.59
491.428	6715.35
491.798	6819.07
492.168	7033.08
492.538	7216.35
492.908	7410.92
493.278	7587.87
493.648	7615.44
494.017	7854.75
494.387	8046.61
494.757	8160.51
495.126	8337
495.496	8550.78
495.866	8657.89
496.235	8881.62
496.605	9079.35
496.974	9145.56
497.344	9422.85
497.713	9542.62
498.082	9738.54
498.452	9928.59
498.821	10021.25
499.19	10213.56
499.559	10360.9
499.928	10513.66
500.298	10741.23
500.667	10863.03
501.036	10999.08
501.405	11207.43
501.774	11259.63
502.143	11505.05
502.512	11608.55
502.88	11800.64
503.249	11920.41
503.618	12014.19
503.987	12257.35
504.356	12477.68
504.724	12632.03
505.093	12717.67
505.462	12894.62
505.83	13016.42
506.199	13169.19
506.567	13387.04
506.936	13538.9
507.304	13763.97
507.672	13886.68
508.041	13967.58
508.409	14164.19
508.777	14295.94
509.145	14469.94
509.514	14669.49
509.882	14845.75
510.25	14873.32
510.618	15086.65
510.986	15226.08
511.354	15443.48
511.722	15540.88
512.09	15729.8
512.458	15876.46
512.826	15999.4
513.193	16080.07
513.561	16311.48
513.929	16412.72
514.297	16601.41
514.664	16806.83
515.032	16845.02
515.4	17062.42
515.767	17210.44
516.135	17383.54
516.502	17334.28
516.869	17682.74
517.237	17850.42
517.604	17842.51
517.972	18092.67
518.339	18279.34
518.706	18300.8
519.073	18421.25
519.44	18642.26
519.808	18865.31
520.175	18781.92
520.542	19127.9
520.909	19327.9
521.276	19340.32
521.643	19628.9
522.009	19746.42
522.376	19928.56
522.743	20058.5
523.11	20242.22
523.477	20458.04
523.843	20618.94
524.21	20867.29
524.577	20965.82
524.943	21025.25
525.31	21258.01
525.676	21533.94
526.043	21668.4
526.409	21676.08
526.776	21960.37
527.142	22057.99
527.508	22188.16
527.874	22394.26
528.241	22523.07
528.607	22562.16
528.973	22881.7
529.339	22820.69
529.705	23106.78
530.071	23338.41
530.437	23387.9
530.803	23420.44
531.169	23636.71
531.535	23865.63
531.901	23862.69
532.267	23927.32
532.632	24149.46
532.998	24251.83
533.364	24416.12
533.73	24424.48
534.095	24736.34
534.461	24720.97
534.826	24894.3
535.192	25038.71
535.557	25104.69
535.923	25071.25
536.288	25305.82
536.653	25512.14
537.019	25330.9
537.384	25644.57
537.749	25671.46
538.114	25787.39
538.479	25819.25
538.845	25959.36
539.21	25897.44
539.575	26059.7
539.94	26242.97
540.305	26270.76
540.67	26265.34
541.034	26461.49
541.399	26644.31
541.764	26659.68
542.129	26851.99
542.494	26837.3
542.858	26968.37
543.223	26929.73
543.587	27146.22
543.952	27150.97
544.316	27359.1
544.681	27192.55
545.045	27439.77
545.41	27551.86
545.774	27508.02
546.138	27630.73
546.503	27724.06
546.867	27801.57
547.231	27926.09
547.595	28083.15
547.959	28094.67
548.324	28120.66
548.688	28303.25
549.052	28329.69
549.416	28454.89
549.779	28448.56
550.143	28672.06
550.507	28800.87
550.871	28997.02
551.235	28860.07
551.599	29085.38
551.962	29093.29
552.326	29320.18
552.689	29410.34
553.053	29344.13
553.417	29509.32
553.78	29793.38
554.143	29613.73
554.507	30008.52
554.87	29904.79
555.234	30222.52
555.597	30122.64
555.96	30194.95
556.323	30469.75
556.686	30406.7
557.05	30719.01
557.413	30713.36
557.776	30883.3
558.139	31050.98
558.502	31108.38
558.865	31220.46
559.228	31458.42
559.59	31472.21
559.953	31581.36
560.316	31944.29
560.679	31924.4
561.041	32080.78
561.404	32156.03
561.767	32395.12
562.129	32322.81
562.492	32795.56
562.854	32659.97
563.217	32718.05
563.579	32925.73
563.941	33097.25
564.304	33221.99
564.666	33440.97
565.028	33463.57
565.39	33588.09
565.753	33796.67
566.115	33928.64
566.477	34015.65
566.839	34218.58
567.201	34391.45
567.563	34328.41
567.925	34690.66
568.287	34567.95
568.648	34781.5
569.01	34876.64
569.372	35113.24
569.734	35111.89
570.095	35379.45
570.457	35513.01
570.819	35476.4
571.18	35542.61
571.542	35712.32
571.903	35806.56
572.265	35969.49
572.626	36058.98
572.987	36076.38
573.349	36256.04
573.71	36447.22
574.071	36496.48
574.432	36537.61
574.794	36758.4
575.155	36774.89
575.516	36779.41
575.877	36849.24
576.238	36990.71
576.599	37044.04
576.96	37053.98
577.32	37149.8
577.681	37269.34
578.042	37303.47
578.403	37365.84
578.763	37419.62
579.124	37554.08
579.485	37650.35
579.845	37720.18
580.206	37715.21
580.566	37766.06
580.927	37772.38
581.287	37895.32
581.648	37887.63
582.008	37975.99
582.368	37926.95
582.728	38151.81
583.089	38011.47
583.449	37871.36
583.809	38023.68
584.169	38190.68
584.529	38094.86
584.889	38551.12
585.249	38193.61
585.609	38199.26
585.969	38406.49
586.329	38275.87
586.688	38300.5
587.048	38303.67
587.408	38247.62
587.768	38237
588.127	38398.58
588.487	38318.81
588.846	38455.53
589.206	38292.82
589.565	38371.69
589.925	38484
590.284	38416.89
590.643	38449.65
591.003	38503.44
591.362	38678.57
591.721	38634.05
592.08	38587.05
592.44	38721.28
592.799	38769.87
593.158	38652.13
593.517	38678.12
593.876	38774.39
594.235	38721.96
594.593	38730.55
594.952	38989.75
595.311	38738.01
595.67	38852.35
596.029	39219.12
596.387	39070.65
596.746	39119.92
597.104	38925.8
597.463	38944.33
597.822	39074.5
598.18	38964.89
598.538	38964.44
598.897	39193.36
599.255	38915.86
599.613	39489.85
599.972	39274.72
600.33	39415.05
600.688	39125.34
601.046	39426.58
601.404	39568.27
601.762	39453.69
602.12	39694.82
602.478	39622.73
602.836	39632.45
603.194	39418.21
603.552	39603.52
603.91	39543.86
604.268	39835.61
604.625	39719.9
604.983	39722.61
605.341	39790.18
605.698	39978.2
606.056	40041.02
606.413	39968.71
606.771	40117.63
607.128	40195.6
607.485	40005.77
607.843	40193.56
608.2	40479.88
608.557	40572.99
608.914	40377.96
609.272	40474.23
609.629	40700.44
609.986	40756.48
610.343	40619.09
610.7	40981.11
611.057	40930.72
611.414	40750.16
611.771	40938.85
612.127	41030.38
612.484	41099.53
612.841	41146.98
613.198	41091.39
613.554	41268.11
613.911	41448.44
614.267	41366.86
614.624	41299.75
614.98	41361.89
615.337	41745.16
615.693	41602.34
616.05	41625.39
616.406	41838.26
616.762	41506.52
617.118	41616.58
617.475	41709
617.831	41801.88
618.187	41899.05
618.543	41920.52
618.899	42240.29
619.255	42203.45
619.611	42100.18
619.967	42349.66
620.323	42394.63
620.678	42299.04
621.034	42154.19
621.39	42189.44
621.746	42173.17
622.101	42647.06
622.457	42465.59
622.812	42449.55
623.168	42498.59
623.523	42615.42
623.879	42677.11
624.234	42419.04
624.589	42805.47
624.945	42621.29
625.3	42759.82
625.655	42744.68
626.01	42715.53
626.365	42669.43
626.72	42551.47
627.075	42676.43
627.43	42637.11
627.785	42765.7
628.14	42790.1
628.495	42703.33
628.85	42763.21
629.205	42773.38
629.559	42895.64
629.914	42669.65
630.269	42727.73
630.623	42627.17
630.978	42576.1
631.332	42726.6
631.687	42779.48
632.041	42639.6
632.396	42777.67
632.75	42465.37
633.104	42612.48
633.459	42359.15
633.813	42391.24
634.167	42363.9
634.521	42466.27
634.875	42546.27
635.229	42391.7
635.583	42261.76
635.937	42242.1
636.291	42218.59
636.645	42350.12
636.999	42253.17
637.352	42346.5
637.706	42096.34
638.06	42216.56
638.413	42215.2
638.767	42116.22
639.121	42321.64
639.474	41907.42
639.828	42028.32
640.181	42030.35
640.534	42027.64
640.888	41997.36
641.241	41905.61
641.594	41908.77
641.947	41940.41
642.301	41806.63
642.654	41900.18
643.007	41742.67
643.36	41956.91
643.713	41633.52
644.066	41902.9
644.419	41634.2
644.771	41277.15
645.124	40975.91
645.477	40955.8
645.83	40725.98
646.182	40501.58
646.535	40329.6
646.888	40595.59
647.24	40284.41
647.593	40607.79
647.945	40505.64
648.298	40357.17
648.65	40268.36
649.002	40147.01
649.355	40338.64
649.707	40298.87
650.059	40364.4
650.411	40669.48
650.763	40946.31
651.115	41285.28
651.467	41139.98
651.819	41153.76
652.171	40986.31
652.523	41001
652.875	41079.41
653.227	40805.98
653.578	41180.43
653.93	40983.82
654.282	40694.57
654.633	40746.99
654.985	40825.64
655.337	40841.45
655.688	40787.9
656.039	40985.41
656.391	40584.06
656.742	40705.86
657.094	40618.86
657.445	40800.33
657.796	40714.23
658.147	40487.34
658.498	40595.59
658.849	40653.89
659.2	40591.29
659.551	40330.96
659.902	40645.75
660.253	40502.03
660.604	40598.3
660.955	40336.83
661.306	40551.07
661.656	40453.22
662.007	40371.86
662.358	40501.8
662.708	40437.62
663.059	40397.85
663.409	40177.07
663.76	40516.94
664.11	40355.14
664.461	40343.39
664.811	40474.23
665.161	40373.67
665.511	40284.63
665.862	40316.95
666.212	40487.34
666.562	40389.94
666.912	40390.62
667.262	40350.62
667.612	40282.15
667.962	40328.47
668.312	40121.47
668.662	40268.36
669.011	40347.91
669.361	40224.3
669.711	40251.19
670.06	40221.13
670.41	40050.51
670.76	39971.87
671.109	40048.25
671.459	40034.24
671.808	39890.52
672.157	40017.75
672.507	39945.66
672.856	39903.85
673.205	40040.8
673.554	40072.44
673.904	39864.3
674.253	40118.54
674.602	39977.97
674.951	39400.59
675.3	39139.8
675.649	39816.85
675.998	39842.38
676.346	39719.22
676.695	40013.68
677.044	39471.09
677.393	39759.22
677.741	39808.71
678.09	39647.36
678.438	39647.14
678.787	39776.17
679.135	39670.64
679.484	39451.43
679.832	39696.17
680.181	39401.72
680.529	39566.46
680.877	39338.44
681.225	39325.56
681.573	39566.91
681.922	39248.95
682.27	39144.1
682.618	39252.12
682.966	39100.03
683.314	39207.15
683.661	38832.47
684.009	38912.24
684.357	38883.54
684.705	38740.27
685.053	38899.36
685.4	38675.18
685.748	38539.37
686.095	38440.84
686.443	38299.83
686.79	38329.88
687.138	38407.85
687.485	38359.49
687.832	38222.54
688.18	38206.95
688.527	38086.72
688.874	38049.21
689.221	37977.12
689.568	37935.09
689.915	37628.43
690.262	37752.27
690.609	37633.86
690.956	37416.91
691.303	37584.59
691.65	37291.72
691.997	37394.09
692.344	37102.12
692.69	37174.21
693.037	37166.75
693.383	36748.45
693.73	36975.34
694.077	36667.55
694.423	36731.73
694.769	36357.28
695.116	36579.65
695.462	36446.99
695.808	36370.61
696.155	36446.99
696.501	36039.32
696.847	36124.29
697.193	35921.81
697.539	36080.68
697.885	35803.85
698.231	35770.85
698.577	35717.3
698.923	35654.02
699.269	35372.9
699.614	35351.88
699.96	35336.97
700.306	35341.26
700.651	35079.57
700.997	34975.85
701.342	35023.53
701.688	35013.36
702.033	34771.78
702.379	34881.84
702.724	34623.76
703.069	34743.76
703.415	34465.58
703.76	34480.49
704.105	34352.36
704.45	34446.37
704.795	34174.74
705.14	34062.88
705.485	33911.69
705.83	33882.77
706.175	33939.26
706.52	33821.98
706.865	33637.58
707.209	33683.68
707.554	33627.18
707.899	33474.64
708.243	33445.94
708.588	33335.89
708.932	33212.05
709.277	33138.61
709.621	33159.85
709.966	32861.1
710.31	32939.97
710.654	32883.47
710.998	32748.79
711.342	32736.58
711.687	32627.21
712.031	32489.13
712.375	32466.08
712.719	32497.72
713.063	32332.98
713.407	32356.93
713.75	32321
714.094	32166.88
714.438	32100.89
714.782	32133.89
715.125	31936.15
715.469	32036.26
715.812	31880.56
716.156	31717.63
716.499	31749.49
716.843	31688.47
717.186	31589.27
717.53	31638.08
717.873	31662.49
718.216	31426.56
718.559	31502.49
718.902	31178.66
719.246	31233.35
719.589	31139.56
719.932	31132.78
720.275	31013.01
720.617	31064.99
720.96	30948.38
721.303	30935.95
721.646	30944.31
721.989	30834.03
722.331	30827.48
722.674	30767.14
723.016	30839.23
723.359	30682.17
723.701	30689.4
724.044	30487.38
724.386	30377.77
724.729	30563.53
725.071	30314.73
725.413	30385.23
725.755	30431.11
726.097	30145.01
726.439	30086.48
726.782	30046.71
727.124	30248.51
727.465	29956.77
727.807	29920.61
728.149	29923.1
728.491	29957.9
728.833	29793.16
729.175	29752.25
729.516	29707.96
729.858	29698.92
730.199	29609.43
730.541	29660.28
730.882	29548.64
731.224	29711.13
731.565	29441.08
731.906	29443.79
732.248	29431.58
732.589	29283.11
732.93	29168.09
733.271	29192.27
733.612	29298.26
733.953	29200.86
734.294	29074.98
734.635	29058.49
734.976	29043.57
735.317	28919.73
735.658	28881.32
735.999	28923.12
736.339	28836.57
736.68	28997.02
737.021	28889
737.361	28714.77
737.702	28880.86
738.042	28689.46
738.383	28773.07
738.723	28738.95
739.063	28691.94
739.404	28644.94
739.744	28524.94
740.084	28420.09
740.424	28554.55
740.764	28379.41
741.104	28507.77
741.444	28253.76
741.784	28261.45
742.124	28242.46
742.464	28224.61
742.804	28088.8
743.143	28002.7
743.483	28053.99
743.823	27936.26
744.162	27937.61
744.502	27901.68
744.841	27798.63
745.181	27899.65
745.52	27804.51
745.86	27749.6
746.199	27590.96
746.538	27473.67
746.877	27689.26
747.216	27685.19
747.556	27501.24
747.895	27533.1
748.234	27340.57
748.573	27369.49
748.911	27301.92
749.25	27325.65
749.589	27185.54
749.928	27267.57
750.267	27221.25
750.605	27202.04
750.944	27111.65
751.283	26882.95
751.621	27141.25
751.96	26874.59
752.298	26926.34
752.636	26915.27
752.975	26721.37
753.313	26591.43
753.651	26689.74
753.989	26650.42
754.327	26589.17
754.666	26448.16
755.004	26461.95
755.342	26389.86
755.679	26340.14
756.017	26251.1
756.355	26355.06
