Data from hue_210_FLMS001491_00075.txt Node
Date: Tue Feb 07 16:41:41 GMT 2017
User: dcchb
Spectrometer: FLMS00149
Trigger mode: 0
Integration Time (sec): 2.000000E-2
Scans to average: 10
Electric dark correction enabled: true
Nonlinearity correction enabled: false
Boxcar width: 0
XAxis mode: Wavelengths
Number of Pixels in Spectrum: 2048
>>>>>Begin Spectral Data<<<<<
341.393	-23.04
341.776	-23.04
342.16	-23.04
342.543	-56.48
342.927	-82.7
343.31	-77.5
343.693	-64.39
344.077	-65.75
344.46	-44.96
344.843	-52.87
345.226	-22.58
345.61	-42.24
345.993	-33.66
346.376	0.01
346.759	-15.8
347.142	36.62
347.525	32.33
347.908	57.87
348.291	69.84
348.674	118.88
349.057	104.19
349.44	121.82
349.823	137.86
350.206	156.62
350.588	194.81
350.971	213.12
351.354	236.62
351.737	250.18
352.119	244.53
352.502	267.13
352.884	272.32
353.267	279.33
353.65	278.88
354.032	298.99
354.414	315.94
354.797	315.71
355.179	328.14
355.562	315.49
355.944	349.38
356.326	352.32
356.709	321.36
357.091	316.39
357.473	349.84
357.855	350.97
358.238	353.68
358.62	353.23
359.002	340.8
359.384	357.97
359.766	352.32
360.148	326.79
360.53	329.5
360.912	335.37
361.294	350.06
361.676	353.23
362.057	338.76
362.439	353.68
362.821	331.98
363.203	324.53
363.584	329.95
363.966	326.56
364.348	325.88
364.729	327.69
365.111	331.98
365.493	311.19
365.874	326.33
366.256	297.86
366.637	331.3
367.019	315.03
367.4	316.39
367.781	326.33
368.163	317.07
368.544	318.88
368.925	318.88
369.306	318.65
369.688	304.19
370.069	306.45
370.45	315.94
370.831	325.66
371.212	304.41
371.593	330.85
371.974	320.91
372.355	313.9
372.736	332.43
373.117	311.64
373.498	306.22
373.879	306.45
374.26	320.68
374.641	314.13
375.021	325.43
375.402	329.72
375.783	329.27
376.163	335.15
376.544	315.94
376.925	336.28
377.305	319.55
377.686	337.63
378.066	338.54
378.447	342.6
378.827	350.51
379.208	320.01
379.588	332.66
379.968	324.3
380.349	336.28
380.729	348.25
381.109	331.3
381.489	320.46
381.87	322.94
382.25	339.44
382.63	359.1
383.01	356.61
383.39	350.97
383.77	351.87
384.15	338.99
384.53	356.16
384.91	349.84
385.29	360.23
385.67	361.13
386.049	378.99
386.429	351.42
386.809	365.43
387.189	372.43
387.568	336.95
387.948	373.56
388.328	362.72
388.707	376.28
389.087	357.52
389.466	364.75
389.846	383.96
390.225	390.74
390.605	360.91
390.984	362.04
391.363	385.54
391.743	377.86
392.122	374.02
392.501	375.82
392.881	398.65
393.26	380.57
393.639	386.67
394.018	388.93
394.397	390.51
394.776	399.1
395.155	397.74
395.534	391.87
395.913	386.67
396.292	388.48
396.671	417.63
397.05	396.16
397.429	406.33
397.808	402.26
398.186	384.41
398.565	421.25
398.944	405.43
399.323	402.26
399.701	423.05
400.08	417.18
400.458	424.86
400.837	442.49
401.215	415.14
401.594	421.25
401.972	429.61
402.351	430.74
402.729	437.29
403.107	442.94
403.486	467.35
403.864	442.71
404.242	440.68
404.62	462.83
404.999	476.61
405.377	464.86
405.755	448.36
406.133	482.94
406.511	479.78
406.889	466.67
407.267	491.53
407.645	476.39
408.023	524.97
408.401	491.53
408.779	481.13
409.156	531.75
409.534	508.48
409.912	534.01
410.29	541.02
410.667	536.95
411.045	527.91
411.422	554.12
411.8	562.49
412.178	554.35
412.555	585.08
412.933	593.22
413.31	609.94
413.687	595.7
414.065	640.22
414.442	609.49
414.819	665.08
415.197	625.53
415.574	648.36
415.951	658.53
416.328	678.64
416.705	666.89
417.082	660.79
417.46	698.98
417.837	708.24
418.214	710.28
418.591	705.98
418.967	704.4
419.344	729.03
419.721	733.78
420.098	767.9
420.475	761.58
420.852	769.71
421.228	764.97
421.605	799.77
421.982	828.01
422.358	825.98
422.735	849.94
423.111	851.07
423.488	883.15
423.864	879.77
424.241	920.67
424.617	916.15
424.994	941.68
425.37	938.52
425.746	925.87
426.123	974
426.499	954.11
426.875	978.07
427.251	1009.71
427.627	1008.8
428.003	1039.53
428.379	1068.01
428.756	1061.46
429.132	1072.98
429.507	1104.62
429.883	1132.64
430.259	1119.76
430.635	1103.49
431.011	1122.02
431.387	1148.23
431.763	1182.81
432.138	1184.84
432.514	1182.58
432.89	1203.37
433.265	1252.18
433.641	1259.19
434.016	1277.27
434.392	1326.53
434.767	1312.07
435.143	1337.83
435.518	1371.96
435.894	1413.08
436.269	1425.74
436.644	1460.09
437.02	1524.49
437.395	1498.05
437.77	1515.23
438.145	1527.66
438.52	1619.41
438.895	1579.18
439.271	1619.86
439.646	1673.87
440.021	1659.18
440.395	1677.94
440.77	1677.94
441.145	1697.6
441.52	1729.91
441.895	1743.25
442.27	1736.92
442.645	1787.54
443.019	1818.95
443.394	1826.63
443.769	1840.87
444.143	1849.46
444.518	1875.67
444.892	1891.72
445.267	1924.03
445.641	1931.04
446.016	1945.05
446.39	1965.84
446.764	1963.8
447.139	1976.91
447.513	1970.36
447.887	2022.11
448.262	2044.93
448.636	2044.71
449.01	2096.46
449.384	2113.18
449.758	2099.62
450.132	2112.95
450.506	2154.76
450.88	2124.25
451.254	2173.52
451.628	2188.43
452.002	2195.44
452.376	2185.72
452.75	2261.2
453.123	2246.73
453.497	2258.26
453.871	2337.13
454.244	2338.26
454.618	2362.44
454.992	2427.97
455.365	2392.27
455.739	2461.64
456.112	2474.75
456.486	2507.52
456.859	2538.7
457.232	2569.44
457.606	2554.75
457.979	2633.17
458.352	2621.41
458.725	2664.12
459.099	2694.63
459.472	2755.87
459.845	2766.5
460.218	2805.82
460.591	2809.21
460.964	2815.08
461.337	2873.61
461.71	2902.08
462.083	2972.82
462.456	2989.77
462.829	2955.87
463.201	3010.33
463.574	3028.18
463.947	3091.91
464.32	3133.94
464.692	3172.59
465.065	3185.02
465.438	3239.7
465.81	3291.68
466.183	3300.49
466.555	3383.65
466.928	3403.99
467.3	3394.95
467.672	3460.26
468.045	3537.1
468.417	3530.54
468.789	3537.77
469.161	3593.59
469.534	3621.84
469.906	3688.96
470.278	3711.78
470.65	3761.95
471.022	3824.32
471.394	3897.54
471.766	3927.82
472.138	3969.4
472.51	4024.32
472.882	4072.68
473.253	4116.29
473.625	4210.3
473.997	4289.17
474.369	4290.52
474.74	4327.58
475.112	4404.42
475.484	4448.03
475.855	4540.46
476.227	4571.65
476.598	4716.95
476.97	4673.34
477.341	4810.51
477.713	4878.76
478.084	4854.58
478.455	5020.9
478.827	5020.22
479.198	5163.27
479.569	5127.79
479.94	5287.78
480.311	5348.35
480.682	5432.19
481.053	5529.81
481.424	5610.04
481.795	5643.71
482.166	5745.17
482.537	5753.99
482.908	5907.66
483.279	5947.65
483.65	6017.48
484.021	6180.87
484.391	6199.4
484.762	6249.57
485.133	6280.3
485.503	6308.55
485.874	6470.13
486.244	6545.15
486.615	6638.48
486.985	6700.18
487.356	6785.6
487.726	6887.06
488.097	6974.97
488.467	6957.12
488.837	7094.52
489.207	7145.14
489.578	7277.34
489.948	7333.38
490.318	7352.59
490.688	7417.22
491.058	7499.25
491.428	7634.84
491.798	7661.96
492.168	7845.23
492.538	7781.73
492.908	7923.87
493.278	7927.72
493.648	7974.04
494.017	7984.66
494.387	8081.84
494.757	8154.15
495.126	8245
495.496	8244.54
495.866	8290.64
496.235	8408.61
496.605	8457.19
496.974	8415.84
497.344	8493.35
497.713	8491.09
498.082	8589.17
498.452	8683.4
498.821	8642.5
499.19	8703.74
499.559	8755.04
499.928	8740.12
500.298	8826.45
500.667	8926.56
501.036	8852.66
501.405	8930.85
501.774	8954.35
502.143	8981.47
502.512	9016.5
502.88	9042.04
503.249	9055.82
503.618	9117.29
503.987	9119.1
504.356	9195.48
504.724	9153.67
505.093	9197.29
505.462	9227.34
505.83	9209.94
506.199	9218.75
506.567	9354.8
506.936	9361.35
507.304	9421.69
507.672	9436.6
508.041	9424.63
508.409	9533.77
508.777	9531.06
509.145	9529.93
509.514	9507.79
509.882	9582.59
510.25	9566.54
510.618	9677.05
510.986	9600.89
511.354	9644.05
511.722	9674.11
512.09	9704.17
512.458	9718.85
512.826	9693.32
513.193	9739.19
513.561	9802.69
513.929	9826.65
514.297	9900.32
514.664	9826.87
515.032	9838.17
515.4	9952.07
515.767	9887.89
516.135	9933.99
516.502	9799.76
516.869	10047.89
517.237	10015.8
517.604	9910.26
517.972	9981.9
518.339	9946.19
518.706	9985.29
519.073	10009.24
519.44	9988
519.808	10042.69
520.175	9978.06
520.542	10095.12
520.909	10052.63
521.276	10055.79
521.643	10130.82
522.009	10152.74
522.376	10128.11
522.743	10129.47
523.11	10187.32
523.477	10216.24
523.843	10248.56
524.21	10255.34
524.577	10240.87
524.943	10316.81
525.31	10272.51
525.676	10355
526.043	10341.21
526.409	10315
526.776	10381.44
527.142	10284.94
527.508	10418.72
527.874	10364.71
528.241	10383.7
528.607	10382.34
528.973	10394.09
529.339	10315.45
529.705	10398.16
530.071	10382.11
530.437	10440.19
530.803	10374.66
531.169	10437.25
531.535	10352.96
531.901	10368.1
532.267	10300.76
532.632	10312.96
532.998	10309.57
533.364	10345.28
533.73	10310.7
534.095	10269.35
534.461	10289.69
534.826	10283.13
535.192	10232.06
535.557	10316.13
535.923	10192.51
536.288	10131.27
536.653	10152.97
537.019	10089.47
537.384	10077.72
537.749	10107.54
538.114	10089.24
538.479	10049.24
538.845	10120.2
539.21	9965.63
539.575	9946.19
539.94	9859.19
540.305	9969.24
540.67	9868.68
541.034	9883.6
541.399	9913.43
541.764	9858.51
542.129	9831.85
542.494	9808.8
542.858	9756.37
543.223	9721.79
543.587	9717.27
543.952	9666.2
544.316	9662.36
544.681	9660.1
545.045	9607.67
545.41	9619.65
545.774	9543.27
546.138	9554.11
546.503	9537.16
546.867	9475.7
547.231	9516.6
547.595	9470.27
547.959	9484.51
548.324	9451.29
548.688	9339.88
549.052	9341.92
549.416	9263.05
549.779	9299.66
550.143	9315.48
550.507	9338.98
550.871	9228.47
551.235	9170.39
551.599	9215.14
551.962	9194.8
552.326	9184.41
552.689	9113.9
553.053	9035.71
553.417	9098.98
553.78	9108.48
554.143	9014.01
554.507	9042.49
554.87	8973.34
555.234	9065.31
555.597	8941.47
555.96	8971.53
556.323	8956.61
556.686	8941.7
557.05	8912.32
557.413	8900.57
557.776	8877.75
558.139	8893.34
558.502	8868.26
558.865	8897.86
559.228	8931.98
559.59	8941.02
559.953	8862.61
560.316	8893.11
560.679	8881.81
561.041	8863.74
561.404	8847.47
561.767	8869.61
562.129	8865.54
562.492	8957.29
562.854	8816.73
563.217	8847.69
563.579	8915.94
563.941	8864.19
564.304	8883.85
564.666	8950.74
565.028	8879.55
565.39	8962.26
565.753	8963.85
566.115	8989.38
566.477	8973.34
566.839	8959.78
567.201	9025.77
567.563	8955.03
567.925	8992.09
568.287	8988.03
568.648	9014.69
569.01	8970.17
569.372	8991.64
569.734	9010.17
570.095	9021.92
570.457	9017.86
570.819	9102.83
571.18	9096.72
571.542	9024.41
571.903	9084.3
572.265	9109.61
572.626	9094.69
572.987	9112.32
573.349	9157.29
573.71	9165.65
574.071	9159.77
574.432	9118.87
574.794	9234.35
575.155	9236.83
575.516	9116.16
575.877	9174.01
576.238	9156.84
576.599	9241.13
576.96	9297.85
577.32	9189.6
577.681	9278.64
578.042	9263.95
578.403	9287.23
578.763	9271.86
579.124	9281.13
579.485	9293.33
579.845	9341.46
580.206	9320.9
580.566	9352.08
580.927	9327
581.287	9419.43
581.648	9356.38
582.008	9434.12
582.368	9358.64
582.728	9433.21
583.089	9372.42
583.449	9425.53
583.809	9458.75
584.169	9489.26
584.529	9489.93
584.889	9412.87
585.249	9443.38
585.609	9402.93
585.969	9441.8
586.329	9414.68
586.688	9442.25
587.048	9463.49
587.408	9442.03
587.768	9450.39
588.127	9446.32
588.487	9472.99
588.846	9479.31
589.206	9506.43
589.565	9503.95
589.925	9567.45
590.284	9512.08
590.643	9520.89
591.003	9511.18
591.362	9507.33
591.721	9549.14
592.08	9532.42
592.44	9593.43
592.799	9605.64
593.158	9544.62
593.517	9579.42
593.876	9587.78
594.235	9557.73
594.593	9555.24
594.952	9541.23
595.311	9601.57
595.67	9538.07
596.029	9585.52
596.387	9595.69
596.746	9609.03
597.104	9555.24
597.463	9564.96
597.822	9645.64
598.18	9511.63
598.538	9570.84
598.897	9677.5
599.255	9613.32
599.613	9684.28
599.972	9643.38
600.33	9619.2
600.688	9573.32
601.046	9638.4
601.404	9628.46
601.762	9612.42
602.12	9698.52
602.478	9630.04
602.836	9602.7
603.194	9566.99
603.552	9619.87
603.91	9600.89
604.268	9608.12
604.625	9512.76
604.983	9664.62
605.341	9590.04
605.698	9649.7
606.056	9613.32
606.413	9598.18
606.771	9621.46
607.128	9661
607.485	9633.43
607.843	9640.44
608.2	9722.92
608.557	9690.15
608.914	9677.73
609.272	9759.76
609.629	9747.1
609.986	9779.42
610.343	9713.66
610.7	9745.29
611.057	9758.18
611.414	9705.07
611.771	9741
612.127	9730.61
612.484	9741.45
612.841	9803.82
613.198	9757.72
613.554	9745.52
613.911	9859.19
614.267	9854.9
614.624	9754.79
614.98	9849.7
615.337	9845.86
615.693	9845.4
616.05	9843.6
616.406	9918.85
616.762	9860.09
617.118	9805.86
617.475	9870.26
617.831	9995.01
618.187	9878.4
618.543	9891.05
618.899	9946.65
619.255	9917.72
619.611	9904.39
619.967	9972.86
620.323	9943.26
620.678	9910.94
621.034	9923.14
621.39	9891.96
621.746	9961.33
622.101	10027.1
622.457	9904.84
622.812	9954.33
623.168	9933.54
623.523	9960.88
623.879	10013.76
624.234	9961.79
624.589	10003.82
624.945	9941.9
625.3	9931.5
625.655	9909.36
626.01	9877.72
626.365	9974.22
626.72	9903.71
627.075	9942.58
627.43	9911.17
627.785	9896.03
628.14	9983.93
628.495	9947.78
628.85	9891.51
629.205	9891.28
629.559	9936.48
629.914	9895.12
630.269	9866.87
630.623	9809.93
630.978	9863.48
631.332	9867.55
631.687	9823.03
632.041	9792.3
632.396	9785.29
632.75	9792.98
633.104	9802.02
633.459	9783.94
633.813	9787.55
634.167	9745.75
634.521	9836.14
634.875	9751.62
635.229	9716.37
635.583	9665.07
635.937	9710.49
636.291	9696.71
636.645	9716.14
636.999	9680.44
637.352	9703.94
637.706	9592.76
638.06	9594.11
638.413	9611.74
638.767	9656.94
639.121	9634.11
639.474	9532.64
639.828	9597.95
640.181	9503.72
640.534	9559.54
640.888	9545.07
641.241	9486.09
641.594	9541.23
641.947	9556.37
642.301	9518.86
642.654	9535.13
643.007	9527.22
643.36	9535.13
643.713	9475.25
644.066	9511.18
644.419	9408.35
644.771	9374.23
645.124	9357.28
645.477	9287.68
645.83	9236.61
646.182	9175.14
646.535	9229.83
646.888	9178.98
647.24	9170.17
647.593	9173.56
647.945	9226.89
648.298	9107.57
648.65	9178.76
649.002	9105.09
649.355	9205.65
649.707	9216.27
650.059	9221.47
650.411	9314.12
650.763	9296.49
651.115	9439.09
651.467	9339.43
651.819	9336.72
652.171	9403.16
652.523	9386.43
652.875	9364.74
653.227	9344.63
653.578	9356.15
653.93	9315.25
654.282	9279.54
654.633	9259.88
654.985	9329.26
655.337	9305.53
655.688	9366.77
656.039	9351.63
656.391	9350.73
656.742	9317.28
657.094	9364.06
657.445	9322.03
657.796	9331.75
658.147	9294.01
658.498	9268.92
658.849	9416.26
659.2	9347.34
659.551	9334.23
659.902	9388.24
660.253	9325.19
660.604	9350.5
660.955	9331.29
661.306	9376.26
661.656	9354.34
662.007	9371.75
662.358	9405.19
662.708	9360.9
663.059	9408.13
663.409	9378.75
663.76	9428.92
664.11	9345.53
664.461	9388.69
664.811	9398.64
665.161	9414.46
665.511	9372.2
665.862	9371.29
666.212	9437.05
666.562	9465.75
666.912	9402.93
667.262	9439.31
667.612	9394.34
667.962	9452.65
668.312	9400.22
668.662	9449.03
669.011	9376.26
669.361	9318.19
669.711	9322.71
670.06	9365.87
670.41	9326.77
670.76	9376.49
671.109	9348.92
671.459	9343.05
671.808	9357.96
672.157	9393.89
672.507	9308.02
672.856	9356.6
673.205	9298.3
673.554	9376.04
673.904	9367.68
674.253	9365.87
674.602	9313.89
674.951	9150.73
675.3	9174.69
675.649	9293.1
675.998	9223.73
676.346	9284.06
676.695	9240.68
677.044	9177.17
677.393	9156.84
677.741	9240.68
678.09	9198.64
678.438	9196.83
678.787	9167.23
679.135	9218.53
679.484	9059.89
679.832	9180.79
680.181	9038.87
680.529	9091.98
680.877	9062.83
681.225	9086.78
681.573	9133.79
681.922	9009.95
682.27	8988.7
682.618	9006.56
682.966	8962.26
683.314	8996.61
683.661	8950.74
684.009	8894.02
684.357	8943.28
684.705	8892.21
685.053	8902.83
685.4	8889.05
685.748	8818.77
686.095	8830.52
686.443	8860.8
686.79	8818.09
687.138	8751.2
687.485	8787.81
687.832	8739.22
688.18	8797.75
688.527	8668.94
688.874	8671.65
689.221	8649.28
689.568	8576.74
689.915	8609.28
690.262	8576.96
690.609	8544.42
690.956	8523.18
691.303	8438.66
691.65	8474.14
691.997	8395.05
692.344	8396.18
692.69	8432.79
693.037	8414.03
693.383	8263.75
693.73	8345.78
694.077	8267.82
694.423	8190.08
694.769	8213.13
695.116	8232.57
695.462	8211.32
695.808	8194.83
696.155	8192.57
696.501	8085.68
696.847	8054.94
697.193	8021.72
697.539	8115.73
697.885	7985.57
698.231	7985.34
698.577	7966.81
698.923	7897.89
699.269	7925.23
699.614	7820.83
699.96	7818.79
700.306	7806.36
700.651	7795.74
700.997	7744.22
701.342	7735.4
701.688	7672.13
702.033	7674.61
702.379	7622.86
702.724	7659.25
703.069	7595.07
703.415	7501.29
703.76	7527.5
704.105	7534.96
704.45	7493.15
704.795	7492.92
705.14	7398.69
705.485	7404.57
705.83	7353.95
706.175	7382.87
706.52	7327.96
706.865	7287.28
707.209	7289.54
707.554	7263.33
707.899	7210.9
708.243	7184.91
708.588	7284.57
708.932	7148.98
709.277	7161.86
709.621	7152.14
709.966	7080.73
710.31	7145.59
710.654	7038.25
710.998	7050.45
711.342	7101.3
711.687	7055.87
712.031	7030.11
712.375	6946.72
712.719	7021.3
713.063	7035.99
713.407	6970.68
713.75	6941.98
714.094	7000.96
714.438	6867.63
714.782	6947.63
715.125	6876.9
715.469	6875.99
715.812	6864.01
716.156	6854.75
716.499	6821.76
716.843	6867.4
717.186	6796.9
717.53	6822.66
717.873	6843.9
718.216	6847.97
718.559	6757.12
718.902	6734.07
719.246	6768.42
719.589	6697.92
719.932	6721.87
720.275	6696.34
720.617	6697.92
720.96	6709.67
721.303	6670.57
721.646	6669.22
721.989	6678.48
722.331	6667.41
722.674	6659.73
723.016	6624.47
723.359	6575.89
723.701	6667.64
724.044	6623.34
724.386	6594.64
724.729	6617.02
725.071	6636.9
725.413	6606.62
725.755	6633.74
726.097	6581.76
726.439	6551.48
726.782	6559.16
727.124	6563.68
727.465	6538.37
727.807	6614.98
728.149	6597.13
728.491	6563.23
728.833	6561.42
729.175	6570.24
729.516	6555.55
729.858	6609.33
730.199	6556.9
730.541	6576.56
730.882	6559.84
731.224	6586.06
731.565	6554.42
731.906	6555.77
732.248	6565.49
732.589	6538.37
732.93	6489.79
733.271	6532.05
733.612	6494.08
733.953	6598.48
734.294	6590.35
734.635	6523.91
734.976	6567.75
735.317	6523.23
735.658	6544.25
735.999	6541.54
736.339	6550.8
736.68	6604.13
737.021	6564.14
737.361	6589.45
737.702	6591.03
738.042	6581.99
738.383	6561.2
738.723	6601.42
739.063	6537.47
739.404	6558.26
739.744	6591.48
740.084	6633.51
740.424	6646.39
740.764	6627.41
741.104	6630.12
741.444	6661.53
741.784	6654.08
742.124	6707.41
742.464	6690.23
742.804	6729.78
743.143	6685.26
743.483	6753.06
743.823	6783.79
744.162	6777.69
744.502	6830.34
744.841	6822.43
745.181	6869.21
745.52	6870.79
745.86	6911.92
746.199	6929.78
746.538	6986.95
746.877	7061.98
747.216	7083.44
747.556	7141.07
747.895	7119.15
748.234	7193.5
748.573	7213.38
748.911	7317.34
749.25	7263.33
749.589	7341.97
749.928	7522.98
750.267	7557.33
750.605	7585.58
750.944	7612.24
751.283	7741.73
751.621	7786.93
751.96	7898.79
752.298	7983.08
752.636	8064.43
752.975	8112.34
753.313	8213.81
753.651	8327.25
753.989	8375.16
754.327	8496.29
754.666	8606.12
755.004	8722.72
755.342	8887.92
755.679	9048.36
756.017	9115.03
756.355	9286.55
756.693	9359.32
757.031	9509.37
757.368	9626.2
757.706	9714.56
758.044	9905.97
758.381	10078.85
758.719	10250.82
759.056	10363.58
759.394	10524.71
759.731	10663.46
760.068	10817.13
760.405	11012.61
760.743	11172.6
761.08	11435.65
761.417	11527.85
761.754	11696.2
762.091	11885.58
762.428	11995.4
762.765	12232.46
763.102	12451.66
763.438	12506.58
763.775	12721.26
764.112	12888.49
764.449	13103.85
764.785	13232.21
765.122	13389.27
765.458	13468.13
765.795	13714.91
766.131	13859.99
766.467	14039.42
766.804	14183.6
767.14	14280.99
