Data from hue_220_FLMS001491_00024.txt Node
Date: Tue Feb 07 16:39:11 GMT 2017
User: dcchb
Spectrometer: FLMS00149
Trigger mode: 0
Integration Time (sec): 2.000000E-2
Scans to average: 10
Electric dark correction enabled: true
Nonlinearity correction enabled: false
Boxcar width: 0
XAxis mode: Wavelengths
Number of Pixels in Spectrum: 2048
>>>>>Begin Spectral Data<<<<<
341.393	-20.93
341.776	-20.93
342.16	-20.93
342.543	-72.46
342.927	-48.73
343.31	-80.37
343.693	-50.99
344.077	-61.83
344.46	-65.68
344.843	-61.61
345.226	-53.02
345.61	-32.23
345.993	-6.02
346.376	-3.53
346.759	0.54
347.142	25.62
347.525	38.28
347.908	63.59
348.291	82.12
348.674	92.74
349.057	112.4
349.44	104.49
349.823	140.42
350.206	125.73
350.588	180.87
350.971	192.4
351.354	210.25
351.737	242.34
352.119	246.86
352.502	239.85
352.884	269
353.267	272.17
353.65	282.56
354.032	291.83
354.414	308.1
354.797	306.07
355.179	335.44
355.562	307.2
355.944	307.87
356.326	327.31
356.709	334.31
357.091	326.4
357.473	348.32
357.855	336.35
358.238	331.38
358.62	334.99
359.002	342.45
359.384	332.51
359.766	316.69
360.148	323.47
360.53	350.36
360.912	312.39
361.294	312.17
361.676	326.63
362.057	325.95
362.439	306.52
362.821	324.6
363.203	315.33
363.584	311.04
363.966	311.26
364.348	309.91
364.729	330.7
365.111	324.82
365.493	321.66
365.874	311.49
366.256	298.83
366.637	306.29
367.019	302.9
367.4	302.9
367.781	305.61
368.163	308.78
368.544	309.91
368.925	297.03
369.306	298.83
369.688	305.84
370.069	311.94
370.45	290.02
370.831	304.26
371.212	320.53
371.593	293.41
371.974	316.69
372.355	284.82
372.736	318.04
373.117	305.16
373.498	270.59
373.879	288.66
374.26	288.89
374.641	303.81
375.021	309.46
375.402	290.02
375.783	312.17
376.163	300.19
376.544	307.2
376.925	313.75
377.305	305.84
377.686	309
378.066	308.1
378.447	328.89
378.827	306.07
379.208	298.83
379.588	326.18
379.968	303.81
380.349	338.61
380.729	315.78
381.109	334.09
381.489	329.57
381.87	325.05
382.25	309
382.63	316.69
383.01	332.73
383.39	343.8
383.77	336.35
384.15	320.98
384.53	352.17
384.91	322.11
385.29	330.47
385.67	326.86
386.049	320.3
386.429	324.6
386.809	341.09
387.189	339.51
387.568	359.85
387.948	345.61
388.328	333.41
388.707	329.79
389.087	344.26
389.466	348.32
389.846	346.06
390.225	349.91
390.605	352.62
390.984	360.3
391.363	350.58
391.743	362.79
392.122	336.8
392.501	347.87
392.881	372.5
393.26	366.18
393.639	356.46
394.018	376.35
394.397	375.89
394.776	378.61
395.155	364.37
395.534	373.41
395.913	362.79
396.292	386.74
396.671	369.34
397.05	372.96
397.429	387.19
397.808	392.16
398.186	384.93
398.565	379.74
398.944	377.02
399.323	379.28
399.701	402.33
400.08	394.2
400.458	384.93
400.837	416.12
401.215	401.88
401.594	399.85
401.972	398.49
402.351	399.62
402.729	399.17
403.107	436.01
403.486	409.11
403.864	399.62
404.242	407.08
404.62	427.64
404.999	446.4
405.377	430.81
405.755	436.91
406.133	423.58
406.511	454.76
406.889	441.66
407.267	475.55
407.645	452.95
408.023	469.45
408.401	463.12
408.779	458.38
409.156	489.56
409.534	497.02
409.912	480.75
410.29	512.39
410.667	487.08
411.045	502.22
411.422	506.51
411.8	515.1
412.178	521.88
412.555	544.93
412.933	534.08
413.31	543.35
413.687	551.03
414.065	570.92
414.442	566.4
414.819	579.28
415.197	580.86
415.574	598.26
415.951	591.93
416.328	614.31
416.705	602.55
417.082	603.23
417.46	621.99
417.837	625.38
418.214	633.29
418.591	645.94
418.967	695.43
419.344	677.58
419.721	674.19
420.098	663.8
420.475	720.52
420.852	685.49
421.228	702.21
421.605	715.09
421.982	729.56
422.358	747.18
422.735	750.12
423.111	761.19
423.488	762.32
423.864	781.08
424.241	794.87
424.617	790.8
424.994	840.74
425.37	837.8
425.746	860.85
426.123	850.23
426.499	867.41
426.875	901.98
427.251	909.21
427.627	900.63
428.003	917.12
428.379	911.02
428.756	945.37
429.132	960.74
429.507	965.71
429.883	981.53
430.259	975.88
430.635	984.92
431.011	1002.09
431.387	1005.93
431.763	1043.22
432.138	1034.18
432.514	1034.63
432.89	1098.59
433.265	1115.31
433.641	1113.05
434.016	1155.08
434.392	1152.82
434.767	1207.74
435.143	1165.03
435.518	1186.49
435.894	1238.02
436.269	1268.3
436.644	1302.42
437.02	1304.23
437.395	1331.58
437.77	1326.83
438.145	1374.29
438.52	1382.2
438.895	1382.2
439.271	1404.34
439.646	1464.45
440.021	1467.84
440.395	1500.38
440.77	1490.22
441.145	1523.66
441.52	1528.63
441.895	1529.99
442.27	1565.92
442.645	1564.56
443.019	1595.97
443.394	1627.39
443.769	1610.89
444.143	1616.99
444.518	1642.98
444.892	1645.24
445.267	1677.33
445.641	1696.09
446.016	1702.41
446.39	1722.3
446.764	1714.16
447.139	1716.2
447.513	1725.69
447.887	1760.72
448.262	1781.28
448.636	1759.13
449.01	1791.9
449.384	1812.47
449.758	1816.53
450.132	1852.01
450.506	1840.94
450.88	1884.33
451.254	1878.23
451.628	1900.83
452.002	1934.95
452.376	1920.49
452.75	1962.97
453.123	1953.71
453.497	1992.35
453.871	2000.94
454.244	2004.55
454.618	2065.12
454.992	2078
455.365	2061.95
455.739	2117.09
456.112	2123.64
456.486	2143.53
456.859	2196.86
457.232	2233.47
457.606	2200.03
457.979	2248.39
458.352	2242.51
458.725	2265.56
459.099	2298.1
459.472	2345.56
459.845	2363.86
460.218	2372.23
460.591	2394.15
460.964	2378.78
461.337	2464.65
461.71	2500.13
462.083	2517.31
462.456	2524.76
462.829	2529.96
463.201	2548.72
463.574	2590.98
463.947	2601.82
464.32	2697.64
464.692	2681.14
465.065	2694.25
465.438	2731.09
465.81	2736.06
466.183	2803.85
466.555	2865.77
466.928	2886.56
467.3	2854.47
467.672	2901.93
468.045	2936.5
468.417	2956.17
468.789	2981.7
469.161	3033.45
469.534	3086.56
469.906	3133.11
470.278	3136.27
470.65	3185.31
471.022	3276.61
471.394	3319.77
471.766	3316.61
472.138	3334.46
472.51	3409.71
472.882	3470.28
473.253	3496.94
473.625	3552.76
473.997	3567
474.369	3561.57
474.74	3604.74
475.112	3661.23
475.484	3781
475.855	3775.13
476.227	3830.49
476.598	3920.66
476.97	3920.89
477.341	3985.06
477.713	4032.97
478.084	4041.79
478.455	4178.05
478.827	4225.51
479.198	4317.71
479.569	4290.82
479.94	4381.89
480.311	4422.79
480.682	4543.47
481.053	4564.26
481.424	4633.64
481.795	4666.18
482.166	4719.73
482.537	4797.02
482.908	4899.62
483.279	4935.1
483.65	4941.88
484.021	5081.31
484.391	5143.9
484.762	5115.66
485.133	5210.8
485.503	5224.13
485.874	5373.95
486.244	5388.87
486.615	5479.49
486.985	5461.86
487.356	5584.12
487.726	5652.82
488.097	5732.59
488.467	5719.26
488.837	5863.66
489.207	5851.68
489.578	5936.2
489.948	6021.62
490.318	6086.03
490.688	6103.88
491.058	6182.52
491.428	6202.86
491.798	6250.77
492.168	6341.84
492.538	6353.59
492.908	6426.58
493.278	6461.84
493.648	6534.6
494.017	6578.89
494.387	6643.75
494.757	6660.93
495.126	6696.86
495.496	6717.87
495.866	6778.21
496.235	6813.69
496.605	6890.98
496.974	6875.38
497.344	6921.94
497.713	6952.9
498.082	6979.79
498.452	7014.59
498.821	7031.54
499.19	7024.31
499.559	7128.94
499.928	7142.72
500.298	7142.95
500.667	7226.11
501.036	7227.24
501.405	7259.1
501.774	7238.31
502.143	7255.26
502.512	7300.23
502.88	7316.05
503.249	7334.36
503.618	7397.63
503.987	7380.68
504.356	7483.73
504.724	7433.79
505.093	7455.03
505.462	7448.02
505.83	7472.66
506.199	7555.82
506.567	7657.51
506.936	7556.27
507.304	7609.38
507.672	7583.39
508.041	7594.69
508.409	7703.84
508.777	7703.16
509.145	7745.19
509.514	7709.94
509.882	7744.29
510.25	7783.61
510.618	7807.56
510.986	7719.43
511.354	7827
511.722	7852.99
512.09	7859.54
512.458	7798.75
512.826	7855.02
513.193	7903.15
513.561	7885.3
513.929	7903.38
514.297	7940.44
514.664	8012.08
515.032	7974.34
515.4	7979.54
515.767	7932.31
516.135	8053.88
516.502	7967.11
516.869	8005.07
517.237	7967.11
517.604	8001.68
517.972	8083.26
518.339	7986.09
518.706	8021.34
519.073	8055.24
519.44	8095.47
519.808	8114.67
520.175	8007.78
520.542	8083.94
520.909	8160.32
521.276	8061.79
521.643	8124.16
522.009	8099.08
522.376	8029.7
522.743	8159.87
523.11	8165.97
523.477	8126.88
523.843	8166.65
524.21	8200.77
524.577	8196.48
524.943	8233.31
525.31	8228.79
525.676	8251.17
526.043	8225.63
526.409	8232.41
526.776	8309.47
527.142	8257.72
527.508	8312.41
527.874	8230.83
528.241	8276.7
528.607	8218.17
528.973	8269.92
529.339	8266.08
529.705	8227.89
530.071	8310.83
530.437	8285.29
530.803	8252.75
531.169	8294.33
531.535	8209.81
531.901	8226.08
532.267	8224.28
532.632	8241.9
532.998	8216.82
533.364	8203.03
533.73	8176.37
534.095	8227.89
534.461	8187.21
534.826	8175.01
535.192	8220.21
535.557	8216.59
535.923	8124.39
536.288	8133.88
536.653	8113.77
537.019	8056.37
537.384	8036.94
537.749	8063.6
538.114	8006.65
538.479	8017.5
538.845	7940.44
539.21	7947.45
539.575	7968.01
539.94	7910.16
540.305	7893.44
540.67	7868.58
541.034	7901.35
541.399	7824.74
541.764	7784.51
542.129	7786.09
542.494	7831.97
542.858	7755.59
543.223	7742.93
543.587	7752.88
543.952	7722.14
544.316	7676.49
544.681	7671.3
545.045	7707.9
545.41	7615.25
545.774	7640.79
546.138	7595.14
546.503	7588.81
546.867	7617.06
547.231	7578.87
547.595	7514.92
547.959	7518.76
548.324	7447.12
548.688	7404.41
549.052	7382.49
549.416	7394.47
549.779	7341.59
550.143	7337.97
550.507	7373.68
550.871	7345.2
551.235	7262.27
551.599	7316.28
551.962	7273.34
552.326	7253.45
552.689	7232.89
553.053	7201.25
553.417	7217.97
553.78	7224.75
554.143	7141.59
554.507	7159.22
554.87	7156.96
555.234	7176.17
555.597	7097.75
555.96	7155.6
556.323	7117.64
556.686	7068.37
557.05	7128.03
557.413	7058.43
557.776	7065.44
558.139	7091.42
558.502	7060.01
558.865	6993.57
559.228	7047.13
559.59	7042.39
559.953	7051.88
560.316	6987.02
560.679	7029.96
561.041	7050.29
561.404	7048.49
561.767	7087.58
562.129	7034.7
562.492	7112.44
562.854	7038.77
563.217	7052.1
563.579	7053.68
563.941	7074.48
564.304	7106.34
564.666	7067.7
565.028	7088.49
565.39	7100.24
565.753	7089.16
566.115	7135.94
566.477	7105.43
566.839	7005.32
567.201	7147.69
567.563	7130.52
567.925	7170.29
568.287	7179.33
568.648	7132.1
569.01	7145.66
569.372	7126
569.734	7102.72
570.095	7191.76
570.457	7175.49
570.819	7239.44
571.18	7140.69
571.542	7196.96
571.903	7259.78
572.265	7253.45
572.626	7271.53
572.987	7285.99
573.349	7293.45
573.71	7221.14
574.071	7338.42
574.432	7330.51
574.794	7372.09
575.155	7317.18
575.516	7358.99
575.877	7379.55
576.238	7332.1
576.599	7445.76
576.96	7436.27
577.32	7397.63
577.681	7413
578.042	7455.93
578.403	7458.42
578.763	7500
579.124	7467.69
579.485	7495.93
579.845	7511.53
580.206	7452.54
580.566	7504.75
580.927	7544.07
581.287	7617.06
581.648	7573.67
582.008	7610.51
582.368	7592.88
582.728	7568.02
583.089	7600.56
583.449	7600.56
583.809	7625.65
584.169	7674.69
584.529	7722.59
584.889	7730.05
585.249	7752.88
585.609	7675.36
585.969	7729.6
586.329	7704.74
586.688	7724.63
587.048	7784.96
587.408	7729.83
587.768	7823.61
588.127	7746.77
588.487	7801.46
588.846	7875.81
589.206	7850.5
589.565	7826.32
589.925	7869.93
590.284	7898.63
590.643	7822.7
591.003	7903.83
591.362	7938.63
591.721	7904.06
592.08	7898.86
592.44	7949.03
592.799	7892.53
593.158	7886.21
593.517	7983.6
593.876	7936.83
594.235	8061.79
594.593	7985.19
594.952	7965.98
595.311	7988.12
595.67	7937.28
596.029	8055.92
596.387	7951.06
596.746	8031.96
597.104	8055.47
597.463	7989.71
597.822	8034.9
598.18	8043.72
598.538	8022.25
598.897	8090.04
599.255	8037.39
599.613	8119.42
599.972	8095.92
600.33	8088.69
600.688	8020.66
601.046	8151.51
601.404	8142.24
601.762	8119.87
602.12	8132.75
602.478	8124.62
602.836	8105.63
603.194	8075.13
603.552	8171.85
603.91	8093.21
604.268	8119.87
604.625	8044.62
604.983	8180.43
605.341	8087.56
605.698	8132.75
606.056	8157.84
606.413	8151.96
606.771	8166.88
607.128	8189.02
607.485	8134.33
607.843	8158.74
608.2	8223.6
608.557	8265.63
608.914	8171.85
609.272	8263.82
609.629	8271.05
609.986	8292.75
610.343	8219.3
610.7	8308.57
611.057	8278.74
611.414	8281.9
611.771	8322.58
612.127	8368.9
612.484	8294.1
612.841	8353.99
613.198	8351.05
613.554	8312.41
613.911	8341.33
614.267	8364.61
614.624	8360.99
614.98	8324.16
615.337	8340.43
615.693	8380.2
616.05	8341.11
616.406	8400.77
616.762	8352.18
617.118	8391.95
617.475	8398.73
617.831	8389.92
618.187	8385.85
618.543	8386.53
618.899	8413.65
619.255	8445.51
619.611	8421.78
619.967	8400.32
620.323	8395.12
620.678	8425.17
621.034	8436.93
621.39	8391.73
621.746	8464.27
622.101	8532.52
622.457	8448.22
622.812	8443.93
623.168	8479.86
623.523	8502.01
623.879	8495.23
624.234	8414.78
624.589	8485.51
624.945	8423.82
625.3	8445.06
625.655	8442.35
626.01	8452.74
626.365	8481.44
626.72	8497.49
627.075	8454.33
627.43	8481.9
627.785	8466.75
628.14	8465.85
628.495	8429.24
628.85	8394.21
629.205	8384.05
629.559	8517.83
629.914	8408.45
630.269	8476.92
630.623	8326.87
630.978	8417.94
631.332	8402.35
631.687	8396.25
632.041	8351.28
632.396	8360.99
632.75	8413.2
633.104	8349.47
633.459	8330.71
633.813	8299.3
634.167	8313.09
634.521	8271.73
634.875	8336.59
635.229	8288.91
635.583	8284.39
635.937	8289.13
636.291	8193.32
636.645	8261.56
636.999	8210.26
637.352	8260.88
637.706	8165.75
638.06	8253.43
638.413	8219.98
638.767	8204.84
639.121	8196.25
639.474	8216.37
639.828	8169.81
640.181	8196.03
640.534	8149.47
640.888	8119.87
641.241	8112.64
641.594	8102.24
641.947	8148.57
642.301	8096.14
642.654	8119.19
643.007	8119.19
643.36	8071.06
643.713	8101.79
644.066	8133.66
644.419	8100.21
644.771	8036.03
645.124	8021.57
645.477	7929.14
645.83	7862.93
646.182	7802.82
646.535	7781.12
646.888	7928.46
647.24	7795.81
647.593	7900.89
647.945	7815.47
648.298	7808.92
648.65	7824.96
649.002	7834.91
649.355	7855.7
649.707	7800.56
650.059	7850.73
650.411	7921.23
650.763	7885.3
651.115	7988.12
651.467	7947.9
651.819	8020.44
652.171	7993.09
652.523	7994.9
652.875	8017.73
653.227	7961.01
653.578	7958.07
653.93	7974.34
654.282	7964.17
654.633	7956.26
654.985	7943.38
655.337	7949.48
655.688	7991.97
656.039	8010.04
656.391	8002.36
656.742	7965.3
657.094	8043.26
657.445	8015.92
657.796	7959.88
658.147	7996.48
658.498	8002.59
658.849	7996.03
659.2	7985.19
659.551	7986.54
659.902	8010.04
660.253	8019.53
660.604	7972.08
660.955	8049.82
661.306	8011.17
661.656	8033.55
662.007	8046.2
662.358	8083.26
662.708	7969.59
663.059	8031.96
663.409	8017.73
663.76	8112.41
664.11	8072.87
664.461	8090.49
664.811	8074.45
665.161	8070.16
665.511	8087.33
665.862	8090.27
666.212	8093.88
666.562	8089.14
666.912	8124.84
667.262	8085.3
667.612	8099.53
667.962	8058.86
668.312	8082.36
668.662	8078.74
669.011	8086.65
669.361	8064.73
669.711	8053.43
670.06	7984.06
670.41	8036.48
670.76	8033.77
671.109	8051.62
671.459	8042.59
671.808	7979.99
672.157	8006.43
672.507	7962.59
672.856	8024.05
673.205	7962.14
673.554	7963.49
673.904	7957.39
674.253	7993.77
674.602	7951.97
674.951	7895.7
675.3	7806.66
675.649	7939.54
675.998	7933.44
676.346	7933.66
676.695	7960.55
677.044	7915.13
677.393	7875.81
677.741	7949.03
678.09	7947.9
678.438	7904.96
678.787	7840.33
679.135	7853.89
679.484	7843.72
679.832	7830.16
680.181	7812.53
680.529	7855.25
680.877	7785.87
681.225	7812.99
681.573	7767.56
681.922	7818.41
682.27	7738.64
682.618	7760.78
682.966	7690.05
683.314	7738.19
683.661	7704.29
684.009	7649.83
684.357	7669.04
684.705	7583.61
685.053	7648.92
685.4	7627
685.748	7556.5
686.095	7551.07
686.443	7520.79
686.79	7540
687.138	7523.5
687.485	7519.44
687.832	7520.79
688.18	7454.35
688.527	7453.22
688.874	7415.26
689.221	7408.48
689.568	7370.96
689.915	7389.27
690.262	7373.22
690.609	7332.1
690.956	7290.06
691.303	7300.01
691.65	7229.05
691.997	7230.4
692.344	7252.55
692.69	7238.99
693.037	7120.58
693.383	7166.68
693.73	7134.81
694.077	7025.21
694.423	7050.29
694.769	7052.33
695.116	6996.74
695.462	7002.39
695.808	7009.84
696.155	6988.38
696.501	6926.91
696.847	6870.86
697.193	6843.97
697.539	6871.32
697.885	6853.01
698.231	6820.47
698.577	6783.18
698.923	6823.63
699.269	6709.74
699.614	6675.84
699.96	6707.03
700.306	6674.49
700.651	6627.48
700.997	6631.1
701.342	6593.36
701.688	6626.13
702.033	6579.35
702.379	6557.65
702.724	6503.19
703.069	6567.82
703.415	6461.61
703.76	6508.39
704.105	6425.45
704.45	6394.94
704.795	6391.78
705.14	6345
705.485	6394.49
705.83	6317.88
706.175	6275.85
706.52	6290.31
706.865	6271.78
707.209	6269.3
707.554	6220.71
707.899	6222.97
708.243	6137.55
708.588	6131.22
708.932	6145.46
709.277	6184.55
709.621	6130.55
709.966	6100.49
710.31	6135.29
710.654	6035.18
710.998	6091.68
711.342	6092.58
711.687	6076.99
712.031	6036.99
712.375	6017.33
712.719	5968.52
713.063	5972.13
713.407	5976.88
713.75	5971.23
714.094	5939.36
714.438	5893.94
714.782	5917.22
715.125	5893.49
715.469	5892.59
715.812	5833.6
716.156	5847.39
716.499	5858.46
716.843	5865.02
717.186	5784.34
717.53	5845.35
717.873	5844.22
718.216	5817.56
718.559	5805.13
718.902	5806.49
719.246	5805.13
719.589	5739.82
719.932	5783.89
720.275	5771.01
720.617	5731.91
720.96	5741.85
721.303	5764.23
721.646	5714.74
721.989	5730.1
722.331	5693.49
722.674	5723.78
723.016	5745.7
723.359	5705.02
723.701	5711.8
724.044	5717.9
724.386	5665.47
724.729	5723.78
725.071	5721.74
725.413	5689.65
725.755	5727.84
726.097	5677.9
726.439	5606.27
726.782	5611.24
727.124	5661.86
727.465	5656.21
727.807	5629.32
728.149	5665.47
728.491	5643.55
728.833	5658.02
729.175	5633.61
729.516	5622.76
729.858	5657.34
730.199	5662.08
730.541	5661.4
730.882	5611.69
731.224	5693.49
731.565	5615.76
731.906	5666.83
732.248	5638.35
732.589	5678.13
732.93	5653.72
733.271	5636.32
733.612	5658.47
733.953	5651.46
734.294	5655.76
734.635	5608.07
734.976	5637.9
735.317	5641.74
735.658	5623.21
735.999	5654.4
736.339	5666.83
736.68	5679.94
737.021	5684.23
737.361	5693.49
737.702	5667.96
738.042	5666.38
738.383	5686.49
738.723	5698.01
739.063	5721.74
739.404	5738.46
739.744	5734.4
740.084	5772.36
740.424	5729.88
740.764	5737.79
741.104	5737.79
741.444	5732.59
741.784	5754.74
742.124	5764.45
742.464	5761.97
742.804	5838.8
743.143	5833.15
743.483	5806.49
743.823	5834.06
744.162	5873.38
744.502	5888.52
744.841	5896.65
745.181	6008.51
745.52	5983.66
745.86	6053.26
746.199	6032.02
746.538	6062.3
746.877	6127.61
747.216	6149.08
747.556	6185.46
747.895	6283.99
748.234	6229.07
748.573	6276.53
748.911	6360.82
749.25	6478.11
749.589	6469.29
749.928	6548.84
750.267	6615.28
750.605	6669.97
750.944	6650.76
751.283	6744.77
751.621	6868.83
751.96	6913.8
752.298	7076.96
752.636	7112.89
752.975	7189.5
753.313	7226.56
753.651	7389.04
753.989	7413.45
754.327	7510.4
754.666	7590.17
755.004	7772.54
755.342	7954.45
755.679	8018.18
756.017	8113.77
756.355	8272.64
756.693	8370.26
757.031	8518.73
757.368	8627.43
757.706	8737.03
758.044	8880.98
758.381	9080.07
758.719	9241.42
759.056	9341.08
759.394	9546.73
759.731	9639.38
760.068	9765.48
760.405	9968.86
760.743	10143.32
761.08	10301.51
761.417	10443.2
761.754	10640.48
762.091	10753.93
762.428	10928.61
762.765	11062.39
763.102	11274.14
763.438	11417.41
763.775	11518.2
764.112	11756.84
764.449	11982.82
764.785	12092.2
765.122	12188.24
765.458	12427.33
765.795	12558.85
766.131	12648.57
766.467	12883.59
766.804	12956.13
767.14	13087.2
767.476	13270.92
767.812	13345.95
768.148	13611.25
768.485	13668.2
768.821	13748.88
769.157	13886.5
