Data from hue_200_FLMS001491_00013.txt Node
Date: Tue Feb 07 16:42:52 GMT 2017
User: dcchb
Spectrometer: FLMS00149
Trigger mode: 0
Integration Time (sec): 2.000000E-2
Scans to average: 10
Electric dark correction enabled: true
Nonlinearity correction enabled: false
Boxcar width: 0
XAxis mode: Wavelengths
Number of Pixels in Spectrum: 2048
>>>>>Begin Spectral Data<<<<<
341.393	-10.62
341.776	-10.62
342.16	-10.62
342.543	-68.47
342.927	-66.89
343.31	-50.85
343.693	-72.09
344.077	-86.55
344.46	-69.38
344.843	-46.78
345.226	-52.43
345.61	-45.42
345.993	-19.66
346.376	-2.71
346.759	20.79
347.142	45.2
347.525	27.34
347.908	63.28
348.291	89.04
348.674	94.91
349.057	105.31
349.44	129.49
349.823	146.66
350.206	175.36
350.588	181.46
350.971	178.07
351.354	228.24
351.737	240.22
352.119	247.23
352.502	269.15
352.884	272.08
353.267	286.09
353.65	284.06
354.032	302.36
354.414	286.55
354.797	297.85
355.179	304.85
355.562	285.87
355.944	314.79
356.326	327.67
356.709	339.43
357.091	338.3
357.473	345.3
357.855	344.62
358.238	357.28
358.62	336.26
359.002	352.08
359.384	332.87
359.766	325.42
360.148	330.84
360.53	355.7
360.912	332.42
361.294	331.97
361.676	312.31
362.057	315.47
362.439	337.62
362.821	320.44
363.203	332.87
363.584	311.18
363.966	307.11
364.348	315.7
364.729	311.18
365.111	311.18
365.493	300.11
365.874	334.45
366.256	324.29
366.637	306.43
367.019	318.18
367.4	301.69
367.781	318.64
368.163	316.83
368.544	307.34
368.925	336.04
369.306	307.11
369.688	319.77
370.069	317.73
370.45	296.72
370.831	310.27
371.212	306.43
371.593	302.59
371.974	299.88
372.355	291.29
372.736	312.31
373.117	315.47
373.498	320.44
373.879	325.19
374.26	291.74
374.641	310.5
375.021	311.4
375.402	305.53
375.783	318.64
376.163	320.44
376.544	308.69
376.925	348.69
377.305	320.22
377.686	308.92
378.066	338.75
378.447	314.34
378.827	324.06
379.208	314.12
379.588	332.65
379.968	334
380.349	339.43
380.729	312.99
381.109	331.52
381.489	328.8
381.87	332.87
382.25	327.45
382.63	330.61
383.01	339.43
383.39	323.38
383.77	307.11
384.15	359.76
384.53	327.22
384.91	344.4
385.29	342.36
385.67	341.01
386.049	343.72
386.429	337.62
386.809	330.39
387.189	343.27
387.568	333.78
387.948	350.05
388.328	348.92
388.707	355.24
389.087	344.62
389.466	362.25
389.846	365.87
390.225	369.26
390.605	373.78
390.984	376.49
391.363	359.99
391.743	369.71
392.122	352.08
392.501	378.75
392.881	371.29
393.26	380.78
393.639	376.26
394.018	369.03
394.397	365.41
394.776	381.23
395.155	383.49
395.534	399.54
395.913	385.3
396.292	368.58
396.671	388.46
397.05	388.92
397.429	397.73
397.808	382.14
398.186	404.28
398.565	398.41
398.944	403.38
399.323	420.55
399.701	394.34
400.08	419.88
400.458	404.06
400.837	439.99
401.215	421.91
401.594	411.51
401.972	409.71
402.351	409.48
402.729	410.38
403.107	438.41
403.486	425.75
403.864	457.16
404.242	443.83
404.62	465.98
404.999	463.04
405.377	463.72
405.755	457.16
406.133	481.34
406.511	470.04
406.889	440.89
407.267	483.15
407.645	476.37
408.023	498.97
408.401	490.16
408.779	495.13
409.156	487.67
409.534	514.11
409.912	508.69
410.29	528.8
410.667	531.29
411.045	519.99
411.422	549.36
411.8	574.9
412.178	577.39
412.555	581.23
412.933	588.01
413.31	589.82
413.687	618.74
414.065	613.54
414.442	608.12
414.819	634.11
415.197	632.75
415.574	663.49
415.951	638.63
416.328	671.39
416.705	696.25
417.082	676.37
417.46	686.54
417.837	703.26
418.214	698.74
418.591	698.74
418.967	720.88
419.344	715.91
419.721	769.02
420.098	761.34
420.475	793.2
420.852	759.08
421.228	794.1
421.605	809.7
421.982	833.88
422.358	830.03
422.735	849.92
423.111	856.93
423.488	892.86
423.864	880.2
424.241	922.91
424.617	935.34
424.994	937.6
425.37	972.4
425.746	938.05
426.123	974.66
426.499	987.77
426.875	1004.27
427.251	1016.47
427.627	1039.52
428.003	1080.88
428.379	1091.72
428.756	1092.4
429.132	1088.33
429.507	1106.64
429.883	1121.55
430.259	1140.99
430.635	1167.65
431.011	1161.55
431.387	1190.48
431.763	1216.69
432.138	1225.28
432.514	1231.61
432.89	1266.41
433.265	1289.01
433.641	1322.68
434.016	1325.61
434.392	1348.21
434.767	1406.52
435.143	1396.8
435.518	1436.12
435.894	1451.49
436.269	1460.98
436.644	1539.17
437.02	1529.45
437.395	1555.89
437.77	1599.05
438.145	1624.59
438.52	1658.04
438.895	1668.2
439.271	1675.66
439.646	1699.16
440.021	1738.49
440.395	1759.05
440.77	1749.11
441.145	1799.73
441.52	1843.57
441.895	1832.49
442.27	1887.41
442.645	1866.17
443.019	1909.33
443.394	1938.71
443.769	1958.59
444.143	1943.68
444.518	1987.29
444.892	1990.91
445.267	2009.66
445.641	2054.18
446.016	2065.26
446.39	2079.27
446.764	2095.76
447.139	2067.29
447.513	2124.69
447.887	2109.32
448.262	2132.15
448.636	2190.9
449.01	2206.72
449.384	2201.75
449.758	2228.19
450.132	2243.78
450.506	2276.1
450.88	2290.56
451.254	2294.63
451.628	2312.93
452.002	2366.27
452.376	2363.78
452.75	2401.07
453.123	2445.36
453.497	2475.87
453.871	2474.96
454.244	2555.64
454.618	2535.53
454.992	2562.19
455.365	2573.72
455.739	2659.59
456.112	2680.16
456.486	2663.21
456.859	2728.74
457.232	2760.38
457.606	2746.59
457.979	2808.29
458.352	2803.99
458.725	2913.14
459.099	2900.71
459.472	2966.02
459.845	2963.76
460.218	3003.99
460.591	3013.25
460.964	3033.14
461.337	3098.22
461.71	3139.35
462.083	3229.52
462.456	3194.94
462.829	3204.89
463.201	3329.18
463.574	3283.98
463.947	3334.38
464.32	3388.84
464.692	3391.55
465.065	3489.17
465.438	3517.87
465.81	3549.51
466.183	3575.05
466.555	3674.25
466.928	3667.02
467.3	3636.74
467.672	3734.82
468.045	3848.03
468.417	3886.23
468.789	3898.43
469.161	3933.68
469.534	3956.28
469.906	4083.06
470.278	4054.81
470.65	4102.04
471.022	4185.2
471.394	4308.81
471.766	4300
472.138	4339.55
472.51	4403.95
472.882	4473.1
473.253	4497.28
473.625	4567.34
473.997	4669.93
474.369	4681.91
474.74	4704.96
475.112	4831.51
475.484	4944.73
475.855	4999.19
476.227	5050.94
476.598	5159.19
476.97	5151.5
477.341	5296.36
477.713	5336.36
478.084	5332.06
478.455	5552.4
478.827	5567.54
479.198	5678.04
479.569	5698.38
479.94	5857.02
480.311	5938.15
480.682	6039.39
481.053	6163
481.424	6260.17
481.795	6224.24
482.166	6340.4
482.537	6377.01
482.908	6556.44
483.279	6617.45
483.65	6692.48
484.021	6826.94
484.391	6929.31
484.762	6983.09
485.133	7032.58
485.503	7136.54
485.874	7268.06
486.244	7314.38
486.615	7429.18
486.985	7480.71
487.356	7566.58
487.726	7711.89
488.097	7779
488.467	7795.28
488.837	8009.51
489.207	8046.79
489.578	8163.63
489.948	8134.02
490.318	8338.54
490.688	8331.31
491.058	8426.9
491.428	8495.14
491.798	8623.5
492.168	8637.29
492.538	8763.61
492.908	8809.71
493.278	8929.03
493.648	8955.92
494.017	9019.2
494.387	9106.88
494.757	9152.08
495.126	9185.07
495.496	9235.01
495.866	9289.47
496.235	9379.19
496.605	9436.14
496.974	9466.19
497.344	9529.01
497.713	9614.66
498.082	9596.81
498.452	9754.55
498.821	9679.75
499.19	9749.8
499.559	9831.83
499.928	9839.52
500.298	9872.96
500.667	9920.64
501.036	9918.38
501.405	9996.8
501.774	9984.6
502.143	10057.81
502.512	10101.66
502.88	10137.13
503.249	10159.73
503.618	10242.67
503.987	10192.27
504.356	10299.16
504.724	10275.44
505.093	10268.66
505.462	10413.06
505.83	10372.61
506.199	10467.52
506.567	10604.01
506.936	10454.87
507.304	10554.52
507.672	10577.35
508.041	10600.17
508.409	10620.06
508.777	10701.41
509.145	10705.93
509.514	10674.97
509.882	10730.34
510.25	10654.41
510.618	10757.23
510.986	10714.52
511.354	10783.22
511.722	10924.46
512.09	10978.24
512.458	10899.37
512.826	10928.75
513.193	11015.3
513.561	10954.29
513.929	11011.69
514.297	11009.43
514.664	11084.23
515.032	11026.15
515.4	11137.11
515.767	11154.96
516.135	11160.61
516.502	11095.3
516.869	11222.53
517.237	11206.49
517.604	11118.13
517.972	11226.37
518.339	11208.74
518.706	11131.46
519.073	11228.63
519.44	11244.45
519.808	11336.65
520.175	11221.63
520.542	11328.97
520.909	11252.81
521.276	11271.12
521.643	11332.81
522.009	11313.37
522.376	11330.78
522.743	11366.25
523.11	11406.25
523.477	11513.14
523.843	11477.44
524.21	11460.72
524.577	11548.85
524.943	11533.93
525.31	11527.61
525.676	11562.41
526.043	11653.7
526.409	11625.01
526.776	11650.54
527.142	11596.08
527.508	11589.3
527.874	11594.27
528.241	11542.52
528.607	11506.59
528.973	11632.01
529.339	11582.29
529.705	11627.94
530.071	11688.73
530.437	11580.71
530.803	11598.34
531.169	11593.59
531.535	11482.41
531.901	11466.37
532.267	11432.69
532.632	11457.78
532.998	11415.29
533.364	11512.92
533.73	11441.96
534.095	11453.71
534.461	11360.83
534.826	11420.72
535.192	11398.8
535.557	11321.28
535.923	11335.52
536.288	11279.93
536.653	11307.73
537.019	11216.65
537.384	11144.11
537.749	11180.5
538.114	11093.72
538.479	11095.53
538.845	11085.13
539.21	11002.42
539.575	11005.13
539.94	10945.25
540.305	10985.47
540.67	10846.04
541.034	10887.4
541.399	10868.64
541.764	10768.08
542.129	10738.7
542.494	10717.23
542.858	10688.53
543.223	10641.3
543.587	10626.39
543.952	10570.34
544.316	10536.67
544.681	10440.86
545.045	10505.03
545.41	10466.39
545.774	10391.37
546.138	10327.41
546.503	10283.8
546.867	10303.91
547.231	10176
547.595	10162.9
547.959	10078.15
548.324	10036.57
548.688	10105.05
549.052	10037.25
549.416	10046.06
549.779	9961.55
550.143	9880.42
550.507	9869.57
550.871	9857.37
551.235	9794.32
551.599	9846.97
551.962	9754.09
552.326	9747.31
552.689	9738.28
553.053	9645.62
553.417	9585.96
553.78	9669.12
554.143	9580.31
554.507	9577.15
554.87	9531.73
555.234	9505.74
555.597	9515.46
555.96	9426.87
556.323	9419.64
556.686	9356.14
557.05	9348.68
557.413	9335.35
557.776	9309.36
558.139	9337.16
558.502	9336.93
558.865	9306.65
559.228	9290.38
559.59	9276.14
559.953	9267.33
560.316	9283.37
560.679	9280.43
561.041	9283.82
561.404	9209.25
561.767	9161.79
562.129	9218.51
562.492	9198.18
562.854	9172.19
563.217	9160.89
563.579	9161.12
563.941	9141.45
564.304	9182.36
564.666	9186.88
565.028	9221.9
565.39	9166.99
565.753	9229.36
566.115	9174.67
566.477	9162.47
566.839	9240.89
567.201	9209.48
567.563	9227.55
567.925	9229.14
568.287	9132.19
568.648	9185.07
569.01	9170.15
569.372	9210.61
569.734	9169.25
570.095	9196.37
570.457	9198.63
570.819	9150.04
571.18	9135.35
571.542	9174
571.903	9183.49
572.265	9185.97
572.626	9168.12
572.987	9210.15
573.349	9216.48
573.71	9190.72
574.071	9167.89
574.432	9193.43
574.794	9275.91
575.155	9183.49
575.516	9194.79
575.877	9282.02
576.238	9248.57
576.599	9229.59
576.96	9177.39
577.32	9187.78
577.681	9206.54
578.042	9245.86
578.403	9216.25
578.763	9185.07
579.124	9294.22
579.485	9284.5
579.845	9283.82
580.206	9234.11
580.566	9243.6
580.927	9258.97
581.287	9259.64
581.648	9218.29
582.008	9213.54
582.368	9205.63
582.728	9269.13
583.089	9247.44
583.449	9263.94
583.809	9239.31
584.169	9225.52
584.529	9212.87
584.889	9329.25
585.249	9196.37
585.609	9165.41
585.969	9246.54
586.329	9190.72
586.688	9193.2
587.048	9147.33
587.408	9113.43
587.768	9155.69
588.127	9086.77
588.487	9125.86
588.846	9141.45
589.206	9100.1
589.565	9037.05
589.925	9099.2
590.284	9115.01
590.643	9088.35
591.003	9133.77
591.362	9047.45
591.721	9101.23
592.08	9079.76
592.44	9080.89
592.799	9084.05
593.158	9022.36
593.517	9078.18
593.876	9132.42
594.235	8979.88
594.593	9068.91
594.952	9068.01
595.311	8990.5
595.67	9007.67
596.029	9061.91
596.387	8934.23
596.746	9074.34
597.104	9037.28
597.463	8920.22
597.822	9041.8
598.18	8987.79
598.538	8968.58
598.897	9005.64
599.255	8970.84
599.613	9074.79
599.972	8992.53
600.33	9062.81
600.688	8975.58
601.046	9027.56
601.404	9031.17
601.762	8975.13
602.12	9046.54
602.478	8975.81
602.836	9027.79
603.194	8971.74
603.552	8991.63
603.91	8933.32
604.268	9078.41
604.625	8926.09
604.983	8964.51
605.341	8907.79
605.698	9012.19
606.056	8993.89
606.413	8933.55
606.771	9014
607.128	9003.83
607.485	8887
607.843	8974.23
608.2	8955.02
608.557	9008.35
608.914	8979.42
609.272	9089.93
609.629	9018.97
609.986	9087.67
610.343	9008.35
610.7	9109.59
611.057	8997.96
611.414	9010.38
611.771	9011.29
612.127	9102.59
612.484	9073.21
612.841	9062.36
613.198	9066.65
613.554	9077.05
613.911	9100.33
614.267	9029.82
614.624	9113.43
614.98	9099.87
615.337	9158.18
615.693	9126.54
616.05	9145.07
616.406	9157.95
616.762	9106.88
617.118	9083.83
617.475	9101.91
617.831	9145.75
618.187	9143.49
618.543	9203.6
618.899	9202.24
619.255	9192.75
619.611	9167.89
619.967	9118.18
620.323	9229.59
620.678	9196.14
621.034	9152.98
621.39	9143.49
621.746	9089.48
622.101	9195.46
622.457	9129.93
622.812	9176.71
623.168	9210.15
623.523	9177.16
623.879	9213.32
624.234	9138.06
624.589	9175.13
624.945	9082.93
625.3	9130.61
625.655	9102.13
626.01	9192.07
626.365	9144.17
626.72	9124.73
627.075	9127.44
627.43	9142.36
627.785	9078.63
628.14	9143.49
628.495	9135.8
628.85	9079.99
629.205	9114.56
629.559	9136.03
629.914	9026.66
630.269	9085.41
630.623	9090.38
630.978	9039.99
631.332	9119.53
631.687	9100.78
632.041	8983.49
632.396	9056.71
632.75	8990.27
633.104	9021.01
633.459	9010.61
633.813	8990.27
634.167	8958.86
634.521	8980.1
634.875	9013.1
635.229	9044.73
635.583	8881.57
635.937	8854.68
636.291	8846.55
636.645	8896.04
636.999	8857.17
637.352	8873.66
637.706	8811.07
638.06	8880.44
638.413	8783.5
638.767	8850.61
639.121	8781.92
639.474	8760.9
639.828	8803.84
640.181	8784.85
640.534	8784.63
640.888	8757.74
641.241	8731.07
641.594	8740.56
641.947	8743.05
642.301	8710.96
642.654	8698.75
643.007	8726.1
643.36	8661.92
643.713	8655.82
644.066	8717.28
644.419	8701.24
644.771	8660.79
645.124	8618.98
645.477	8493.79
645.83	8513.45
646.182	8413.11
646.535	8481.81
646.888	8462.15
647.24	8442.26
647.593	8486.78
647.945	8437.52
648.298	8369.72
648.65	8311.65
649.002	8373.57
649.355	8353.9
649.707	8456.5
650.059	8448.37
650.411	8547.35
650.763	8560.45
651.115	8587.12
651.467	8582.37
651.819	8626.44
652.171	8589.15
652.523	8673.22
652.875	8636.38
653.227	8530.4
653.578	8569.27
653.93	8583.05
654.282	8499.44
654.633	8551.41
654.985	8607.01
655.337	8567.91
655.688	8541.02
656.039	8666.66
656.391	8575.82
656.742	8549.61
657.094	8578.31
657.445	8611.52
657.796	8569.49
658.147	8638.42
658.498	8582.37
658.849	8631.64
659.2	8620.56
659.551	8587.8
659.902	8657.17
660.253	8567.01
660.604	8638.87
660.955	8585.09
661.306	8697.62
661.656	8618.53
662.007	8631.86
662.358	8692.88
662.708	8665.08
663.059	8692.43
663.409	8639.77
663.76	8676.83
664.11	8682.48
664.461	8645.65
664.811	8716.83
665.161	8655.14
665.511	8665.53
665.862	8678.19
666.212	8694.23
666.562	8740.34
666.912	8701.47
667.262	8710.28
667.612	8674.35
667.962	8704.18
668.312	8660.56
668.662	8697.85
669.011	8689.94
669.361	8676.83
669.711	8696.04
670.06	8682.94
670.41	8666.89
670.76	8607.23
671.109	8638.64
671.459	8670.51
671.808	8660.56
672.157	8690.84
672.507	8595.71
672.856	8624.63
673.205	8624.86
673.554	8658.53
673.904	8583.05
674.253	8596.16
674.602	8647.23
674.951	8414.02
675.3	8496.95
675.649	8583.28
675.998	8556.61
676.346	8564.75
676.695	8510.74
677.044	8493.79
677.393	8494.69
677.741	8476.39
678.09	8449.5
678.438	8510.74
678.787	8526.33
679.135	8522.26
679.484	8365.88
679.832	8461.47
680.181	8531.53
680.529	8386.45
680.877	8387.58
681.225	8404.75
681.573	8443.17
681.922	8369.27
682.27	8326.56
682.618	8311.19
682.966	8319.1
683.314	8297.86
683.661	8264.42
684.009	8217.19
684.357	8260.8
684.705	8198.65
685.053	8289.5
685.4	8272.32
685.748	8153.91
686.095	8109.84
686.443	8068.71
686.79	8167.92
687.138	8130.63
687.485	8050.18
687.832	8076.85
688.18	8124.76
688.527	7997.3
688.874	8033.01
689.221	8001.82
689.568	7957.08
689.915	7904.42
690.262	7899
690.609	7933.35
690.956	7877.53
691.303	7886.57
691.65	7786.69
691.997	7838.89
692.344	7756.86
692.69	7707.37
693.037	7656.52
693.383	7640.03
693.73	7721.6
694.077	7610.87
694.423	7603.87
694.769	7567.71
695.116	7585.79
695.462	7519.58
695.808	7524.77
696.155	7536.07
696.501	7390.54
696.847	7425.79
697.193	7345.34
697.539	7425.57
697.885	7341.5
698.231	7317.55
698.577	7293.59
698.923	7334.27
699.269	7196.87
699.614	7200.49
699.96	7108.97
700.306	7176.99
700.651	7134.05
700.997	7112.81
701.342	7080.72
701.688	7075.97
702.033	7049.76
702.379	7027.39
702.724	6947.84
703.069	6954.62
703.415	6860.38
703.76	6876.66
704.105	6848.41
704.45	6916.88
704.795	6883.89
705.14	6863.32
705.485	6797.79
705.83	6762.08
706.175	6757.79
706.52	6735.64
706.865	6666.04
707.209	6698.13
707.554	6602.09
707.899	6586.04
708.243	6614.97
708.588	6604.35
708.932	6575.19
709.277	6556.89
709.621	6579.94
709.966	6530.9
710.31	6509.43
710.654	6486.84
710.998	6451.13
711.342	6491.81
711.687	6444.12
712.031	6421.07
712.375	6452.71
712.719	6454.97
713.063	6405.48
713.407	6407.29
713.75	6364.8
714.094	6365.71
714.438	6301.53
714.782	6377.69
715.125	6290.23
715.469	6315.77
715.812	6346.05
716.156	6219.95
716.499	6269.67
716.843	6270.8
717.186	6200.06
717.53	6230.8
717.873	6236.67
718.216	6209.1
718.559	6163.68
718.902	6152.61
719.246	6161.87
719.589	6156.9
719.932	6125.26
720.275	6139.5
720.617	6146.51
720.96	6142.89
721.303	6085.49
721.646	6177.01
721.989	6057.24
722.331	6113.06
722.674	6111.93
723.016	6080.07
723.359	6056.79
723.701	6096.34
724.044	6083.91
724.386	6049.33
724.729	6049.56
725.071	5995.77
725.413	6062.44
725.755	6081.65
726.097	6074.19
726.439	5985.38
726.782	5990.58
727.124	6043.68
727.465	5996.9
727.807	6022.67
728.149	6019.73
728.491	6022.89
728.833	6005.04
729.175	6023.57
729.516	6052.04
729.858	5999.39
730.199	5987.64
730.541	5969.33
730.882	5984.25
731.224	6024.02
731.565	6022.21
731.906	5967.07
732.248	6000.52
732.589	6021.54
732.93	6014.76
733.271	6018.82
733.612	6018.6
733.953	5991.48
734.294	6017.69
734.635	5964.81
734.976	6042.1
735.317	6035.1
735.658	5995.32
735.999	6057.02
736.339	5957.36
736.68	6019.5
737.021	6038.94
737.361	6060.18
737.702	6058.37
738.042	5990.8
738.383	6036.23
738.723	6053.85
739.063	6041.88
739.404	6049.56
739.744	6065.83
740.084	6095.43
740.424	6097.69
740.764	6055.66
741.104	6103.57
741.444	6144.7
741.784	6126.17
742.124	6173.4
742.464	6159.39
742.804	6204.81
743.143	6252.26
743.483	6198.71
743.823	6254.3
744.162	6266.28
744.502	6338.36
744.841	6306.95
745.181	6351.02
745.52	6349.44
745.86	6417.91
746.199	6505.59
746.538	6455.42
746.877	6527.96
747.216	6597.57
747.556	6653.61
747.895	6638.24
748.234	6640.96
748.573	6721.18
748.911	6854.51
749.25	6861.74
749.589	6917.11
749.928	6981.29
750.267	7110.32
750.605	7106.03
750.944	7207.04
751.283	7262.86
751.621	7349.41
751.96	7417.21
752.298	7487.49
752.636	7614.94
752.975	7671.89
753.313	7752.79
753.651	7864.2
753.989	7974.25
754.327	8119.33
754.666	8181.25
755.004	8306
755.342	8425.99
755.679	8591.41
756.017	8650.39
756.355	8785.53
756.693	8923.83
757.031	9126.77
757.368	9214
757.706	9337.61
758.044	9483.14
758.381	9632.97
758.719	9812.4
759.056	10010.81
759.394	10171.03
759.731	10191.37
760.068	10445.6
760.405	10539.61
760.743	10706.61
761.08	10940.05
761.417	11070.44
761.754	11233.15
762.091	11352.7
762.428	11614.16
762.765	11676.3
763.102	11952.91
763.438	12110.42
763.775	12198.32
764.112	12420.24
764.449	12613.91
764.785	12743.17
765.122	12853.22
765.458	13003.73
765.795	13152.2
766.131	13408.69
