Data from hue_30_FLMS001491_70.txt Node
Date: Mon Feb 06 15:05:47 GMT 2017
User: dcchb
Spectrometer: FLMS00149
Trigger mode: 0
Integration Time (sec): 2.000000E-2
Scans to average: 10
Electric dark correction enabled: true
Nonlinearity correction enabled: false
Boxcar width: 0
XAxis mode: Wavelengths
Number of Pixels in Spectrum: 2048
>>>>>Begin Spectral Data<<<<<
341.393	-12.99
341.776	-12.99
342.16	-12.99
342.543	-69.94
342.927	-86.21
343.31	-58.64
343.693	-61.81
344.077	-63.16
344.46	-55.48
344.843	-54.57
345.226	-50.96
345.61	-46.44
345.993	-8.7
346.376	-5.99
346.759	3.5
347.142	19.55
347.525	55.48
347.908	75.14
348.291	67.46
348.674	78.53
349.057	106.1
349.44	128.02
349.823	154.01
350.206	164.85
350.588	197.62
350.971	207.57
351.354	219.99
351.737	219.09
352.119	264.06
352.502	273.55
352.884	272.2
353.267	281.69
353.65	286.21
354.032	304.74
354.414	309.94
354.797	323.04
355.179	319.88
355.562	340.22
355.944	311.07
356.326	323.04
356.709	342.25
357.091	344.06
357.473	351.06
357.855	339.09
358.238	324.62
358.62	349.03
359.002	328.69
359.384	345.19
359.766	333.21
360.148	333.44
360.53	328.69
360.912	347
361.294	320.78
361.676	328.69
362.057	333.21
362.439	328.69
362.821	327.11
363.203	339.31
363.584	349.71
363.966	347.67
364.348	342.48
364.729	317.84
365.111	320.78
365.493	308.81
365.874	339.99
366.256	330.95
366.637	314.68
367.019	320.78
367.4	315.13
367.781	328.92
368.163	312.42
368.544	325.75
368.925	311.29
369.306	333.89
369.688	334.12
370.069	309.71
370.45	330.27
370.831	337.05
371.212	327.56
371.593	305.87
371.974	337.96
372.355	319.43
372.736	334.12
373.117	329.82
373.498	328.92
373.879	329.82
374.26	316.49
374.641	319.43
375.021	299.31
375.402	318.97
375.783	310.16
376.163	326.21
376.544	343.83
376.925	329.37
377.305	333.66
377.686	324.4
378.066	316.71
378.447	341.57
378.827	341.8
379.208	327.56
379.588	341.12
379.968	334.12
380.349	347.22
380.729	346.77
381.109	356.49
381.489	346.32
381.87	335.92
382.25	344.28
382.63	343.83
383.01	347.67
383.39	341.57
383.77	330.27
384.15	360.56
384.53	351.97
384.91	364.4
385.29	347.45
385.67	345.64
386.049	364.4
386.429	376.15
386.809	371.4
387.189	354.23
387.568	364.4
387.948	349.03
388.328	346.77
388.707	372.76
389.087	377.73
389.466	355.13
389.846	373.89
390.225	365.3
390.605	355.81
390.984	383.61
391.363	349.93
391.743	375.7
392.122	398.29
392.501	382.7
392.881	394.68
393.26	367.33
393.639	395.13
394.018	395.13
394.397	380.67
394.776	386.32
395.155	374.34
395.534	393.55
395.913	386.09
396.292	391.29
396.671	391.74
397.05	399.88
397.429	392.19
397.808	396.26
398.186	393.1
398.565	403.94
398.944	411.63
399.323	417.5
399.701	434.9
400.08	406.43
400.458	389.48
400.837	403.49
401.215	401.01
401.594	423.38
401.972	408.01
402.351	416.83
402.729	424.28
403.107	429.71
403.486	429.03
403.864	426.09
404.242	431.06
404.62	418.41
404.999	431.29
405.377	429.71
405.755	411.4
406.133	408.69
406.511	440.78
406.889	438.07
407.267	436.71
407.645	447.11
408.023	448.24
408.401	464.06
408.779	434.45
409.156	469.48
409.534	480.55
409.912	466.54
410.29	457.5
410.667	464.73
411.045	462.93
411.422	471.51
411.8	471.06
412.178	457.5
412.555	498.18
412.933	483.94
413.31	491.63
413.687	487.78
414.065	497.95
414.442	485.52
414.819	493.43
415.197	519.87
415.574	504.96
415.951	509.93
416.328	504.28
416.705	495.24
417.082	526.2
417.46	533.43
417.837	537.73
418.214	528.46
418.591	519.65
418.967	533.43
419.344	551.06
419.721	557.39
420.098	542.02
420.475	535.24
420.852	536.14
421.228	553.09
421.605	563.49
421.982	564.62
422.358	538.86
422.735	559.42
423.111	555.35
423.488	555.8
423.864	581.34
424.241	552.19
424.617	589.25
424.994	559.42
425.37	575.01
425.746	581.57
426.123	604.84
426.499	599.87
426.875	597.84
427.251	590.61
427.627	614.33
428.003	611.4
428.379	631.51
428.756	604.39
429.132	616.14
429.507	633.09
429.883	625.41
430.259	662.24
430.635	625.41
431.011	649.14
431.387	658.85
431.763	671.51
432.138	667.89
432.514	648.68
432.89	683.94
433.265	699.53
433.641	686.42
434.016	702.92
434.392	705.41
434.767	707.89
435.143	708.34
435.518	727.1
435.894	730.49
436.269	749.02
436.644	746.99
437.02	739.98
437.395	731.62
437.77	759.64
438.145	742.47
438.52	743.6
438.895	772.97
439.271	760.09
439.646	773.65
440.021	764.39
440.395	778.62
440.77	772.75
441.145	788.57
441.52	790.15
441.895	807.55
442.27	819.07
442.645	824.5
443.019	849.58
443.394	818.17
443.769	816.36
444.143	824.95
444.518	833.54
444.892	811.84
445.267	821.33
445.641	841.45
446.016	854.78
446.39	841.9
446.764	846.87
447.139	848.68
447.513	852.97
447.887	844.61
448.262	876.93
448.636	878.28
449.01	886.42
449.384	906.08
449.758	911.95
450.132	905.4
450.506	912.41
450.88	942.91
451.254	917.15
451.628	951.95
452.002	937.49
452.376	925.06
452.75	967.77
453.123	960.99
453.497	978.17
453.871	989.69
454.244	974.55
454.618	992.86
454.992	989.47
455.365	1014.55
455.739	1029.92
456.112	1028.33
456.486	1018.62
456.859	1046.41
457.232	1038.5
457.606	1064.72
457.979	1079.18
458.352	1103.36
458.725	1087.54
459.099	1125.28
459.472	1140.42
459.845	1148.78
460.218	1149.91
460.591	1161.44
460.964	1152.17
461.337	1169.35
461.71	1168.67
462.083	1211.15
462.456	1211.38
462.829	1250.48
463.201	1239.18
463.574	1245.5
463.947	1264.26
464.32	1267.42
464.692	1271.94
465.065	1330.47
465.438	1296.58
465.81	1333.86
466.183	1367.08
466.555	1400.98
466.928	1375.67
467.3	1380.87
467.672	1420.64
468.045	1439.85
468.417	1456.12
468.789	1484.14
469.161	1490.92
469.534	1536.8
469.906	1551.71
470.278	1551.03
470.65	1563.46
471.022	1582.44
471.394	1614.99
471.766	1620.64
472.138	1659.96
472.51	1693.85
472.882	1732.72
473.253	1734.08
473.625	1758.03
473.997	1803
474.369	1858.6
474.74	1877.13
475.112	1892.27
475.484	1918.48
475.855	1946.5
476.227	2010.46
476.598	2058.59
476.97	2054.97
477.341	2105.82
477.713	2153.5
478.084	2158.02
478.455	2220.62
478.827	2241.86
479.198	2331.8
479.569	2319.83
479.94	2416.09
480.311	2442.76
480.682	2484.79
481.053	2548.75
481.424	2613.83
481.795	2642.3
482.166	2718.91
482.537	2755.07
482.908	2798.01
483.279	2849.08
483.65	2941.73
484.021	3006.36
484.391	3057.43
484.762	3125.45
485.133	3134.95
485.503	3186.02
485.874	3268.28
486.244	3318.9
486.615	3419.23
486.985	3421.72
487.356	3497.2
487.726	3560.92
488.097	3654.03
488.467	3728.15
488.837	3765.89
489.207	3878.66
489.578	3913.46
489.948	3950.52
490.318	4040.91
490.688	4089.27
491.058	4136.28
491.428	4239.55
491.798	4323.16
492.168	4369.72
492.538	4424.4
492.908	4480.67
493.278	4600.9
493.648	4580.11
494.017	4668.92
494.387	4790.04
494.757	4773.77
495.126	4844.96
495.496	4905.07
495.866	4955.24
496.235	5008.79
496.605	5069.36
496.974	5125.18
497.344	5145.74
497.713	5234.78
498.082	5282.01
498.452	5352.74
498.821	5390.71
499.19	5393.42
499.559	5490.36
499.928	5463.7
500.298	5558.16
500.667	5619.4
501.036	5678.83
501.405	5708.66
501.774	5742.56
502.143	5757.93
502.512	5807.19
502.88	5857.81
503.249	5924.25
503.618	5935.1
503.987	5998.37
504.356	6063
504.724	6061.2
505.093	6091.25
505.462	6079.95
505.83	6169.44
506.199	6235.43
506.567	6288.76
506.936	6358.36
507.304	6369.44
507.672	6472.49
508.041	6491.47
508.409	6486.95
508.777	6540.28
509.145	6601.97
509.514	6588.87
509.882	6660.95
510.25	6671.12
510.618	6765.58
510.986	6749.77
511.354	6820.72
511.722	6846.94
512.09	6916.54
512.458	6867.28
512.826	6995.18
513.193	6994.96
513.561	6982.3
513.929	7053.26
514.297	7091
514.664	7204.44
515.032	7244.67
515.4	7231.79
515.767	7213.71
516.135	7318.56
516.502	7270.88
516.869	7367.15
517.237	7383.2
517.604	7406.7
517.972	7470.2
518.339	7444.89
518.706	7545.68
519.073	7584.77
519.44	7575.51
519.808	7639.23
520.175	7650.99
520.542	7758.55
520.909	7731.89
521.276	7831.09
521.643	7880.81
522.009	7915.61
522.376	7962.62
522.743	8009.62
523.11	8021.37
523.477	8111.31
523.843	8083.29
524.21	8184.98
524.577	8156.06
524.943	8260.46
525.31	8239.9
525.676	8341.81
526.043	8493.45
526.409	8414.13
526.776	8505.43
527.142	8505.43
527.508	8570.74
527.874	8663.39
528.241	8732.31
528.607	8705.87
528.973	8765.98
529.339	8783.84
529.705	8865.64
530.071	8958.75
530.437	8940.89
530.803	8988.8
531.169	9042.14
531.535	9100.44
531.901	9107.67
532.267	9142.92
532.632	9220.21
532.998	9236.93
533.364	9363.26
533.73	9307.89
534.095	9452.75
534.461	9476.7
534.826	9545.17
535.192	9614.55
535.557	9563.03
535.923	9656.13
536.288	9658.16
536.653	9685.28
537.019	9672.18
537.384	9717.82
537.749	9768.22
538.114	9830.59
538.479	9789.91
538.845	9887.54
539.21	9878.95
539.575	9932.51
539.94	9952.85
540.305	10009.79
540.67	10039.62
541.034	10128.21
541.399	10104.03
541.764	10158.49
542.129	10192.61
542.494	10243.01
542.858	10274.19
543.223	10343.8
543.587	10469.89
543.952	10433.96
544.316	10465.15
544.681	10444.36
545.045	10483.23
545.41	10581.08
545.774	10630.57
546.138	10652.71
546.503	10662.66
546.867	10699.49
547.231	10823.33
547.595	10823.11
547.959	10852.03
548.324	10877.79
548.688	10944.46
549.052	10962.99
549.416	10987.17
549.779	11023.55
550.143	11054.96
550.507	11173.83
550.871	11146.03
551.235	11126.37
551.599	11241.85
551.962	11325.69
552.326	11415.18
552.689	11305.35
553.053	11268.07
553.417	11390.32
553.78	11495.4
554.143	11505.8
554.507	11488.85
554.87	11558
555.234	11642.52
555.597	11570.88
555.96	11685.46
556.323	11716.19
556.686	11703.53
557.05	11728.84
557.413	11816.75
557.776	11798.67
558.139	11872.57
558.502	11880.03
558.865	11978.56
559.228	11936.52
559.59	12116.18
559.953	12101.26
560.316	12196.4
560.679	12197.53
561.041	12260.81
561.404	12242.5
561.767	12336.29
562.129	12340.58
562.492	12484.3
562.854	12461.03
563.217	12519.33
563.579	12581.25
563.941	12572.89
564.304	12687.69
564.666	12761.59
565.028	12776.27
565.39	12788.7
565.753	12827.57
566.115	12923.16
566.477	12869.38
566.839	12961.13
567.201	13036.38
567.563	13049.04
567.925	13053.56
568.287	13108.47
568.648	13143.27
569.01	13315.47
569.372	13308.69
569.734	13304.17
570.095	13387.56
570.457	13449.7
570.819	13479.53
571.18	13468.01
571.542	13606.76
571.903	13704.84
572.265	13810.6
572.626	13752.07
572.987	13844.27
573.349	14050.59
573.71	14024.6
574.071	14024.6
574.432	14141.89
574.794	14242.68
575.155	14313.63
575.516	14325.84
575.877	14427.08
576.238	14520.18
576.599	14628.2
576.96	14714.08
577.32	14768.99
577.681	14858.03
578.042	14964.92
578.403	15045.59
578.763	15150
579.124	15300.95
579.485	15430.89
579.845	15604
580.206	15616.43
580.566	15763.54
580.927	15938.45
581.287	16128.5
581.648	16204.88
582.008	16461.15
582.368	16553.35
582.728	16813.46
583.089	16919.22
583.449	17151.3
583.809	17278.3
584.169	17507.9
584.529	17580.22
584.889	17998.28
585.249	18009.36
585.609	18268.79
585.969	18598.49
586.329	18681.2
586.688	18954.19
587.048	19107.63
587.408	19258.14
587.768	19560.95
588.127	19805.69
588.487	20046.59
588.846	20327.26
589.206	20493.13
589.565	20823.75
589.925	21168.6
590.284	21289.95
590.643	21630.05
591.003	21898.52
591.362	22224.16
591.721	22338.73
592.08	22645.17
592.44	23049.9
592.799	23280.4
593.158	23540.06
593.517	23840.16
593.876	24070.89
594.235	24317.44
594.593	24615.28
594.952	24799.69
595.311	25138.21
595.67	25560.34
596.029	25819.77
596.387	26156.49
596.746	26363.49
597.104	26722.12
597.463	26853.87
597.822	27241.66
598.18	27401.88
598.538	27658.14
598.897	28085.7
599.255	28260.61
599.613	28783.99
599.972	28918.22
600.33	29235.95
600.688	29269.17
601.046	29745.32
601.404	30050.62
601.762	30192.77
602.12	30693.54
602.478	30906.42
602.836	31077.49
603.194	31030.26
603.552	31382.34
603.91	31628.21
604.268	31937.35
604.625	32033.62
604.983	32538.69
605.341	32387.96
605.698	32752.25
606.056	33121.5
606.413	33163.31
606.771	33495.05
607.128	33791.77
607.485	33887.13
607.843	33982.95
608.2	34467
608.557	34628.13
608.914	34789.25
609.272	35005.52
609.629	35367.09
609.986	35513.76
610.343	35522.12
610.7	35920.3
611.057	35899.73
611.414	36122.1
611.771	36325.26
612.127	36590.34
612.484	36773.38
612.841	36981.06
613.198	36988.97
613.554	37142.64
613.911	37456.98
614.267	37587.6
614.624	37672.57
614.98	37774.94
615.337	38115.95
615.693	38162.05
616.05	38131.99
616.406	38648.36
616.762	38505.77
617.118	38590.96
617.475	38821.69
617.831	39043.61
618.187	39115.92
618.543	39120.89
618.899	39707.09
619.255	39588.9
619.611	39583.7
619.967	39876.58
620.323	40048.78
620.678	39883.36
621.034	39882.45
621.39	40012.62
621.746	40175.33
622.101	40645.15
622.457	40410.58
622.812	40377.58
623.168	40574.41
623.523	40671.13
623.879	40943.22
624.234	40686.5
624.589	40834.07
624.945	41040.16
625.3	41097.56
625.655	41073.84
626.01	41210.1
626.365	41349.99
626.72	41251.46
627.075	41352.47
627.43	41354.96
627.785	41349.53
628.14	41541.85
628.495	41563.31
628.85	41700.71
629.205	41442.19
629.559	41677.21
629.914	41488.97
630.269	41667.94
630.623	41568.51
630.978	41521.51
631.332	41716.3
631.687	41885.34
632.041	41758.56
632.396	41906.13
632.75	41716.3
633.104	41949.52
633.459	41762.4
633.813	41611.22
634.167	41748.39
634.521	41712.91
634.875	41810.99
635.229	41737.32
635.583	41554.27
635.937	41756.76
636.291	41514.5
636.645	41725.57
636.999	41600.15
637.352	41744.1
637.706	41634.05
638.06	41576.19
638.413	41717.66
638.767	41558.79
639.121	41691.22
639.474	41396.54
639.828	41514.73
640.181	41533.94
640.534	41568.29
640.888	41448.74
641.241	41173.72
641.594	41376.88
641.947	41604.89
642.301	41404
642.654	41388.86
643.007	41433.83
643.36	41364.45
643.713	41317.9
644.066	41456.65
644.419	41356.77
644.771	41045.14
645.124	40768.31
645.477	40705.71
645.83	40476.79
646.182	40196.8
646.535	40194.08
646.888	40268.21
647.24	40099.62
647.593	40246.51
647.945	40205.16
648.298	40035.67
648.65	40039.29
649.002	39855.79
649.355	40114.09
649.707	40085.61
650.059	40277.25
650.411	40581.42
650.763	40674.98
651.115	41088.98
651.467	40902.54
651.819	40937.57
652.171	40945.48
652.523	40877.46
652.875	40803.56
653.227	40648.76
653.578	41053.27
653.93	40771.7
654.282	40570.8
654.633	40608.54
654.985	40628.2
655.337	40750.68
655.688	40615.32
656.039	40765.82
656.391	40444.93
656.742	40536.9
657.094	40510.46
657.445	40719.27
657.796	40450.35
658.147	40511.14
658.498	40456.45
658.849	40564.92
659.2	40464.81
659.551	40432.5
659.902	40631.59
660.253	40463
660.604	40495.09
660.955	40328.32
661.306	40465.94
661.656	40398.37
662.007	40476.56
662.358	40385.94
662.708	40484.25
663.059	40328.09
663.409	40234.54
663.76	40528.09
664.11	40272.27
664.461	40446.28
664.811	40354.76
665.161	40427.98
665.511	40273.18
665.862	40262.78
666.212	40509.1
666.562	40489.22
666.912	40298.04
667.262	40296.45
667.612	40309.79
667.962	40375.55
668.312	40161.54
668.662	40456
669.011	40341.88
669.361	40365.61
669.711	40289.22
670.06	40091.26
670.41	40197.47
670.76	40156.57
671.109	40331.71
671.459	40187.98
671.808	40057.59
672.157	40278.15
672.507	40004.26
672.856	39839.74
673.205	40004.03
673.554	40020.08
673.904	39856.01
674.253	40112.05
674.602	39905.05
674.951	39503.03
675.3	39450.83
675.649	39907.99
675.998	39873.19
676.346	39860.99
676.695	40048.1
677.044	39727.2
677.393	39782.57
677.741	39917.48
678.09	39780.76
678.438	39648.11
678.787	39727.88
679.135	39731.05
679.484	39557.04
679.832	39724.04
680.181	39549.58
680.529	39715.23
680.877	39534.21
681.225	39458.51
681.573	39698.05
681.922	39391.17
682.27	39223.71
682.618	39304.84
682.966	39122.7
683.314	39282.47
683.661	39112.3
684.009	38935.36
684.357	38863.27
684.705	38878.64
685.053	38858.98
685.4	38737.17
685.748	38480.68
686.095	38399.78
686.443	38350.97
686.79	38422.61
687.138	38475.71
687.485	38442.72
687.832	38267.36
688.18	38282.95
688.527	38065.55
688.874	38165.21
689.221	38054.25
689.568	38114.14
689.915	37852.9
690.262	37944.88
690.609	37830.53
690.956	37793.02
691.303	37662.4
691.65	37517.09
691.997	37500.37
692.344	37268.29
692.69	37313.48
693.037	37312.58
693.383	36892.93
693.73	37073.94
694.077	36853.61
694.423	36903.32
694.769	36610.22
695.116	36650.45
695.462	36595.99
695.808	36482.09
696.155	36459.49
696.501	36261.76
696.847	36201.2
697.193	36021.54
697.539	36010.01
697.885	35930.47
698.231	35819.06
698.577	35824.48
698.923	35719.85
699.269	35531.61
699.614	35384.27
699.96	35398.5
700.306	35424.94
700.651	35241.9
700.997	35128
701.342	35083.94
701.688	34955.8
702.033	34869.25
702.379	34954.67
702.724	34776.37
703.069	34892.75
703.415	34448.7
703.76	34467.23
704.105	34408.02
704.45	34479.88
704.795	34198.08
705.14	34118.99
705.485	34186.33
705.83	33990.63
706.175	34011.2
706.52	33811.2
706.865	33719.9
707.209	33741.15
707.554	33445.56
707.899	33797.64
708.243	33557.2
708.588	33522.17
708.932	33211.67
709.277	33162.63
709.621	33239.69
709.966	33011.22
710.31	33110.2
710.654	32824.56
710.998	32856.42
711.342	32862.98
711.687	32829.31
712.031	32627.05
712.375	32491.69
712.719	32560.84
713.063	32586.15
713.407	32605.36
713.75	32426.61
714.094	32304.35
714.438	32206.27
714.782	32200.17
715.125	32077.46
715.469	32095.54
715.812	31969.89
716.156	31863
716.499	31840.86
716.843	31909.33
717.186	31700.52
717.53	31828.2
717.873	31850.12
718.216	31741.43
718.559	31537.14
718.902	31353.41
719.246	31525.39
719.589	31255.11
719.932	31281.78
720.275	31114.32
720.617	31200.87
720.96	31100.54
721.303	31173.53
721.646	31179.18
721.989	30933.99
722.331	31007.66
722.674	30961.11
723.016	30775.35
723.359	30870.94
723.701	30857.38
724.044	30593.88
724.386	30477.05
724.729	30617.84
725.071	30606.77
725.413	30461.68
725.755	30592.98
726.097	30396.6
726.439	30290.39
726.782	30274.12
727.124	30486.54
727.465	30207
727.807	30078.64
728.149	30130.39
728.491	30022.37
728.833	30112.32
729.175	30048.14
729.516	29924.52
729.858	29954.58
730.199	29894.69
730.541	29861.93
730.882	29715.72
731.224	29768.6
731.565	29553.91
731.906	29684.08
732.248	29623.74
732.589	29557.98
732.93	29360.24
733.271	29484.08
733.612	29436.18
733.953	29408.15
734.294	29308.95
734.635	29273.92
734.976	29274.15
735.317	29192.34
735.658	29177.2
735.999	29167.48
736.339	29144.88
736.68	29161.38
737.021	29002.97
737.361	28924.55
737.702	29123.64
738.042	28876.42
738.383	28851.11
738.723	28852.69
739.063	28779.7
739.404	28859.92
739.744	28756.19
740.084	28636.65
740.424	28647.27
740.764	28625.8
741.104	28665.35
741.444	28541.74
741.784	28420.83
742.124	28347.39
742.464	28374.73
742.804	28473.94
743.143	28296.32
743.483	28287.28
743.823	28131.8
744.162	28164.34
744.502	28212.25
744.841	28100.39
745.181	28101.75
745.52	28082.54
745.86	28111.24
746.199	28124.8
746.538	27988.08
746.877	27933.16
747.216	27956.67
747.556	27781.76
747.895	27853.17
748.234	27673.74
748.573	27707.63
748.911	27759.61
749.25	27619.95
749.589	27494.31
749.928	27607.3
750.267	27592.83
750.605	27477.81
750.944	27327.08
751.283	27293.86
751.621	27470.13
751.96	27232.39
752.298	27240.75
752.636	27272.39
752.975	27122.56
753.313	27060.19
753.651	27165.05
753.989	27000.08
754.327	26914.21
754.666	27005.5
755.004	26854.32
755.342	26790.37
755.679	26850.93
756.017	26627.21
756.355	26843.25
756.693	26544.5
757.031	26613.65
757.368	26470.38
757.706	26477.61
758.044	26398.74
758.381	26419.31
758.719	26308.8
759.056	26252.98
