Data from hue_24_FLMS001491_00070.txt Node
Date: Tue Feb 07 17:12:37 GMT 2017
User: dcchb
Spectrometer: FLMS00149
Trigger mode: 0
Integration Time (sec): 2.000000E-2
Scans to average: 10
Electric dark correction enabled: true
Nonlinearity correction enabled: false
Boxcar width: 0
XAxis mode: Wavelengths
Number of Pixels in Spectrum: 2048
>>>>>Begin Spectral Data<<<<<
341.393	19.77
341.776	19.77
342.16	19.77
342.543	-65.2
342.927	-56.61
343.31	-57.74
343.693	-71.52
344.077	-52.77
344.46	-63.61
344.843	-50.06
345.226	-44.41
345.61	-30.17
345.993	-5.76
346.376	-6.89
346.759	15.25
347.142	11.19
347.525	19.55
347.908	48.93
348.291	90.28
348.674	91.64
349.057	106.1
349.44	135.93
349.823	159.88
350.206	178.41
350.588	206.21
350.971	230.84
351.354	221.12
351.737	250.95
352.119	260.67
352.502	289.37
352.884	269.26
353.267	308.35
353.65	299.31
354.032	312.2
354.414	319.43
354.797	331.63
355.179	337.73
355.562	343.61
355.944	345.41
356.326	353.1
356.709	359.65
357.091	359.88
357.473	358.07
357.855	355.58
358.238	352.87
358.62	356.49
359.002	345.41
359.384	367.33
359.766	355.81
360.148	353.78
360.53	369.14
360.912	352.42
361.294	350.84
361.676	358.52
362.057	344.74
362.439	361.91
362.821	355.36
363.203	355.36
363.584	344.51
363.966	351.74
364.348	344.51
364.729	358.3
365.111	343.61
365.493	329.37
365.874	322.59
366.256	337.51
366.637	330.05
367.019	334.57
367.4	342.25
367.781	316.71
368.163	330.05
368.544	312.42
368.925	326.21
369.306	334.57
369.688	338.64
370.069	330.5
370.45	331.18
370.831	324.17
371.212	320.78
371.593	339.99
371.974	335.02
372.355	329.82
372.736	332.53
373.117	353.1
373.498	316.26
373.879	349.48
374.26	332.99
374.641	329.6
375.021	333.21
375.402	323.72
375.783	340.44
376.163	347.22
376.544	349.26
376.925	365.98
377.305	358.75
377.686	351.06
378.066	367.33
378.447	354
378.827	361.23
379.208	348.35
379.588	348.58
379.968	319.65
380.349	358.75
380.729	345.64
381.109	366.66
381.489	367.33
381.87	347.45
382.25	360.78
382.63	361.23
383.01	343.61
383.39	358.75
383.77	370.27
384.15	382.25
384.53	378.18
384.91	356.71
385.29	386.09
385.67	379.31
386.049	347
386.429	394.45
386.809	391.97
387.189	382.02
387.568	396.26
387.948	389.03
388.328	391.74
388.707	393.1
389.087	391.97
389.466	403.49
389.846	375.02
390.225	405.3
390.605	402.14
390.984	393.32
391.363	415.02
391.743	404.62
392.122	396.26
392.501	393.32
392.881	429.25
393.26	412.98
393.639	402.36
394.018	400.55
394.397	437.16
394.776	433.55
395.155	431.51
395.534	407.33
395.913	413.89
396.292	427.67
396.671	432.19
397.05	421.57
397.429	453.89
397.808	439.65
398.186	433.32
398.565	438.07
398.944	421.57
399.323	442.59
399.701	447.56
400.08	429.48
400.458	450.27
400.837	469.03
401.215	439.42
401.594	459.08
401.972	441.01
402.351	436.26
402.729	471.06
403.107	442.36
403.486	466.09
403.864	470.38
404.242	463.38
404.62	488.69
404.999	473.09
405.377	474.9
405.755	488.91
406.133	464.73
406.511	475.35
406.889	501.12
407.267	497.95
407.645	502.7
408.023	512.42
408.401	510.83
408.779	480.33
409.156	505.41
409.534	496.15
409.912	499.08
410.29	516.48
410.667	520.55
411.045	518.07
411.422	527.78
411.8	549.93
412.178	535.69
412.555	551.06
412.933	542.25
413.31	544.96
413.687	550.61
414.065	536.14
414.442	542.47
414.819	554.45
415.197	559.42
415.574	591.28
415.951	571.85
416.328	589.25
416.705	568.23
417.082	579.53
417.46	599.87
417.837	593.54
418.214	591.28
418.591	603.94
418.967	612.3
419.344	622.7
419.721	612.3
420.098	608.68
420.475	607.78
420.852	617.5
421.228	653.88
421.605	635.12
421.982	640.77
422.358	649.59
422.735	645.07
423.111	636.93
423.488	642.36
423.864	654.33
424.241	670.38
424.617	664.28
424.994	657.95
425.37	692.3
425.746	668.12
426.123	684.16
426.499	685.07
426.875	704.5
427.251	701.56
427.627	718.74
428.003	716.93
428.379	724.84
428.756	731.17
429.132	725.97
429.507	749.25
429.883	753.99
430.259	767.55
430.635	750.83
431.011	754.67
431.387	785.63
431.763	785.4
432.138	779.3
432.514	789.02
432.89	822.69
433.265	812.52
433.641	819.07
434.016	824.05
434.392	841.45
434.767	850.49
435.143	829.02
435.518	845.74
435.894	851.16
436.269	877.38
436.644	875.12
437.02	888.23
437.395	869.02
437.77	910.15
438.145	896.81
438.52	905.63
438.895	936.59
439.271	926.19
439.646	940.43
440.021	953.31
440.395	958.73
440.77	928.9
441.145	965.96
441.52	958.28
441.895	975
442.27	991.05
442.645	964.83
443.019	1009.35
443.394	968.9
443.769	997.6
444.143	990.82
444.518	1032.18
444.892	995.12
445.267	1035.34
445.641	995.79
446.016	1038.28
446.39	1029.46
446.764	1060.2
447.139	1045.96
447.513	1040.31
447.887	1057.94
448.262	1058.84
448.636	1089.12
449.01	1101.55
449.384	1092.74
449.758	1106.3
450.132	1102.68
450.506	1098.39
450.88	1114.66
451.254	1143.36
451.628	1151.5
452.002	1146.75
452.376	1154.21
452.75	1182.68
453.123	1180.65
453.497	1194.66
453.871	1199.63
454.244	1206.86
454.618	1250.02
454.992	1238.95
455.365	1254.54
455.739	1255.9
456.112	1292.51
456.486	1290.02
456.859	1335.45
457.232	1308.55
457.606	1335.9
457.979	1339.06
458.352	1376.8
458.725	1380.42
459.099	1386.74
459.472	1404.6
459.845	1443.24
460.218	1437.59
460.591	1464.26
460.964	1457.93
461.337	1517.14
461.71	1489.79
462.083	1535.44
462.456	1540.19
462.829	1533.63
463.201	1563.24
463.574	1608.21
463.947	1601.2
464.32	1620.86
464.692	1640.3
465.065	1655.89
465.438	1675.55
465.81	1691.37
466.183	1734.98
466.555	1787.41
466.928	1772.27
467.3	1770.46
467.672	1773.63
468.045	1859.27
468.417	1831.48
468.789	1871.02
469.161	1887.97
469.534	1968.65
469.906	1946.73
470.278	1962.1
470.65	1986.73
471.022	2012.04
471.394	2041.64
471.766	2072.37
472.138	2112.15
472.51	2146.05
472.882	2200.06
473.253	2229.88
473.625	2254.74
473.997	2294.52
474.369	2327.06
474.74	2424
475.112	2377.68
475.484	2424.46
475.855	2491.8
476.227	2479.6
476.598	2581.51
476.97	2578.12
477.341	2664.45
477.713	2697.9
478.084	2737.22
478.455	2797.1
478.827	2859.02
479.198	2906.7
479.569	2913.26
479.94	3035.51
480.311	3046.81
480.682	3141.05
481.053	3203.64
481.424	3258.33
481.795	3320.7
482.166	3397.31
482.537	3394.6
482.908	3511.43
483.279	3530.19
483.65	3604.09
484.021	3679.34
484.391	3788.94
484.762	3753.23
485.133	3822.61
485.503	3861.03
485.874	3965.66
486.244	4000.23
486.615	4083.17
486.985	4182.15
487.356	4233.9
487.726	4316.16
488.097	4374.24
488.467	4387.12
488.837	4544.4
489.207	4624.4
489.578	4656.04
489.948	4687.45
490.318	4821.68
490.688	4798.63
491.058	4898.29
491.428	5003.6
491.798	5034.56
492.168	5113.2
492.538	5174.67
492.908	5221.9
493.278	5338.05
493.648	5315.68
494.017	5410.37
494.387	5516.13
494.757	5580.98
495.126	5613.75
495.496	5643.13
495.866	5698.04
496.235	5811.71
496.605	5819.4
496.974	5859.17
497.344	5951.14
497.713	5978.03
498.082	6000.41
498.452	6087.64
498.821	6143.23
499.19	6194.75
499.559	6199.72
499.928	6308.42
500.298	6298.25
500.667	6365.14
501.036	6385.48
501.405	6425.25
501.774	6488.3
502.143	6569.21
502.512	6587.74
502.88	6646.94
503.249	6664.12
503.618	6707.51
503.987	6667.28
504.356	6746.38
504.724	6831.8
505.093	6819.37
505.462	6849.65
505.83	6900.04
506.199	7030.44
506.567	7068.63
506.936	7014.62
507.304	7124.22
507.672	7195.63
508.041	7184.1
508.409	7243.99
508.777	7295.97
509.145	7292.58
509.514	7349.75
509.882	7429.97
510.25	7405.57
510.618	7534.83
510.986	7502.97
511.354	7563.98
511.722	7594.26
512.09	7639.91
512.458	7670.19
512.826	7759.68
513.193	7768.5
513.561	7824.99
513.929	7856.4
514.297	7903.86
514.664	7989.96
515.032	7948.38
515.4	8012.56
515.767	8069.73
516.135	8139.33
516.502	8042.61
516.869	8241.48
517.237	8236.51
517.604	8176.85
517.972	8288.71
518.339	8335.49
518.706	8322.15
519.073	8436.05
519.44	8448.7
519.808	8523.73
520.175	8535.71
520.542	8574.58
520.909	8672.2
521.276	8638.53
521.643	8701.35
522.009	8811.41
522.376	8804.4
522.743	8800.11
523.11	8980.22
523.477	8998.75
523.843	9060.21
524.21	9124.84
524.577	9197.61
524.943	9216.82
525.31	9235.35
525.676	9318.06
526.043	9326.87
526.409	9362.35
526.776	9496.36
527.142	9521.44
527.508	9565.51
527.874	9681.44
528.241	9674.89
528.607	9722.34
528.973	9826.75
529.339	9810.02
529.705	9952.39
530.071	9977.93
530.437	9961.21
530.803	10063.58
531.169	10134.54
531.535	10107.19
531.901	10230.8
532.267	10212.95
532.632	10258.6
532.998	10328.43
533.364	10390.35
533.73	10449.56
534.095	10480.29
534.461	10586.28
534.826	10549.44
535.192	10645.71
535.557	10711.7
535.923	10699.94
536.288	10751.47
536.653	10858.36
537.019	10770
537.384	10907.17
537.749	10937.9
538.114	10918.24
538.479	10960.28
538.845	11081.63
539.21	11014.51
539.575	10950.11
539.94	11098.8
540.305	11191.23
540.67	11214.06
541.034	11206.37
541.399	11229.2
541.764	11304.67
542.129	11355.07
542.494	11436.2
542.858	11453.15
543.223	11516.42
543.587	11615.17
543.952	11582.86
544.316	11686.36
544.681	11663.08
545.045	11738.79
545.41	11791.89
545.774	11783.98
546.138	11845.9
546.503	11932.45
546.867	11927.71
547.231	12004.09
547.595	11971.32
547.959	12084.54
548.324	12088.61
548.688	12174.03
549.052	12209.74
549.416	12245.44
549.779	12266.46
550.143	12306.46
550.507	12458.32
550.871	12420.13
551.235	12470.97
551.599	12513
551.962	12542.83
552.326	12590.74
552.689	12611.08
553.053	12624.19
553.417	12674.58
553.78	12778.08
554.143	12811.75
554.507	12839.32
554.87	12888.14
555.234	12988.02
555.597	12935.14
555.96	13066.21
556.323	13041.35
556.686	13068.7
557.05	13175.59
557.413	13234.79
557.776	13269.82
558.139	13263.72
558.502	13323.38
558.865	13314.34
559.228	13369.93
559.59	13473.43
559.953	13538.74
560.316	13628
560.679	13725.63
561.041	13741.9
561.404	13784.16
561.767	13877.26
562.129	13810.15
562.492	14022.34
562.854	13935.11
563.217	13978.28
563.579	14000.42
563.941	14143.7
564.304	14150.48
564.666	14196.35
565.028	14201.1
565.39	14251.72
565.753	14340.3
566.115	14402.67
566.477	14420.75
566.839	14497.36
567.201	14494.87
567.563	14572.16
567.925	14687.18
568.287	14724.47
568.648	14648.99
569.01	14910.46
569.372	14925.37
569.734	14785.26
570.095	15024.58
570.457	14992.04
570.819	15153.84
571.18	15128.98
571.542	15241.29
571.903	15328.98
572.265	15398.35
572.626	15502.98
572.987	15392.93
573.349	15618.01
573.71	15607.39
574.071	15727.84
574.432	15848.51
574.794	15880.83
575.155	15978.22
575.516	15859.81
575.877	15993.14
576.238	16114.27
576.599	16307.71
576.96	16398.55
577.32	16368.95
577.681	16542.05
578.042	16697.53
578.403	16743.63
578.763	16839.9
579.124	16986.11
579.485	17209.6
579.845	17291.41
580.206	17419.09
580.566	17531.63
580.927	17644.85
581.287	17851.17
581.648	17880.09
582.008	18158.96
582.368	18206.41
582.728	18485.28
583.089	18609.12
583.449	18929.56
583.809	19009.78
584.169	19264.01
584.529	19393.73
584.889	19688.41
585.249	19781.74
585.609	19892.02
585.969	20347.6
586.329	20460.82
586.688	20714.37
587.048	20968.15
587.408	21164.08
587.768	21448.36
588.127	21676.15
588.487	21991.85
588.846	22361.33
589.206	22560.65
589.565	22866.18
589.925	23253.74
590.284	23402.21
590.643	23773.73
591.003	24128.52
591.362	24405.12
591.721	24623.65
592.08	25043.75
592.44	25445.55
592.799	25682.15
593.158	25903.16
593.517	26361
593.876	26633.09
594.235	26814.32
594.593	27306.51
594.952	27705.37
595.311	27821.98
595.67	28266.26
596.029	28762.75
596.387	29114.83
596.746	29367.7
597.104	29544.87
597.463	29894.92
597.822	30448.13
598.18	30601.57
598.538	30801.34
598.897	31357.48
599.255	31511.37
599.613	32154.3
599.972	32399.94
600.33	32878.57
600.688	32879.93
601.046	33300.03
601.404	33680.58
601.762	33998.99
602.12	34359.66
602.478	34787.22
602.836	35119.64
603.194	35284.61
603.552	35567.54
603.91	35764.14
604.268	36218.37
604.625	36435.09
604.983	36848.41
605.341	36950.33
605.698	37424.67
606.056	37680.7
606.413	37937.19
606.771	38357.3
607.128	38548.93
607.485	38633.67
607.843	38933.33
608.2	39445.63
608.557	39680.88
608.914	39862.57
609.272	40175.33
609.629	40455.77
609.986	40723.11
610.343	40819.83
610.7	41397.44
611.057	41393.83
611.414	41641.5
611.771	41868.16
612.127	42204.43
612.484	42315.84
612.841	42527.58
613.198	42702.27
613.554	42833.34
613.911	43302.93
614.267	43356.71
614.624	43461.12
614.98	43636.71
615.337	44092.29
615.693	44129.57
616.05	44339.51
616.406	44613.86
616.762	44622.44
617.118	44773.17
617.475	44983.34
617.831	45152.15
618.187	45401.18
618.543	45549.2
618.899	45925.91
619.255	45900.15
619.611	45942.86
619.967	46286.81
620.323	46334.94
620.678	46221.5
621.034	46379.46
621.39	46522.51
621.746	46459.91
622.101	46911.2
622.457	46821.71
622.812	46962.95
623.168	47007.69
623.523	47245.65
623.879	47421.01
624.234	47246.55
624.589	47450.16
624.945	47530.16
625.3	47560.44
625.655	47728.8
626.01	47796.37
626.365	47894.67
626.72	47665.07
627.075	47970.15
627.43	47943.94
627.785	47990.26
628.14	48019.87
628.495	48166.53
628.85	48161.78
629.205	48062.8
629.559	48333.76
629.914	48156.59
630.269	48288.33
630.623	48129.24
630.978	48240.65
631.332	48466.41
631.687	48519.06
632.041	48386.64
632.396	48529.01
632.75	48350.03
633.104	48496.01
633.459	48450.36
633.813	48379.18
634.167	48434.09
634.521	48557.25
634.875	48613.52
635.229	48575.78
635.583	48364.94
635.937	48467.31
636.291	48340.99
636.645	48464.83
636.999	48384.15
637.352	48660.3
637.706	48218.51
638.06	48529.23
638.413	48541.21
638.767	48387.32
639.121	48487.65
639.474	48351.84
639.828	48269.35
640.181	48329.69
640.534	48393.64
640.888	48249.92
641.241	48078.17
641.594	48306.64
641.947	48378.73
642.301	48311.16
642.654	48369.01
643.007	48347.77
643.36	48293.53
643.713	48221.67
644.066	48409.69
644.419	48171.73
644.771	47960.66
645.124	47621.91
645.477	47501.46
645.83	47319.77
646.182	47153.68
646.535	47139.21
646.888	47307.12
647.24	46993
647.593	47246.1
647.945	47273.45
648.298	46893.34
648.65	46984.41
649.002	46776.28
649.355	46923.62
649.707	47016.05
650.059	47209.27
650.411	47727.45
650.763	47571.74
651.115	48123.82
651.467	47919.08
651.819	47978.29
652.171	47849.25
652.523	47796.37
652.875	47714.79
653.227	47575.59
653.578	47903.26
653.93	47840.89
654.282	47559.99
654.633	47510.5
654.985	47618.75
655.337	47712.76
655.688	47681.12
656.039	47718.63
656.391	47383.95
656.742	47483.84
657.094	47528.58
657.445	47774.45
657.796	47498.75
658.147	47528.35
658.498	47478.19
658.849	47495.36
659.2	47576.49
659.551	47527
659.902	47546.89
660.253	47572.2
660.604	47575.13
660.955	47350.73
661.306	47613.32
661.656	47549.82
662.007	47475.93
662.358	47434.57
662.708	47405.42
663.059	47478.41
663.409	47128.82
663.76	47495.14
664.11	47390.05
664.461	47478.19
664.811	47418.53
665.161	47456.27
665.511	47346.89
665.862	47303.28
666.212	47374.23
666.562	47361.58
666.912	47325.87
667.262	47230.28
667.612	47312.09
667.962	47350.28
668.312	47363.39
668.662	47421.46
669.011	47294.91
669.361	47182.38
669.711	47150.74
670.06	47100.34
670.41	47178.08
670.76	47075.03
671.109	47259.44
671.459	47220.11
671.808	47225.54
672.157	47185.09
672.507	46985.09
672.856	46917.75
673.205	47133.34
673.554	47213.56
673.904	47089.95
674.253	47333.11
674.602	47062.15
674.951	46495.61
675.3	46311.21
675.649	47073.9
675.998	46967.92
676.346	46956.84
676.695	47041.59
677.044	46793.01
677.393	46871.42
677.741	46924.08
678.09	46833.23
678.438	46628.94
678.787	46780.13
679.135	46801.37
679.484	46513.92
679.832	46722.95
680.181	46387.82
680.529	46646.34
680.877	46429.17
681.225	46388.5
681.573	46632.33
681.922	46310.08
682.27	46268.5
682.618	46372.45
682.966	46202.06
683.314	46237.77
683.661	46090.43
684.009	45986.25
684.357	45842.52
684.705	45844.56
685.053	45959.81
685.4	45815.63
685.748	45671.91
686.095	45561.85
686.443	45398.69
686.79	45359.82
687.138	45508.97
687.485	45558.69
687.832	45310.79
688.18	45333.38
688.527	45167.51
688.874	45124.8
689.221	45035.54
689.568	45016.78
689.915	44925.49
690.262	44901.76
690.609	44706.06
690.956	44629.22
691.303	44498.6
691.65	44408.89
691.997	44403.01
692.344	44163.25
692.69	44152.62
693.037	44220.42
693.383	43846.42
693.73	43873.31
694.077	43683.48
694.423	43796.02
694.769	43535.47
695.116	43544.5
695.462	43475.58
695.808	43258.18
696.155	43454.79
696.501	43153.78
696.847	43055.03
697.193	42730.29
697.539	42980.9
697.885	42604.87
698.231	42577.52
698.577	42582.04
698.923	42600.35
699.269	42352.9
699.614	42255.73
699.96	42142.96
700.306	42100.02
700.651	41880.82
700.997	41830.65
701.342	41914.27
701.688	41636.76
702.033	41572.35
702.379	41575.07
702.724	41397.89
703.069	41492.13
703.415	40984.35
703.76	41107.73
704.105	41017.57
704.45	40955.87
704.795	40812.83
705.14	40717.23
705.485	40723.34
705.83	40389.33
706.175	40428.88
706.52	40473.85
706.865	40296.23
707.209	40299.84
707.554	40006.07
707.899	40236.8
708.243	39860.31
708.588	39994.77
708.932	39709.58
709.277	39733.08
709.621	39753.64
709.966	39474.33
710.31	39538.96
710.654	39173.77
710.998	39359.3
711.342	39241.79
711.687	39205.18
712.031	39119.76
712.375	38887.23
712.719	38902.14
713.063	38839.32
713.407	38984.62
713.75	38648.36
714.094	38736.95
714.438	38534.02
714.782	38686.55
715.125	38485.2
715.469	38470.06
715.812	38348.94
716.156	38171.09
716.499	38190.75
716.843	38123.86
717.186	37907.36
717.53	38046.57
717.873	38032.11
718.216	37846.12
718.559	37623.53
718.902	37608.16
719.246	37664.21
719.589	37485
719.932	37280.04
720.275	37332.92
720.617	37252.01
720.96	37230.32
721.303	37285.46
721.646	37291.79
721.989	37066.48
722.331	37093.37
722.674	37031.23
723.016	36916.66
723.359	36939.03
723.701	36963.89
724.044	36794.85
724.386	36493.39
724.729	36715.98
725.071	36565.25
725.413	36575.65
725.755	36557.8
726.097	36401.19
726.439	36162.55
726.782	36283.45
727.124	36239.16
727.465	36149.44
727.807	36061.76
728.149	35933.63
728.491	35968.66
728.833	36036.91
729.175	35824.93
729.516	35768.66
729.858	35901.32
730.199	35805.27
730.541	35685.5
730.882	35610.93
731.224	35716.01
731.565	35544.49
731.906	35451.16
732.248	35652.06
732.589	35264.04
732.93	35212.07
733.271	35318.28
733.612	35313.31
733.953	35261.78
734.294	35168.68
734.635	34989.02
734.976	35135.23
735.317	34918.52
735.658	34958.97
735.999	34944.96
736.339	34896.6
736.68	34895.01
737.021	34843.04
737.361	34605.08
737.702	34785.64
738.042	34647.11
738.383	34559.2
738.723	34711.97
739.063	34599.2
739.404	34612.99
739.744	34467.46
740.084	34341.81
740.424	34465.42
740.764	34140.68
741.104	34507.45
741.444	34164.86
741.784	34043.74
742.124	34352.66
742.464	34149.5
742.804	33997.86
743.143	33912.44
743.483	33983.17
743.823	33791.77
744.162	33744.76
744.502	33840.58
744.841	33664.54
745.181	33754.03
745.52	33648.04
745.86	33551.77
746.199	33642.84
746.538	33553.81
746.877	33646.46
747.216	33606.69
747.556	33488.05
747.895	33553.58
748.234	33390.2
748.573	33298.67
748.911	33239.24
749.25	33323.08
749.589	33115.63
749.928	33308.39
750.267	33272.01
750.605	33029.98
750.944	32996.53
751.283	32976.2
751.621	33010.54
751.96	32862.07
752.298	32853.49
752.636	32865.24
752.975	32632.7
753.313	32469.77
753.651	32610.55
753.989	32451.69
754.327	32453.5
754.666	32365.14
755.004	32345.93
755.342	32337.34
755.679	32349.77
756.017	32073.17
756.355	32201.75
756.693	32024.13
757.031	32148.65
757.368	31852.16
757.706	31753.63
