Data from hue_36_FLMS001491_00019.txt Node
Date: Tue Feb 07 17:29:28 GMT 2017
User: dcchb
Spectrometer: FLMS00149
Trigger mode: 0
Integration Time (sec): 2.000000E-2
Scans to average: 10
Electric dark correction enabled: true
Nonlinearity correction enabled: false
Boxcar width: 0
XAxis mode: Wavelengths
Number of Pixels in Spectrum: 2048
>>>>>Begin Spectral Data<<<<<
341.393	-21.38
341.776	-21.38
342.16	-21.38
342.543	-53.7
342.927	-81.72
343.31	-58.44
343.693	-65.45
344.077	-64.55
344.46	-47.6
344.843	-64.32
345.226	-53.7
345.61	-19.8
345.993	-5.34
346.376	-17.54
346.759	-5.11
347.142	27.65
347.525	32.4
347.908	62.91
348.291	69.46
348.674	90.93
349.057	118.5
349.44	124.15
349.823	142.68
350.206	159.63
350.588	184.94
350.971	206.86
351.354	219.29
351.737	246.18
352.119	259.96
352.502	258.61
352.884	278.95
353.267	280.98
353.65	283.47
354.032	289.12
354.414	303.58
354.797	311.04
355.179	335.67
355.562	316.46
355.944	303.58
356.326	342
356.709	320.3
357.091	339.28
357.473	336.35
357.855	335.9
358.238	328.44
358.62	351.71
359.002	339.28
359.384	338.61
359.766	333.18
360.148	334.31
360.53	337.48
360.912	352.17
361.294	332.51
361.676	346.52
362.057	328.21
362.439	317.59
362.821	330.02
363.203	326.86
363.584	324.14
363.966	326.18
364.348	309
364.729	319.62
365.111	318.04
365.493	311.04
365.874	330.7
366.256	302.22
366.637	331.83
367.019	326.4
367.4	311.26
367.781	313.97
368.163	327.31
368.544	302.9
368.925	304.48
369.306	301.55
369.688	306.97
370.069	302
370.45	304.26
370.831	300.19
371.212	309.91
371.593	324.14
371.974	322.11
372.355	296.35
372.736	319.4
373.117	313.3
373.498	314.2
373.879	319.4
374.26	309
374.641	325.5
375.021	320.08
375.402	323.01
375.783	321.43
376.163	329.34
376.544	331.38
376.925	327.53
377.305	322.34
377.686	325.5
378.066	333.64
378.447	312.17
378.827	308.33
379.208	332.28
379.588	324.37
379.968	310.13
380.349	332.05
380.729	330.92
381.109	342.45
381.489	325.27
381.87	329.79
382.25	362.56
382.63	320.3
383.01	324.6
383.39	346.06
383.77	348.1
384.15	316.01
384.53	350.13
384.91	352.39
385.29	356.01
385.67	355.1
386.049	334.09
386.429	340.64
386.809	337.93
387.189	357.14
387.568	343.13
387.948	361.66
388.328	366.18
388.707	343.35
389.087	356.01
389.466	366.4
389.846	345.84
390.225	357.82
390.605	378.15
390.984	372.5
391.363	388.55
391.743	367.31
392.122	363.24
392.501	373.41
392.881	367.08
393.26	362.79
393.639	355.56
394.018	359.4
394.397	381.77
394.776	364.37
395.155	391.49
395.534	386.06
395.913	361.88
396.292	385.84
396.671	381.54
397.05	398.04
397.429	374.09
397.808	356.46
398.186	402.11
398.565	374.76
398.944	392.84
399.323	385.16
399.701	368.44
400.08	386.52
400.458	380.41
400.837	395.33
401.215	404.37
401.594	389.23
401.972	400.3
402.351	388.32
402.729	389.68
403.107	393.97
403.486	384.71
403.864	402.56
404.242	409.79
404.62	392.16
404.999	401.88
405.377	398.72
405.755	427.64
406.133	416.57
406.511	405.95
406.889	417.02
407.267	427.87
407.645	452.73
408.023	426.74
408.401	430.36
408.779	423.8
409.156	445.04
409.534	437.81
409.912	432.39
410.29	433.07
410.667	450.92
411.045	413.18
411.422	445.27
411.8	461.54
412.178	450.47
412.555	452.95
412.933	471.26
413.31	464.48
413.687	465.84
414.065	467.19
414.442	477.13
414.819	479.62
415.197	481.65
415.574	473.29
415.951	474.87
416.328	473.52
416.705	488.89
417.082	480.98
417.46	463.58
417.837	473.52
418.214	487.76
418.591	488.43
418.967	490.92
419.344	495.21
419.721	504.03
420.098	516
420.475	516.91
420.852	515.33
421.228	520.52
421.605	530.69
421.982	546.29
422.358	540.18
422.735	538.38
423.111	512.39
423.488	521.65
423.864	544.93
424.241	526.85
424.617	527.98
424.994	560.75
425.37	537.7
425.746	554.65
426.123	567.3
426.499	546.06
426.875	539.73
427.251	560.3
427.627	549.45
428.003	557.13
428.379	573.85
428.756	570.01
429.132	570.01
429.507	577.24
429.883	595.1
430.259	567.08
430.635	585.61
431.011	606.17
431.387	602.55
431.763	627.86
432.138	624.02
432.514	600.29
432.89	612.5
433.265	623.8
433.641	643.23
434.016	640.07
434.392	657.47
434.767	641.2
435.143	650.92
435.518	649.33
435.894	633.97
436.269	662.44
436.644	685.72
437.02	664.7
437.395	684.13
437.77	690.46
438.145	699.05
438.52	681.42
438.895	706.28
439.271	683.68
439.646	692.72
440.021	707.18
440.395	724.36
440.77	714.64
441.145	723.68
441.52	726.17
441.895	729.11
442.27	741.31
442.645	740.18
443.019	756
443.394	761.19
443.769	742.21
444.143	757.58
444.518	766.39
444.892	766.39
445.267	738.6
445.641	772.95
446.016	772.27
446.39	773.85
446.764	771.59
447.139	798.26
447.513	793.74
447.887	768.88
448.262	792.38
448.636	793.74
449.01	813.4
449.384	825.6
449.758	815.43
450.132	815.88
450.506	823.11
450.88	838.03
451.254	825.15
451.628	839.38
452.002	839.16
452.376	817.92
452.75	857.69
453.123	854.98
453.497	856.56
453.871	847.75
454.244	863.34
454.618	876.9
454.992	890.46
455.365	897.91
455.739	937.01
456.112	942.88
456.486	932.04
456.859	964.58
457.232	945.37
457.606	939.5
457.979	962.77
458.352	955.31
458.725	986.05
459.099	1017.91
459.472	1010.45
459.845	1024.24
460.218	1023.56
460.591	1028.31
460.964	1025.37
461.337	1040.51
461.71	1057.01
462.083	1104.24
462.456	1111.69
462.829	1085.25
463.201	1110.79
463.574	1121.64
463.947	1141.3
464.32	1142.65
464.692	1174.07
465.065	1148.53
465.438	1190.79
465.81	1193.05
466.183	1213.61
466.555	1251.58
466.928	1265.59
467.3	1261.52
467.672	1275.98
468.045	1301.07
468.417	1333.61
468.789	1334.51
469.161	1329.09
469.534	1344.46
469.906	1384.23
470.278	1409.09
470.65	1430.33
471.022	1423.1
471.394	1480.95
471.766	1489.76
472.138	1537.67
472.51	1538.35
472.882	1589.65
473.253	1627.16
473.625	1641.85
473.997	1671.91
474.369	1725.24
474.74	1732.69
475.112	1797.33
475.484	1832.35
475.855	1826.48
476.227	1897.66
476.598	1930.66
476.97	1940.6
477.341	2019.01
477.713	2046.58
478.084	2084.1
478.455	2159.58
478.827	2181.27
479.198	2242.74
479.569	2278.89
479.94	2358.67
480.311	2400.25
480.682	2487.25
481.053	2556.4
481.424	2587.14
481.795	2633.69
482.166	2773.8
482.537	2790.97
482.908	2912.55
483.279	2895.6
483.65	3041.36
484.021	3112.09
484.391	3157.06
484.762	3223.73
485.133	3328.58
485.503	3392.76
485.874	3470.5
486.244	3533.33
486.615	3687.22
486.985	3703.94
487.356	3813.77
487.726	3914.56
488.097	4048.57
488.467	4100.09
488.837	4176.25
489.207	4288.11
489.578	4366.3
489.948	4423.02
490.318	4573.98
490.688	4588.89
491.058	4724.03
491.428	4876.57
491.798	4917.02
492.168	5069.56
492.538	5104.36
492.908	5265.26
493.278	5368.98
493.648	5343.45
494.017	5532.59
494.387	5659.6
494.757	5671.57
495.126	5802.19
495.496	5888.07
495.866	5895.07
496.235	5971.68
496.605	6137.1
496.974	6230.43
497.344	6286.47
497.713	6339.35
498.082	6496.64
498.452	6591.32
498.821	6628.84
499.19	6668.38
499.559	6770.3
499.928	6879.9
500.298	6940.24
500.667	6985.66
501.036	7059.56
501.405	7206
501.774	7245.09
502.143	7296.39
502.512	7436.73
502.88	7475.14
503.249	7518.31
503.618	7551.75
503.987	7645.76
504.356	7707.45
504.724	7797.39
505.093	7832.2
505.462	7926.43
505.83	8070.61
506.199	8030.16
506.567	8153.32
506.936	8192.64
507.304	8268.34
507.672	8383.14
508.041	8363.93
508.409	8491.84
508.777	8577.71
509.145	8622.46
509.514	8676.92
509.882	8684.6
510.25	8793.53
510.618	8814.54
510.986	8875.33
511.354	9033.97
511.722	9080.75
512.09	9190.58
512.458	9173.4
512.826	9287.75
513.193	9331.14
513.561	9282.33
513.929	9492.49
514.297	9486.84
514.664	9607.52
515.032	9626.5
515.4	9701.07
515.767	9721.19
516.135	9794.63
516.502	9788.53
516.869	9938.13
517.237	10013.83
517.604	9967.51
517.972	10098.58
518.339	10167.28
518.706	10179.03
519.073	10214.05
519.44	10313.94
519.808	10302.19
520.175	10355.29
520.542	10541.95
520.909	10553.48
521.276	10564.33
521.643	10657.88
522.009	10710.31
522.376	10820.37
522.743	10862.85
523.11	10984.88
523.477	11060.13
523.843	11035.05
524.21	11197.98
524.577	11306.23
524.943	11326.79
525.31	11335.38
525.676	11536.96
526.043	11531.53
526.409	11558.88
526.776	11716.84
527.142	11797.97
527.508	11772.66
527.874	11911.41
528.241	11912.31
528.607	11939.43
528.973	12068.47
529.339	12108.47
529.705	12257.62
530.071	12381.68
530.437	12407.22
530.803	12506.2
531.169	12444.73
531.535	12453.32
531.901	12571.51
532.267	12584.84
532.632	12666.64
532.998	12813.53
533.364	12801.1
533.73	12891.72
534.095	12924.94
534.461	13069.8
534.826	13041.1
535.192	13072.96
535.557	13242.22
535.923	13219.4
536.288	13278.38
536.653	13380.07
537.019	13391.6
537.384	13398.6
537.749	13491.71
538.114	13557.69
538.479	13618.71
538.845	13653.06
539.21	13669.1
539.575	13699.16
539.94	13786.16
540.305	13863.68
540.67	13813.96
541.034	13949.77
541.399	14005.37
541.764	14065.25
542.129	14062.31
542.494	14149.09
542.858	14166.27
543.223	14159.49
543.587	14348.41
543.952	14197.9
544.316	14442.42
544.681	14380.27
545.045	14447.16
545.41	14562.41
545.774	14655.52
546.138	14635.86
546.503	14738.23
546.867	14748.17
547.231	14893.48
547.595	14897.32
547.959	14902.97
548.324	14908.39
548.688	15007.15
549.052	15091.67
549.416	15189.52
549.779	15166.69
550.143	15197.43
550.507	15359.68
550.871	15474.71
551.235	15334.37
551.599	15511.09
551.962	15474.03
552.326	15533.24
552.689	15629.28
553.053	15575.95
553.417	15604.87
553.78	15841.48
554.143	15777.97
554.507	15849.61
554.87	15926.9
555.234	15985.2
555.597	15968.93
555.96	16060
556.323	16102.71
556.686	16147.91
557.05	16312.65
557.413	16328.69
557.776	16410.95
558.139	16497.73
558.502	16400.33
558.865	16450.05
559.228	16585.41
559.59	16605.3
559.953	16610.04
560.316	16896.82
560.679	16861.34
561.041	16958.06
561.404	16972.07
561.767	17060.65
562.129	17106.98
562.492	17299.74
562.854	17129.13
563.217	17229.24
563.579	17286.86
563.941	17398.72
564.304	17524.6
564.666	17576.12
565.028	17605.05
565.39	17678.26
565.753	17697.7
566.115	17761.65
566.477	17846.62
566.839	17948.31
567.201	18113.51
567.563	18083.45
567.925	18177.23
568.287	18249.1
568.648	18339.26
569.01	18370.22
569.372	18520.95
569.734	18519.82
570.095	18639.82
570.457	18769.31
570.819	18629.43
571.18	18765.02
571.542	18954.39
571.903	18914.62
572.265	19048.85
572.626	19099.7
572.987	19084.1
573.349	19182.86
573.71	19346.92
574.071	19407.71
574.432	19517.09
574.794	19667.59
575.155	19606.57
575.516	19735.16
575.877	19808.15
576.238	19940.35
576.599	20051.99
576.96	20202.04
577.32	20226.22
577.681	20349.61
578.042	20559.32
578.403	20597.74
578.763	20727.45
579.124	20762.48
579.485	21031.62
579.845	21148.91
580.206	21391.16
580.566	21377.38
580.927	21592.29
581.287	21732.17
581.648	21751.83
582.008	22049.22
582.368	22129.45
582.728	22382.55
583.089	22507.52
583.449	22661.86
583.809	22855.98
584.169	23007.62
584.529	23054.39
584.889	23522.86
585.249	23464.1
585.609	23627.71
585.969	24014.59
586.329	24127.81
586.688	24268.83
587.048	24384.3
587.408	24593.34
587.768	24907.68
588.127	25047.56
588.487	25179.08
588.846	25640.99
589.206	25581.11
589.565	25869.46
589.925	26202.79
590.284	26295.89
590.643	26494.08
591.003	26771.81
591.362	27170.44
591.721	27278.24
592.08	27457.67
592.44	27765.91
592.799	27979.69
593.158	28123.64
593.517	28281.6
593.876	28574.7
594.235	28764.75
594.593	28946.89
594.952	29254
595.311	29425.75
595.67	29679.53
596.029	30017.15
596.387	30108.67
596.746	30440.64
597.104	30373.3
597.463	30676.57
597.822	30990
598.18	31094.63
598.538	31223.67
598.897	31675.64
599.255	31540.5
599.613	32199.92
599.972	32109.3
600.33	32343.87
600.688	32427.71
601.046	32733.01
601.404	32916.73
601.762	33117.18
602.12	33361.24
602.478	33488.02
602.836	33691.85
603.194	33676.71
603.552	33937.72
603.91	33979.08
604.268	34290.71
604.625	34332.74
604.983	34585.39
605.341	34605.5
605.698	35014.98
606.056	35040.97
606.413	35242.77
606.771	35534.97
607.128	35558.7
607.485	35425.59
607.843	35778.81
608.2	35925.24
608.557	36170.89
608.914	36272.13
609.272	36454.95
609.629	36504.66
609.986	36995.72
610.343	36724.99
610.7	37126.57
611.057	37166.57
611.414	37277.3
611.771	37534.69
612.127	37636.38
612.484	37811.97
612.841	37887.22
613.198	37810.39
613.554	38015.13
613.911	38231.4
614.267	38403.59
614.624	38381.67
614.98	38497.83
615.337	38776.24
615.693	38749.12
616.05	38810.36
616.406	39285.83
616.762	39004.03
617.118	39171.03
617.475	39285.61
617.831	39374.42
618.187	39533.73
618.543	39525.37
618.899	39712.94
619.255	39865.7
619.611	39747.74
619.967	39870.9
620.323	40187.95
620.678	40036.55
621.034	39950.67
621.39	39991.12
621.746	40001.07
622.101	40604.44
622.457	40289.19
622.812	40375.75
623.168	40598.11
623.523	40465.01
623.879	40803.76
624.234	40538.91
624.589	40750.2
624.945	40885.79
625.3	40896.86
625.655	40842.63
626.01	40923.08
626.365	40971.44
626.72	40956.3
627.075	41030.19
627.43	41008.27
627.785	40984.09
628.14	41010.98
628.495	41180.02
628.85	41065.45
629.205	40973.24
629.559	41283.75
629.914	41097.99
630.269	41195.61
630.623	41224.76
630.978	41139.34
631.332	41333.69
631.687	41465.66
632.041	41215.72
632.396	41277.19
632.75	41251.2
633.104	41287.59
633.459	41035.62
633.813	41072.23
634.167	41297.08
634.521	41192.9
634.875	41376.62
635.229	41275.61
635.583	41234.93
635.937	41120.59
636.291	41183.63
636.645	41293.46
636.999	41091.66
637.352	41217.31
637.706	40948.61
638.06	41259.11
638.413	41056.86
638.767	41019.8
639.121	41129.17
639.474	40899.35
639.828	41004.2
640.181	40976.18
640.534	40956.52
640.888	40751.56
641.241	40807.83
641.594	40761.5
641.947	40979.35
642.301	40784.1
642.654	40883.3
643.007	40853.02
643.36	40989.74
643.713	40814.6
644.066	40970.08
644.419	40715.17
644.771	40536.42
645.124	40201.29
645.477	39967.85
645.83	39790.9
646.182	39793.39
646.535	39592.04
646.888	39658.03
647.24	39566.28
647.593	39783.67
647.945	39586.61
648.298	39512.04
648.65	39450.8
649.002	39333.06
649.355	39592.49
649.707	39453.51
650.059	39696.44
650.411	39969.88
650.763	40025.47
651.115	40518.79
651.467	40341.62
651.819	40330.32
652.171	40358.57
652.523	40114.51
652.875	40280.16
653.227	40144.79
653.578	40245.58
653.93	40189.54
654.282	39984.34
654.633	39943.44
654.985	40109.09
655.337	40053.27
655.688	40037
656.039	40289.65
656.391	39995.64
656.742	39980.05
657.094	39899.15
657.445	40149.99
657.796	40080.39
658.147	39953.84
658.498	39845.59
658.849	40020.95
659.2	39887.62
659.551	39956.32
659.902	40083.32
660.253	39826.61
660.604	40050.11
660.955	39709.78
661.306	40018.47
661.656	39816.66
662.007	39825.93
662.358	39869.09
662.708	39878.36
663.059	39946.83
663.409	39559.72
663.76	39940.5
664.11	39858.7
664.461	39900.05
664.811	39820.51
665.161	39776.89
665.511	39735.09
665.862	39787.51
666.212	39847.4
666.562	39979.82
666.912	39678.36
667.262	39640.62
667.612	39670.45
667.962	39758.14
668.312	39644.47
668.662	39837
669.011	39788.64
669.361	39659.38
669.711	39524.02
670.06	39686.95
670.41	39593.85
670.76	39547.75
671.109	39625.48
671.459	39487.18
671.808	39507.29
672.157	39607.18
672.507	39470.01
672.856	39448.09
673.205	39598.59
673.554	39636.1
673.904	39451.7
674.253	39747.97
674.602	39669.32
674.951	39052.84
675.3	38852.62
675.649	39411.7
675.998	39301.42
676.346	39402.21
676.695	39384.13
677.044	39324.25
677.393	39413.96
677.741	39392.04
678.09	39218.49
678.438	39205.16
678.787	39296.68
679.135	39290.8
679.484	39090.81
679.832	39169.45
680.181	39095.55
680.529	39002
680.877	38907.08
681.225	38906.86
681.573	39036.35
681.922	38788.9
682.27	38772.62
682.618	38745.05
682.966	38637.26
683.314	38820.76
683.661	38694.21
684.009	38466.42
684.357	38399.53
684.705	38357.72
685.053	38355.23
685.4	38371.28
685.748	38153.21
686.095	38023.94
686.443	38019.42
686.79	38209.25
687.138	38000.89
687.485	38025.07
687.832	37998.63
688.18	37884.51
688.527	37822.59
688.874	37670.28
689.221	37646.1
689.568	37677.96
689.915	37500.12
690.262	37510.28
690.609	37468.25
690.956	37308.71
691.303	37304.19
691.65	37113.23
691.997	37123.63
692.344	36816.07
692.69	36873.69
693.037	36904.2
693.383	36503.31
693.73	36676.18
694.077	36416.08
694.423	36397.77
694.769	36365.68
695.116	36229.87
695.462	36172.24
695.808	36115.07
696.155	36320.49
696.501	35909.42
696.847	36059.48
697.193	35621.3
697.539	35751.69
697.885	35494.52
698.231	35426.05
698.577	35447.51
698.923	35523.22
699.269	35263.11
699.614	35123.91
699.96	35052.27
700.306	35039.16
700.651	34951.26
700.997	34723.69
701.342	34763.01
701.688	34826.74
702.033	34638.5
702.379	34613.41
702.724	34473.75
703.069	34604.82
703.415	34198.28
703.76	34327.09
704.105	34210.94
704.45	34184.04
704.795	33865.86
705.14	33875.35
705.485	33891.17
705.83	33725.3
706.175	33754.68
706.52	33569.6
706.865	33465.65
707.209	33609.6
707.554	33384.07
707.899	33532.54
708.243	33159.89
708.588	33097.07
708.932	32982.72
709.277	32970.29
709.621	32939.11
709.966	32748.6
710.31	32911.76
710.654	32480.81
710.998	32533.69
711.342	32538.21
711.687	32668.38
712.031	32407.14
712.375	32147.71
712.719	32394.94
713.063	32170.54
713.407	32303.42
713.75	32037.21
714.094	32189.75
714.438	31928.06
714.782	32022.29
715.125	31843.54
715.469	31960.37
715.812	31777.78
716.156	31736.65
716.499	31614.85
716.843	31635.19
717.186	31480.61
717.53	31572.14
717.873	31495.53
718.216	31378.69
718.559	31396.1
718.902	31166.95
719.246	31195.65
719.589	31024.81
719.932	30968.76
720.275	30913.17
720.617	31011.02
720.96	30813.06
721.303	30913.85
721.646	30938.25
721.989	30669.33
722.331	30727.86
722.674	30622.1
723.016	30590.69
723.359	30691.26
723.701	30608.77
724.044	30493.52
724.386	30293.75
724.729	30454.2
725.071	30324.03
725.413	30382.11
725.755	30352.51
726.097	30321.32
726.439	30159.74
726.782	30092.85
727.124	30347.99
727.465	29997.71
727.807	30005.62
728.149	29921.33
728.491	30025.74
728.833	29908.68
729.175	29836.14
729.516	29813.09
729.858	29658.29
730.199	29791.62
730.541	29652.19
730.882	29594.33
731.224	29649.25
731.565	29421.68
731.906	29480.21
732.248	29440.21
732.589	29290.61
732.93	29303.04
733.271	29338.07
733.612	29182.59
733.953	29187.57
734.294	29210.39
734.635	29056.5
734.976	29190.5
735.317	28950.28
735.658	28973.79
735.999	28877.52
736.339	29013.79
736.68	28990.73
737.021	28874.58
737.361	28713
737.702	28791.87
738.042	28790.29
738.383	28700.57
738.723	28879.33
739.063	28589.62
739.404	28698.31
739.744	28538.32
740.084	28514.14
740.424	28559.79
740.764	28528.15
741.104	28418.32
741.444	28470.07
741.784	28340.36
742.124	28402.5
742.464	28317.76
742.804	28288.38
743.143	28264.65
743.483	28244.09
743.823	27993.25
744.162	28040.7
744.502	27969.74
744.841	28012.68
745.181	28058.56
745.52	27982.85
745.86	27899.69
746.199	27987.37
746.538	27743.54
746.877	27852.91
747.216	27768.62
747.556	27721.84
747.895	27655.18
748.234	27595.52
748.573	27691.56
748.911	27519.14
749.25	27564.78
749.589	27347.61
749.928	27440.72
750.267	27476.88
750.605	27467.39
750.944	27311.46
751.283	27232.36
751.621	27180.16
751.96	27129.31
752.298	27038.02
752.636	27161.18
752.975	27080.5
753.313	26868.08
753.651	27002.54
753.989	26780.62
754.327	26789.21
754.666	26569.33
755.004	26712.15
755.342	26633.73
755.679	26549.44
756.017	26512.38
756.355	26545.83
756.693	26360.97
757.031	26431.03
757.368	26324.59
757.706	26252.73
758.044	26157.59
