Data from hue_320_FLMS001491_22.txt Node
Date: Mon Feb 06 15:46:58 GMT 2017
User: dcchb
Spectrometer: FLMS00149
Trigger mode: 0
Integration Time (sec): 2.000000E-2
Scans to average: 10
Electric dark correction enabled: true
Nonlinearity correction enabled: false
Boxcar width: 0
XAxis mode: Wavelengths
Number of Pixels in Spectrum: 2048
>>>>>Begin Spectral Data<<<<<
341.393	-31.84
341.776	-31.84
342.16	-31.84
342.543	-55.34
342.927	-65.51
343.31	-79.97
343.693	-79.07
344.077	-49.69
344.46	-81.78
344.843	-47.88
345.226	-50.82
345.61	-43.13
345.993	-17.6
346.376	6.13
346.759	2.97
347.142	43.19
347.525	42.74
347.908	61.5
348.291	87.71
348.674	97.65
349.057	108.05
349.44	117.99
349.823	143.53
350.206	164.32
350.588	188.05
350.971	215.39
351.354	215.16
351.737	247.93
352.119	238.67
352.502	273.69
352.884	284.54
353.267	295.39
353.65	300.59
354.032	298.78
354.414	301.72
354.797	324.77
355.179	321.6
355.562	307.82
355.944	313.01
356.326	334.93
356.709	334.48
357.091	333.13
357.473	340.13
357.855	327.03
358.238	334.48
358.62	345.33
359.002	350.08
359.384	348.72
359.766	327.7
360.148	329.06
360.53	336.74
360.912	313.69
361.294	345.56
361.676	328.61
362.057	325.9
362.439	336.74
362.821	309.85
363.203	326.8
363.584	325.44
363.966	333.13
364.348	307.59
364.729	306.91
365.111	313.47
365.493	323.18
365.874	301.94
366.256	314.14
366.637	310.3
367.019	313.24
367.4	320.7
367.781	306.91
368.163	299
368.544	322.28
368.925	324.09
369.306	318.44
369.688	319.12
370.069	322.51
370.45	331.54
370.831	302.85
371.212	305.1
371.593	318.44
371.974	300.81
372.355	316.4
372.736	329.06
373.117	322.96
373.498	320.02
373.879	326.35
374.26	313.01
374.641	315.5
375.021	321.83
375.402	322.05
375.783	341.26
376.163	343.07
376.544	329.96
376.925	293.81
377.305	319.34
377.686	300.36
378.066	328.83
378.447	307.82
378.827	342.39
379.208	319.34
379.588	354.82
379.968	339.68
380.349	328.16
380.729	337.42
381.109	341.26
381.489	328.83
381.87	317.53
382.25	326.57
382.63	346.01
383.01	333.35
383.39	333.35
383.77	344.65
384.15	359.11
384.53	346.91
384.91	346.23
385.29	339.23
385.67	371.09
386.049	339
386.429	346.69
386.809	343.97
387.189	349.62
387.568	351.88
387.948	362.73
388.328	348.72
388.707	363.86
389.087	354.82
389.466	369.74
389.846	358.89
390.225	344.65
390.605	339
390.984	350.08
391.363	374.48
391.743	361.37
392.122	374.93
392.501	384.88
392.881	368.61
393.26	357.08
393.639	377.19
394.018	362.96
394.397	364.54
394.776	382.84
395.155	380.36
395.534	380.58
395.913	363.86
396.292	373.35
396.671	380.81
397.05	383.3
397.429	388.72
397.808	373.35
398.186	370.87
398.565	390.53
398.944	373.58
399.323	383.3
399.701	394.37
400.08	400.02
400.458	388.49
400.837	400.7
401.215	393.01
401.594	422.16
401.972	414.25
402.351	414.03
402.729	372.45
403.107	373.35
403.486	416.74
403.864	405.89
404.242	408.83
404.62	419
404.999	419
405.377	405.67
405.755	414.25
406.133	420.81
406.511	414.48
406.889	415.61
407.267	434.82
407.645	422.16
408.023	438.89
408.401	439.79
408.779	432.11
409.156	460.81
409.534	472.33
409.912	481.82
410.29	473.01
410.667	467.81
411.045	471.65
411.422	484.54
411.8	468.94
412.178	494.25
412.555	490.86
412.933	506.91
413.31	511.88
413.687	524.99
414.065	544.65
414.442	537.19
414.819	536.96
415.197	539.45
415.574	556.62
415.951	543.06
416.328	536.51
416.705	553.91
417.082	572.89
417.46	558.66
417.837	585.1
418.214	581.93
418.591	600.01
418.967	579.67
419.344	611.54
419.721	632.33
420.098	595.27
420.475	627.13
420.852	616.28
421.228	614.93
421.605	648.37
421.982	638.2
422.358	663.97
422.735	653.8
423.111	660.8
423.488	663.51
423.864	669.62
424.241	702.38
424.617	669.39
424.994	662.84
425.37	703.06
425.746	698.09
426.123	712.55
426.499	731.08
426.875	714.13
427.251	724.75
427.627	736.28
428.003	718.65
428.379	757.52
428.756	765.66
429.132	773.79
429.507	745.32
429.883	768.14
430.259	782.83
430.635	777.86
431.011	808.82
431.387	797.07
431.763	817.86
432.138	821.93
432.514	854.02
432.89	836.84
433.265	839.1
433.641	865.09
434.016	864.64
434.392	904.19
434.767	904.64
435.143	903.96
435.518	917.29
435.894	894.92
436.269	913.22
436.644	918.42
437.02	953.45
437.395	924.98
437.77	950.74
438.145	971.3
438.52	984.18
438.895	981.92
439.271	977.86
439.646	995.26
440.021	1007.01
440.395	987.8
440.77	994.13
441.145	1010.85
441.52	1028.02
441.895	1010.17
442.27	1014.69
442.645	1000.91
443.019	1057.63
443.394	1057.85
443.769	1041.13
444.143	1049.94
444.518	1091.52
444.892	1059.89
445.267	1066.21
445.641	1066.44
446.016	1072.54
446.39	1067.12
446.764	1076.84
447.139	1054.69
447.513	1100.11
447.887	1062.6
448.262	1066.21
448.636	1110.28
449.01	1111.86
449.384	1103.73
449.758	1120.22
450.132	1110.96
450.506	1106.89
450.88	1116.61
451.254	1133.78
451.628	1135.82
452.002	1144.63
452.376	1175.36
452.75	1169.26
453.123	1195.03
453.497	1213.78
453.871	1190.05
454.244	1192.54
454.618	1198.87
454.992	1227.34
455.365	1202.26
455.739	1205.19
456.112	1237.51
456.486	1245.65
456.859	1250.62
457.232	1259.43
457.606	1282.48
457.979	1282.48
458.352	1292.88
458.725	1287
459.099	1291.97
459.472	1333.78
459.845	1350.28
460.218	1352.54
460.591	1337.17
460.964	1343.04
461.337	1369.03
461.71	1396.83
462.083	1378.3
462.456	1389.37
462.829	1404.51
463.201	1413.32
463.574	1413.32
463.947	1423.49
464.32	1467.11
464.692	1460.1
465.065	1450.84
465.438	1441.35
465.81	1495.58
466.183	1518.18
466.555	1531.06
466.928	1527.9
467.3	1493.55
467.672	1539.42
468.045	1553.66
468.417	1556.82
468.789	1578.74
469.161	1594.79
469.534	1617.61
469.906	1631.85
470.278	1658.97
470.65	1631.85
471.022	1663.94
471.394	1680.89
471.766	1706.42
472.138	1720.43
472.51	1753.43
472.882	1814.22
473.253	1756.82
473.625	1772.86
473.997	1828.23
474.369	1826.65
474.74	1834.1
475.112	1845.86
475.484	1909.13
475.855	1849.47
476.227	1914.33
476.598	1949.58
476.97	1926.53
477.341	2009.69
477.713	2009.01
478.084	2039.75
478.455	2064.38
478.827	2058.28
479.198	2105.96
479.569	2106.64
479.94	2164.72
480.311	2143.93
480.682	2212.85
481.053	2227.31
481.424	2231.38
481.795	2257.37
482.166	2272.74
482.537	2312.28
482.908	2357.93
483.279	2377.14
483.65	2404.94
484.021	2449.46
484.391	2476.8
484.762	2457.82
485.133	2463.69
485.503	2486.52
485.874	2549.57
486.244	2561.32
486.615	2581.43
486.985	2600.41
487.356	2651.71
487.726	2684.7
488.097	2684.25
488.467	2711.14
488.837	2737.36
489.207	2799.95
489.578	2823.46
489.948	2836.56
490.318	2826.62
490.688	2866.62
491.058	2900.29
491.428	2910.91
491.798	2952.04
492.168	3001.98
492.538	3039.04
492.908	3057.35
493.278	3051.25
493.648	3044.02
494.017	3118.82
494.387	3115.2
494.757	3129.21
495.126	3132.6
495.496	3174.41
495.866	3168.76
496.235	3175.54
496.605	3234.75
496.974	3233.39
497.344	3257.57
497.713	3272.71
498.082	3289.89
498.452	3305.93
498.821	3296.21
499.19	3328.08
499.559	3330.56
499.928	3353.39
500.298	3395.42
500.667	3372.59
501.036	3390.9
501.405	3439.26
501.774	3390.9
502.143	3464.57
502.512	3482.87
502.88	3459.82
503.249	3463.44
503.618	3491.24
503.987	3557.9
504.356	3540.5
504.724	3561.06
505.093	3558.13
505.462	3566.94
505.83	3561.29
506.199	3568.07
506.567	3632.7
506.936	3628.18
507.304	3643.77
507.672	3646.49
508.041	3681.74
508.409	3661.17
508.777	3663.89
509.145	3688.74
509.514	3682.42
509.882	3734.17
510.25	3727.61
510.618	3732.81
510.986	3757.22
511.354	3803.32
511.722	3767.16
512.09	3802.64
512.458	3794.73
512.826	3818.68
513.193	3812.36
513.561	3833.15
513.929	3807.84
514.297	3861.85
514.664	3819.59
515.032	3903.88
515.4	3903.65
515.767	3890.1
516.135	3915.86
516.502	3902.3
516.869	3929.87
517.237	3947.95
517.604	3965.8
517.972	3994.95
518.339	3963.54
518.706	3971.45
519.073	3963.99
519.44	3991.34
519.808	3994.73
520.175	4006.25
520.542	4056.19
520.909	4128.96
521.276	4052.35
521.643	4049.87
522.009	4092.35
522.376	4107.94
522.743	4079.24
523.11	4175.29
523.477	4167.6
523.843	4160.6
524.21	4185.68
524.577	4230.65
524.943	4224.32
525.31	4281.72
525.676	4305.9
526.043	4299.8
526.409	4321.27
526.776	4366.02
527.142	4372.79
527.508	4379.57
527.874	4403.98
528.241	4414.83
528.607	4423.41
528.973	4446.24
529.339	4410.08
529.705	4482.4
530.071	4543.86
530.437	4541.6
530.803	4555.61
531.169	4596.52
531.535	4577.76
531.901	4540.25
532.267	4580.92
532.632	4631.77
532.998	4638.32
533.364	4648.49
533.73	4711.32
534.095	4759
534.461	4760.13
534.826	4741.82
535.192	4757.42
535.557	4854.36
535.923	4777.98
536.288	4828.6
536.653	4904.08
537.019	4879.9
537.384	4863.18
537.749	4911.99
538.114	4883.74
538.479	4969.62
538.845	4917.64
539.21	4955.83
539.575	4977.3
539.94	4948.82
540.305	5020.46
540.67	5078.31
541.034	5059.1
541.399	5088.26
541.764	5084.87
542.129	5137.29
542.494	5155.82
542.858	5169.16
543.223	5168.25
543.587	5190.4
543.952	5145.88
544.316	5216.61
544.681	5306.78
545.045	5274.47
545.41	5261.36
545.774	5269.95
546.138	5359.44
546.503	5348.59
546.867	5391.07
547.231	5397.4
547.595	5451.41
547.959	5450.51
548.324	5471.3
548.688	5488.25
549.052	5499.77
549.416	5525.53
549.779	5483.73
550.143	5560.33
550.507	5553.33
550.871	5611.63
551.235	5590.84
551.599	5628.35
551.962	5618.86
552.326	5649.82
552.689	5686.66
553.053	5630.61
553.417	5671.97
553.78	5720.1
554.143	5761.01
554.507	5767.33
554.87	5761.46
555.234	5780.44
555.597	5773.89
555.96	5810.95
556.323	5822.25
556.686	5890.04
557.05	5890.72
557.413	5913.32
557.776	5943.6
558.139	5979.31
558.502	5972.75
558.865	5914.67
559.228	5974.11
559.59	6032.64
559.953	6025.86
560.316	6068.12
560.679	6073.31
561.041	6083.26
561.404	6144.73
561.767	6157.38
562.129	6165.29
562.492	6235.57
562.854	6158.51
563.217	6207.1
563.579	6184.27
563.941	6229.92
564.304	6240.77
564.666	6310.14
565.028	6306.3
565.39	6337.04
565.753	6341.56
566.115	6339.52
566.477	6325.74
566.839	6382.01
567.201	6479.41
567.563	6484.83
567.925	6446.64
568.287	6488.67
568.648	6518.5
569.01	6562.34
569.372	6570.25
569.734	6581.78
570.095	6648.44
570.457	6660.42
570.819	6643.02
571.18	6595.11
571.542	6719.4
571.903	6764.82
572.265	6792.17
572.626	6817.48
572.987	6879.17
573.349	6840.75
573.71	6983.35
574.071	7027.19
574.432	7069.45
574.794	7110.8
575.155	7154.64
575.516	7143.57
575.877	7257.92
576.238	7287.07
576.599	7298.37
576.96	7413.84
577.32	7487.74
577.681	7592.37
578.042	7634.18
578.403	7667.62
578.763	7785.13
579.124	7877.11
579.485	7968.18
579.845	8051.79
580.206	8122.07
580.566	8207.95
580.927	8326.36
581.287	8416.98
581.648	8559.13
582.008	8729.29
582.368	8818.55
582.728	8940.13
583.089	9093.35
583.449	9217.19
583.809	9381.93
584.169	9591.87
584.529	9752.54
584.889	9867.57
585.249	10092.19
585.609	10204.51
585.969	10497.83
586.329	10624.16
586.688	10831.38
587.048	11049.23
587.408	11195.89
587.768	11392.5
588.127	11663.22
588.487	11913.84
588.846	12162.42
589.206	12374.84
589.565	12657.1
589.925	12838.56
590.284	13107.48
590.643	13394.7
591.003	13740.23
591.362	13944.75
591.721	14129.83
592.08	14450.04
592.44	14772.97
592.799	14989.92
593.158	15216.58
593.517	15545.16
593.876	15942.21
594.235	16205.93
594.593	16443.21
594.952	16797.1
595.311	16925.46
595.67	17347.82
596.029	17690.86
596.387	18061.93
596.746	18217.85
597.104	18507.56
597.463	18893.99
597.822	19244.04
598.18	19338.5
598.538	19597.48
598.897	20014.19
599.255	20206.95
599.613	20733.49
599.972	20834.28
600.33	21233.82
600.688	21352.46
601.046	21812.56
601.404	22136.4
601.762	22313.79
602.12	22636.04
602.478	23040.55
602.836	23308.34
603.194	23376.36
603.552	23685.73
603.91	23800.53
604.268	24294.98
604.625	24385.6
604.983	24719.6
605.341	24913.5
605.698	25267.16
606.056	25453.82
606.413	25663.99
606.771	26052
607.128	26377.64
607.485	26475.26
607.843	26741.92
608.2	27109.6
608.557	27318.18
608.914	27390.49
609.272	27864.83
609.629	28027.09
609.986	28380.98
610.343	28306.63
610.7	28702.1
611.057	28942.32
611.414	29068.64
611.771	29198.58
612.127	29557.22
612.484	29690.1
612.841	29939.13
613.198	30057.99
613.554	30181.38
613.911	30494.59
614.267	30622.5
614.624	30771.65
614.98	30912.44
615.337	31288.02
615.693	31426.09
616.05	31412.08
616.406	31810.49
616.762	31744.5
617.118	31969.58
617.475	31948.11
617.831	32289.35
618.187	32532.51
618.543	32531.6
618.899	32930.91
619.255	33064.7
619.611	32921.65
619.967	33231.24
620.323	33391.47
620.678	33304.01
621.034	33400.96
621.39	33614.29
621.746	33659.03
622.101	34093.37
622.457	33937.44
622.812	34025.8
623.168	34309.18
623.523	34331.1
623.879	34548.27
624.234	34318
624.589	34622.85
624.945	34733.13
625.3	34856.51
625.655	34860.13
626.01	34876.4
626.365	35044.3
626.72	35138.09
627.075	35074.81
627.43	35187.58
627.785	35125.43
628.14	35300.57
628.495	35428.48
628.85	35332.88
629.205	35408.14
629.559	35656.94
629.914	35561.35
630.269	35738.07
630.623	35576.95
630.978	35554.35
631.332	35768.35
631.687	35904.39
632.041	35743.27
632.396	36053.32
632.75	35735.81
633.104	35963.83
633.459	35783.72
633.813	35823.04
634.167	35711.63
634.521	35838.41
634.875	35968.57
635.229	36030.95
635.583	35856.94
635.937	35734.68
636.291	35917.05
636.645	35888.12
636.999	35969.03
637.352	36017.16
637.706	35668.69
638.06	36007.44
638.413	35913.89
638.767	35920.89
639.121	36004.73
639.474	35698.52
639.828	35904.39
640.181	35960.21
640.534	35961.79
640.888	35874.57
641.241	35910.04
641.594	35936.94
641.947	35973.09
642.301	35790.95
642.654	35952.3
643.007	35840.44
643.36	35857.84
643.713	35762.7
644.066	35888.12
644.419	35778.75
644.771	35387.57
645.124	35159.78
645.477	35189.16
645.83	35080.91
646.182	34911.2
646.535	34703.97
646.888	34802.95
647.24	34623.75
647.593	34755.72
647.945	34794.14
648.298	34701.04
648.65	34685.9
649.002	34656.07
649.355	34708.49
649.707	34656.07
650.059	34881.37
650.411	35147.35
650.763	35273.23
651.115	35584.4
651.467	35528.59
651.819	35497.4
652.171	35402.26
652.523	35507.12
652.875	35391.64
653.227	35355.03
653.578	35480.68
653.93	35545.99
654.282	35189.61
654.633	35194.36
654.985	35364.3
655.337	35383.96
655.688	35376.73
656.039	35392.32
656.391	35074.36
656.742	35295.82
657.094	35135.38
657.445	35281.59
657.796	35200.01
658.147	35207.46
658.498	35192.32
658.849	35200.46
659.2	35069.39
659.551	35041.59
659.902	35356.16
660.253	35196.39
660.604	35228.71
660.955	35036.4
661.306	35237.97
661.656	35089.73
662.007	35245.88
662.358	35186
662.708	35046.11
663.059	35054.7
663.409	34838.89
663.76	35150.52
664.11	35094.92
664.461	35232.77
664.811	35180.12
665.161	35115.94
665.511	35108.03
665.862	35174.24
666.212	35101.93
666.562	35164.53
666.912	35070.74
667.262	35028.71
667.612	35054.02
667.962	35163.62
668.312	35084.08
668.662	35193.23
669.011	35136.05
669.361	35129.95
669.711	34922.05
670.06	34965.21
670.41	34949.17
670.76	34826.46
671.109	35065.55
671.459	34995.49
671.808	34920.47
672.157	35016.06
672.507	34814.48
672.856	34853.8
673.205	34917.75
673.554	34980.13
673.904	34817.42
674.253	35093.12
674.602	34919.56
674.951	34419.69
675.3	34359.8
675.649	34725.44
675.998	34736.29
676.346	34770.41
676.695	34896.06
677.044	34505.79
677.393	34631.21
677.741	34704.43
678.09	34628.95
678.438	34524.77
678.787	34663.75
679.135	34679.34
679.484	34473.92
679.832	34516.18
680.181	34285.23
680.529	34443.42
680.877	34376.98
681.225	34197.55
681.573	34540.14
681.922	34223.08
682.27	34200.94
682.618	34122.75
682.966	33927.27
683.314	34198.45
683.661	34102.63
684.009	33915.52
684.357	33888.85
684.705	33880.49
685.053	33865.13
685.4	33874.17
685.748	33567.96
686.095	33670.56
686.443	33527.96
686.79	33519.15
687.138	33599.14
687.485	33585.13
687.832	33372.48
688.18	33346.95
688.527	33167.29
688.874	33340.39
689.221	33246.84
689.568	33121.87
689.915	32880.07
690.262	33009.78
690.609	33050.01
690.956	32781.54
691.303	32847.53
691.65	32716.68
691.997	32629.45
692.344	32441.66
692.69	32393.75
693.037	32466.52
693.383	32123.03
693.73	32351.27
694.077	32210.93
694.423	32174.32
694.769	32006.64
695.116	31930.04
695.462	31806.2
695.808	31876.93
696.155	31857.27
696.501	31665.41
696.847	31631.74
697.193	31462.25
697.539	31523.27
697.885	31367.34
698.231	31195.37
698.577	31210.28
698.923	31215.25
699.269	31062.71
699.614	30851.65
699.96	30986.56
700.306	30987.24
700.651	30688.03
700.997	30580.24
701.342	30684.19
701.688	30566
702.033	30392.45
702.379	30465.67
702.724	30409.17
703.069	30479.23
703.415	30039.69
703.76	30166.69
704.105	30079.24
704.45	30040.82
704.795	29941.16
705.14	29823.88
705.485	29726.93
705.83	29563.54
706.175	29757.44
706.52	29583.43
706.865	29512.92
707.209	29528.74
707.554	29363.1
707.899	29446.26
708.243	29266.38
708.588	29183.22
708.932	29167.62
709.277	29016.89
709.621	29117.91
709.966	28943.9
710.31	28917.46
710.654	28719.95
710.998	28722.89
711.342	28788.42
711.687	28679.73
712.031	28524.48
712.375	28372.84
712.719	28485.38
713.063	28352.28
713.407	28560.18
713.75	28204.71
714.094	28317.93
714.438	28036.13
714.782	28216.46
715.125	28042.68
715.469	28007.43
715.812	27914.77
716.156	27774.44
716.499	27736.7
716.843	27882.91
717.186	27532.41
717.53	27704.38
717.873	27777.6
718.216	27674.33
718.559	27573.77
718.902	27427.1
719.246	27552.52
719.589	27338.74
719.932	27177.62
720.275	27347.78
720.617	27176.94
720.96	27239.54
721.303	27075.25
721.646	27222.14
721.989	26923.16
722.331	27053.1
722.674	27004.29
723.016	27134.23
723.359	27005.87
723.701	26962.48
724.044	26824.41
724.386	26682.26
724.729	26742.38
725.071	26692.66
725.413	26777.86
725.755	26767.46
726.097	26580.35
726.439	26461.25
726.782	26395.72
727.124	26509.39
727.465	26400.92
727.807	26287.47
728.149	26256.74
728.491	26326.34
728.833	26203.86
729.175	26122.05
729.516	26141.49
729.858	26140.58
730.199	26127.02
730.541	26094.94
730.882	26125.89
731.224	26192.33
731.565	25913.47
731.906	25821.5
732.248	25872.12
732.589	25819.01
732.93	25681.61
733.271	25727.26
733.612	25659.47
733.953	25763.87
734.294	25456.53
734.635	25559.81
734.976	25645.91
735.317	25358.46
735.658	25566.59
735.999	25381.28
736.339	25329.31
736.68	25550.77
737.021	25287.27
737.361	25323.43
737.702	25349.64
738.042	25228.52
738.383	25191.68
738.723	25251.79
739.063	25249.99
739.404	25197.11
739.744	25113.94
740.084	25068.97
740.424	25203.43
740.764	25109.42
741.104	25077.56
741.444	24976.77
741.784	24825.82
742.124	24929.09
742.464	24769.32
742.804	24725.48
743.143	24720.51
743.483	24745.14
743.823	24603.68
744.162	24593.96
744.502	24636.44
744.841	24418.6
745.181	24536.56
745.52	24465.6
745.86	24504.24
746.199	24411.59
746.538	24403.45
746.877	24459.27
747.216	24354.87
747.556	24352.38
747.895	24321.42
748.234	24187.19
748.573	24123.91
748.911	24301.76
749.25	24071.71
749.589	24003.01
749.928	24033.52
750.267	24002.79
750.605	24020.64
750.944	23874.2
751.283	23874.65
751.621	23909.68
751.96	23771.61
752.298	23722.34
752.636	23712.17
752.975	23622.23
753.313	23690.7
753.651	23659.07
753.989	23539.3
754.327	23430.82
754.666	23361.22
755.004	23273.77
755.342	23374.55
755.679	23332.97
756.017	23176.82
756.355	23290.26
756.693	23077.39
757.031	23061.12
757.368	23118.97
757.706	22980.21
758.044	22966.88
758.381	22935.47
758.719	22756.49
759.056	22836.04
759.394	22733.22
759.731	22552.88
760.068	22598.08
