Data from hue_60_FLMS001491_47.txt Node
Date: Mon Feb 06 15:17:27 GMT 2017
User: dcchb
Spectrometer: FLMS00149
Trigger mode: 0
Integration Time (sec): 2.000000E-2
Scans to average: 10
Electric dark correction enabled: true
Nonlinearity correction enabled: false
Boxcar width: 0
XAxis mode: Wavelengths
Number of Pixels in Spectrum: 2048
>>>>>Begin Spectral Data<<<<<
341.393	5.73
341.776	5.73
342.16	5.73
342.543	-68.39
342.927	-57.77
343.31	-55.06
343.693	-70.2
344.077	-80.59
344.46	-64.55
344.843	-41.5
345.226	-41.95
345.61	-38.78
345.993	-34.49
346.376	-3.98
346.759	4.83
347.142	34.21
347.525	46.64
347.908	59.97
348.291	79.86
348.674	88.44
349.057	117.14
349.44	136.58
349.823	165.96
350.206	178.61
350.588	205.28
350.971	214.54
351.354	241.66
351.737	242.56
352.119	273.3
352.502	259.06
352.884	291.38
353.267	285.27
353.65	298.38
354.032	295.44
354.414	302.45
354.797	305.39
355.179	328.66
355.562	320.75
355.944	337.93
356.326	338.38
356.709	333.41
357.091	347.65
357.473	336.35
357.855	356.23
358.238	348.55
358.62	361.43
359.002	349.23
359.384	353.07
359.766	342.67
360.148	363.47
360.53	348.32
360.912	352.62
361.294	330.7
361.676	330.02
362.057	354.2
362.439	349.68
362.821	342
363.203	330.92
363.584	332.73
363.966	333.18
364.348	325.73
364.729	334.09
365.111	313.97
365.493	314.2
365.874	324.14
366.256	309.68
366.637	327.99
367.019	315.1
367.4	319.62
367.781	333.86
368.163	318.72
368.544	317.36
368.925	292.05
369.306	309.46
369.688	306.07
370.069	307.87
370.45	306.07
370.831	324.37
371.212	325.05
371.593	342.22
371.974	330.02
372.355	306.52
372.736	307.87
373.117	319.85
373.498	320.08
373.879	330.02
374.26	319.85
374.641	307.42
375.021	326.86
375.402	322.56
375.783	304.94
376.163	308.1
376.544	314.43
376.925	347.42
377.305	333.64
377.686	324.14
378.066	318.49
378.447	335.67
378.827	320.98
379.208	339.51
379.588	334.77
379.968	351.94
380.349	322.79
380.729	335.67
381.109	333.41
381.489	330.02
381.87	335.22
382.25	318.95
382.63	343.8
383.01	350.58
383.39	344.26
383.77	346.06
384.15	348.1
384.53	337.25
384.91	336.57
385.29	349.23
385.67	356.23
386.049	339.96
386.429	346.52
386.809	358.95
387.189	356.01
387.568	346.74
387.948	345.61
388.328	339.06
388.707	355.1
389.087	370.02
389.466	373.18
389.846	351.04
390.225	363.24
390.605	359.62
390.984	352.17
391.363	364.59
391.743	368.66
392.122	367.76
392.501	369.34
392.881	361.21
393.26	344.71
393.639	370.24
394.018	352.39
394.397	369.34
394.776	374.54
395.155	361.43
395.534	349.45
395.913	366.63
396.292	376.57
396.671	377.93
397.05	382
397.429	366.4
397.808	354.88
398.186	379.51
398.565	376.8
398.944	384.93
399.323	374.31
399.701	396.23
400.08	391.71
400.458	391.49
400.837	378.83
401.215	373.86
401.594	389.91
401.972	397.14
402.351	402.79
402.729	382
403.107	383.35
403.486	387.65
403.864	413.41
404.242	398.72
404.62	404.59
404.999	397.14
405.377	400.3
405.755	394.2
406.133	401.66
406.511	412.28
406.889	411.6
407.267	441.66
407.645	411.37
408.023	426.06
408.401	421.54
408.779	426.51
409.156	429.45
409.534	431.26
409.912	431.26
410.29	433.52
410.667	424.71
411.045	419.96
411.422	435.33
411.8	445.72
412.178	463.8
412.555	447.3
412.933	425.38
413.31	454.08
413.687	466.51
414.065	468.55
414.442	464.93
414.819	454.31
415.197	457.02
415.574	475.55
415.951	452.28
416.328	458.15
416.705	479.17
417.082	486.85
417.46	475.1
417.837	480.98
418.214	469.22
418.591	483.01
418.967	500.86
419.344	482.56
419.721	478.04
420.098	499.96
420.475	496.57
420.852	492.28
421.228	509.68
421.605	509.45
421.982	509.9
422.358	489.11
422.735	499.28
423.111	497.92
423.488	489.11
423.864	497.7
424.241	535.21
424.617	516.23
424.994	520.98
425.37	505.83
425.746	492.28
426.123	538.15
426.499	524.14
426.875	546.51
427.251	547.64
427.627	553.74
428.003	532.27
428.379	556.68
428.756	536.79
429.132	556
429.507	566.4
429.883	570.92
430.259	566.17
430.635	577.24
431.011	571.82
431.387	565.04
431.763	573.4
432.138	576.34
432.514	586.74
432.89	587.41
433.265	613.85
433.641	605.49
434.016	613.18
434.392	612.72
434.767	633.74
435.143	592.84
435.518	628.54
435.894	611.14
436.269	625.61
436.644	642.1
437.02	634.19
437.395	629.22
437.77	637.81
438.145	659.95
438.52	637.36
438.895	659.73
439.271	640.29
439.646	667.19
440.021	671.71
440.395	665.15
440.77	666.06
441.145	683.68
441.52	684.13
441.895	688.88
442.27	693.63
442.645	695.21
443.019	702.89
443.394	706.73
443.769	686.39
444.143	688.2
444.518	727.3
444.892	710.35
445.267	705.83
445.641	717.58
446.016	717.35
446.39	727.52
446.764	729.78
447.139	721.87
447.513	741.31
447.887	770.91
448.262	771.14
448.636	751.03
449.01	763.91
449.384	778.82
449.758	786.28
450.132	773.85
450.506	775.43
450.88	775.66
451.254	778.14
451.628	785.83
452.002	774.3
452.376	788.76
452.75	800.06
453.123	789.44
453.497	845.03
453.871	839.38
454.244	823.11
454.618	839.61
454.992	836.9
455.365	841.42
455.739	884.13
456.112	881.64
456.486	879.84
456.859	884.13
457.232	903.56
457.606	903.79
457.979	916.9
458.352	875.77
458.725	914.86
459.099	932.04
459.472	959.16
459.845	973.39
460.218	971.58
460.591	985.37
460.964	961.42
461.337	955.09
461.71	1010.23
462.083	1014.52
462.456	1026.95
462.829	1026.72
463.201	1068.08
463.574	1047.29
463.947	1073.5
464.32	1119.38
464.692	1103.11
465.065	1107.17
465.438	1101.52
465.81	1135.65
466.183	1155.31
466.555	1181.07
466.928	1184.69
467.3	1208.19
467.672	1195.99
468.045	1222.65
468.417	1286.83
468.789	1283.89
469.161	1318.47
469.534	1313.04
469.906	1325.93
470.278	1375.87
470.65	1354.85
471.022	1411.12
471.394	1415.19
471.766	1459.26
472.138	1475.3
472.51	1492.93
472.882	1560.27
473.253	1583.32
473.625	1636.2
473.997	1682.98
474.369	1671.45
474.74	1708.29
475.112	1748.74
475.484	1795.97
475.855	1840.26
476.227	1875.06
476.598	1924.33
476.97	1981.05
477.341	2014.27
477.713	2106.02
478.084	2128.16
478.455	2199.12
478.827	2273.92
479.198	2319.12
479.569	2416.07
479.94	2475.27
480.311	2524.99
480.682	2612.67
481.053	2712.33
481.424	2803.4
481.795	2828.26
482.166	2936.5
482.537	2981.48
482.908	3134.92
483.279	3146.22
483.65	3292.65
484.021	3381.01
484.391	3527.68
484.762	3560.9
485.133	3632.53
485.503	3727.67
485.874	3875.01
486.244	3986.42
486.615	4114.1
486.985	4221.89
487.356	4337.15
487.726	4488.33
488.097	4614.2
488.467	4697.36
488.837	4809.68
489.207	4946.4
489.578	5131.48
489.948	5249.44
490.318	5336.22
490.688	5470.45
491.058	5655.53
491.428	5729.43
491.798	5892.36
492.168	6129.19
492.538	6212.58
492.908	6352.46
493.278	6525.56
493.648	6624.54
494.017	6768.95
494.387	6896.4
494.757	7071.31
495.126	7253.68
495.496	7312.21
495.866	7474.01
496.235	7620.9
496.605	7838.75
496.974	7918.29
497.344	8064.73
497.713	8244.84
498.082	8363.03
498.452	8557.6
498.821	8697.94
499.19	8775.45
499.559	8931.15
499.928	9104.03
500.298	9253.4
500.667	9356.9
501.036	9427.86
501.405	9696.33
501.774	9692.94
502.143	9938.81
502.512	10054.96
502.88	10223.09
503.249	10335.18
503.618	10429.42
503.987	10591.67
504.356	10774.04
504.724	10839.8
505.093	10958.21
505.462	11046.35
505.83	11218.77
506.199	11369.05
506.567	11609.27
506.936	11571.31
507.304	11815.82
507.672	11896.72
508.041	12070.28
508.409	12179.65
508.777	12358.86
509.145	12535.35
509.514	12562.69
509.882	12738.28
510.25	12799.3
510.618	12980.08
510.986	13104.15
511.354	13223.47
511.722	13379.62
512.09	13558.6
512.458	13578.26
512.826	13778.48
513.193	13876.1
513.561	13946.84
513.929	14112.71
514.297	14281.52
514.664	14453.49
515.032	14495.3
515.4	14705.69
515.767	14727.61
516.135	14886.25
516.502	14966.24
516.869	15209.18
517.237	15208.95
517.604	15346.12
517.972	15508.38
518.339	15641.48
518.706	15749.73
519.073	15845.54
519.44	15970.29
519.808	16091.19
520.175	16180
520.542	16411.18
520.909	16537.5
521.276	16462.02
521.643	16813.2
522.009	16848
522.376	17048
522.743	17215.68
523.11	17343.81
523.477	17539.96
523.843	17616.8
524.21	17861.99
524.577	17967.07
524.943	18137.01
525.31	18171.13
525.676	18434.85
526.043	18450.45
526.409	18692.7
526.776	18907.84
527.142	18875.75
527.508	18952.35
527.874	19156.64
528.241	19232.35
528.607	19365
528.973	19604.99
529.339	19579
529.705	19770.86
530.071	20085.66
530.437	20063.74
530.803	20189.84
531.169	20226.22
531.535	20303.28
531.901	20451.07
532.267	20541.92
532.632	20668.69
532.998	20723.83
533.364	20954.79
533.73	20981.91
534.095	21051.73
534.461	21146.42
534.826	21278.17
535.192	21427.54
535.557	21561.1
535.923	21595.45
536.288	21709.12
536.653	21742.11
537.019	21763.35
537.384	21844.71
537.749	22027.3
538.114	21961.09
538.479	22107.07
538.845	22194.98
539.21	22124.02
539.575	22354.53
539.94	22379.38
540.305	22480.4
540.67	22524.69
541.034	22616.44
541.399	22801.29
541.764	22833.16
542.129	22837
542.494	23055.98
542.858	23112.7
543.223	23076.54
543.587	23258.23
543.952	23317.21
544.316	23261.62
544.681	23372.13
545.045	23404.22
545.41	23584.32
545.774	23656.19
546.138	23673.13
546.503	23705.68
546.867	23679.24
547.231	23991.32
547.595	23967.36
547.959	24014.14
548.324	24101.15
548.688	24260.24
549.052	24327.13
549.416	24202.61
549.779	24379.56
550.143	24494.58
550.507	24611.42
550.871	24714.46
551.235	24685.31
551.599	24808.47
551.962	24896.61
552.326	25035.81
552.689	25249.36
553.053	25083.27
553.417	25222.25
553.78	25558.73
554.143	25477.61
554.507	25542.92
554.87	25684.61
555.234	25898.84
555.597	25747.88
555.96	25838.73
556.323	25967.54
556.686	26080.98
557.05	26358.26
557.413	26297.7
557.776	26312.84
558.139	26616.79
558.502	26638.93
558.865	26654.98
559.228	26890.9
559.59	26975.42
559.953	27029.66
560.316	27283.44
560.679	27438.91
561.041	27442.75
561.404	27599.36
561.767	27743.54
562.129	27660.83
562.492	28052.23
562.854	27995.28
563.217	28023.08
563.579	28206.8
563.941	28396.85
564.304	28376.51
564.666	28559.11
565.028	28641.59
565.39	28701.25
565.753	28881.36
566.115	29035.03
566.477	29185.98
566.839	29159.77
567.201	29426.2
567.563	29500.78
567.925	29750.94
568.287	29686.08
568.648	29768.79
569.01	29895.12
569.372	30187.09
569.734	29998.17
570.095	30206.3
570.457	30255.33
570.819	30401.77
571.18	30497.81
571.542	30592.05
571.903	30694.87
572.265	30782.33
572.626	30915.43
572.987	30994.52
573.349	31109.32
573.71	31110.45
574.071	31289.21
574.432	31368.75
574.794	31567.84
575.155	31498.47
575.516	31467.28
575.877	31701.17
576.238	31711.57
576.599	31914.05
576.96	31873.37
577.32	31954.05
577.681	32004.21
578.042	32102.29
578.403	32215.96
578.763	32108.85
579.124	32283.3
579.485	32410.31
579.845	32470.19
580.206	32345
580.566	32516.74
580.927	32408.05
581.287	32625.67
581.648	32638.77
582.008	32601.04
582.368	32672.45
582.728	32836.51
583.089	32724.42
583.449	32712.22
583.809	32747.02
584.169	32803.74
584.529	32807.81
584.889	33075.6
585.249	32843.51
585.609	32820.92
585.969	33007.58
586.329	32726.91
586.688	32853.46
587.048	32976.39
587.408	32878.54
587.768	32826.34
588.127	32996.73
588.487	32751.31
588.846	33213.67
589.206	32842.84
589.565	33009.61
589.925	33139.33
590.284	33177.97
590.643	33210.96
591.003	33180.91
591.362	33239.66
591.721	33232.43
592.08	33268.81
592.44	33332.09
592.799	33381.58
593.158	33364.41
593.517	33253.22
593.876	33452.31
594.235	33186.33
594.593	33346.33
594.952	33473.33
595.311	33272.43
595.67	33443.05
596.029	33575.47
596.387	33704.96
596.746	33697.05
597.104	33571.63
597.463	33489.83
597.822	33683.27
598.18	33635.36
598.538	33658.86
598.897	33749.48
599.255	33474.91
599.613	34074.22
599.972	33765.52
600.33	33951.28
600.688	33718.29
601.046	34014.56
601.404	34088.23
601.762	34059.75
602.12	34243.03
602.478	34254.33
602.836	34155.12
603.194	33936.37
603.552	34088
603.91	34186.98
604.268	34320.76
604.625	34226.76
604.983	34359.41
605.341	34230.82
605.698	34432.17
606.056	34544.94
606.413	34358.73
606.771	34513.53
607.128	34655.67
607.485	34545.39
607.843	34669.46
608.2	34809.79
608.557	34833.52
608.914	34698.61
609.272	35052.95
609.629	35161.19
609.986	35181.53
610.343	35140.86
610.7	35415.42
611.057	35274.64
611.414	35218.37
611.771	35329.33
612.127	35450.9
612.484	35442.54
612.841	35666.49
613.198	35500.39
613.554	35465.82
613.911	35744.23
614.267	35735.42
614.624	35721.41
614.98	35786.04
615.337	35965.47
615.693	35932.93
616.05	35884.56
616.406	36212.92
616.762	35884.34
617.118	36067.61
617.475	36079.36
617.831	36081.4
618.187	36057.44
618.543	36251.79
618.899	36490.2
619.255	36315.51
619.611	36345.8
619.967	36590.08
620.323	36637.54
620.678	36595.51
621.034	36432.12
621.39	36337.21
621.746	36425.57
622.101	36819.23
622.457	36513.47
622.812	36586.69
623.168	36797.54
623.523	36820.59
623.879	36879.79
624.234	36711.44
624.589	36822.17
624.945	36834.6
625.3	36917.98
625.655	36876.18
626.01	36950.07
626.365	36988.94
626.72	36974.03
627.075	36854.93
627.43	36966.12
627.785	36836.4
628.14	36903.07
628.495	36939.68
628.85	37044.53
629.205	36675.28
629.559	37066.45
629.914	36834.37
630.269	36966.12
630.623	36916.18
630.978	36867.14
631.332	36981.71
631.687	37013.8
632.041	36952.79
632.396	36858.78
632.75	36872.56
633.104	36851.77
633.459	36790.08
633.813	36775.61
634.167	36801.6
634.521	36671.21
634.875	36848.38
635.229	36783.3
635.583	36613.36
635.937	36545.56
636.291	36659.91
636.645	36577.65
636.999	36414.27
637.352	36732.23
637.706	36551.21
638.06	36559.12
638.413	36367.49
638.767	36449.3
639.121	36548.73
639.474	36260.6
639.828	36352.58
640.181	36333.82
640.534	36347.6
640.888	36261.73
641.241	36002.98
641.594	36215.63
641.947	36235.29
642.301	36121.85
642.654	36271.45
643.007	36122.07
643.36	36133.6
643.713	36109.19
644.066	36323.42
644.419	36013.83
644.771	35870.78
645.124	35414.97
645.477	35527.74
645.83	35210.01
646.182	35150.12
646.535	35040.97
646.888	35045.26
647.24	34852.05
647.593	34991.93
647.945	35033.74
648.298	34808.21
648.65	34742
649.002	34748.78
649.355	34810.69
649.707	34717.36
650.059	34849.56
650.411	35278.25
650.763	35381.75
651.115	35645.02
651.467	35606.61
651.819	35514.63
652.171	35611.13
652.523	35367.74
652.875	35398.7
653.227	35306.73
653.578	35630.56
653.93	35337.23
654.282	35221.98
654.633	35101.53
654.985	35280.96
655.337	35229.44
655.688	35285.48
656.039	35430.79
656.391	35017.24
656.742	35187.41
657.094	35173.85
657.445	35356.9
657.796	35170.01
658.147	35205.03
658.498	35024.93
658.849	35277.58
659.2	35142.21
659.551	35038.94
659.902	35195.32
660.253	35119.16
660.604	35103.79
660.955	34950.13
661.306	35146.73
661.656	34998.26
662.007	34998.94
662.358	34991.26
662.708	35034.19
663.059	34920.75
663.409	34753.75
663.76	35124.58
664.11	35078.03
664.461	35035.77
664.811	35055.89
665.161	34965.95
665.511	34796.01
665.862	34927.3
666.212	34939.73
666.562	35008.66
666.912	34983.8
667.262	35034.87
667.612	34803.01
667.962	34972.5
668.312	34809.56
668.662	34902.67
669.011	34807.08
669.361	34777.02
669.711	34845.95
670.06	34724.37
670.41	34587.2
670.76	34639.85
671.109	34730.02
671.459	34689.12
671.808	34657.03
672.157	34835.55
672.507	34478.95
672.856	34541.78
673.205	34411.84
673.554	34542.45
673.904	34607.31
674.253	34702.9
674.602	34611.83
674.951	34042.58
675.3	33887.78
675.649	34407.99
675.998	34490.03
676.346	34454.77
676.695	34572.96
677.044	34249.35
677.393	34390.59
677.741	34389.91
678.09	34304.95
678.438	34409.35
678.787	34219.75
679.135	34248.22
679.484	34040.55
679.832	34264.49
680.181	34125.06
680.529	34076.25
680.877	34100.88
681.225	34011.85
681.573	34169.81
681.922	33890.49
682.27	33936.82
682.618	33849.14
682.966	33824.73
683.314	33863.83
683.661	33846.2
684.009	33606.43
684.357	33508.13
684.705	33521.46
685.053	33559.2
685.4	33445.31
685.748	33355.82
686.095	33164.41
686.443	33140.46
686.79	33081.25
687.138	33283.96
687.485	33136.16
687.832	33020.23
688.18	33141.13
688.527	32979.33
688.874	32862.5
689.221	32777.75
689.568	32730.52
689.915	32601.49
690.262	32606.23
690.609	32594.03
690.956	32344.09
691.303	32489.63
691.65	32294.15
691.997	32309.07
692.344	32089.64
692.69	32156.98
693.037	32162.18
693.383	31850.55
693.73	32129.41
694.077	31733.04
694.423	31727.61
694.769	31659.37
695.116	31617.78
695.462	31488.3
695.808	31491.46
696.155	31578.69
696.501	31185.48
696.847	31222.54
697.193	31124.24
697.539	31217.79
697.885	30880.18
698.231	30937.8
698.577	30902.32
698.923	30778.71
699.269	30553.41
699.614	30442.67
699.96	30393.64
700.306	30490.13
700.651	30369.68
700.997	30212.85
701.342	30223.24
701.688	30158.84
702.033	30071.84
702.379	30078.62
702.724	29970.14
703.069	29994.32
703.415	29659.87
703.76	29604.73
704.105	29700.77
704.45	29511.4
704.795	29507.56
705.14	29308.69
705.485	29292.42
705.83	29223.72
706.175	29259.65
706.52	29192.09
706.865	28966.1
707.209	28977.18
707.554	29019.66
707.899	29078.42
708.243	28841.81
708.588	28774.7
708.932	28692.66
709.277	28623.96
709.621	28482.27
709.966	28414.48
710.31	28463.52
710.654	28285.44
710.998	28241.6
711.342	28219.46
711.687	28172.45
712.031	27962.74
712.375	28024.88
712.719	28012.46
713.063	27939.24
713.407	28068.73
713.75	27833.03
714.094	27890.65
714.438	27822.4
714.782	27674.61
715.125	27645.01
715.469	27642.3
715.812	27496.76
716.156	27471.23
716.499	27369.31
716.843	27389.42
717.186	27266.94
717.53	27317.33
717.873	27308.07
718.216	27296.99
718.559	27168.18
718.902	26923.44
719.246	27018.36
719.589	26965.48
719.932	26768.65
720.275	26830.79
720.617	26933.84
720.96	26695.65
721.303	26777.01
721.646	26759.61
721.989	26522.55
722.331	26683.22
722.674	26535.88
723.016	26612.27
723.359	26600.06
723.701	26514.19
724.044	26344.02
724.386	26154.88
724.729	26341.31
725.071	26263.57
725.413	26314.2
725.755	26341.09
726.097	26108.55
726.439	25985.62
726.782	26021.55
727.124	26037.37
727.465	25977.71
727.807	25972.96
728.149	25918.27
728.491	25746.75
728.833	25820.2
729.175	25750.37
729.516	25589.69
729.858	25583.59
730.199	25625.85
730.541	25740.88
730.882	25479.41
731.224	25543.59
731.565	25303.83
731.906	25489.36
732.248	25442.13
732.589	25345.18
732.93	25246.43
733.271	25267.67
733.612	25276.93
733.953	25259.31
734.294	25240.78
734.635	25142.02
734.976	25209.82
735.317	24973.89
735.658	24991.07
735.999	25092.98
736.339	24943.84
736.68	24877.62
737.021	24902.03
737.361	24779.55
737.702	24965.76
738.042	24732.09
738.383	24742.03
738.723	24791.07
739.063	24667.23
739.404	24679.89
739.744	24621.81
740.084	24534.13
740.424	24601.47
740.764	24429.05
741.104	24716.05
741.444	24363.29
741.784	24311.76
742.124	24458.2
742.464	24385.88
742.804	24364.19
743.143	24264.08
743.483	24271.08
743.823	24173.46
744.162	24170.07
744.502	24177.08
744.841	24009.85
745.181	24144.31
745.52	24010.98
745.86	23982.96
746.199	23908.61
746.538	23852.11
746.877	24003.97
747.216	23965.1
747.556	23800.59
747.895	23973.24
748.234	23732.79
748.573	23725.11
748.911	23598.79
749.25	23683.53
749.589	23499.58
749.928	23601.5
750.267	23568.05
750.605	23529.86
750.944	23512.91
751.283	23386.36
751.621	23453.71
751.96	23276.99
752.298	23247.16
752.636	23233.15
752.975	23131.23
753.313	23086.48
753.651	23115.86
753.989	23096.43
754.327	23082.42
754.666	22937.56
755.004	22923.55
755.342	22905.47
755.679	22880.16
756.017	22663.67
756.355	22778.24
756.693	22637.91
757.031	22657.34
