Data from hue_180_FLMS001491_00019.txt Node
Date: Tue Feb 07 16:46:38 GMT 2017
User: dcchb
Spectrometer: FLMS00149
Trigger mode: 0
Integration Time (sec): 2.000000E-2
Scans to average: 10
Electric dark correction enabled: true
Nonlinearity correction enabled: false
Boxcar width: 0
XAxis mode: Wavelengths
Number of Pixels in Spectrum: 2048
>>>>>Begin Spectral Data<<<<<
341.393	-6.48
341.776	-6.48
342.16	-6.48
342.543	-58.23
342.927	-70.89
343.31	-50.55
343.693	-51.91
344.077	-70.66
344.46	-49.42
344.843	-65.92
345.226	-51
345.61	-26.14
345.993	-21.62
346.376	5.95
346.759	6.85
347.142	14.53
347.525	36.68
347.908	50.69
348.291	69.67
348.674	86.4
349.057	116.45
349.44	126.39
349.823	139.5
350.206	158.48
350.588	186.28
350.971	225.15
351.354	200.07
351.737	225.15
352.119	228.09
352.502	264.02
352.884	244.13
353.267	288.65
353.65	320.06
354.032	300.63
354.414	289.1
354.797	307.18
355.179	320.74
355.562	314.86
355.944	328.88
356.326	321.64
356.709	333.4
357.091	350.12
357.473	332.27
357.855	351.7
358.238	332.72
358.62	319.38
359.002	333.62
359.384	352.6
359.766	333.85
360.148	341.53
360.53	331.36
360.912	321.42
361.294	329.33
361.676	334.3
362.057	323.45
362.439	323.45
362.821	314.41
363.203	319.61
363.584	321.42
363.966	320.74
364.348	338.82
364.729	317.58
365.111	326.16
365.493	308.54
365.874	323.23
366.256	328.2
366.637	306.96
367.019	311.02
367.4	320.29
367.781	286.39
368.163	309.44
368.544	306.5
368.925	294.98
369.306	310.57
369.688	308.99
370.069	312.38
370.45	308.31
370.831	303.57
371.212	304.47
371.593	297.92
371.974	315.54
372.355	318.48
372.736	308.76
373.117	313.28
373.498	318.93
373.879	316.22
374.26	312.38
374.641	312.83
375.021	309.22
375.402	316.22
375.783	329.1
376.163	319.16
376.544	343.11
376.925	320.51
377.305	311.25
377.686	297.92
378.066	317.35
378.447	346.73
378.827	323
379.208	316.67
379.588	335.88
379.968	325.26
380.349	320.97
380.729	334.75
381.109	326.16
381.489	351.93
381.87	315.77
382.25	326.39
382.63	346.05
383.01	354.41
383.39	344.02
383.77	354.86
384.15	351.02
384.53	349.21
384.91	342.66
385.29	356.45
385.67	346.73
386.049	350.57
386.429	333.4
386.809	339.95
387.189	325.49
387.568	364.81
387.948	372.26
388.328	335.2
388.707	349.44
389.087	359.84
389.466	350.12
389.846	360.29
390.225	357.35
390.605	347.18
390.984	361.87
391.363	359.84
391.743	383.11
392.122	364.35
392.501	377.01
392.881	394.64
393.26	369.55
393.639	369.1
394.018	371.59
394.397	371.13
394.776	390.79
395.155	391.25
395.534	388.31
395.913	383.79
396.292	402.77
396.671	398.25
397.05	382.21
397.429	395.99
397.808	387.18
398.186	387.63
398.565	393.28
398.944	375.65
399.323	391.92
399.701	399.16
400.08	418.14
400.458	407.74
400.837	413.85
401.215	404.13
401.594	403.22
401.972	404.13
402.351	428.76
402.729	405.48
403.107	427.86
403.486	424.92
403.864	417.01
404.242	436.67
404.62	426.73
404.999	430.57
405.377	446.16
405.755	448.65
406.133	435.77
406.511	454.07
406.889	440.96
407.267	472.83
407.645	466.95
408.023	466.73
408.401	473.96
408.779	474.86
409.156	501.75
409.534	501.07
409.912	502.43
410.29	504.01
410.667	510.79
411.045	510.11
411.422	521.19
411.8	536.1
412.178	547.4
412.555	526.61
412.933	570.23
413.31	586.5
413.687	575.65
414.065	579.04
414.442	570
414.819	575.42
415.197	577.91
415.574	588.3
415.951	617.46
416.328	594.18
416.705	613.84
417.082	605.25
417.46	622.43
417.837	619.49
418.214	659.26
418.591	644.35
418.967	659.04
419.344	659.71
419.721	679.15
420.098	659.71
420.475	679.37
420.852	697.68
421.228	705.59
421.605	738.13
421.982	726.83
422.358	731.8
422.735	731.35
423.111	748.53
423.488	772.48
423.864	775.19
424.241	803.44
424.617	805.25
424.994	823.55
425.37	812.48
425.746	809.09
426.123	842.99
426.499	844.34
426.875	847.96
427.251	871.01
427.627	890.67
428.003	886.6
428.379	884.57
428.756	904
429.132	932.7
429.507	938.8
429.883	934.06
430.259	948.29
430.635	972.02
431.011	984.68
431.387	985.58
431.763	1019.03
432.138	1002.76
432.514	1014.73
432.89	1037.33
433.265	1033.04
433.641	1055.64
434.016	1072.13
434.392	1110.78
434.767	1134.5
435.143	1116.65
435.518	1140.61
435.894	1173.83
436.269	1186.93
436.644	1193.94
437.02	1238.46
437.395	1216.99
437.77	1244.56
438.145	1279.58
438.52	1283.65
438.895	1324.78
439.271	1330.43
439.646	1353.26
440.021	1356.65
440.395	1374.72
440.77	1356.42
441.145	1428.73
441.52	1399.13
441.895	1444.55
442.27	1439.81
442.645	1459.69
443.019	1494.27
443.394	1488.39
443.769	1469.18
444.143	1500.37
444.518	1538.11
444.892	1507.15
445.267	1542.85
445.641	1564.32
446.016	1575.85
446.39	1565.45
446.764	1582.4
447.139	1569.75
447.513	1640.25
447.887	1611.1
448.262	1633.02
448.636	1638.67
449.01	1684.32
449.384	1692.68
449.758	1700.59
450.132	1715.96
450.506	1748.73
450.88	1766.58
451.254	1747.14
451.628	1774.49
452.002	1814.03
452.376	1827.37
452.75	1852.9
453.123	1864.65
453.497	1874.15
453.871	1890.87
454.244	1960.02
454.618	1919.34
454.992	1953.69
455.365	1962.96
455.739	2022.62
456.112	2034.82
456.486	2056.74
456.859	2082.28
457.232	2101.03
457.606	2099.22
457.979	2115.04
458.352	2186.91
458.725	2232.1
459.099	2224.42
459.472	2259.22
459.845	2280.01
460.218	2317.98
460.591	2338.09
460.964	2378.77
461.337	2408.37
461.71	2448.82
462.083	2489.27
462.456	2484.75
462.829	2488.82
463.201	2567.91
463.574	2549.61
463.947	2633.67
464.32	2664.86
464.692	2713.22
465.065	2721.58
465.438	2747.12
465.81	2794.8
466.183	2860.56
466.555	2868.02
466.928	2882.48
467.3	2935.36
467.672	2961.12
468.045	3047
468.417	3046.09
468.789	3122.7
469.161	3150.27
469.534	3205.18
469.906	3270.27
470.278	3326.54
470.65	3352.52
471.022	3422.81
471.394	3482.24
471.766	3502.8
472.138	3561.11
472.51	3655.57
472.882	3718.16
473.253	3774.89
473.625	3808.11
473.997	3883.36
474.369	3915.45
474.74	3980.98
475.112	4060.3
475.484	4154.54
475.855	4209.9
476.227	4257.36
476.598	4407.86
476.97	4467.75
477.341	4568.09
477.713	4602.21
478.084	4645.37
478.455	4820.06
478.827	4852.15
479.198	5007.85
479.569	5001.52
479.94	5220.72
480.311	5273.83
480.682	5388.86
481.053	5466.59
481.424	5563.09
481.795	5654.61
482.166	5784.33
482.537	5825.68
482.908	6006.24
483.279	6032
483.65	6144.32
484.021	6340.24
484.391	6430.86
484.762	6524.19
485.133	6543.18
485.503	6629.05
485.874	6825.88
486.244	6896.84
486.615	7011.41
486.985	7136.38
487.356	7257.51
487.726	7367.11
488.097	7535.69
488.467	7516.26
488.837	7722.58
489.207	7817.49
489.578	7897.94
489.948	8055.23
490.318	8174.54
490.688	8147.88
491.058	8367.08
491.428	8422.67
491.798	8583.57
492.168	8692.5
492.538	8752.38
492.908	8866.73
493.278	8949.67
493.648	9029.44
494.017	9161.86
494.387	9165.93
494.757	9283.67
495.126	9436.88
495.496	9404.8
495.866	9487.05
496.235	9565.47
496.605	9693.83
496.974	9794.16
497.344	9866.48
497.713	9922.52
498.082	9927.27
498.452	10017.66
498.821	10124.32
499.19	10126.58
499.559	10182.63
499.928	10249.97
500.298	10263.53
500.667	10403.86
501.036	10352.79
501.405	10458.78
501.774	10425.33
502.143	10550.98
502.512	10599.11
502.88	10656.97
503.249	10653.35
503.618	10739.68
503.987	10726.34
504.356	10829.16
504.724	10899.67
505.093	10916.85
505.462	10958.65
505.83	11014.24
506.199	10969.73
506.567	11122.94
506.936	11108.93
507.304	11229.83
507.672	11187.35
508.041	11264.63
508.409	11308.02
508.777	11381.01
509.145	11428.47
509.514	11429.6
509.882	11435.7
510.25	11498.53
510.618	11566.77
510.986	11575.36
511.354	11636.37
511.722	11616.71
512.09	11723.6
512.458	11616.71
512.826	11694.45
513.193	11745.75
513.561	11744.39
513.929	11832.98
514.297	11899.64
514.664	11911.62
515.032	11953.2
515.4	12012.86
515.767	11967.21
516.135	12016.48
516.502	11839.53
516.869	12092.86
517.237	12121.79
517.604	12009.47
517.972	12108.9
518.339	12121.11
518.706	12079.3
519.073	12140.09
519.44	12089.02
519.808	12209.92
520.175	12121.11
520.542	12302.12
520.909	12291.5
521.276	12220.54
521.643	12341.44
522.009	12278.62
522.376	12303.93
522.743	12383.7
523.11	12368.78
523.477	12402.46
523.843	12464.15
524.21	12569.01
524.577	12512.74
524.943	12506.63
525.31	12527.88
525.676	12607.42
526.043	12608.1
526.409	12611.26
526.776	12655.11
527.142	12579.85
527.508	12658.95
527.874	12711.37
528.241	12606.07
528.607	12622.11
528.973	12712.5
529.339	12627.31
529.705	12618.72
530.071	12690.81
530.437	12662.79
530.803	12656.46
531.169	12662.79
531.535	12555.9
531.901	12578.04
532.267	12545.96
532.632	12551.38
532.998	12426.18
533.364	12583.92
533.73	12531.27
534.095	12571.49
534.461	12464.83
534.826	12497.82
535.192	12424.15
535.557	12481.1
535.923	12294.89
536.288	12342.12
536.653	12368.56
537.019	12281.78
537.384	12210.15
537.749	12295.34
538.114	12140.09
538.479	12103.71
538.845	12236.59
539.21	12151.84
539.575	12038.62
539.94	12019.19
540.305	12082.46
540.67	11996.37
541.034	11993.65
541.399	11938.51
541.764	11854.67
542.129	11860.1
542.494	11807.67
542.858	11736.03
543.223	11701.68
543.587	11744.62
543.952	11600.44
544.316	11630.05
544.681	11606.32
545.045	11489.26
545.41	11572.87
545.774	11456.27
546.138	11351.18
546.503	11414.46
546.867	11354.57
547.231	11256.95
547.595	11263.73
547.959	11232.54
548.324	11168.14
548.688	11134.24
549.052	11102.6
549.416	11106.67
549.779	11021.25
550.143	10988.71
550.507	10990.06
550.871	10950.74
551.235	10879.33
551.599	10989.61
551.962	10836.17
552.326	10770.86
552.689	10812.67
553.053	10761.6
553.417	10630.3
553.78	10773.8
554.143	10629.85
554.507	10682.28
554.87	10597.98
555.234	10674.59
555.597	10500.13
555.96	10533.35
556.323	10505.56
556.686	10532.68
557.05	10445.9
557.413	10529.29
557.776	10444.32
558.139	10481.83
558.502	10460.13
558.865	10388.27
559.228	10444.77
559.59	10365.67
559.953	10370.87
560.316	10422.62
560.679	10380.81
561.041	10423.53
561.404	10361.15
561.767	10405.9
562.129	10343.75
562.492	10395.96
562.854	10341.72
563.217	10283.87
563.579	10322.74
563.941	10318.22
564.304	10357.09
564.666	10360.25
565.028	10359.57
565.39	10340.14
565.753	10306.69
566.115	10381.27
566.477	10353.47
566.839	10302.4
567.201	10390.08
567.563	10357.09
567.925	10408.84
568.287	10362.96
568.648	10443.64
569.01	10358.22
569.372	10383.3
569.734	10331.1
570.095	10357.76
570.457	10459.23
570.819	10391.44
571.18	10405.22
571.542	10472.79
571.903	10445.67
572.265	10450.19
572.626	10364.77
572.987	10430.08
573.349	10437.31
573.71	10439.57
574.071	10466.46
574.432	10484.31
574.794	10562.05
575.155	10501.94
575.516	10491.77
575.877	10471.21
576.238	10499.91
576.599	10582.39
576.96	10448.84
577.32	10481.38
577.681	10475.5
578.042	10435.28
578.403	10478.21
578.763	10485.67
579.124	10485.9
579.485	10488.16
579.845	10512.56
580.206	10396.18
580.566	10530.64
580.927	10493.81
581.287	10507.36
581.648	10437.31
582.008	10426.92
582.368	10468.72
582.728	10435.73
583.089	10396.18
583.449	10449.06
583.809	10419.46
584.169	10449.51
584.529	10495.61
584.889	10411.55
585.249	10420.36
585.609	10323.41
585.969	10386.01
586.329	10367.48
586.688	10337.43
587.048	10329.52
587.408	10301.04
587.768	10303.53
588.127	10259.24
588.487	10277.09
588.846	10337.88
589.206	10287.48
589.565	10193.7
589.925	10279.35
590.284	10223.98
590.643	10237.99
591.003	10238.67
591.362	10308.5
591.721	10224.21
592.08	10245
592.44	10240.48
592.799	10218.11
593.158	10270.99
593.517	10204.77
593.876	10198.22
594.235	10132.46
594.593	10162.74
594.952	10155.51
595.311	10153.25
595.67	10070.99
596.029	10198.67
596.387	10130.65
596.746	10147.83
597.104	10132.69
597.463	10096.08
597.822	10129.97
598.18	10081.61
598.538	10040.71
598.897	10116.64
599.255	10040.71
599.613	10200.48
599.972	10122.97
600.33	10126.36
600.688	10054.04
601.046	10058.11
601.404	10125.68
601.762	10089.97
602.12	10142.63
602.478	10122.52
602.836	10073.03
603.194	10119.8
603.552	10142.85
603.91	10060.37
604.268	10105.79
604.625	10146.92
604.983	10129.75
605.341	10038.68
605.698	10161.61
606.056	10150.09
606.413	10098.79
606.771	10116.87
607.128	10157.09
607.485	10108.28
607.843	10088.62
608.2	10155.74
608.557	10165.45
608.914	10135.85
609.272	10113.25
609.629	10199.58
609.986	10136.98
610.343	10138.34
610.7	10214.49
611.057	10160.71
611.414	10144.66
611.771	10165.45
612.127	10260.82
612.484	10153.7
612.841	10202.74
613.198	10203.64
613.554	10203.19
613.911	10195.73
614.267	10258.11
614.624	10157.32
614.98	10215.85
615.337	10226.02
615.693	10259.24
616.05	10299.23
616.406	10342.85
616.762	10284.55
617.118	10300.14
617.475	10228.5
617.831	10294.49
618.187	10295.39
618.543	10255.39
618.899	10382.17
619.255	10268.05
619.611	10289.97
619.967	10341.49
620.323	10282.96
620.678	10233.47
621.034	10320.25
621.39	10252
621.746	10262.4
622.101	10415.62
622.457	10295.39
622.812	10397.99
623.168	10319.57
623.523	10327.93
623.879	10403.41
624.234	10280.03
624.589	10363.41
624.945	10398.67
625.3	10370.19
625.655	10302.85
626.01	10318.9
626.365	10314.83
626.72	10285.68
627.075	10322.96
627.43	10360.93
627.785	10240.48
628.14	10305.56
628.495	10347.6
628.85	10280.25
629.205	10257.88
629.559	10304.21
629.914	10183.53
630.269	10252.68
630.623	10254.94
630.978	10263.76
631.332	10264.43
631.687	10266.69
632.041	10192.8
632.396	10212.68
632.75	10156.64
633.104	10180.14
633.459	10070.54
633.813	10138.56
634.167	10103.76
634.521	10106.25
634.875	10111.22
635.229	10155.96
635.583	10054.72
635.937	10081.16
636.291	10060.37
636.645	10021.73
636.999	9933.82
637.352	10066.92
637.706	9986.93
638.06	9923.88
638.413	9986.47
638.767	9902.64
639.121	9997.32
639.474	9883.88
639.828	9877.1
640.181	9946.02
640.534	9947.83
640.888	9898.34
641.241	9813.15
641.594	9868.51
641.947	9902.86
642.301	9900.15
642.654	9823.54
643.007	9886.82
643.36	9827.38
643.713	9784.22
644.066	9877.33
644.419	9844.11
644.771	9738.35
645.124	9719.14
645.477	9651.12
645.83	9635.3
646.182	9534.06
646.535	9502.65
646.888	9491.35
647.24	9487.05
647.593	9581.29
647.945	9535.64
648.298	9460.16
648.65	9459.93
649.002	9424.23
649.355	9484.57
649.707	9500.16
650.059	9526.15
650.411	9692.92
650.763	9640.95
651.115	9725.69
651.467	9719.82
651.819	9672.36
652.171	9673.71
652.523	9718.69
652.875	9678.69
653.227	9634.39
653.578	9673.26
653.93	9794.62
654.282	9644.56
654.633	9631.91
654.985	9693.15
655.337	9656.99
655.688	9664.22
656.039	9660.38
656.391	9689.31
656.742	9672.13
657.094	9703.09
657.445	9720.72
657.796	9742.64
658.147	9693.6
658.498	9725.92
658.849	9708.29
659.2	9622.42
659.551	9714.17
659.902	9669.65
660.253	9744.9
660.604	9737.44
660.955	9710.78
661.306	9674.84
661.656	9746.26
662.007	9732.7
662.358	9680.27
662.708	9748.51
663.059	9764.79
663.409	9685.24
663.76	9724.56
664.11	9725.01
664.461	9792.81
664.811	9827.16
665.161	9780.6
665.511	9687.27
665.862	9722.98
666.212	9750.77
666.562	9766.37
666.912	9823.09
667.262	9721.17
667.612	9767.95
667.962	9756.88
668.312	9696.09
668.662	9803.88
669.011	9692.7
669.361	9699.25
669.711	9762.07
670.06	9744.67
670.41	9752.81
670.76	9722.07
671.109	9760.04
671.459	9675.97
671.808	9630.33
672.157	9768.63
672.507	9662.87
672.856	9568.41
673.205	9621.51
673.554	9729.53
673.904	9669.19
674.253	9620.38
674.602	9643.66
674.951	9564.56
675.3	9470.56
675.649	9649.99
675.998	9590.33
676.346	9593.04
676.695	9654.28
677.044	9571.57
677.393	9619.7
677.741	9574.73
678.09	9513.94
678.438	9523.89
678.787	9505.13
679.135	9524.11
679.484	9391.69
679.832	9443.21
680.181	9433.27
680.529	9433.72
680.877	9354.85
681.225	9392.37
681.573	9443.21
681.922	9405.92
682.27	9341.07
682.618	9419.94
682.966	9373.38
683.314	9387.17
683.661	9266.49
684.009	9313.5
684.357	9277.57
684.705	9263.56
685.053	9248.42
685.4	9225.36
685.748	9115.31
686.095	9190.11
686.443	9154.86
686.79	9120.28
687.138	9165.93
687.485	9080.28
687.832	9035.99
688.18	9069.89
688.527	9008.65
688.874	9012.26
689.221	8895.88
689.568	8952.83
689.915	8911.93
690.262	8956.22
690.609	8881.42
690.956	8867.86
691.303	8799.39
691.65	8803.45
691.997	8798.03
692.344	8723.01
692.69	8689.33
693.037	8702.21
693.383	8633.74
693.73	8607.08
694.077	8557.36
694.423	8621.99
694.769	8520.98
695.116	8497.7
695.462	8393.07
695.808	8458.15
696.155	8516.46
696.501	8331.6
696.847	8431.26
697.193	8295.45
697.539	8348.55
697.885	8265.16
698.231	8255.45
698.577	8225.39
698.923	8190.36
699.269	8144.04
699.614	8099.74
699.96	8090.03
700.306	8088.45
700.651	7974.78
700.997	8051.84
701.342	7988.79
701.688	7960.54
702.033	7944.95
702.379	7899.52
702.724	7899.3
703.069	7939.75
703.415	7826.98
703.76	7792.41
704.105	7786.76
704.45	7775.23
704.795	7773.2
705.14	7700.66
705.485	7665.41
705.83	7644.16
706.175	7652.75
706.52	7614.33
706.865	7581.79
707.209	7538.63
707.554	7586.54
707.899	7542.7
708.243	7504.96
708.588	7444.39
708.932	7487.78
709.277	7398.75
709.621	7455.69
709.966	7310.16
710.31	7400.1
710.654	7299.77
710.998	7303.83
711.342	7387.45
711.687	7267.68
712.031	7277.62
712.375	7233.33
712.719	7241.91
713.063	7246.21
713.407	7228.81
713.75	7175.25
714.094	7193.33
714.438	7161.24
714.782	7149.71
715.125	7145.19
715.469	7162.37
715.812	7072.43
716.156	7035.82
716.499	7098.19
716.843	7052.31
717.186	7037.85
717.53	7098.42
717.873	7097.51
718.216	7061.81
718.559	7049.15
718.902	6970.06
719.246	7017.97
719.589	6966.44
719.932	6884.64
720.275	6968.25
720.617	6918.31
720.96	6938.87
721.303	6886.22
721.646	6955.14
721.989	6947.68
722.331	6919.21
722.674	6849.16
723.016	6883.96
723.359	6887.8
723.701	6898.19
724.044	6888.7
724.386	6829.72
724.729	6859.1
725.071	6876.27
725.413	6862.94
725.755	6884.64
726.097	6773.9
726.439	6826.78
726.782	6835.37
727.124	6825.43
727.465	6824.07
727.807	6782.04
728.149	6739.78
728.491	6735.94
728.833	6803.96
729.175	6816.16
729.516	6784.52
729.858	6723.74
730.199	6792.66
730.541	6748.59
730.882	6782.27
731.224	6780.46
731.565	6765.54
731.906	6706.33
732.248	6718.99
732.589	6746.11
732.93	6740.23
733.271	6738.88
733.612	6814.81
733.953	6758.99
734.294	6751.31
734.635	6747.69
734.976	6766.67
735.317	6730.06
735.658	6761.47
735.999	6719.67
736.339	6718.99
736.68	6755.37
737.021	6709.95
737.361	6731.65
737.702	6730.52
738.042	6739.78
738.383	6763.73
738.723	6778.42
739.063	6802.15
739.404	6780.68
739.744	6823.62
740.084	6845.77
740.424	6827.24
740.764	6818.65
741.104	6888.25
741.444	6851.42
741.784	6856.39
742.124	6905.65
742.464	6906.33
742.804	6904.97
743.143	6903.39
743.483	6957.85
743.823	6963.5
744.162	6970.28
744.502	7009.6
744.841	7037.4
745.181	7112.43
745.52	7115.59
745.86	7119.21
746.199	7169.83
746.538	7191.52
746.877	7297.05
747.216	7339.31
747.556	7347.22
747.895	7396.26
748.234	7395.81
748.573	7420.67
748.911	7486.43
749.25	7603.03
749.589	7573.66
749.928	7698.4
750.267	7772.97
750.605	7805.74
750.944	7884.84
751.283	7930.26
751.621	8019.07
751.96	8117.37
752.298	8182
752.636	8237.14
752.975	8339.74
753.313	8419.51
753.651	8577.7
753.989	8587.19
754.327	8795.77
754.666	8834.87
755.004	8968.42
755.342	9119.38
755.679	9282.31
756.017	9296.1
756.355	9451.57
756.693	9575.86
757.031	9713.26
757.368	9810.66
757.706	9930.88
758.044	10049.52
758.381	10244.77
758.719	10369.29
759.056	10540.13
759.394	10678.66
759.731	10748.94
760.068	10924.08
760.405	11101.02
760.743	11273.45
761.08	11450.17
761.417	11498.98
