Data from hue_20_FLMS001491_57.txt Node
Date: Mon Feb 06 15:34:19 GMT 2017
User: dcchb
Spectrometer: FLMS00149
Trigger mode: 0
Integration Time (sec): 2.000000E-2
Scans to average: 10
Electric dark correction enabled: true
Nonlinearity correction enabled: false
Boxcar width: 0
XAxis mode: Wavelengths
Number of Pixels in Spectrum: 2048
>>>>>Begin Spectral Data<<<<<
341.393	-18.25
341.776	-18.25
342.16	-18.25
342.543	-56.44
342.927	-46.5
343.31	-62.77
343.693	-76.1
344.077	-58.7
344.46	-40.62
344.843	-50.79
345.226	-46.5
345.61	-40.17
345.993	-17.8
346.376	-11.69
346.759	9.77
347.142	33.95
347.525	45.93
347.908	36.67
348.291	52.03
348.674	109.88
349.057	116.89
349.44	147.4
349.823	124.8
350.206	144.91
350.588	207.96
350.971	226.04
351.354	218.58
351.737	249.32
352.119	245.02
352.502	278.69
352.884	279.15
353.267	279.15
353.65	298.58
354.032	315.75
354.414	312.59
354.797	318.47
355.179	327.28
355.562	329.99
355.944	325.92
356.326	342.65
356.709	323.89
357.091	328.64
357.473	344.91
357.855	337.45
358.238	361.4
358.62	350.56
359.002	365.92
359.384	370.89
359.766	327.51
360.148	337.22
360.53	331.12
360.912	345.13
361.294	348.3
361.676	361.18
362.057	328.41
362.439	323.44
362.821	339.26
363.203	336.54
363.584	340.84
363.966	341.74
364.348	331.35
364.729	325.25
365.111	316.43
365.493	334.74
365.874	321.18
366.256	307.17
366.637	314.62
367.019	306.94
367.4	327.51
367.781	308.07
368.163	327.51
368.544	332.25
368.925	292.25
369.306	319.37
369.688	329.99
370.069	314.62
370.45	315.75
370.831	310.78
371.212	322.76
371.593	320.27
371.974	296.55
372.355	338.58
372.736	317.34
373.117	336.32
373.498	313.49
373.879	322.76
374.26	320.27
374.641	309.2
375.021	334.51
375.402	323.66
375.783	334.28
376.163	322.76
376.544	330.9
376.925	322.76
377.305	325.7
377.686	334.28
378.066	321.63
378.447	326.38
378.827	361.4
379.208	333.61
379.588	336.54
379.968	334.74
380.349	340.39
380.729	352.36
381.109	350.33
381.489	354.62
381.87	348.07
382.25	345.58
382.63	343.1
383.01	344.91
383.39	356.88
383.77	352.14
384.15	351.69
384.53	364.11
384.91	344.23
385.29	362.08
385.67	350.78
386.049	348.07
386.429	377
386.809	356.66
387.189	364.57
387.568	372.48
387.948	352.14
388.328	358.24
388.707	360.95
389.087	369.99
389.466	389.2
389.846	384.68
390.225	369.76
390.605	381.06
390.984	382.42
391.363	379.03
391.743	365.47
392.122	374.51
392.501	369.09
392.881	385.36
393.26	377.9
393.639	376.32
394.018	409.54
394.397	376.09
394.776	389.42
395.155	379.48
395.534	394.17
395.913	396.2
396.292	404.34
396.671	392.14
397.05	395.98
397.429	407.73
397.808	408.18
398.186	406.83
398.565	419.93
398.944	416.09
399.323	427.39
399.701	395.98
400.08	407.73
400.458	412.25
400.837	416.09
401.215	426.49
401.594	434.85
401.972	409.31
402.351	395.07
402.729	438.24
403.107	431.01
403.486	437.11
403.864	422.42
404.242	431.46
404.62	432.36
404.999	418.12
405.377	431.68
405.755	442.08
406.133	449.31
406.511	446.82
406.889	448.18
407.267	458.8
407.645	441.63
408.023	446.82
408.401	460.61
408.779	456.54
409.156	451.57
409.534	456.54
409.912	454.96
410.29	466.26
410.667	489.99
411.045	460.16
411.422	473.94
411.8	480.27
412.178	472.13
412.555	477.11
412.933	504.45
413.31	508.52
413.687	506.71
414.065	466.03
414.442	484.79
414.819	506.71
415.197	499.48
415.574	516.88
415.951	507.61
416.328	516.43
416.705	544.9
417.082	538.57
417.46	521.62
417.837	550.78
418.214	526.14
418.591	528.4
418.967	547.61
419.344	536.09
419.721	561.62
420.098	554.62
420.475	536.09
420.852	566.6
421.228	563.66
421.605	568.63
421.982	562.3
422.358	577.44
422.735	573.6
423.111	558.01
423.488	571.11
423.864	584.22
424.241	577.44
424.617	607.5
424.994	591
425.37	582.19
425.746	590.32
426.123	594.62
426.499	612.02
426.875	602.75
427.251	623.99
427.627	622.64
428.003	632.81
428.379	660.83
428.756	633.94
429.132	634.39
429.507	642.98
429.883	642.53
430.259	649.53
430.635	674.84
431.011	664.67
431.387	671.68
431.763	684.56
432.138	688.4
432.514	665.12
432.89	698.34
433.265	705.8
433.641	680.72
434.016	727.95
434.392	718.91
434.767	730.66
435.143	721.85
435.518	741.96
435.894	758
436.269	744.44
436.644	774.27
437.02	777.66
437.395	767.04
437.77	772.01
438.145	761.84
438.52	774.73
438.895	775.63
439.271	789.87
439.646	819.7
440.021	823.09
440.395	792.8
440.77	800.94
441.145	831.22
441.52	840.71
441.895	842.52
442.27	839.36
442.645	854.95
443.019	862.41
443.394	849.3
443.769	861.73
444.143	865.12
444.518	883.88
444.892	863.76
445.267	865.12
445.641	879.81
446.016	874.84
446.39	866.25
446.764	900.6
447.139	901.05
447.513	906.93
447.887	910.32
448.262	899.24
448.636	910.77
449.01	912.57
449.384	906.02
449.758	945.79
450.132	948.05
450.506	944.44
450.88	944.21
451.254	939.01
451.628	956.19
452.002	976.98
452.376	978.79
452.75	983.99
453.123	991.22
453.497	1011.78
453.871	1000.48
454.244	1000.26
454.618	1027.37
454.992	1053.81
455.365	1023.08
455.739	1028.05
456.112	1075.28
456.486	1099.01
456.859	1103.76
457.232	1080.03
457.606	1105.79
457.979	1114.15
458.352	1140.37
458.725	1148.27
459.099	1172.91
459.472	1171.33
459.845	1197.09
460.218	1169.74
460.591	1202.96
460.964	1210.87
461.337	1232.11
461.71	1220.14
462.083	1265.56
462.456	1277.54
462.829	1282.28
463.201	1282.51
463.574	1314.37
463.947	1331.09
464.32	1358.66
464.692	1357.53
465.065	1361.83
465.438	1360.92
465.81	1400.02
466.183	1421.71
466.555	1416.52
466.928	1425.33
467.3	1438.44
467.672	1463.97
468.045	1500.36
468.417	1497.19
468.789	1508.94
469.161	1550.3
469.534	1580.35
469.906	1552.78
470.278	1591.65
470.65	1624.42
471.022	1609.05
471.394	1673.68
471.766	1706.23
472.138	1694.25
472.51	1753.68
472.882	1774.93
473.253	1779.22
473.625	1852.89
473.997	1866
474.369	1883.4
474.74	1879.56
475.112	1911.19
475.484	1949.61
475.855	2001.13
476.227	2005.65
476.598	2041.36
476.97	2069.15
477.341	2135.14
477.713	2145.76
478.084	2194.12
478.455	2228.25
478.827	2230.96
479.198	2329.03
479.569	2320
479.94	2390.28
480.311	2459.2
480.682	2439.99
481.053	2560.22
481.424	2549.37
481.795	2575.81
482.166	2646.31
482.537	2676.6
482.908	2759.08
483.279	2785.75
483.65	2816.25
484.021	2902.35
484.391	2930.83
484.762	2979.19
485.133	2964.5
485.503	3023.25
485.874	3096.25
486.244	3147.54
486.615	3197.94
486.985	3231.16
487.356	3287.2
487.726	3323.58
488.097	3398.39
488.467	3446.07
488.837	3489.68
489.207	3561.77
489.578	3593.63
489.948	3601.77
490.318	3726.06
490.688	3689
491.058	3766.29
491.428	3831.37
491.798	3862.33
492.168	3974.42
492.538	3944.13
492.908	3998.14
493.278	4056.45
493.648	4101.64
494.017	4148.42
494.387	4164.69
494.757	4236.33
495.126	4215.54
495.496	4244.24
495.866	4330.11
496.235	4373.95
496.605	4378.25
496.974	4426.15
497.344	4479.49
497.713	4473.61
498.082	4545.7
498.452	4540.95
498.821	4636.54
499.19	4651.01
499.559	4700.27
499.928	4711.8
500.298	4729.88
500.667	4778.24
501.036	4796.77
501.405	4825.24
501.774	4863.21
502.143	4893.49
502.512	4920.61
502.88	4999.02
503.249	4994.73
503.618	5064.1
503.987	5056.19
504.356	5039.02
504.724	5066.59
505.093	5130.32
505.462	5131.22
505.83	5131
506.199	5205.8
506.567	5272.46
506.936	5261.84
507.304	5311.78
507.672	5396.52
508.041	5336.41
508.409	5410.99
508.777	5439.91
509.145	5498.89
509.514	5483.98
509.882	5508.84
510.25	5543.64
510.618	5563.53
510.986	5581.83
511.354	5617.31
511.722	5614.37
512.09	5734.59
512.458	5749.74
512.826	5731.43
513.193	5755.61
513.561	5754.26
513.929	5791.09
514.297	5875.83
514.664	5910.86
515.032	5935.72
515.4	5950.63
515.767	5970.07
516.135	5973.01
516.502	5980.01
516.869	6023.63
517.237	6088.94
517.604	6074.93
517.972	6139.1
518.339	6192.66
518.706	6133
519.073	6229.95
519.44	6233.79
519.808	6288.7
520.175	6291.64
520.542	6419.55
520.909	6423.16
521.276	6342.94
521.643	6387.01
522.009	6514.46
522.376	6491.86
522.743	6521.92
523.11	6603.05
523.477	6631.29
523.843	6683.5
524.21	6712.65
524.577	6755.36
524.943	6785.87
525.31	6781.8
525.676	6854.79
526.043	6855.02
526.409	6884.85
526.776	7006.88
527.142	6998.97
527.508	7079.42
527.874	7116.25
528.241	7130.72
528.607	7166.2
528.973	7230.15
529.339	7238.74
529.705	7257.04
530.071	7340.2
530.437	7363.93
530.803	7458.84
531.169	7450.93
531.535	7451.16
531.901	7445.74
532.267	7489.13
532.632	7579.07
532.998	7568.22
533.364	7619.07
533.73	7649.8
534.095	7729.8
534.461	7767.76
534.826	7805.95
535.192	7801.43
535.557	7811.38
535.923	7898.83
536.288	7932.05
536.653	7971.15
537.019	7966.17
537.384	7988.32
537.749	8049.79
538.114	8098.37
538.479	8048.88
538.845	8161.2
539.21	8109
539.575	8140.63
539.94	8186.28
540.305	8232.16
540.67	8250.91
541.034	8275.77
541.399	8346.5
541.764	8440.06
542.129	8411.59
542.494	8482.32
542.858	8467.18
543.223	8555.31
543.587	8490.23
543.952	8547.63
544.316	8615.2
544.681	8566.16
545.045	8612.94
545.41	8701.75
545.774	8647.29
546.138	8711.69
546.503	8741.3
546.867	8738.81
547.231	8863.1
547.595	8866.49
547.959	8932.25
548.324	8909.2
548.688	8984.9
549.052	8999.82
549.416	9008.86
549.779	9087.73
550.143	9069.2
550.507	9116.65
550.871	9163.43
551.235	9145.35
551.599	9232.81
551.962	9215.41
552.326	9296.08
552.689	9359.58
553.053	9226.03
553.417	9292.47
553.78	9448.4
554.143	9376.08
554.507	9474.16
554.87	9486.36
555.234	9572.46
555.597	9488.39
555.96	9565.68
556.323	9581.95
556.686	9673.25
557.05	9664.44
557.413	9695.17
557.776	9685.23
558.139	9770.2
558.502	9803.64
558.865	9816.75
559.228	9907.14
559.59	9901.04
559.953	9928.61
560.316	10011.09
560.679	10008.83
561.041	10101.94
561.404	10104.42
561.767	10159.34
562.129	10146.46
562.492	10307.36
562.854	10236.4
563.217	10288.6
563.579	10334.7
563.941	10364.98
564.304	10351.65
564.666	10471.42
565.028	10499.22
565.39	10493.79
565.753	10576.95
566.115	10583.51
566.477	10677.06
566.839	10700.57
567.201	10693.33
567.563	10670.96
567.925	10775.82
568.287	10827.57
568.648	10825.53
569.01	10898.3
569.372	11014
569.734	10967.68
570.095	10993.67
570.457	11096.04
570.819	11149.59
571.18	11067.79
571.542	11237.28
571.903	11266.2
572.265	11351.62
572.626	11339.87
572.987	11406.99
573.349	11456.93
573.71	11489.92
574.071	11599.75
574.432	11650.37
574.794	11787.32
575.155	11736.47
575.516	11783.25
575.877	11879.07
576.238	11933.08
576.599	11924.04
576.96	12025.28
577.32	12027.76
577.681	12234.76
578.042	12310.02
578.403	12342.33
578.763	12377.58
579.124	12477.69
579.485	12618.03
579.845	12710.46
580.206	12859.61
580.566	12811.25
580.927	12950.22
581.287	12992.03
581.648	13199.03
582.008	13361.97
582.368	13511.34
582.728	13602.64
583.089	13693.26
583.449	13891.44
583.809	13999.46
584.169	14143.64
584.529	14300.25
584.889	14566.45
585.249	14609.84
585.609	14712.89
585.969	15033.11
586.329	15133.9
586.688	15370.27
587.048	15617.05
587.408	15703.82
587.768	16051.16
588.127	16201.44
588.487	16324.15
588.846	16754.87
589.206	16757.81
589.565	17069.21
589.925	17375.19
590.284	17616.09
590.643	17786.03
591.003	18192.35
591.362	18357.77
591.721	18581.04
592.08	18894.02
592.44	19228.93
592.799	19413.33
593.158	19637.96
593.517	19878.63
593.876	20303.7
594.235	20418.5
594.593	20754.77
594.952	21114.3
595.311	21314.98
595.67	21582.77
596.029	22041.28
596.387	22348.4
596.746	22491.89
597.104	22750.87
597.463	23145.21
597.822	23480.57
598.18	23795.81
598.538	23976.15
598.897	24415.01
599.255	24480.09
599.613	25083.01
599.972	25262.22
600.33	25669.44
600.688	25848.42
601.046	26111.23
601.404	26520.49
601.762	26740.82
602.12	27166.12
602.478	27368.38
602.836	27649.95
603.194	27755.71
603.552	28174
603.91	28302.36
604.268	28721.56
604.625	28868.45
604.983	29334.65
605.341	29217.14
605.698	29875.88
606.056	30103.9
606.413	30223.44
606.771	30545.69
607.128	30861.39
607.485	30934.61
607.843	31248.95
608.2	31557.19
608.557	31958.54
608.914	32053
609.272	32445.53
609.629	32613.44
609.986	32981.11
610.343	32946.76
610.7	33456.35
611.057	33576.12
611.414	33629.45
611.771	33992.38
612.127	34210.91
612.484	34404.12
612.841	34781.29
613.198	34657.22
613.554	34887.95
613.911	35242.29
614.267	35457.66
614.624	35479.58
614.98	35734.48
615.337	36011.76
615.693	36190.52
616.05	36275.71
616.406	36512.09
616.762	36609.94
617.118	36715.48
617.475	36980.55
617.831	37114.11
618.187	37327.21
618.543	37503.93
618.899	37843.58
619.255	37787.54
619.611	37886.29
619.967	38030.69
620.323	38213.51
620.678	38315.89
621.034	38360.18
621.39	38415.32
621.746	38569.21
622.101	39085.36
622.457	38925.36
622.812	38976.88
623.168	39146.37
623.523	39192.47
623.879	39547.04
624.234	39260.27
624.589	39621.84
624.945	39490.77
625.3	39878.33
625.655	39685.79
626.01	39905.45
626.365	39849.63
626.72	39959.91
627.075	39995.39
627.43	40167.81
627.785	40157.42
628.14	40189.73
628.495	40262.95
628.85	40455.72
629.205	40413.46
629.559	40529.16
629.914	40504.75
630.269	40689.61
630.623	40490.07
630.978	40497.3
631.332	40691.19
631.687	40759.66
632.041	40691.64
632.396	40909.04
632.75	40723.51
633.104	40869.04
633.459	40728.93
633.813	40739.78
634.167	40653.9
634.521	40665.65
634.875	40843.05
635.229	40782.04
635.583	40579.1
635.937	40795.14
636.291	40757.4
636.645	40814.58
636.999	40627.91
637.352	40916.72
637.706	40585.2
638.06	40818.64
638.413	40744.3
638.767	40649.84
639.121	40711.3
639.474	40549.5
639.828	40540.69
640.181	40594.02
640.534	40696.16
640.888	40681.92
641.241	40463.63
641.594	40524.87
641.947	40762.6
642.301	40467.02
642.654	40639.89
643.007	40526
643.36	40696.39
643.713	40531.65
644.066	40678.31
644.419	40556.96
644.771	40337.75
645.124	39937.54
645.477	39897.31
645.83	39650.77
646.182	39468.85
646.535	39386.82
646.888	39546.59
647.24	39288.74
647.593	39653.7
647.945	39466.14
648.298	39308.85
648.65	39167.84
649.002	39176.88
649.355	39370.55
649.707	39247.84
650.059	39392.47
650.411	39850.76
650.763	39797.43
651.115	40306.79
651.467	40229.51
651.819	40180.92
652.171	40061.83
652.523	40166.46
652.875	40079.68
653.227	39827.26
653.578	40206.68
653.93	40046.24
654.282	39932.57
654.633	39806.47
654.985	39923.07
655.337	39912.68
655.688	39851.89
656.039	40122.84
656.391	39746.58
656.742	39901.15
657.094	39884.66
657.445	39990.64
657.796	39848.27
658.147	39719.24
658.498	39717.2
658.849	39918.33
659.2	39722.63
659.551	39618
659.902	39876.3
660.253	39692.12
660.604	39830.65
660.955	39597.43
661.306	39840.59
661.656	39688.73
662.007	39717.2
662.358	39738.67
662.708	39711.55
663.059	39656.19
663.409	39522.18
663.76	39809.86
664.11	39563.76
664.461	39666.58
664.811	39855.96
665.161	39655.74
665.511	39617.32
665.862	39665.68
666.212	39770.08
666.562	39779.12
666.912	39599.92
667.262	39619.81
667.612	39638.56
667.962	39698.45
668.312	39610.31
668.662	39623.65
669.011	39514.95
669.361	39474.95
669.711	39452.35
670.06	39455.74
670.41	39535.74
670.76	39399.92
671.109	39489.41
671.459	39456.65
671.808	39510.43
672.157	39616.19
672.507	39295.07
672.856	39233.83
673.205	39407.61
673.554	39503.42
673.904	39158.12
674.253	39404.9
674.602	39316.08
674.951	38916.55
675.3	38527.63
675.649	39179.82
675.998	39178.01
676.346	39244.45
676.695	39280.15
677.044	38967.17
677.393	39114.28
677.741	39246.71
678.09	39081.51
678.438	38929.43
678.787	39039.48
679.135	39005.81
679.484	38731.69
679.832	38977.11
680.181	38751.58
680.529	38872.48
680.877	38782.77
681.225	38690.34
681.573	38930.11
681.922	38637.01
682.27	38433.4
682.618	38418.48
682.966	38278.6
683.314	38466.84
683.661	38299.16
684.009	38118.15
684.357	38128.55
684.705	38032.95
685.053	38088.32
685.4	38134.87
685.748	37843.81
686.095	37810.81
686.443	37696.24
686.79	37694.43
687.138	37867.54
687.485	37766.07
687.832	37562.01
688.18	37662.34
688.527	37462.35
688.874	37453.08
689.221	37341.9
689.568	37325.63
689.915	37300.77
690.262	37136.03
690.609	37061.45
690.956	37000.89
691.303	36924.96
691.65	36742.37
691.997	36612.43
692.344	36618.08
692.69	36564.29
693.037	36607.68
693.383	36270.29
693.73	36294.02
694.077	36151.42
694.423	36201.59
694.769	36022.61
695.116	35973.35
695.462	36040.01
695.808	35848.38
696.155	35807.7
696.501	35561.83
696.847	35541.49
697.193	35365
697.539	35432.57
697.885	35253.82
698.231	35167.49
698.577	35085.69
698.923	35065.58
699.269	34876.65
699.614	34850.67
699.96	34657.9
700.306	34665.13
700.651	34676.21
700.997	34426.27
701.342	34379.49
701.688	34395.08
702.033	34300.85
702.379	34267.63
702.724	34062.21
703.069	34120.74
703.415	33786.74
703.76	33910.58
704.105	33787.87
704.45	33711.94
704.795	33478.5
705.14	33505.84
705.485	33348.33
705.83	33203.93
706.175	33300.42
706.52	33255.68
706.865	33100.2
707.209	33179.07
707.554	33049.36
707.899	32985.63
708.243	32860.89
708.588	32895.91
708.932	32671.06
709.277	32507.9
709.621	32481.01
709.966	32450.73
710.31	32465.64
710.654	32091.87
710.998	32187.91
711.342	32290.28
711.687	32318.75
712.031	31948.14
712.375	31696.62
712.719	31902.72
713.063	31886.22
713.407	31908.37
713.75	31753.35
714.094	31690.3
714.438	31458.66
714.782	31677.42
715.125	31458.66
715.469	31540.92
715.812	31321.49
716.156	31317.2
716.499	31204.89
716.843	31372.56
717.186	31000.6
717.53	31240.37
717.873	31177.09
718.216	31171.44
718.559	31057.32
718.902	30809.42
719.246	30877.21
719.589	30664.56
719.932	30605.81
720.275	30630.21
720.617	30584.79
720.96	30544.79
721.303	30481.06
721.646	30571.46
721.989	30310.45
722.331	30345.7
722.674	30285.81
723.016	30220.05
723.359	30204.46
723.701	30253.5
724.044	29962.66
724.386	29899.61
724.729	30100.96
725.071	29958.14
725.413	30062.09
725.755	29834.98
726.097	29689.9
726.439	29679.28
726.782	29613.06
727.124	29740.97
727.465	29557.7
727.807	29484.03
728.149	29460.07
728.491	29475.21
728.833	29469.79
729.175	29335.78
729.516	29286.97
729.858	29223.24
730.199	29284.94
730.541	29396.57
730.882	29194.32
731.224	29204.71
731.565	29003.59
731.906	29112.51
732.248	29013.53
732.589	28960.42
732.93	28918.17
733.271	28718.85
733.612	28919.07
733.953	28911.61
734.294	28759.75
734.635	28633.65
734.976	28704.16
735.317	28638.4
735.658	28557.05
735.999	28546.65
736.339	28507.78
736.68	28588.01
737.021	28432.76
737.361	28416.94
737.702	28531.28
738.042	28332.42
738.383	28301.46
738.723	28493.77
739.063	28104.63
739.404	28246.32
739.744	28207.9
740.084	28194.57
740.424	28067.34
740.764	28075.48
741.104	28223.04
741.444	27948.25
741.784	27836.61
742.124	28018.75
742.464	27893.33
742.804	27697.41
743.143	27806.78
743.483	27745.32
743.823	27537.19
744.162	27732.66
744.502	27716.16
744.841	27527.24
745.181	27703.28
745.52	27545.77
745.86	27530.18
746.199	27469.84
746.538	27429.62
746.877	27507.81
747.216	27421.26
747.556	27353.69
747.895	27289.51
748.234	27254.26
748.573	27186.46
748.911	27073.69
749.25	27202.05
749.589	26936.52
749.928	27046.13
750.267	27055.84
750.605	26960.48
750.944	26888.84
751.283	26790.31
751.621	26782.86
751.96	26720.26
752.298	26719.58
752.636	26814.04
752.975	26625.12
753.313	26485.69
753.651	26672.8
753.989	26488.63
754.327	26434.16
754.666	26211.8
755.004	26343.09
755.342	26408.63
755.679	26238.01
756.017	26149.65
756.355	26265.58
756.693	26082.99
757.031	26129.31
757.368	26058.81
757.706	25970.9
758.044	26006.38
758.381	25820.17
758.719	25788.76
759.056	25823.33
759.394	25699.95
759.731	25487.3
