Data from hue_140_FLMS001491_00044.txt Node
Date: Tue Feb 07 16:55:58 GMT 2017
User: dcchb
Spectrometer: FLMS00149
Trigger mode: 0
Integration Time (sec): 2.000000E-2
Scans to average: 10
Electric dark correction enabled: true
Nonlinearity correction enabled: false
Boxcar width: 0
XAxis mode: Wavelengths
Number of Pixels in Spectrum: 2048
>>>>>Begin Spectral Data<<<<<
341.393	-5.66
341.776	-5.66
342.16	-5.66
342.543	-82.72
342.927	-65.78
343.31	-68.49
343.693	-67.58
344.077	-61.26
344.46	-78.88
344.843	-63.74
345.226	-34.36
345.61	-24.19
345.993	-7.25
346.376	-19.45
346.759	20.1
347.142	21
347.525	41.34
347.908	65.07
348.291	75.92
348.674	91.73
349.057	110.04
349.44	114.11
349.823	126.31
350.206	164.73
350.588	186.2
350.971	216.93
351.354	226.87
351.737	242.69
352.119	242.24
352.502	267.78
352.884	275.01
353.267	277.49
353.65	284.27
354.032	298.96
354.414	308.9
354.797	312.97
355.179	305.29
355.562	323.14
355.944	315.01
356.326	331.73
356.709	341.67
357.091	357.04
357.473	339.41
357.855	338.96
358.238	348.9
358.62	341.9
359.002	349.81
359.384	342.58
359.766	341.67
360.148	344.61
360.53	327.43
360.912	336.25
361.294	316.81
361.676	316.59
362.057	308.68
362.439	318.85
362.821	322.24
363.203	304.61
363.584	320.2
363.966	312.29
364.348	347.55
364.729	316.81
365.111	321.56
365.493	343.25
365.874	319.3
366.256	306.64
366.637	318.85
367.019	297.83
367.4	288.57
367.781	308.9
368.163	327.21
368.544	322.69
368.925	314.1
369.306	330.15
369.688	305.51
370.069	318.4
370.45	329.69
370.831	310.03
371.212	312.29
371.593	320.66
371.974	290.83
372.355	311.62
372.736	288.57
373.117	318.62
373.498	334.44
373.879	323.59
374.26	322.69
374.641	320.2
375.021	303.48
375.402	316.36
375.783	310.71
376.163	326.53
376.544	338.28
376.925	313.65
377.305	319.98
377.686	303.25
378.066	325.63
378.447	327.66
378.827	329.24
379.208	320.2
379.588	329.47
379.968	327.43
380.349	326.3
380.729	332.63
381.109	349.58
381.489	334.89
381.87	352.52
382.25	336.7
382.63	340.54
383.01	333.99
383.39	336.7
383.77	333.76
384.15	333.31
384.53	335.12
384.91	342.58
385.29	349.81
385.67	338.06
386.049	337.6
386.429	362.91
386.809	343.25
387.189	350.71
387.568	346.42
387.948	357.72
388.328	359.52
388.707	351.62
389.087	374.44
389.466	374.44
389.846	349.58
390.225	363.14
390.605	361.56
390.984	392.29
391.363	361.78
391.743	385.74
392.122	350.49
392.501	393.65
392.881	353.87
393.26	347.1
393.639	376.93
394.018	371.5
394.397	376.7
394.776	362.24
395.155	379.64
395.534	374.44
395.913	373.31
396.292	387.55
396.671	380.54
397.05	387.32
397.429	391.16
397.808	378.96
398.186	380.09
398.565	392.07
398.944	397.26
399.323	403.14
399.701	395.23
400.08	373.76
400.458	392.29
400.837	399.98
401.215	411.27
401.594	397.72
401.972	391.61
402.351	392.52
402.729	410.37
403.107	404.04
403.486	419.18
403.864	417.38
404.242	432.06
404.62	419.86
404.999	424.83
405.377	435.45
405.755	426.42
406.133	428.45
406.511	415.12
406.889	444.95
407.267	423.03
407.645	445.4
408.023	422.35
408.401	452.63
408.779	450.37
409.156	438.84
409.534	434.55
409.912	441.78
410.29	448.34
410.667	475.91
411.045	455.79
411.422	450.14
411.8	449.92
412.178	470.93
412.555	474.78
412.933	493.08
413.31	454.66
413.687	452.86
414.065	482.23
414.442	486.53
414.819	496.92
415.197	493.31
415.574	489.24
415.951	471.16
416.328	478.84
416.705	487.2
417.082	503.7
417.46	497.15
417.837	505.06
418.214	508.22
418.591	497.37
418.967	522.46
419.344	516.81
419.721	516.36
420.098	518.84
420.475	519.75
420.852	522.91
421.228	524.72
421.605	506.41
421.982	530.14
422.358	576.92
422.735	545.06
423.111	535.11
423.488	558.62
423.864	543.02
424.241	556.58
424.617	546.19
424.994	534.66
425.37	566.52
425.746	574.89
426.123	555.45
426.499	572.85
426.875	570.82
427.251	573.98
427.627	593.19
428.003	579.63
428.379	610.82
428.756	608.33
429.132	587.99
429.507	623.47
429.883	595.68
430.259	613.08
430.635	615.11
431.011	627.77
431.387	623.92
431.763	631.38
432.138	636.81
432.514	658.05
432.89	651.27
433.265	678.39
433.641	667.76
434.016	663.47
434.392	680.87
434.767	648.33
435.143	689.46
435.518	687.2
435.894	695.79
436.269	707.31
436.644	720.87
437.02	733.98
437.395	722.68
437.77	716.58
438.145	713.87
438.52	718.61
438.895	751.15
439.271	749.57
439.646	750.47
440.021	760.87
440.395	761.32
440.77	743.47
441.145	792.96
441.52	777.59
441.895	764.26
442.27	780.76
442.645	778.72
443.019	797.03
443.394	790.02
443.769	794.77
444.143	804.26
444.518	802.22
444.892	803.58
445.267	814.88
445.641	827.31
446.016	802.68
446.39	835.67
446.764	836.35
447.139	825.73
447.513	858.95
447.887	818.5
448.262	819.85
448.636	852.62
449.01	861.88
449.384	872.96
449.758	877.48
450.132	885.16
450.506	878.83
450.88	898.95
451.254	893.97
451.628	917.02
452.002	890.81
452.376	938.04
452.75	954.31
453.123	905.72
453.497	929.68
453.871	946.85
454.244	940.3
454.618	972.84
454.992	970.13
455.365	966.97
455.739	993.86
456.112	990.24
456.486	1018.94
456.859	1047.87
457.232	1041.99
457.606	1032.73
457.979	1062.78
458.352	1061.2
458.725	1086.28
459.099	1096
459.472	1131.26
459.845	1129
460.218	1121.09
460.591	1153.85
460.964	1150.69
461.337	1169.9
461.71	1197.69
462.083	1216.68
462.456	1193.63
462.829	1220.29
463.201	1229.78
463.574	1249.9
463.947	1265.94
464.32	1266.85
464.692	1302.32
465.065	1322.89
465.438	1332.83
465.81	1350.91
466.183	1361.98
466.555	1413.28
466.928	1393.4
467.3	1442.66
467.672	1441.53
468.045	1461.64
468.417	1488.76
468.789	1510.68
469.161	1492.15
469.534	1541.87
469.906	1567.63
470.278	1594.75
470.65	1614.86
471.022	1663.44
471.394	1696.89
471.766	1701.18
472.138	1710.9
472.51	1816.21
472.882	1849.2
473.253	1865.02
473.625	1917.9
473.997	1968.75
474.369	1971.01
474.74	2008.29
475.112	2027.28
475.484	2109.76
475.855	2167.61
476.227	2200.83
476.598	2246.03
476.97	2275.41
477.341	2355.18
477.713	2411.22
478.084	2440.37
478.455	2532.57
478.827	2594.72
479.198	2662.74
479.569	2702.97
479.94	2822.74
480.311	2872.9
480.682	2947.03
481.053	3067.48
481.424	3131.88
481.795	3217.3
482.166	3294.36
482.537	3375.72
482.908	3469.5
483.279	3539.33
483.65	3677.4
484.021	3736.84
484.391	3851.41
484.762	3940.67
485.133	4012.08
485.503	4134.57
485.874	4246.2
486.244	4364.39
486.615	4471.73
486.985	4551.5
487.356	4706.98
487.726	4791.95
488.097	4977.48
488.467	5032.4
488.837	5183.35
489.207	5330.92
489.578	5400.3
489.948	5520.97
490.318	5676.45
490.688	5756.22
491.058	5890.23
491.428	6057.91
491.798	6147.17
492.168	6291.8
492.538	6461.28
492.908	6562.98
493.278	6686.59
493.648	6812.01
494.017	6907.6
494.387	7025.79
494.757	7186.92
495.126	7282.51
495.496	7371.77
495.866	7473.69
496.235	7681.59
496.605	7768.6
496.974	7924.98
497.344	7980.12
497.713	8156.83
498.082	8231.86
498.452	8350.05
498.821	8462.14
499.19	8561.79
499.559	8634.11
499.928	8686.54
500.298	8885.18
500.667	8878.4
501.036	8988.9
501.405	9131.05
501.774	9213.53
502.143	9286.97
502.512	9339.85
502.88	9457.82
503.249	9556.8
503.618	9627.3
503.987	9721.76
504.356	9702.1
504.724	9870.23
505.093	9943.23
505.462	10028.2
505.83	10109.32
506.199	10150.91
506.567	10297.57
506.936	10282.2
507.304	10437.9
507.672	10432.25
508.041	10576.88
508.409	10636.09
508.777	10690.78
509.145	10781.4
509.514	10798.57
509.882	10972.8
510.25	10857.1
510.618	10954.95
510.986	10988.17
511.354	11135.74
511.722	11179.13
512.09	11230.2
512.458	11179.8
512.826	11347.03
513.193	11330.08
513.561	11363.3
513.929	11504.54
514.297	11526.91
514.664	11523.07
515.032	11535.95
515.4	11657.76
515.767	11597.65
516.135	11747.7
516.502	11672.45
516.869	11791.99
517.237	11850.07
517.604	11769.62
517.972	11890.52
518.339	11898.88
518.706	11905.89
519.073	11899.56
519.44	12009.16
519.808	12086.22
520.175	11986.56
520.542	12188.14
520.909	12243.28
521.276	12221.36
521.643	12235.82
522.009	12296.16
522.376	12264.07
522.743	12258.65
523.11	12394.69
523.477	12446.66
523.843	12417.06
524.21	12444.86
524.577	12579.09
524.943	12502.93
525.31	12562.82
525.676	12610.5
526.043	12640.78
526.409	12571.63
526.776	12786.09
527.142	12679.65
527.508	12765.07
527.874	12770.05
528.241	12835.81
528.607	12741.12
528.973	12791.06
529.339	12743.61
529.705	12790.61
530.071	12844.17
530.437	12866.09
530.803	12884.17
531.169	12858.63
531.535	12877.16
531.901	12849.82
532.267	12809.82
532.632	12822.47
532.998	12774.57
533.364	12791.29
533.73	12756.71
534.095	12798.07
534.461	12845.3
534.826	12826.77
535.192	12741.57
535.557	12817.5
535.923	12737.73
536.288	12780.21
536.653	12833.77
537.019	12688.01
537.384	12634.46
537.749	12717.39
538.114	12610.73
538.479	12595.13
538.845	12564.4
539.21	12520.11
539.575	12540.67
539.94	12475.82
540.305	12527.34
540.67	12541.8
541.034	12478.3
541.399	12439.21
541.764	12394.24
542.129	12360.11
542.494	12416.38
542.858	12316.72
543.223	12298.65
543.587	12310.17
543.952	12215.48
544.316	12234.24
544.681	12127.35
545.045	12227.23
545.41	12107.69
545.774	12121.25
546.138	12075.37
546.503	12066.34
546.867	11994.25
547.231	12113.57
547.595	11926.45
547.959	11914.02
548.324	11897.75
548.688	11895.27
549.052	11817.08
549.416	11796.06
549.779	11781.82
550.143	11763.74
550.507	11771.43
550.871	11767.81
551.235	11736.4
551.599	11766.23
551.962	11723.75
552.326	11626.8
552.689	11719
553.053	11641.04
553.417	11555.61
553.78	11673.8
554.143	11568.72
554.507	11586.57
554.87	11552.45
555.234	11558.1
555.597	11417.54
555.96	11453.7
556.323	11480.36
556.686	11439.91
557.05	11452.79
557.413	11479.23
557.776	11472
558.139	11481.94
558.502	11459.57
558.865	11394.26
559.228	11557.2
559.59	11456.86
559.953	11413.47
560.316	11599.68
560.679	11473.13
561.041	11413.25
561.404	11492.11
561.767	11532.56
562.129	11459.35
562.492	11512.45
562.854	11516.97
563.217	11469.06
563.579	11473.36
563.941	11510.64
564.304	11546.12
564.666	11588.38
565.028	11549.29
565.39	11498.44
565.753	11547.93
566.115	11666.12
566.477	11681.94
566.839	11679.45
567.201	11632.22
567.563	11671.32
567.925	11646.69
568.287	11744.08
568.648	11674.48
569.01	11695.5
569.372	11708.83
569.734	11797.64
570.095	11718.32
570.457	11785.21
570.819	11692.79
571.18	11777.76
571.542	11807.59
571.903	11804.2
572.265	11808.04
572.626	11860.92
572.987	11811.2
573.349	11807.59
573.71	11809.39
574.071	11808.49
574.432	11881.03
574.794	11980.46
575.155	11913.57
575.516	11882.16
575.877	11896.62
576.238	11950.41
576.599	11940.24
576.96	11865.21
577.32	11926.23
577.681	11931.42
578.042	11968.48
578.403	11907.24
578.763	11935.27
579.124	11980.69
579.485	11995.6
579.845	11969.84
580.206	11973.23
580.566	11929.84
580.927	12003.74
581.287	12006.22
581.648	11988.15
582.008	12008.48
582.368	11923.29
582.728	11988.37
583.089	11900.24
583.449	11965.77
583.809	11969.39
584.169	11923.74
584.529	11935.94
584.889	12067.47
585.249	11917.41
585.609	11800.35
585.969	11922.84
586.329	11917.19
586.688	11895.72
587.048	11908.15
587.408	11798.09
587.768	11831.09
588.127	11788.6
588.487	11760.58
588.846	11860.24
589.206	11843.97
589.565	11832.67
589.925	11857.75
590.284	11797.19
590.643	11742.95
591.003	11813.46
591.362	11822.27
591.721	11787.02
592.08	11791.54
592.44	11846.23
592.799	11805.55
593.158	11777.53
593.517	11792.44
593.876	11787.47
594.235	11725.78
594.593	11731.43
594.952	11737.98
595.311	11761.94
595.67	11789.73
596.029	11852.33
596.387	11829.96
596.746	11825.66
597.104	11757.42
597.463	11745.21
597.822	11758.77
598.18	11716.29
598.538	11717.64
598.897	11791.54
599.255	11593.81
599.613	11808.94
599.972	11665.67
600.33	11740.02
600.688	11733.24
601.046	11779.79
601.404	11720.58
601.762	11717.87
602.12	11741.15
602.478	11716.97
602.836	11803.52
603.194	11667.25
603.552	11711.09
603.91	11712.9
604.268	11727.14
604.625	11740.24
604.983	11784.76
605.341	11630.41
605.698	11809.62
606.056	11727.36
606.413	11775.72
606.771	11820.69
607.128	11812.33
607.485	11695.72
607.843	11738.89
608.2	11799
608.557	11803.07
608.914	11773.69
609.272	11855.27
609.629	11946.11
609.986	11944.98
610.343	11855.72
610.7	11915.6
611.057	11942.72
611.414	11853.01
611.771	11859.11
612.127	11948.6
612.484	11901.14
612.841	12013.91
613.198	11962.38
613.554	11885.78
613.911	11962.38
614.267	11954.02
614.624	11938.66
614.98	12000.35
615.337	11973.23
615.693	12045.54
616.05	11941.37
616.406	12019.56
616.762	11983.17
617.118	11977.98
617.475	12005.55
617.831	11994.92
618.187	12083.51
618.543	12030.4
618.899	12099.33
619.255	12088.03
619.611	12036.05
619.967	12136.84
620.323	12189.04
620.678	12072.89
621.034	12114.92
621.39	12064.53
621.746	12136.84
622.101	12191.3
622.457	12107.92
622.812	12128.25
623.168	12148.82
623.523	12114.92
623.879	12206.67
624.234	12002.83
624.589	12104.3
624.945	12137.75
625.3	12188.82
625.655	12112.89
626.01	12087.8
626.365	12157.18
626.72	12057.3
627.075	12077.63
627.43	12014.59
627.785	12106.11
628.14	12132.1
628.495	12119.44
628.85	12087.35
629.205	12052.55
629.559	12198.54
629.914	12045.09
630.269	12080.8
630.623	12088.48
630.978	11978.2
631.332	11982.95
631.687	12034.02
632.041	11945.21
632.396	12005.09
632.75	11987.47
633.104	12003.74
633.459	11949.73
633.813	11949.95
634.167	11931.65
634.521	11976.85
634.875	11898.43
635.229	11877.19
635.583	11813.23
635.937	11930.07
636.291	11831.77
636.645	11790.86
636.999	11784.31
637.352	11816.4
637.706	11829.73
638.06	11810.3
638.413	11794.48
638.767	11764.87
639.121	11715.84
639.474	11737.98
639.828	11764.87
640.181	11789.28
640.534	11693.92
640.888	11701.83
641.241	11635.39
641.594	11641.04
641.947	11577.99
642.301	11644.65
642.654	11671.32
643.007	11654.82
643.36	11645.1
643.713	11618.89
644.066	11672.45
644.419	11584.77
644.771	11503.86
645.124	11351.33
645.477	11378.9
645.83	11274.72
646.182	11252.12
646.535	11245.79
646.888	11316.52
647.24	11203.53
647.593	11262.74
647.945	11225.91
648.298	11221.84
648.65	11253.02
649.002	11173.48
649.355	11226.13
649.707	11168.28
650.059	11310.87
650.411	11333.25
650.763	11440.36
651.115	11514.03
651.467	11439.01
651.819	11410.08
652.171	11507.48
652.523	11409.86
652.875	11436.97
653.227	11351.55
653.578	11466.58
653.93	11485.33
654.282	11401.27
654.633	11340.25
654.985	11368.27
655.337	11399.46
655.688	11366.47
656.039	11482.17
656.391	11366.92
656.742	11481.49
657.094	11485.33
657.445	11469.97
657.796	11392
658.147	11377.54
658.498	11388.39
658.849	11460.48
659.2	11391.1
659.551	11368.5
659.902	11414.83
660.253	11437.88
660.604	11377.77
660.955	11400.14
661.306	11383.19
661.656	11405.56
662.007	11479.68
662.358	11428.84
662.708	11476.97
663.059	11446.69
663.409	11420.48
663.76	11506.35
664.11	11486.46
664.461	11558.55
664.811	11447.59
665.161	11431.78
665.511	11506.8
665.862	11465.9
666.212	11533.69
666.562	11556.29
666.912	11511.77
667.262	11459.35
667.612	11542.96
667.962	11417.09
668.312	11446.01
668.662	11468.61
669.011	11504.99
669.361	11431.55
669.711	11385.22
670.06	11436.3
670.41	11334.15
670.76	11395.17
671.109	11424.77
671.459	11393.81
671.808	11335.06
672.157	11413.47
672.507	11367.6
672.856	11308.39
673.205	11408.05
673.554	11380.48
673.904	11379.57
674.253	11448.27
674.602	11365.11
674.951	11219.13
675.3	11175.29
675.649	11329.41
675.998	11286.92
676.346	11341.61
676.695	11371.89
677.044	11253.7
677.393	11309.07
677.741	11316.52
678.09	11253.48
678.438	11261.84
678.787	11261.61
679.135	11256.41
679.484	11101.84
679.832	11155.62
680.181	11111.78
680.529	11195.85
680.877	11147.04
681.225	11120.15
681.573	11156.3
681.922	11078.79
682.27	11022.29
682.618	11024.1
682.966	10973.93
683.314	10982.07
683.661	10950.88
684.009	10934.16
684.357	10914.28
684.705	10867.5
685.053	10872.24
685.4	10962.41
685.748	10820.94
686.095	10832.24
686.443	10818.68
686.79	10689.42
687.138	10818.01
687.485	10749.08
687.832	10761.06
688.18	10722.19
688.527	10649.88
688.874	10710.21
689.221	10609.88
689.568	10579.37
689.915	10524.45
690.262	10490.56
690.609	10505.25
690.956	10434.74
691.303	10425.7
691.65	10484
691.997	10397.68
692.344	10303.44
692.69	10214.63
693.037	10274.52
693.383	10321.3
693.73	10274.97
694.077	10163.56
694.423	10239.04
694.769	10128.99
695.116	10117.91
695.462	10032.72
695.808	10079.49
696.155	10162.43
696.501	10023.23
696.847	9903
697.193	9802.44
697.539	9891.48
697.885	9840.86
698.231	9801.99
698.577	9726.74
698.923	9755.21
699.269	9705.27
699.614	9672.27
699.96	9680.64
700.306	9601.32
700.651	9609.22
700.997	9517.02
701.342	9493.07
701.688	9538.72
702.033	9433.18
702.379	9429.12
702.724	9428.66
703.069	9438.38
703.415	9266.18
703.76	9335.33
704.105	9257.82
704.45	9312.74
704.795	9206.98
705.14	9241.78
705.485	9182.57
705.83	9166.07
706.175	9124.72
706.52	9040.2
706.865	9036.36
707.209	9058.28
707.554	9020.54
707.899	9037.26
708.243	8915.91
708.588	8931.05
708.932	8908.23
709.277	8887.66
709.621	8890.15
709.966	8800.66
710.31	8863.48
710.654	8794.33
710.998	8795.23
711.342	8763.15
711.687	8680.89
712.031	8753.43
712.375	8660.32
712.719	8698.06
713.063	8619.19
713.407	8661
713.75	8587.56
714.094	8616.93
714.438	8601.57
714.782	8588.01
715.125	8587.78
715.469	8567.67
715.812	8489.48
716.156	8535.58
716.499	8449.93
716.843	8515.02
717.186	8424.62
717.53	8479.08
717.873	8427.79
718.216	8441.12
718.559	8369.26
718.902	8335.81
719.246	8382.82
719.589	8340.11
719.932	8322.93
720.275	8359.77
720.617	8335.81
720.96	8325.64
721.303	8250.62
721.646	8308.24
721.989	8257.85
722.331	8321.35
722.674	8279.09
723.016	8247.23
723.359	8271.18
723.701	8299.88
724.044	8251.97
724.386	8179.21
724.729	8200.45
725.071	8243.84
725.413	8206.55
725.755	8191.41
726.097	8143.27
726.439	8087.46
726.782	8095.82
727.124	8161.58
727.465	8120.45
727.807	8122.94
728.149	8119.55
728.491	8142.37
728.833	8103.73
729.175	8117.51
729.516	8096.72
729.858	8096.95
730.199	8120
730.541	8105.54
730.882	8095.82
731.224	8103.05
731.565	8103.28
731.906	8058.08
732.248	8038.87
732.589	8033.45
732.93	8059.89
733.271	8117.06
733.612	8059.43
733.953	8078.42
734.294	8034.58
734.635	8048.14
734.976	8056.5
735.317	8054.69
735.658	8004.97
735.999	8018.31
736.339	8005.65
736.68	8058.53
737.021	8103.95
737.361	8065.99
737.702	8082.49
738.042	8048.59
738.383	8054.46
738.723	8105.54
739.063	8109.83
739.404	8127.68
739.744	8142.82
740.084	8077.97
740.424	8102.6
740.764	8157.29
741.104	8120.45
741.444	8118.42
741.784	8140.79
742.124	8212.43
742.464	8169.26
742.804	8203.16
743.143	8217.17
743.483	8255.59
743.823	8169.26
744.162	8273.67
744.502	8287.23
744.841	8286.32
745.181	8366.55
745.52	8457.62
745.86	8434.57
746.199	8395.47
746.538	8418.75
746.877	8510.72
747.216	8561.12
747.556	8601.79
747.895	8641.11
748.234	8635.01
748.573	8743.48
748.911	8783.26
749.25	8802.92
749.589	8824.61
749.928	8931.28
750.267	8947.32
750.605	9063.7
750.944	9126.3
751.283	9183.7
751.621	9247.43
751.96	9323.81
752.298	9451.71
752.636	9449.23
752.975	9552.05
753.313	9621.2
753.651	9803.34
753.989	9825.94
754.327	9936
754.666	9967.63
755.004	10079.95
755.342	10267.29
755.679	10379.37
756.017	10444.91
756.355	10652.81
756.693	10721.96
757.031	10845.8
757.368	10902.75
757.706	11105.68
758.044	11166.47
758.381	11419.35
758.719	11509.06
759.056	11653.92
759.394	11796.06
759.731	11849.84
760.068	12011.42
