Data from hue_250_FLMS001491_00096.txt Node
Date: Tue Feb 07 16:01:46 GMT 2017
User: dcchb
Spectrometer: FLMS00149
Trigger mode: 0
Integration Time (sec): 2.000000E-2
Scans to average: 10
Electric dark correction enabled: true
Nonlinearity correction enabled: false
Boxcar width: 0
XAxis mode: Wavelengths
Number of Pixels in Spectrum: 2048
>>>>>Begin Spectral Data<<<<<
341.393	-29.17
341.776	-29.17
342.16	-29.17
342.543	-66.23
342.927	-75.49
343.31	-56.96
343.693	-78.88
344.077	-52.67
344.46	-71.88
344.843	-44.08
345.226	-40.47
345.61	-32.1
345.993	-14.48
346.376	-13.57
346.759	19.65
347.142	27.33
347.525	39.31
347.908	73.43
348.291	58.29
348.674	72.3
349.057	114.79
349.44	116.37
349.823	153.65
350.206	181.45
350.588	187.78
350.971	218.51
351.354	221.67
351.737	233.88
352.119	238.4
352.502	247.21
352.884	273.65
353.267	289.47
353.65	271.39
354.032	298.51
354.414	293.76
354.797	297.83
355.179	323.14
355.562	319.07
355.944	322.92
356.326	316.59
356.709	312.29
357.091	319.75
357.473	348.9
357.855	353.42
358.238	315.68
358.62	333.08
359.002	348.68
359.384	316.36
359.766	316.59
360.148	348.23
360.53	327.89
360.912	305.06
361.294	331.05
361.676	308.9
362.057	330.37
362.439	327.43
362.821	346.19
363.203	307.32
363.584	329.02
363.966	342.35
364.348	293.76
364.729	328.11
365.111	303.03
365.493	307.1
365.874	323.59
366.256	307.55
366.637	280.43
367.019	323.82
367.4	316.36
367.781	310.49
368.163	302.8
368.544	284.95
368.925	297.38
369.306	319.07
369.688	310.71
370.069	330.15
370.45	279.53
370.831	322.46
371.212	310.03
371.593	302.58
371.974	319.98
372.355	316.81
372.736	335.12
373.117	308.45
373.498	312.52
373.879	319.98
374.26	291.73
374.641	295.35
375.021	306.64
375.402	310.03
375.783	316.36
376.163	317.27
376.544	308.23
376.925	328.56
377.305	302.12
377.686	318.85
378.066	309.36
378.447	323.59
378.827	327.21
379.208	319.75
379.588	321.79
379.968	306.19
380.349	324.95
380.729	316.14
381.109	341.45
381.489	294.67
381.87	334.44
382.25	327.21
382.63	333.31
383.01	320.2
383.39	321.79
383.77	334.44
384.15	309.58
384.53	348.45
384.91	317.04
385.29	350.49
385.67	334.89
386.049	356.59
386.429	330.37
386.809	341.22
387.189	323.59
387.568	336.02
387.948	345.06
388.328	329.47
388.707	337.6
389.087	354.78
389.466	364.04
389.846	371.28
390.225	349.36
390.605	367.89
390.984	348.9
391.363	366.53
391.743	353.2
392.122	351.62
392.501	382.35
392.881	362.69
393.26	378.28
393.639	371.05
394.018	386.19
394.397	374.67
394.776	367.89
395.155	360.43
395.534	386.64
395.913	360.2
396.292	364.72
396.671	366.76
397.05	372.86
397.429	380.09
397.808	379.18
398.186	386.42
398.565	382.12
398.944	384.16
399.323	410.37
399.701	393.87
400.08	392.74
400.458	385.74
400.837	403.37
401.215	399.3
401.594	415.57
401.972	405.62
402.351	420.09
402.729	397.49
403.107	394.33
403.486	422.35
403.864	408.56
404.242	396.13
404.62	424.38
404.999	434.55
405.377	425.06
405.755	439.97
406.133	419.86
406.511	445.4
406.889	435.23
407.267	473.87
407.645	465.28
408.023	471.16
408.401	461.67
408.779	437.04
409.156	489.24
409.534	475.91
409.912	516.81
410.29	486.07
410.667	477.49
411.045	501.89
411.422	481.56
411.8	513.64
412.178	497.15
412.555	505.51
412.933	530.59
413.31	540.08
413.687	541.21
414.065	536.92
414.442	548.67
414.819	571.5
415.197	553.64
415.574	556.81
415.951	567.88
416.328	587.09
416.705	595
417.082	569.46
417.46	595.9
417.837	611.95
418.214	599.29
418.591	619.4
418.967	638.61
419.344	623.92
419.721	621.66
420.098	615.79
420.475	649.91
420.852	660.53
421.228	671.61
421.605	662.34
421.982	677.71
422.358	695.79
422.735	706.63
423.111	668.22
423.488	727.42
423.864	736.46
424.241	760.87
424.617	738.27
424.994	761.55
425.37	788.67
425.746	771.94
426.123	761.1
426.499	781.21
426.875	815.56
427.251	803.35
427.627	835.67
428.003	823.24
428.379	832.51
428.756	836.57
429.132	832.73
429.507	885.84
429.883	883.13
430.259	858.04
430.635	892.17
431.011	875.22
431.387	929
431.763	910.92
432.138	949.34
432.514	957.93
432.89	943.92
433.265	1006.06
433.641	993.41
434.016	997.93
434.392	1027.08
434.767	1039.51
435.143	1045.38
435.518	1057.59
435.894	1074.76
436.269	1088.09
436.644	1096
437.02	1127.41
437.395	1137.36
437.77	1146.4
438.145	1183.01
438.52	1177.13
438.895	1207.41
439.271	1190.92
439.646	1248.09
440.021	1238.37
440.395	1240.86
440.77	1244.02
441.145	1259.39
441.52	1285.38
441.895	1315.66
442.27	1315.21
442.645	1329.22
443.019	1323.57
443.394	1318.14
443.769	1379.38
444.143	1321.76
444.518	1369.89
444.892	1387.75
445.267	1388.42
445.641	1418.48
446.016	1413.28
446.39	1438.82
446.764	1459.16
447.139	1451.02
447.513	1452.15
447.887	1465.48
448.262	1457.57
448.636	1447.18
449.01	1498.03
449.384	1521.3
449.758	1521.75
450.132	1543
450.506	1544.8
450.88	1553.62
451.254	1545.26
451.628	1558.81
452.002	1610.11
452.376	1617.8
452.75	1608.53
453.123	1611.24
453.497	1632.94
453.871	1642.43
454.244	1690.34
454.618	1681.3
454.992	1720.84
455.365	1707.96
455.739	1769.43
456.112	1747.06
456.486	1785.7
456.859	1815.76
457.232	1785.48
457.606	1801.29
457.979	1856.89
458.352	1908.64
458.725	1917
459.099	1929.43
459.472	1945.02
459.845	1971.69
460.218	1995.19
460.591	1985.02
460.964	2002.42
461.337	2032.47
461.71	2052.81
462.083	2082.42
462.456	2109.08
462.829	2104.11
463.201	2150.89
463.574	2126.71
463.947	2204
464.32	2204
464.692	2210.78
465.065	2266.59
465.438	2274.5
465.81	2294.16
466.183	2327.38
466.555	2389.98
466.928	2379.81
467.3	2384.1
467.672	2399.47
468.045	2476.08
468.417	2471.33
468.789	2487.15
469.161	2522.18
469.534	2530.54
469.906	2556.98
470.278	2589.07
470.65	2641.27
471.022	2694.6
471.394	2688.73
471.766	2754.94
472.138	2735.06
472.51	2784.55
472.882	2846.24
473.253	2899.8
473.625	2889.63
473.997	2971.21
474.369	3010.53
474.74	3020.47
475.112	3041.26
475.484	3122.62
475.855	3140.92
476.227	3173.91
476.598	3266.57
476.97	3260.24
477.341	3343.4
477.713	3375.04
478.084	3383.85
478.455	3479.44
478.827	3479.89
479.198	3556.95
479.569	3582.26
479.94	3672.21
480.311	3702.94
480.682	3720.79
481.053	3835.59
481.424	3888.25
481.795	3908.13
482.166	3932.54
482.537	4029.94
482.908	4064.96
483.279	4101.8
483.65	4156.94
484.021	4230.38
484.391	4246.2
484.762	4330.27
485.133	4301.57
485.503	4376.59
485.874	4470.15
486.244	4491.62
486.615	4557.38
486.985	4609.81
487.356	4636.93
487.726	4721.22
488.097	4793.08
488.467	4774.78
488.837	4864.49
489.207	4943.58
489.578	5005.28
489.948	5006.86
490.318	5087.31
490.688	5123.02
491.058	5157.59
491.428	5217.02
491.798	5283.24
492.168	5392.61
492.538	5353.07
492.908	5433.06
493.278	5465.6
493.648	5453.85
494.017	5546.51
494.387	5544.25
494.757	5613.17
495.126	5667.41
495.496	5652.27
495.866	5653.17
496.235	5738.14
496.605	5758.7
496.974	5823.79
497.344	5829.66
497.713	5886.61
498.082	5910.56
498.452	5966.16
498.821	5977.68
499.19	6010.22
499.559	6028.08
499.928	6060.39
500.298	6067.4
500.667	6214.74
501.036	6100.62
501.405	6171.58
501.774	6180.84
502.143	6218.81
502.512	6250.89
502.88	6285.47
503.249	6267.39
503.618	6290.22
503.987	6312.14
504.356	6375.86
504.724	6365.02
505.093	6448.18
505.462	6438.69
505.83	6445.69
506.199	6421.29
506.567	6473.26
506.936	6512.81
507.304	6535.86
507.672	6546.48
508.041	6617.89
508.409	6639.81
508.777	6659.47
509.145	6706.48
509.514	6652.92
509.882	6667.16
510.25	6709.87
510.618	6722.07
510.986	6781.73
511.354	6782.63
511.722	6888.17
512.09	6869.18
512.458	6813.14
512.826	6869.41
513.193	6873.7
513.561	6846.59
513.929	6936.75
514.297	6988.73
514.664	6984.21
515.032	7006.81
515.4	7030.76
515.767	7010.65
516.135	6997.77
516.502	7054.94
516.869	7077.99
517.237	7071.66
517.604	7009.29
517.972	7120.02
518.339	7137.88
518.706	7113.7
519.073	7112.57
519.44	7147.59
519.808	7199.34
520.175	7194.82
520.542	7221.04
520.909	7265.33
521.276	7254.26
521.643	7250.19
522.009	7295.39
522.376	7303.75
522.743	7329.51
523.11	7403.86
523.477	7417.42
523.843	7367.02
524.21	7454.48
524.577	7512.56
524.943	7479.79
525.31	7470.98
525.676	7558.43
526.043	7587.36
526.409	7544.65
526.776	7573.35
527.142	7606.57
527.508	7612.44
527.874	7646.34
528.241	7583.74
528.607	7613.35
528.973	7649.73
529.339	7637.3
529.705	7706.9
530.071	7626.9
530.437	7671.65
530.803	7735.83
531.169	7712.55
531.535	7626.45
531.901	7712.55
532.267	7685.43
532.632	7687.02
532.998	7763.85
533.364	7776.05
533.73	7771.98
534.095	7726.56
534.461	7687.24
534.826	7739.67
535.192	7745.32
535.557	7814.24
535.923	7726.79
536.288	7826.67
536.653	7736.96
537.019	7720.91
537.384	7766.11
537.749	7787.13
538.114	7743.96
538.479	7731.53
538.845	7699.44
539.21	7706
539.575	7666.9
539.94	7674.81
540.305	7719.33
540.67	7664.64
541.034	7668.94
541.399	7674.36
541.764	7671.87
542.129	7688.82
542.494	7670.29
542.858	7689.28
543.223	7697.41
543.587	7684.98
543.952	7621.93
544.316	7658.77
544.681	7635.27
545.045	7667.81
545.41	7648.37
545.774	7671.87
546.138	7634.81
546.503	7599.79
546.867	7580.58
547.231	7623.06
547.595	7633.91
547.959	7620.58
548.324	7609.28
548.688	7601.82
549.052	7611.76
549.416	7599.79
549.779	7529.96
550.143	7574.7
550.507	7588.26
550.871	7573.12
551.235	7519.11
551.599	7593.91
551.962	7530.41
552.326	7501.26
552.689	7572.44
553.053	7551.88
553.417	7483.4
553.78	7621.25
554.143	7544.42
554.507	7563.18
554.87	7583.74
555.234	7531.77
555.597	7517.08
555.96	7547.36
556.323	7537.41
556.686	7495.61
557.05	7588.03
557.413	7564.76
557.776	7549.84
558.139	7554.82
558.502	7560.01
558.865	7559.11
559.228	7577.41
559.59	7612.89
559.953	7541.48
560.316	7621.48
560.679	7643.17
561.041	7638.66
561.404	7675.72
561.767	7671.87
562.129	7617.41
562.492	7663.06
562.854	7672.78
563.217	7751.42
563.579	7673.23
563.941	7720.01
564.304	7710.52
564.666	7764.75
565.028	7811.98
565.39	7816.28
565.753	7795.26
566.115	7758.43
566.477	7837.52
566.839	7828.03
567.201	7906.9
567.563	7884.3
567.925	7945.77
568.287	7901.25
568.648	7900.57
569.01	7911.42
569.372	8026.22
569.734	7935.6
570.095	8033.45
570.457	8018.98
570.819	8069.6
571.18	8104.63
571.542	8060.79
571.903	8059.43
572.265	8100.11
572.626	8081.58
572.987	8103.28
573.349	8150.05
573.71	8125.42
574.071	8145.76
574.432	8270.73
574.794	8235.25
575.155	8294.46
575.516	8206.78
575.877	8261.46
576.238	8237.96
576.599	8319.99
576.96	8237.28
577.32	8279.09
577.681	8346.89
578.042	8405.41
578.403	8422.59
578.763	8407.9
579.124	8399.77
579.485	8423.72
579.845	8518.63
580.206	8439.31
580.566	8427.56
580.927	8480.89
581.287	8482.93
581.648	8414.91
582.008	8525.64
582.368	8559.99
582.728	8541.91
583.089	8606.09
583.449	8590.95
583.809	8607.44
584.169	8562.25
584.529	8565.18
584.889	8677.72
585.249	8603.83
585.609	8582.81
585.969	8624.17
586.329	8606.77
586.688	8698.74
587.048	8639.31
587.408	8661.91
587.768	8695.58
588.127	8673.2
588.487	8719.76
588.846	8728.8
589.206	8727.89
589.565	8732.64
589.925	8767.44
590.284	8705.29
590.643	8754.78
591.003	8833.43
591.362	8855.35
591.721	8854.22
592.08	8863.26
592.44	8876.81
592.799	8921.33
593.158	8853.31
593.517	8885.85
593.876	8919.98
594.235	8875.68
594.593	8846.31
594.952	8838.62
595.311	8863.71
595.67	8893.09
596.029	8981.22
596.387	8880.43
596.746	8943.93
597.104	8957.26
597.463	8910.03
597.822	8938.96
598.18	8918.4
598.538	8881.33
598.897	8993.42
599.255	8844.27
599.613	9018.73
599.972	9008.79
600.33	9004.49
600.688	8909.13
601.046	8936.93
601.404	9016.47
601.762	9012.4
602.12	9099.86
602.478	9042.46
602.836	9027.77
603.194	8962.46
603.552	9009.92
603.91	9034.78
604.268	9030.93
604.625	9031.61
604.983	9021.9
605.341	9040.65
605.698	9086.07
606.056	9098.73
606.413	8991.39
606.771	9067.32
607.128	9139.86
607.485	9053.08
607.843	9021.9
608.2	9114.77
608.557	9144.15
608.914	9140.76
609.272	9160.42
609.629	9128.33
609.986	9168.11
610.343	9121.1
610.7	9223.02
611.057	9181.89
611.414	9209.91
611.771	9243.13
612.127	9192.06
612.484	9188.67
612.841	9221.44
613.198	9203.81
613.554	9215.11
613.911	9253.75
614.267	9258.73
614.624	9234.09
614.98	9189.57
615.337	9314.09
615.693	9281.1
616.05	9250.36
616.406	9292.85
616.762	9252.85
617.118	9306.18
617.475	9297.14
617.831	9331.72
618.187	9333.3
618.543	9356.58
618.899	9345.28
619.255	9344.82
619.611	9319.51
619.967	9346.18
620.323	9419.63
620.678	9372.17
621.034	9351.83
621.39	9341.21
621.746	9378.72
622.101	9441.09
622.457	9356.35
622.812	9419.17
623.168	9402.22
623.523	9392.96
623.879	9461.88
624.234	9330.14
624.589	9410.81
624.945	9367.88
625.3	9403.58
625.655	9418.04
626.01	9412.85
626.365	9410.36
626.72	9372.17
627.075	9334.43
627.43	9390.25
627.785	9347.31
628.14	9363.81
628.495	9392.73
628.85	9392.28
629.205	9322.68
629.559	9363.36
629.914	9366.07
630.269	9350.7
630.623	9221.89
630.978	9268.22
631.332	9312.96
631.687	9369.68
632.041	9322.23
632.396	9320.87
632.75	9272.28
633.104	9255.79
633.459	9270.48
633.813	9201.55
634.167	9230.7
634.521	9249.46
634.875	9253.08
635.229	9183.93
635.583	9150.25
635.937	9148.9
636.291	9103.93
636.645	9129.69
636.999	9152.06
637.352	9190.48
637.706	9164.72
638.06	9111.38
638.413	9131.72
638.767	9055.12
639.121	9089.92
639.474	9055.34
639.828	9000.43
640.181	9020.31
640.534	9036.58
640.888	8966.76
641.241	9010.37
641.594	8996.36
641.947	9009.01
642.301	8967.89
642.654	8959.52
643.007	8990.03
643.36	8895.57
643.713	8918.17
644.066	8932.86
644.419	8934.89
644.771	8845.63
645.124	8797.49
645.477	8781.68
645.83	8786.87
646.182	8703.71
646.535	8634.79
646.888	8665.07
647.24	8635.01
647.593	8665.75
647.945	8587.56
648.298	8606.77
648.65	8601.34
649.002	8636.82
649.355	8677.05
649.707	8620.32
650.059	8616.48
650.411	8748.68
650.763	8780.09
651.115	8861.45
651.467	8807.44
651.819	8861.67
652.171	8822.13
652.523	8759.98
652.875	8791.62
653.227	8792.3
653.578	8812.18
653.93	8796.14
654.282	8769.25
654.633	8717.5
654.985	8770.6
655.337	8777.16
655.688	8797.49
656.039	8778.96
656.391	8719.76
656.742	8729.02
657.094	8740.55
657.445	8808.57
657.796	8802.69
658.147	8823.71
658.498	8745.07
658.849	8724.05
659.2	8771.05
659.551	8778.51
659.902	8797.72
660.253	8783.26
660.604	8771.51
660.955	8737.16
661.306	8785.74
661.656	8809.47
662.007	8770.6
662.358	8791.17
662.708	8741.9
663.059	8827.78
663.409	8777.83
663.76	8841.79
664.11	8810.83
664.461	8788
664.811	8837.49
665.161	8806.53
665.511	8713.66
665.862	8790.94
666.212	8841.79
666.562	8867.78
666.912	8748.68
667.262	8777.38
667.612	8693.77
667.962	8794.56
668.312	8778.06
668.662	8836.59
669.011	8745.07
669.361	8796.36
669.711	8746.65
670.06	8741.68
670.41	8745.52
670.76	8745.52
671.109	8761.34
671.459	8709.14
671.808	8673.66
672.157	8729.7
672.507	8706.65
672.856	8699.87
673.205	8630.27
673.554	8744.84
673.904	8670.72
674.253	8737.16
674.602	8683.15
674.951	8575.13
675.3	8465.07
675.649	8661.91
675.998	8594.11
676.346	8639.53
676.695	8584.62
677.044	8577.84
677.393	8604.28
677.741	8593.21
678.09	8645.18
678.438	8556.6
678.787	8521.34
679.135	8534
679.484	8548.24
679.832	8487.22
680.181	8499.2
680.529	8589.36
680.877	8517.05
681.225	8490.61
681.573	8556.6
681.922	8470.27
682.27	8446.32
682.618	8416.94
682.966	8425.3
683.314	8379.65
683.661	8398.64
684.009	8300.56
684.357	8339.43
684.705	8311.41
685.053	8287.45
685.4	8274.8
685.748	8248.58
686.095	8278.64
686.443	8223.27
686.79	8224.63
687.138	8197.28
687.485	8217.17
687.832	8165.42
688.18	8202.48
688.527	8112.54
688.874	8159.09
689.221	8155.7
689.568	8123.16
689.915	8054.69
690.262	8059.66
690.609	7993.9
690.956	7970.85
691.303	8037.74
691.65	7959.32
691.997	7935.37
692.344	7901.02
692.69	7893.79
693.037	7915.48
693.383	7840.46
693.73	7830.74
694.077	7785.77
694.423	7779.44
694.769	7711.2
695.116	7719.1
695.462	7695.83
695.808	7661.25
696.155	7700.12
696.501	7594.14
696.847	7600.24
697.193	7515.27
697.539	7524.53
697.885	7408.6
698.231	7450.41
698.577	7538.77
698.923	7456.51
699.269	7375.16
699.614	7328.61
699.96	7404.54
700.306	7342.84
700.651	7292.22
700.997	7291.77
701.342	7273.47
701.688	7178.78
702.033	7239.34
702.379	7231.43
702.724	7132
703.069	7146.69
703.415	7122.51
703.76	7108.27
704.105	7074.38
704.45	7113.25
704.795	7028.73
705.14	7005.23
705.485	7006.13
705.83	7024.43
706.175	6950.76
706.52	6912.57
706.865	6944.44
707.209	6899.01
707.554	6797.32
707.899	6863.99
708.243	6817.43
708.588	6833.25
708.932	6769.98
709.277	6798.68
709.621	6853.36
709.966	6724.1
710.31	6708.51
710.654	6634.16
710.998	6657.21
711.342	6656.99
711.687	6662.18
712.031	6690.43
712.375	6563.66
712.719	6643.2
713.063	6568.63
713.407	6615.41
713.75	6553.03
714.094	6604.33
714.438	6560.04
714.782	6569.76
715.125	6504.45
715.469	6495.86
715.812	6484.34
716.156	6472.58
716.499	6427.61
716.843	6464.45
717.186	6424.22
717.53	6488.4
717.873	6411.57
718.216	6425.35
718.559	6348.07
718.902	6341.29
719.246	6358.46
719.589	6373.15
719.932	6336.99
720.275	6387.39
720.617	6315.75
720.96	6351.46
721.303	6362.3
721.646	6312.81
721.989	6254.74
722.331	6338.58
722.674	6268.52
723.016	6279.82
723.359	6322.31
723.701	6278.24
724.044	6308.29
724.386	6217
724.729	6261.29
725.071	6214.06
725.413	6217.9
725.755	6209.99
726.097	6222.2
726.439	6181.97
726.782	6176.77
727.124	6176.55
727.465	6234.85
727.807	6212.48
728.149	6130.67
728.491	6167.73
728.833	6202.31
729.175	6172.48
729.516	6167.73
729.858	6170.22
730.199	6157.79
730.541	6191.91
730.882	6131.58
731.224	6117.79
731.565	6111.69
731.906	6089.09
732.248	6163.44
732.589	6148.52
732.93	6076.44
733.271	6143.55
733.612	6146.94
733.953	6105.59
734.294	6134.06
734.635	6107.17
734.976	6142.42
735.317	6130.22
735.658	6058.13
735.999	6099.26
736.339	6132.71
736.68	6071.24
737.021	6137.9
737.361	6096.77
737.702	6118.24
738.042	6130.9
738.383	6128.64
738.723	6148.98
739.063	6133.61
739.404	6170.45
739.744	6167.28
740.084	6115.08
740.424	6116.66
740.764	6187.17
741.104	6192.37
741.444	6204.57
741.784	6192.14
742.124	6193.5
742.464	6176.09
742.804	6167.51
743.143	6169.32
743.483	6261.06
743.823	6200.5
744.162	6206.15
744.502	6220.84
744.841	6224.91
745.181	6289.76
745.52	6288.18
745.86	6328.41
746.199	6336.32
746.538	6375.64
746.877	6399.82
747.216	6466.26
747.556	6412.7
747.895	6525.24
748.234	6521.17
748.573	6511.68
748.911	6578.34
749.25	6650.43
749.589	6663.77
749.928	6725.01
750.267	6762.29
750.605	6717.55
750.944	6846.59
751.283	6863.76
751.621	6929.07
751.96	6918
752.298	7055.39
752.636	7100.14
752.975	7143.98
753.313	7128.61
753.651	7224.43
753.989	7260.81
754.327	7348.72
754.666	7465.55
755.004	7546.68
755.342	7596.62
755.679	7734.02
756.017	7759.56
756.355	7857.41
756.693	7868.48
757.031	8063.95
757.368	8134.46
757.706	8215.36
758.044	8296.04
758.381	8382.36
758.719	8438.63
759.056	8598.86
759.394	8657.61
759.731	8710.49
760.068	8803.82
760.405	8958.17
760.743	9033.65
761.08	9171.5
761.417	9182.57
761.754	9273.19
762.091	9453.75
762.428	9456.91
762.765	9638.6
763.102	9742.78
763.438	9826.85
763.775	9947.52
764.112	10045.82
764.449	10101.87
764.785	10211.47
765.122	10237.46
765.458	10299.38
765.795	10509.09
766.131	10587.96
766.467	10644.45
766.804	10657.56
767.14	10745.01
767.476	10893.71
767.812	10940.49
768.148	10993.82
768.485	11125.57
768.821	11121.05
769.157	11212.12
