Data from hue_130_FLMS001491_00020.txt Node
Date: Tue Feb 07 16:57:15 GMT 2017
User: dcchb
Spectrometer: FLMS00149
Trigger mode: 0
Integration Time (sec): 2.000000E-2
Scans to average: 10
Electric dark correction enabled: true
Nonlinearity correction enabled: false
Boxcar width: 0
XAxis mode: Wavelengths
Number of Pixels in Spectrum: 2048
>>>>>Begin Spectral Data<<<<<
341.393	-17.57
341.776	-17.57
342.16	-17.57
342.543	-66.16
342.927	-59.15
343.31	-67.06
343.693	-75.87
344.077	-79.49
344.46	-62.54
344.843	-48.98
345.226	-44.69
345.61	-17.12
345.993	-16.21
346.376	1.86
346.759	2.32
347.142	17.23
347.525	44.12
347.908	51.58
348.291	73.05
348.674	88.87
349.057	132.93
349.44	105.59
349.823	120.28
350.206	162.54
350.588	197.11
350.971	215.87
351.354	208.41
351.737	239.37
352.119	248.41
352.502	240.5
352.884	282.99
353.267	295.87
353.65	296.55
354.032	271.01
354.414	304
354.797	319.6
355.179	316.88
355.562	300.61
355.944	310.78
356.326	333.61
356.709	322.99
357.091	332.7
357.473	333.16
357.855	347.62
358.238	327.51
358.62	330.22
359.002	335.19
359.384	336.09
359.766	330.67
360.148	348.75
360.53	347.62
360.912	330.9
361.294	329.31
361.676	348.07
362.057	336.32
362.439	343.32
362.821	339.93
363.203	298.81
363.584	325.25
363.966	325.7
364.348	333.38
364.729	338.58
365.111	306.26
365.493	303.55
365.874	291.57
366.256	318.01
366.637	303.1
367.019	298.13
367.4	315.3
367.781	288.41
368.163	301.07
368.544	323.21
368.925	298.58
369.306	311.23
369.688	287.05
370.069	314.17
370.45	294.74
370.831	320.5
371.212	314.17
371.593	312.82
371.974	289.77
372.355	314.4
372.736	318.92
373.117	323.89
373.498	331.8
373.879	301.97
374.26	304.23
374.641	295.64
375.021	305.13
375.402	325.25
375.783	329.99
376.163	321.18
376.544	330.22
376.925	310.78
377.305	321.63
377.686	328.86
378.066	312.82
378.447	300.84
378.827	327.05
379.208	327.28
379.588	311.01
379.968	336.32
380.349	328.18
380.729	321.63
381.109	336.54
381.489	330.67
381.87	342.42
382.25	345.58
382.63	347.84
383.01	350.78
383.39	320.05
383.77	365.02
384.15	334.96
384.53	360.95
384.91	323.66
385.29	351.01
385.67	329.09
386.049	347.62
386.429	349.65
386.809	356.66
387.189	343.55
387.568	353.95
387.948	356.88
388.328	346.49
388.707	351.69
389.087	366.83
389.466	366.83
389.846	357.34
390.225	356.21
390.605	350.78
390.984	358.92
391.363	346.04
391.743	351.46
392.122	372.93
392.501	367.5
392.881	368.63
393.26	380.84
393.639	370.44
394.018	364.11
394.397	377.45
394.776	360.27
395.155	362.98
395.534	370.22
395.913	374.96
396.292	376.77
396.671	359.6
397.05	398.69
397.429	380.16
397.808	380.61
398.186	376.77
398.565	394.4
398.944	399.82
399.323	395.3
399.701	386.71
400.08	383.1
400.458	381.97
400.837	395.3
401.215	391.91
401.594	395.75
401.972	400.72
402.351	395.53
402.729	397.56
403.107	417.45
403.486	428.29
403.864	399.14
404.242	376.77
404.62	412.93
404.999	429.2
405.377	409.31
405.755	432.36
406.133	434.17
406.511	432.36
406.889	418.35
407.267	408.41
407.645	427.62
408.023	432.59
408.401	432.59
408.779	444.11
409.156	428.97
409.534	426.94
409.912	450.89
410.29	460.61
410.667	430.33
411.045	450.21
411.422	471.91
411.8	466.71
412.178	492.02
412.555	467.84
412.933	469.2
413.31	462.64
413.687	480.95
414.065	470.55
414.442	472.36
414.819	471
415.197	514.39
415.574	481.4
415.951	473.49
416.328	501.51
416.705	488.41
417.082	503.77
417.46	500.83
417.837	491.57
418.214	512.59
418.591	499.48
418.967	526.82
419.344	522.3
419.721	508.52
420.098	532.25
420.475	510.1
420.852	504.9
421.228	535.41
421.605	545.13
421.982	550.1
422.358	530.66
422.735	545.35
423.111	548.74
423.488	528.4
423.864	519.82
424.241	572.47
424.617	562.53
424.994	572.47
425.37	556.88
425.746	561.62
426.123	577.67
426.499	582.87
426.875	583.09
427.251	582.19
427.627	604.56
428.003	590.32
428.379	587.61
428.756	580.83
429.132	614.73
429.507	615.18
429.883	639.36
430.259	644.56
430.635	628.97
431.011	647.95
431.387	651.34
431.763	659.93
432.138	633.94
432.514	638.01
432.89	658.34
433.265	655.18
433.641	667.84
434.016	677.55
434.392	678.68
434.767	701.73
435.143	671
435.518	694.73
435.894	718.68
436.269	729.98
436.644	743.09
437.02	717.1
437.395	719.59
437.77	729.08
438.145	755.52
438.52	736.31
438.895	751.45
439.271	754.84
439.646	750.77
440.021	785.8
440.395	752.13
440.77	765.91
441.145	802.07
441.52	781.96
441.895	772.01
442.27	796.19
442.645	813.14
443.019	795.97
443.394	802.97
443.769	811.11
444.143	812.01
444.518	832.35
444.892	814.95
445.267	838.23
445.641	826.25
446.016	852.46
446.39	844.78
446.764	845.68
447.139	849.53
447.513	862.63
447.887	861.95
448.262	874.16
448.636	872.8
449.01	884.78
449.384	903.99
449.758	875.06
450.132	906.93
450.506	909.86
450.88	901.73
451.254	910.32
451.628	918.9
452.002	927.26
452.376	939.92
452.75	942.86
453.123	976.08
453.497	961.39
453.871	976.98
454.244	971.33
454.618	992.35
454.992	1005.23
455.365	1023.98
455.739	1034.83
456.112	1049.07
456.486	1068.28
456.859	1036.19
457.232	1061.95
457.606	1087.94
457.979	1093.36
458.352	1126.81
458.725	1114.6
459.099	1134.04
459.472	1127.48
459.845	1159.8
460.218	1169.52
460.591	1168.16
460.964	1196.86
461.337	1189.63
461.71	1225.11
462.083	1237.76
462.456	1243.19
462.829	1248.61
463.201	1303.3
463.574	1324.54
463.947	1308.95
464.32	1345.56
464.692	1349.63
465.065	1357.76
465.438	1398.21
465.81	1403.18
466.183	1418.55
466.555	1464.65
466.928	1481.15
467.3	1495.16
467.672	1494.03
468.045	1531.32
468.417	1517.53
468.789	1578.32
469.161	1607.7
469.534	1649.5
469.906	1655.61
470.278	1634.59
470.65	1692.89
471.022	1758.65
471.394	1783.06
471.766	1801.59
472.138	1847.01
472.51	1877.3
472.882	1908.93
473.253	1961.59
473.625	1963.62
473.997	2026.9
474.369	2069.83
474.74	2086.33
475.112	2143.95
475.484	2209.94
475.855	2257.62
476.227	2310.5
476.598	2353.67
476.97	2411.07
477.341	2484.96
477.713	2539.2
478.084	2560.44
478.455	2654.22
478.827	2750.27
479.198	2813.09
479.569	2862.58
479.94	2937.15
480.311	3024.84
480.682	3094.89
481.053	3201.1
481.424	3288.78
481.795	3372.62
482.166	3480.19
482.537	3549.57
482.908	3672.95
483.279	3732.84
483.65	3875.21
484.021	3941.2
484.391	4085.15
484.762	4129.67
485.133	4233.84
485.503	4326.72
485.874	4483.33
486.244	4609.88
486.615	4740.95
486.985	4852.81
487.356	4936.88
487.726	5076.08
488.097	5188.85
488.467	5304.55
488.837	5517.65
489.207	5527.59
489.578	5710.19
489.948	5830.64
490.318	6029.05
490.688	6080.35
491.058	6220.68
491.428	6387.23
491.798	6509.04
492.168	6720.11
492.538	6779.77
492.908	6915.58
493.278	7037.39
493.648	7134.56
494.017	7290.03
494.387	7433.53
494.757	7592.85
495.126	7714.43
495.496	7790.81
495.866	7933.63
496.235	8075.55
496.605	8180.41
496.974	8280.06
497.344	8414.07
497.713	8521.64
498.082	8636.89
498.452	8811.35
498.821	8872.14
499.19	8938.58
499.559	9121.4
499.928	9188.29
500.298	9303.31
500.667	9408.85
501.036	9410.2
501.405	9657.2
501.774	9633.7
502.143	9756.41
502.512	9820.59
502.88	9979.46
503.249	10074.82
503.618	10067.81
503.987	10241.6
504.356	10228.04
504.724	10319.33
505.093	10405.88
505.462	10468.93
505.83	10591.42
506.199	10724.07
506.567	10830.05
506.936	10874.12
507.304	10988.92
507.672	11059.2
508.041	11126.77
508.409	11173.1
508.777	11348.91
509.145	11383.71
509.514	11377.38
509.882	11477.04
510.25	11437.95
510.618	11577.83
510.986	11627.77
511.354	11696.7
511.722	11791.38
512.09	11899.4
512.458	11807.66
512.826	11947.99
513.193	11996.35
513.561	12013.3
513.929	12075.22
514.297	12238.83
514.664	12275.89
515.032	12302.78
515.4	12314.76
515.767	12447.19
516.135	12354.99
516.502	12314.53
516.869	12558.82
517.237	12554.98
517.604	12456.68
517.972	12614.64
518.339	12645.15
518.706	12564.92
519.073	12651.25
519.44	12785.48
519.808	12804.47
520.175	12819.15
520.542	12983.44
520.909	12987.06
521.276	12963.11
521.643	13045.59
522.009	13035.87
522.376	13113.16
522.743	13107.51
523.11	13182.76
523.477	13272.02
523.843	13211.01
524.21	13328.75
524.577	13368.97
524.943	13446.93
525.31	13403.77
525.676	13508.63
526.043	13516.31
526.409	13540.72
526.776	13629.75
527.142	13629.08
527.508	13617.1
527.874	13746.14
528.241	13646.93
528.607	13646.25
528.973	13690.09
529.339	13627.04
529.705	13730.99
530.071	13818
530.437	13749.3
530.803	13805.8
531.169	13855.96
531.535	13746.81
531.901	13740.26
532.267	13784.1
532.632	13853.93
532.998	13694.16
533.364	13772.8
533.73	13761.95
534.095	13880.14
534.461	13759.69
534.826	13863.19
535.192	13782.52
535.557	13758.79
535.923	13721.05
536.288	13746.81
536.653	13767.6
537.019	13672.47
537.384	13700.49
537.749	13563.32
538.114	13594.73
538.479	13612.58
538.845	13552.92
539.21	13560.83
539.575	13547.04
539.94	13492.58
540.305	13500.72
540.67	13359.71
541.034	13401.29
541.399	13484.9
541.764	13424.11
542.129	13416.88
542.494	13390.44
542.858	13358.8
543.223	13281.97
543.587	13310.89
543.952	13194.51
544.316	13213.72
544.681	13111.35
545.045	13135.3
545.41	13138.47
545.774	13109.77
546.138	13067.28
546.503	12997.45
546.867	12927.63
547.231	13031.13
547.595	12942.99
547.959	13011.92
548.324	12947.96
548.688	12858.25
549.052	12880.62
549.416	12851.7
549.779	12737.57
550.143	12803.56
550.507	12840.85
550.871	12710.91
551.235	12719.5
551.599	12731.02
551.962	12663
552.326	12623
552.689	12687.41
553.053	12614.41
553.417	12594.3
553.78	12558.6
554.143	12519.28
554.507	12564.7
554.87	12448.09
555.234	12585.49
555.597	12385.95
555.96	12474.53
556.323	12513.17
556.686	12443.35
557.05	12547.75
557.413	12418.71
557.776	12416.91
558.139	12526.51
558.502	12425.04
558.865	12444.93
559.228	12501.42
559.59	12396.11
559.953	12390.24
560.316	12464.59
560.679	12454.19
561.041	12499.84
561.404	12475.43
561.767	12497.36
562.129	12403.12
562.492	12444.7
562.854	12442.89
563.217	12464.59
563.579	12412.61
563.941	12464.14
564.304	12476.56
564.666	12522.21
565.028	12557.01
565.39	12486.06
565.753	12575.77
566.115	12640.63
566.477	12563.79
566.839	12583.23
567.201	12642.66
567.563	12613.51
567.925	12622.55
568.287	12665.26
568.648	12620.06
569.01	12671.59
569.372	12763.56
569.734	12687.41
570.095	12673.62
570.457	12724.24
570.819	12789.55
571.18	12745.03
571.542	12795.2
571.903	12785.71
572.265	12796.33
572.626	12837.91
572.987	12799.49
573.349	12755.43
573.71	12857.8
574.071	12804.24
574.432	12901.41
574.794	12936.44
575.155	12857.8
575.516	12857.12
575.877	12882.43
576.238	12897.34
576.599	12985.7
576.96	12876.78
577.32	12844.24
577.681	12914.07
578.042	12884.46
578.403	12921.3
578.763	12918.59
579.124	12908.19
579.485	12961.52
579.845	12997.91
580.206	12928.3
580.566	12883.56
580.927	12902.09
581.287	12947.29
581.648	12923.11
582.008	12991.13
582.368	12889.21
582.728	12942.54
583.089	12941.86
583.449	12938.93
583.809	12859.15
584.169	12900.28
584.529	12873.62
584.889	12962.2
585.249	12879.94
585.609	12809.89
585.969	12919.49
586.329	12808.99
586.688	12897.34
587.048	12866.38
587.408	12815.09
587.768	12803.11
588.127	12769.21
588.487	12745.26
588.846	12829.55
589.206	12680.4
589.565	12771.92
589.925	12829.55
590.284	12785.48
590.643	12754.52
591.003	12845.37
591.362	12870.68
591.721	12780.51
592.08	12820.51
592.44	12837.91
592.799	12774.86
593.158	12729.67
593.517	12688.54
593.876	12756.56
594.235	12670.01
594.593	12627.75
594.952	12737.12
595.311	12641.76
595.67	12752.49
596.029	12725.15
596.387	12695.99
596.746	12692.38
597.104	12633.62
597.463	12680.4
597.822	12754.98
598.18	12702.32
598.538	12613.28
598.897	12731.02
599.255	12600.18
599.613	12721.3
599.972	12682.21
600.33	12729.44
600.688	12661.19
601.046	12625.26
601.404	12718.14
601.762	12666.62
602.12	12688.54
602.478	12698.25
602.836	12701.19
603.194	12603.34
603.552	12654.64
603.91	12666.62
604.268	12699.84
604.625	12556.56
604.983	12605.6
605.341	12562.21
605.698	12685.15
606.056	12742.32
606.413	12644.02
606.771	12717.46
607.128	12686.73
607.485	12688.54
607.843	12685.37
608.2	12806.95
608.557	12722.89
608.914	12627.97
609.272	12814.18
609.629	12826.39
609.986	12795.65
610.343	12730.57
610.7	12798.14
611.057	12791.81
611.414	12815.31
611.771	12804.92
612.127	12846.5
612.484	12892.37
612.841	12957.46
613.198	12911.58
613.554	12848.76
613.911	12879.49
614.267	12871.13
614.624	12895.31
614.98	12928.08
615.337	13024.12
615.693	12924.91
616.05	13010.79
616.406	12975.08
616.762	12899.15
617.118	12967.85
617.475	12938.47
617.831	12995.42
618.187	12988.19
618.543	12960.39
618.899	13062.09
619.255	13019.6
619.611	13009.43
619.967	13119.26
620.323	12987.96
620.678	12999.26
621.034	13021.64
621.39	12992.94
621.746	12956.33
622.101	13185.92
622.457	13069.09
622.812	13092.82
623.168	13090.11
623.523	13127.17
623.879	13145.93
624.234	13068.87
624.589	13161.29
624.945	13084.91
625.3	13098.92
625.655	13118.81
626.01	13095.31
626.365	13145.7
626.72	13043.56
627.075	13061.18
627.43	13152.03
627.785	13006.49
628.14	13085.36
628.495	13052.14
628.85	13061.86
629.205	12989.55
629.559	13107.51
629.914	13017.34
630.269	13025.93
630.623	12933.05
630.978	12959.72
631.332	13038.58
631.687	12988.87
632.041	12964.24
632.396	12992.94
632.75	12871.13
633.104	12898.47
633.459	12891.92
633.813	12846.72
634.167	12889.89
634.521	12882.66
634.875	12893.95
635.229	12889.21
635.583	12807.86
635.937	12756.56
636.291	12859.38
636.645	12764.69
636.999	12782.09
637.352	12754.3
637.706	12627.3
638.06	12733.96
638.413	12716.56
638.767	12633.62
639.121	12702.1
639.474	12600.18
639.828	12639.72
640.181	12599.95
640.534	12664.81
640.888	12596.11
641.241	12523.79
641.594	12616.22
641.947	12556.56
642.301	12533.29
642.654	12555.88
643.007	12562.21
643.36	12510.69
643.713	12552.95
644.066	12547.52
644.419	12460.52
644.771	12409.9
645.124	12293.29
645.477	12265.95
645.83	12286.97
646.182	12163.13
646.535	12152.96
646.888	12125.61
647.24	12072.73
647.593	12107.99
647.945	12223.01
648.298	12022.79
648.65	12031.6
649.002	12034.77
649.355	12122.45
649.707	12030.7
650.059	12094.65
650.411	12298.26
650.763	12289.68
651.115	12398.37
651.467	12378.26
651.819	12353.4
652.171	12373.52
652.523	12358.38
652.875	12366.96
653.227	12395.89
653.578	12365.83
653.93	12344.59
654.282	12286.29
654.633	12316.12
654.985	12313.41
655.337	12313.18
655.688	12385.95
656.039	12413.97
656.391	12298.04
656.742	12283.35
657.094	12320.86
657.445	12395.21
657.796	12353.4
658.147	12393.85
658.498	12347.3
658.849	12325.16
659.2	12308.43
659.551	12252.84
659.902	12428.66
660.253	12359.51
660.604	12390.24
660.955	12384.14
661.306	12375.1
661.656	12362.44
662.007	12389.56
662.358	12396.11
662.708	12435.89
663.059	12415.78
663.409	12352.05
663.76	12449.22
664.11	12461.42
664.461	12374.42
664.811	12406.51
665.161	12443.12
665.511	12423.68
665.862	12356.12
666.212	12507.75
666.562	12407.19
666.912	12476.56
667.262	12409.22
667.612	12367.64
667.962	12489.67
668.312	12378.04
668.662	12495.32
669.011	12383.23
669.361	12376.45
669.711	12379.39
670.06	12338.04
670.41	12354.31
670.76	12345.49
671.109	12358.38
671.459	12333.07
671.808	12364.93
672.157	12372.39
672.507	12284.71
672.856	12236.34
673.205	12289.9
673.554	12326.74
673.904	12235.67
674.253	12288.32
674.602	12255.78
674.951	12116.35
675.3	12133.75
675.649	12232.05
675.998	12221.2
676.346	12182.56
676.695	12196.57
677.044	12142.79
677.393	12179.4
677.741	12216.23
678.09	12152.05
678.438	12091.94
678.787	12133.97
679.135	12150.25
679.484	11968.1
679.832	12063.47
680.181	11944.6
680.529	12052.85
680.877	12026.18
681.225	12007.88
681.573	12007.2
681.922	11903.25
682.27	11870.03
682.618	11917.94
682.966	11896.69
683.314	11917.71
683.661	11754.78
684.009	11725.85
684.357	11745.51
684.705	11768.56
685.053	11745.28
685.4	11728.34
685.748	11651.05
686.095	11662.8
686.443	11658.96
686.79	11629.13
687.138	11692.4
687.485	11659.41
687.832	11627.32
688.18	11599.53
688.527	11494.67
688.874	11516.14
689.221	11452.41
689.568	11461.9
689.915	11398.17
690.262	11415.12
690.609	11345.07
690.956	11288.12
691.303	11267.1
691.65	11251.74
691.997	11232.76
692.344	11089.71
692.69	11022.59
693.037	11025.76
693.383	11009.94
693.73	11015.59
694.077	10969.03
694.423	11002.93
694.769	10902.14
695.116	10916.83
695.462	10848.58
695.808	10881.35
696.155	10878.19
696.501	10665.99
696.847	10714.58
697.193	10662.6
697.539	10659.66
697.885	10647.69
698.231	10572.66
698.577	10531.98
698.923	10549.61
699.269	10437.07
699.614	10385.55
699.96	10391.42
700.306	10393.46
700.651	10330.63
700.997	10289.73
701.342	10290.18
701.688	10239.11
702.033	10261.71
702.379	10142.61
702.724	10134.25
703.069	10216.96
703.415	10053.13
703.76	10126.57
704.105	10049.06
704.45	9961.38
704.795	9929.29
705.14	9884.99
705.485	9902.62
705.83	9751.66
706.175	9875.73
706.52	9791.44
706.865	9771.55
707.209	9771.55
707.554	9719.57
707.899	9713.47
708.243	9629.41
708.588	9645.9
708.932	9578.79
709.277	9501.5
709.621	9531.56
709.966	9478
710.31	9448.4
710.654	9390.09
710.998	9388.74
711.342	9350.32
711.687	9369.98
712.031	9292.47
712.375	9313.03
712.719	9323.2
713.063	9273.03
713.407	9243.2
713.75	9275.97
714.094	9230.1
714.438	9203.43
714.782	9139.03
715.125	9199.36
715.469	9177.89
715.812	9087.5
716.156	9115.75
716.499	9112.13
716.843	9136.54
717.186	9052.02
717.53	9139.7
717.873	9125.47
718.216	9036.2
718.559	9011.12
718.902	8988.75
719.246	8968.63
719.589	8910.1
719.932	8941.97
720.275	8945.13
720.617	8946.26
720.96	8907.62
721.303	8927.51
721.646	8882.08
721.989	8832.82
722.331	8902.42
722.674	8842.31
723.016	8880.05
723.359	8868.07
723.701	8841.41
724.044	8818.13
724.386	8847.51
724.729	8864.46
725.071	8763.22
725.413	8775.64
725.755	8819.26
726.097	8710.11
726.439	8726.83
726.782	8742.65
727.124	8715.53
727.465	8742.65
727.807	8698.58
728.149	8682.77
728.491	8670.56
728.833	8765.93
729.175	8744.23
729.516	8694.29
729.858	8724.12
730.199	8723.44
730.541	8697
730.882	8728.41
731.224	8691.81
731.565	8691.35
731.906	8670.34
732.248	8732.48
732.589	8653.61
732.93	8665.14
733.271	8590.11
733.612	8688.42
733.953	8604.58
734.294	8645.03
734.635	8643.45
734.976	8692.71
735.317	8582.2
735.658	8638.7
735.999	8625.59
736.339	8673.27
736.68	8631.69
737.021	8600.73
737.361	8590.79
737.702	8658.81
738.042	8680.05
738.383	8672.14
738.723	8657
739.063	8709.21
739.404	8701.52
739.744	8705.82
740.084	8687.96
740.424	8684.35
740.764	8707.62
741.104	8751.46
741.444	8697.23
741.784	8745.82
742.124	8811.8
742.464	8834.63
742.804	8781.75
743.143	8784.68
743.483	8857.45
743.823	8837.11
744.162	8807.73
744.502	8890.22
744.841	8929.77
745.181	8999.14
745.52	8980.39
745.86	8993.27
746.199	9071
746.538	9093.83
746.877	9215.18
747.216	9173.15
747.556	9243.2
747.895	9280.26
748.234	9256.31
748.573	9309.42
748.911	9368.17
749.25	9484.33
749.589	9474.84
749.928	9544.66
750.267	9709.41
750.605	9709.63
750.944	9738.78
751.283	9783.53
751.621	9981.26
751.96	9924.09
752.298	10066.68
752.636	10165.89
752.975	10314.14
753.313	10268.04
753.651	10534.02
753.989	10523.62
754.327	10623.96
754.666	10737.85
755.004	10853.78
755.342	10966.55
755.679	11125.64
756.017	11238.41
756.355	11404.73
756.693	11454.44
757.031	11675.68
757.368	11686.3
757.706	11848.78
758.044	11925.39
758.381	12238.15
758.719	12382.56
759.056	12493.29
759.394	12651.48
