Data from hue_110_FLMS001491_00040.txt Node
Date: Tue Feb 07 17:01:15 GMT 2017
User: dcchb
Spectrometer: FLMS00149
Trigger mode: 0
Integration Time (sec): 2.000000E-2
Scans to average: 10
Electric dark correction enabled: true
Nonlinearity correction enabled: false
Boxcar width: 0
XAxis mode: Wavelengths
Number of Pixels in Spectrum: 2048
>>>>>Begin Spectral Data<<<<<
341.393	-10.89
341.776	-10.89
342.16	-10.89
342.543	-54.28
342.927	-74.39
343.31	-55.18
343.693	-66.26
344.077	-66.71
344.46	-71
344.843	-47.72
345.226	-36.43
345.61	-28.29
345.993	-24.45
346.376	-19.02
346.759	-2.75
347.142	20.07
347.525	59.62
347.908	61.65
348.291	68.43
348.674	101.88
349.057	106.17
349.44	123.12
349.823	147.07
350.206	178.71
350.588	191.59
350.971	211.7
351.354	229.1
351.737	247.63
352.119	243.12
352.502	255.09
352.884	265.04
353.267	261.42
353.65	303.9
354.032	319.95
354.414	304.58
354.797	326.28
355.179	313.62
355.562	325.82
355.944	333.73
356.326	324.02
356.709	325.6
357.091	335.32
357.473	346.62
357.855	360.4
358.238	339.61
358.62	350.68
359.002	335.77
359.384	334.19
359.766	336.22
360.148	335.54
360.53	364.69
360.912	333.51
361.294	340.29
361.676	333.51
362.057	335.99
362.439	344.81
362.821	338.48
363.203	325.37
363.584	326.05
363.966	348.65
364.348	332.6
364.729	333.73
365.111	314.98
365.493	332.6
365.874	332.38
366.256	316.11
366.637	321.31
367.019	312.94
367.4	311.81
367.781	308.42
368.163	325.15
368.544	302.77
368.925	324.02
369.306	316.56
369.688	313.62
370.069	320.18
370.45	313.17
370.831	331.02
371.212	321.53
371.593	308.2
371.974	330.8
372.355	306.84
372.736	328.31
373.117	345.94
373.498	326.73
373.879	325.15
374.26	322.44
374.641	325.37
375.021	326.95
375.402	316.11
375.783	333.51
376.163	329.44
376.544	335.99
376.925	329.67
377.305	322.66
377.686	332.83
378.066	326.05
378.447	333.96
378.827	327.63
379.208	339.84
379.588	343.23
379.968	339.16
380.349	346.62
380.729	344.36
381.109	321.31
381.489	365.15
381.87	345.49
382.25	354.07
382.63	326.5
383.01	349.55
383.39	327.86
383.77	351.36
384.15	358.59
384.53	339.38
384.91	348.65
385.29	350.23
385.67	357.69
386.049	370.8
386.429	348.2
386.809	362.21
387.189	339.84
387.568	351.13
387.948	375.54
388.328	368.31
388.707	363.11
389.087	356.56
389.466	357.46
389.846	361.3
390.225	362.43
390.605	381.42
390.984	377.35
391.363	377.57
391.743	394.75
392.122	385.26
392.501	381.64
392.881	380.96
393.26	394.3
393.639	408.99
394.018	379.16
394.397	388.42
394.776	386.84
395.155	388.42
395.534	377.8
395.913	397.69
396.292	415.31
396.671	384.81
397.05	405.37
397.429	406.05
397.808	390.23
398.186	410.12
398.565	390.68
398.944	397.91
399.323	410.34
399.701	413.05
400.08	391.81
400.458	417.12
400.837	421.42
401.215	400.4
401.594	411.02
401.972	414.41
402.351	415.54
402.729	420.51
403.107	410.12
403.486	426.61
403.864	425.71
404.242	420.96
404.62	443.79
404.999	438.36
405.377	430
405.755	449.21
406.133	446.27
406.511	460.51
406.889	447.63
407.267	430.45
407.645	446.05
408.023	446.5
408.401	455.99
408.779	453.96
409.156	480.85
409.534	455.76
409.912	458.7
410.29	480.4
410.667	462.77
411.045	476.1
411.422	492.6
411.8	484.92
412.178	503.9
412.555	505.93
412.933	512.71
413.31	509.1
413.687	514.52
414.065	487.4
414.442	494.41
414.819	505.71
415.197	511.58
415.574	503.22
415.951	516.33
416.328	524.24
416.705	507.97
417.082	544.12
417.46	520.4
417.837	545.03
418.214	540.96
418.591	534.41
418.967	524.69
419.344	545.03
419.721	563.78
420.098	538.47
420.475	536.44
420.852	540.51
421.228	557.68
421.605	559.49
421.982	563.33
422.358	574.63
422.735	598.81
423.111	570.34
423.488	582.09
423.864	600.17
424.241	578.93
424.617	593.16
424.994	616.89
425.37	592.94
425.746	614.63
426.123	589.55
426.499	592.26
426.875	612.14
427.251	622.09
427.627	627.06
428.003	627.96
428.379	649.88
428.756	628.87
429.132	660.73
429.507	671.13
429.883	649.21
430.259	667.96
430.635	670.22
431.011	680.39
431.387	693.27
431.763	695.08
432.138	682.65
432.514	724.68
432.89	696.44
433.265	713.39
433.641	697.57
434.016	719.03
434.392	744.8
434.767	729.43
435.143	727.17
435.518	766.72
435.894	764.91
436.269	768.98
436.644	781.86
437.02	789.32
437.395	791.35
437.77	792.93
438.145	797.9
438.52	815.53
438.895	784.34
439.271	813.27
439.646	831.8
440.021	851.23
440.395	821.86
440.77	850.56
441.145	841.29
441.52	844
441.895	854.4
442.27	864.79
442.645	846.04
443.019	865.92
443.394	880.16
443.769	881.74
444.143	891.23
444.518	873.16
444.892	885.36
445.267	912.25
445.641	910.22
446.016	901.18
446.39	908.18
446.764	905.24
447.139	920.84
447.513	906.83
447.887	948.41
448.262	936.2
448.636	969.2
449.01	952.7
449.384	949.76
449.758	982.76
450.132	951.35
450.506	990.44
450.88	969.42
451.254	1004.68
451.628	1039.7
452.002	1008.07
452.376	1025.24
452.75	1048.97
453.123	1034.28
453.497	1065.24
453.871	1065.92
454.244	1071.34
454.618	1090.32
454.992	1096.65
455.365	1116.31
455.739	1119.7
456.112	1148.4
456.486	1173.94
456.859	1144.56
457.232	1191.79
457.606	1178.46
457.979	1209.64
458.352	1232.24
458.725	1212.36
459.099	1229.76
459.472	1250.32
459.845	1261.17
460.218	1339.58
460.591	1294.39
460.964	1308.4
461.337	1309.53
461.71	1357.21
462.083	1406.93
462.456	1376.87
462.829	1400.6
463.201	1407.6
463.574	1444.89
463.947	1408.51
464.32	1476.53
464.692	1481.95
465.065	1522.4
465.438	1531.89
465.81	1562.18
466.183	1569.41
466.555	1618.9
466.928	1646.24
467.3	1601.27
467.672	1656.19
468.045	1720.36
468.417	1726.24
468.789	1731.44
469.161	1757.2
469.534	1772.57
469.906	1849.17
470.278	1856.86
470.65	1905.22
471.022	1916.52
471.394	1974.14
471.766	2010.75
472.138	1992.67
472.51	2077.64
472.882	2147.92
473.253	2137.08
473.625	2203.29
473.997	2247.58
474.369	2291.65
474.74	2327.58
475.112	2396.96
475.484	2453.68
475.855	2481.25
476.227	2530.29
476.598	2638.98
476.97	2681.02
477.341	2768.7
477.713	2880.79
478.084	2861.8
478.455	3006.88
478.827	3043.49
479.198	3131.4
479.569	3201.23
479.94	3302.47
480.311	3358.51
480.682	3464.95
481.053	3629.69
481.424	3689.8
481.795	3772.74
482.166	3862.45
482.537	3938.61
482.908	4101.32
483.279	4231.71
483.65	4309.9
484.021	4419.5
484.391	4545.15
484.762	4614.75
485.133	4690.23
485.503	4831.02
485.874	5041.86
486.244	5088.41
486.615	5244.79
486.985	5382.64
487.356	5502.64
487.726	5637.1
488.097	5772.69
488.467	5896.75
488.837	6073.02
489.207	6165.45
489.578	6377.42
489.948	6461.93
490.318	6709.61
490.688	6747.35
491.058	6932.88
491.428	7090.62
491.798	7193.44
492.168	7416.49
492.538	7513.88
492.908	7660.32
493.278	7863.03
493.648	7948.68
494.017	8128.33
494.387	8298.72
494.757	8398.83
495.126	8556.34
495.496	8640.63
495.866	8767.41
496.235	8902.1
496.605	9100.06
496.974	9259.38
497.344	9362.65
497.713	9438.35
498.082	9548.63
498.452	9793.82
498.821	9824.78
499.19	9906.82
499.559	10045.12
499.928	10257.09
500.298	10301.83
500.667	10439.01
501.036	10482.17
501.405	10623.18
501.774	10714.48
502.143	10822.27
502.512	10909.28
502.88	11047.58
503.249	11073.79
503.618	11236.72
503.987	11278.31
504.356	11354.91
504.724	11468.58
505.093	11585.19
505.462	11594
505.83	11695.47
506.199	11937.04
506.567	12011.62
506.936	12019.3
507.304	12215.68
507.672	12180.2
508.041	12297.04
508.409	12403.93
508.777	12500.87
509.145	12552.62
509.514	12603.69
509.882	12696.57
510.25	12814.99
510.618	12832.39
510.986	12836
511.354	12894.53
511.722	13050.01
512.09	13290.46
512.458	13104.02
512.826	13225.6
513.193	13276.22
513.561	13387.4
513.929	13505.82
514.297	13564.35
514.664	13656.77
515.032	13583.78
515.4	13708.98
515.767	13714.17
516.135	13825.58
516.502	13717.11
516.869	13998.69
517.237	13986.93
517.604	13867.84
517.972	14105.58
518.339	14077.78
518.706	14060.38
519.073	14071.9
519.44	14193.71
519.808	14330.43
520.175	14278.9
520.542	14470.54
520.909	14414.04
521.276	14471.44
521.643	14469.41
522.009	14644.32
522.376	14673.47
522.743	14653.36
523.11	14737.65
523.477	14792.56
523.843	14868.04
524.21	14953.46
524.577	14986.46
524.943	14988.49
525.31	15035.72
525.676	15145.32
526.043	15121.82
526.409	15245.43
526.776	15237.3
527.142	15234.36
527.508	15324.3
527.874	15372.66
528.241	15315.49
528.607	15376.73
528.973	15471.42
529.339	15371.98
529.705	15463.05
530.071	15497.86
530.437	15467.8
530.803	15563.16
531.169	15453.56
531.535	15471.19
531.901	15380.12
532.267	15438.2
532.632	15543.73
532.998	15501.47
533.364	15529.72
533.73	15567.46
534.095	15574.01
534.461	15567.23
534.826	15595.93
535.192	15518.87
535.557	15600.9
535.923	15525.88
536.288	15560.68
536.653	15563.62
537.019	15461.7
537.384	15517.06
537.749	15419.44
538.114	15408.37
538.479	15404.52
538.845	15369.95
539.21	15374.24
539.575	15310.29
539.94	15279.33
540.305	15409.04
540.67	15204.08
541.034	15208.15
541.399	15303.51
541.764	15237.52
542.129	15226.68
542.494	15211.08
542.858	15145.55
543.223	15129.73
543.587	15090.63
543.952	15069.62
544.316	15096.06
544.681	15046.34
545.045	15049.28
545.41	15021.03
545.774	14959.79
546.138	14934.03
546.503	14848.15
546.867	14768.83
547.231	14972.67
547.595	14875.5
547.959	14758.44
548.324	14716.18
548.688	14708.95
549.052	14678.44
549.416	14698.78
549.779	14603.64
550.143	14601.83
550.507	14653.13
550.871	14663.98
551.235	14559.57
551.599	14613.81
551.962	14547.15
552.326	14596.64
552.689	14523.64
553.053	14480.71
553.417	14466.7
553.78	14558.67
554.143	14410.65
554.507	14501.27
554.87	14381.5
555.234	14470.54
555.597	14362.52
555.96	14377.21
556.323	14308.28
556.686	14338.11
557.05	14354.61
557.413	14313.25
557.776	14264.22
558.139	14416.3
558.502	14343.31
558.865	14282.07
559.228	14336.76
559.59	14340.6
559.953	14354.83
560.316	14420.14
560.679	14344.44
561.041	14486.58
561.404	14390.99
561.767	14448.84
562.129	14422.86
562.492	14516.64
562.854	14364.55
563.217	14441.61
563.579	14484.77
563.941	14471.89
564.304	14501.5
564.666	14566.13
565.028	14539.01
565.39	14492.01
565.753	14550.08
566.115	14626.01
566.477	14610.19
566.839	14569.97
567.201	14681.83
567.563	14642.96
567.925	14643.41
568.287	14674.83
568.648	14650.42
569.01	14693.36
569.372	14819
569.734	14700.81
570.095	14761.38
570.457	14802.96
570.819	14771.55
571.18	14751.21
571.542	14896.29
571.903	14796.4
572.265	14814.03
572.626	14908.72
572.987	14934.71
573.349	14846.8
573.71	14906.68
574.071	14897.65
574.432	14909.85
574.794	14999.11
575.155	14917.08
575.516	14930.64
575.877	14877.31
576.238	14991.65
576.599	15016.06
576.96	15053.57
577.32	15002.73
577.681	14902.62
578.042	14975.38
578.403	14994.37
578.763	15082.95
579.124	15036.4
579.485	15154.36
579.845	15181.25
580.206	15106.23
580.566	15008.38
580.927	15022.61
581.287	15155.27
581.648	15030.97
582.008	15120.69
582.368	15090.18
582.728	15049.05
583.089	14994.59
583.449	15026.23
583.809	14951.88
584.169	15084.53
584.529	14962.95
584.889	15137.86
585.249	14895.84
585.609	14946.23
585.969	14975.61
586.329	14974.03
586.688	14968.83
587.048	14889.28
587.408	14929.96
587.768	14810.42
588.127	14886.35
588.487	14863.97
588.846	14991.43
589.206	14819.91
589.565	14935.84
589.925	14942.16
590.284	14895.61
590.643	14880.24
591.003	14882.05
591.362	14960.92
591.721	14844.99
592.08	14919.11
592.44	14874.37
592.799	14890.87
593.158	14776.52
593.517	14757.31
593.876	14782.17
594.235	14759.12
594.593	14785.78
594.952	14803.86
595.311	14734.94
595.67	14755.28
596.029	14826.23
596.387	14824.65
596.746	14760.7
597.104	14793.01
597.463	14756.86
597.822	14753.69
598.18	14742.17
598.538	14780.36
598.897	14771.77
599.255	14591.21
599.613	14898.32
599.972	14677.76
600.33	14739.91
600.688	14660.36
601.046	14831.66
601.404	14763.19
601.762	14765.22
602.12	14827.14
602.478	14809.29
602.836	14800.25
603.194	14767.48
603.552	14767.03
603.91	14700.59
604.268	14775.61
604.625	14657.88
604.983	14841.6
605.341	14733.81
605.698	14713.7
606.056	14816.29
606.413	14729.29
606.771	14845.44
607.128	14821.49
607.485	14656.52
607.843	14807.48
608.2	14822.84
608.557	14798.66
608.914	14786.91
609.272	14892.22
609.629	14817.42
609.986	14863.97
610.343	14847.25
610.7	15019.22
611.057	14945.78
611.414	14916.18
611.771	14959.56
612.127	14939
612.484	14947.81
612.841	14919.57
613.198	14945.1
613.554	14991.2
613.911	15002.73
614.267	15019.9
614.624	14989.39
614.98	14992.11
615.337	15066.91
615.693	15028.04
616.05	15067.36
616.406	15171.99
616.762	15045.89
617.118	15189.61
617.475	15156.62
617.831	15170.18
618.187	15191.87
618.543	15202.72
618.899	15160.91
619.255	15211.31
619.611	15218.31
619.967	15248.14
620.323	15300.12
620.678	15188.71
621.034	15125.44
621.39	15183.97
621.746	15101.26
622.101	15272.32
622.457	15166.79
622.812	15158.43
623.168	15180.8
623.523	15204.98
623.879	15282.72
624.234	15199.56
624.589	15297.18
624.945	15240.69
625.3	15291.53
625.655	15200.69
626.01	15269.39
626.365	15207.47
626.72	15192.33
627.075	15233.68
627.43	15312.1
627.785	15148.71
628.14	15285.43
628.495	15199.56
628.85	15211.76
629.205	15159.56
629.559	15178.32
629.914	15132.89
630.269	15175.38
630.623	15063.52
630.978	14999.79
631.332	15157.07
631.687	15147.36
632.041	15040.92
632.396	15150.52
632.75	15004.08
633.104	15021.48
633.459	14998.43
633.813	14979.45
634.167	14978.77
634.521	14934.71
634.875	14944.88
635.229	14947.36
635.583	14874.59
635.937	14930.19
636.291	14935.38
636.645	14864.2
636.999	14855.61
637.352	14828.27
637.706	14743.07
638.06	14850.41
638.413	14858.55
638.767	14785.56
639.121	14799.12
639.474	14679.8
639.828	14689.97
640.181	14678.44
640.534	14762.28
640.888	14701.72
641.241	14671.21
641.594	14606.13
641.947	14616.97
642.301	14621.72
642.654	14683.41
643.007	14624.66
643.36	14637.09
643.713	14656.3
644.066	14725.45
644.419	14595.05
644.771	14522.29
645.124	14400.26
645.477	14383.99
645.83	14298.79
646.182	14169.75
646.535	14215.86
646.888	14195.74
647.24	14122.07
647.593	14113.94
647.945	14140.83
648.298	13983.77
648.65	14073.49
649.002	13994.39
649.355	14066.48
649.707	14056.09
650.059	14115.74
650.411	14363.65
650.763	14291.33
651.115	14434.15
651.467	14433.7
651.819	14377.21
652.171	14404.32
652.523	14396.87
652.875	14436.19
653.227	14361.84
653.578	14515.73
653.93	14445.91
654.282	14421.95
654.633	14316.19
654.985	14398.68
655.337	14356.19
655.688	14433.02
656.039	14513.7
656.391	14316.42
656.742	14385.79
657.094	14436.87
657.445	14522.06
657.796	14416.3
658.147	14372.46
658.498	14374.27
658.849	14420.37
659.2	14355.51
659.551	14316.19
659.902	14480.71
660.253	14363.42
660.604	14438.9
660.955	14359.58
661.306	14458.11
661.656	14472.35
662.007	14449.52
662.358	14498.11
662.708	14360.26
663.059	14419.01
663.409	14284.78
663.76	14417.21
664.11	14497.43
664.461	14433.02
664.811	14482.06
665.161	14483.87
665.511	14461.95
665.862	14456.07
666.212	14501.05
666.562	14506.92
666.912	14459.24
667.262	14434.38
667.612	14461.5
667.962	14446.13
668.312	14428.96
668.662	14580.59
669.011	14483.64
669.361	14453.14
669.711	14362.29
670.06	14472.35
670.41	14322.07
670.76	14324.1
671.109	14383.08
671.459	14298.11
671.808	14408.17
672.157	14388.51
672.507	14294.72
672.856	14285.46
673.205	14415.62
673.554	14418.56
673.904	14259.24
674.253	14282.07
674.602	14312.58
674.951	14050.66
675.3	14014.5
675.649	14261.5
675.998	14206.36
676.346	14229.64
676.695	14233.03
677.044	14168.17
677.393	14275.51
677.741	14230.32
678.09	14140.38
678.438	14239.13
678.787	14112.13
679.135	14139.47
679.484	14059.02
679.832	14092.92
680.181	13962.98
680.529	13990.1
680.877	14019.7
681.225	13962.75
681.573	14048.18
681.922	13923.66
682.27	13939.48
682.618	13918.69
682.966	13876.88
683.314	13950.1
683.661	13879.82
684.009	13825.81
684.357	13814.06
684.705	13809.31
685.053	13782.65
685.4	13707.85
685.748	13706.26
686.095	13604.12
686.443	13563.89
686.79	13575.87
687.138	13560.28
687.485	13544.91
687.832	13484.8
688.18	13466.27
688.527	13445.71
688.874	13432.37
689.221	13421.07
689.568	13377.68
689.915	13295.88
690.262	13238.03
690.609	13266.05
690.956	13235.32
691.303	13141.53
691.65	13091.82
691.997	13084.13
692.344	13092.27
692.69	12973.63
693.037	12936.79
693.383	12836.46
693.73	12887.08
694.077	12845.72
694.423	12828.09
694.769	12737.48
695.116	12578.84
695.462	12667.2
695.808	12580.19
696.155	12629.68
696.501	12609.57
696.847	12441.44
697.193	12438.95
697.539	12506.52
697.885	12321.22
698.231	12378.62
698.577	12313.08
698.923	12299.75
699.269	12226.08
699.614	12108.11
699.96	12082.13
700.306	12100.43
700.651	12006.65
700.997	11979.98
701.342	11918.29
701.688	11915.12
702.033	11829.7
702.379	11805.97
702.724	11773.66
703.069	11800.1
703.415	11663.15
703.76	11665.19
704.105	11688.69
704.45	11608.01
704.795	11569.6
705.14	11535.7
705.485	11475.14
705.83	11424.74
706.175	11354.46
706.52	11398.98
706.865	11298.19
707.209	11291.41
707.554	11278.31
707.899	11288.93
708.243	11194.69
708.588	11244.63
708.932	11177.74
709.277	11125.54
709.621	11140
709.966	11079.44
710.31	11145.2
710.654	10964.19
710.998	10936.85
711.342	10936.39
711.687	10904.98
712.031	10840.12
712.375	10814.59
712.719	10843.51
713.063	10822.95
713.407	10842.61
713.75	10766.91
714.094	10829.05
714.438	10724.42
714.782	10735.04
715.125	10628.15
715.469	10726
715.812	10602.39
716.156	10614.37
716.499	10535.5
716.843	10617.76
717.186	10537.99
717.53	10523.97
717.873	10582.28
718.216	10565.78
718.559	10466.58
718.902	10467.7
719.246	10375.05
719.589	10429.29
719.932	10365.33
720.275	10393.58
720.617	10294.6
720.96	10355.17
721.303	10304.32
721.646	10368.95
721.989	10293.92
722.331	10361.27
722.674	10312
723.016	10285.79
723.359	10265
723.701	10301.61
724.044	10269.07
724.386	10186.13
724.729	10277.88
725.071	10273.13
725.413	10224.32
725.755	10214.38
726.097	10183.42
726.439	10134.38
726.782	10143.19
727.124	10195.85
727.465	10165.11
727.807	10138.67
728.149	10151.33
728.491	10164.66
728.833	10115.4
729.175	10101.84
729.516	10060.26
729.858	10142.29
730.199	10119.24
730.541	10065.91
730.882	10069.52
731.224	10131.89
731.565	10071.78
731.906	10084.21
732.248	10054.38
732.589	10019.81
732.93	10008.28
733.271	10053.03
733.612	10114.04
733.953	10084.89
734.294	10031.33
734.635	10045.34
734.976	10051.44
735.317	10074.49
735.658	9986.14
735.999	10029.75
736.339	10038.11
736.68	10130.76
737.021	10110.65
737.361	10027.72
737.702	10125.34
738.042	10040.82
738.383	10059.58
738.723	10145
739.063	10061.84
739.404	10132.12
739.744	10042.18
740.084	10078.11
740.424	10171.67
740.764	10080.37
741.104	10175.06
741.444	10159.24
741.784	10160.82
742.124	10246.69
742.464	10229.97
742.804	10191.78
743.143	10220.03
743.483	10259.35
743.823	10243.76
744.162	10279.69
744.502	10309.97
744.841	10365.11
745.181	10454.6
745.52	10468.38
745.86	10525.33
746.199	10491.89
746.538	10457.08
746.877	10694.37
747.216	10615.27
747.556	10649.85
747.895	10750.86
748.234	10755.38
748.573	10782.5
748.911	10851.65
749.25	10934.59
749.589	11055.49
749.928	11080.34
750.267	11143.17
750.605	11220.23
750.944	11302.49
751.283	11327.8
751.621	11445.31
751.96	11520.33
752.298	11592.87
752.636	11705.64
752.975	11764.62
753.313	11873.09
753.651	11992.86
753.989	12131.84
754.327	12252.06
754.666	12234.89
755.004	12448.44
755.342	12606.41
755.679	12756.46
756.017	12787.87
756.355	12996.45
