Data from hue_300_FLMS001491_00005.txt Node
Date: Tue Feb 07 15:49:38 GMT 2017
User: dcchb
Spectrometer: FLMS00149
Trigger mode: 0
Integration Time (sec): 2.000000E-2
Scans to average: 10
Electric dark correction enabled: true
Nonlinearity correction enabled: false
Boxcar width: 0
XAxis mode: Wavelengths
Number of Pixels in Spectrum: 2048
>>>>>Begin Spectral Data<<<<<
341.393	-5.42
341.776	-5.42
342.16	-5.42
342.543	-51.75
342.927	-76.16
343.31	-68.02
343.693	-76.83
344.077	-59.89
344.46	-83.61
344.843	-41.35
345.226	-31.86
345.61	-32.54
345.993	-13.11
346.376	-10.17
346.759	19.66
347.142	29.15
347.525	42.71
347.908	68.92
348.291	74.35
348.674	77.74
349.057	104.86
349.44	134.01
349.823	136.72
350.206	165.42
350.588	195.93
350.971	211.97
351.354	215.36
351.737	232.99
352.119	244.06
352.502	259.2
352.884	263.04
353.267	277.51
353.65	280.44
354.032	310.73
354.414	283.38
354.797	308.47
355.179	306.88
355.562	298.75
355.944	313.89
356.326	323.38
356.709	344.62
357.091	317.73
357.473	328.13
357.855	334.23
358.238	326.32
358.62	335.58
359.002	319.31
359.384	342.59
359.766	331.74
360.148	335.58
360.53	334.68
360.912	335.58
361.294	338.97
361.676	306.21
362.057	324.74
362.439	324.06
362.821	325.19
363.203	321.57
363.584	322.7
363.966	313.44
364.348	313.89
364.729	319.09
365.111	312.76
365.493	306.43
365.874	315.02
366.256	321.57
366.637	310.27
367.019	307.34
367.4	320.22
367.781	324.74
368.163	330.39
368.544	316.15
368.925	310.95
369.306	325.42
369.688	311.86
370.069	316.6
370.45	322.93
370.831	298.98
371.212	322.48
371.593	324.29
371.974	308.92
372.355	319.77
372.736	325.64
373.117	307.11
373.498	304.62
373.879	328.58
374.26	316.6
374.641	311.4
375.021	323.61
375.402	294.91
375.783	338.75
376.163	306.66
376.544	326.55
376.925	328.35
377.305	326.32
377.686	311.63
378.066	319.09
378.447	336.26
378.827	321.8
379.208	324.06
379.588	336.04
379.968	320.67
380.349	318.41
380.729	313.89
381.109	329.71
381.489	338.75
381.87	352.53
382.25	335.81
382.63	327
383.01	333.78
383.39	341.46
383.77	343.72
384.15	334
384.53	355.7
384.91	360.89
385.29	341.01
385.67	336.71
386.049	347.79
386.429	347.56
386.809	350.95
387.189	352.08
387.568	369.48
387.948	357.05
388.328	357.05
388.707	368.8
389.087	339.2
389.466	367.22
389.846	353.21
390.225	369.71
390.605	359.76
390.984	364.06
391.363	366.54
391.743	377.39
392.122	366.32
392.501	365.64
392.881	378.75
393.26	370.39
393.639	389.59
394.018	371.29
394.397	357.28
394.776	407.22
395.155	385.98
395.534	381.91
395.913	401.35
396.292	403.61
396.671	406.09
397.05	399.99
397.429	393.21
397.808	414.9
398.186	374.68
398.565	388.69
398.944	408.58
399.323	402.48
399.701	417.39
400.08	391.63
400.458	391.63
400.837	411.97
401.215	409.71
401.594	397.5
401.972	406.99
402.351	414.45
402.729	407.45
403.107	416.03
403.486	424.4
403.864	432.08
404.242	458.97
404.62	432.76
404.999	430.72
405.377	444.06
405.755	429.14
406.133	441.12
406.511	447.67
406.889	483.83
407.267	477.05
407.645	471.85
408.023	479.99
408.401	471.4
408.779	506.88
409.156	490.16
409.534	486.54
409.912	496.03
410.29	526.31
410.667	504.85
411.045	511.4
411.422	530.83
411.8	543.49
412.178	545.52
412.555	550.72
412.933	555.92
413.31	566.99
413.687	566.09
414.065	574.67
414.442	562.02
414.819	589.59
415.197	614.45
415.574	611.51
415.951	624.16
416.328	623.71
416.705	640.89
417.082	614.22
417.46	634.56
417.837	657.16
418.214	670.04
418.591	670.94
418.967	672.52
419.344	673.65
419.721	687.67
420.098	691.96
420.475	709.13
420.852	727.89
421.228	704.16
421.605	723.14
421.982	741
422.358	762.47
422.735	753.65
423.111	760.88
423.488	740.09
423.864	787.78
424.241	781.9
424.617	802.24
424.994	784.39
425.37	814.22
425.746	841.79
426.123	838.17
426.499	844.72
426.875	864.16
427.251	883.82
427.627	894.21
428.003	864.38
428.379	908.68
428.756	908
429.132	896.02
429.507	946.19
429.883	961.1
430.259	935.79
430.635	975.12
431.011	962.23
431.387	985.06
431.763	992.06
432.138	1000.2
432.514	1023.25
432.89	1041.33
433.265	1049.01
433.641	1072.51
434.016	1050.37
434.392	1058.73
434.767	1091.95
435.143	1085.17
435.518	1110.25
435.894	1118.16
436.269	1117.71
436.644	1131.95
437.02	1133.08
437.395	1148.67
437.77	1179.4
438.145	1181.89
438.52	1175.34
438.895	1192.96
439.271	1185.51
439.646	1211.49
440.021	1232.51
440.395	1222.34
440.77	1248.78
441.145	1249.01
441.52	1255.79
441.895	1267.09
442.27	1294.66
442.645	1281.77
443.019	1290.59
443.394	1294.2
443.769	1329.91
444.143	1286.52
444.518	1305.95
444.892	1324.03
445.267	1303.24
445.641	1308.44
446.016	1343.02
446.39	1340.76
446.764	1358.38
447.139	1335.33
447.513	1371.04
447.887	1332.62
448.262	1345.05
448.636	1358.16
449.01	1397.48
449.384	1360.42
449.758	1378.72
450.132	1401.09
450.506	1388.21
450.88	1400.64
451.254	1402.22
451.628	1394.09
452.002	1404.71
452.376	1416.23
452.75	1437.93
453.123	1431.6
453.497	1463.69
453.871	1480.64
454.244	1482.22
454.618	1510.69
454.992	1487.87
455.365	1496.68
455.739	1523.35
456.112	1532.84
456.486	1525.38
456.859	1533.97
457.232	1574.2
457.606	1549.11
457.979	1545.72
458.352	1636.79
458.725	1606.29
459.099	1611.71
459.472	1602.67
459.845	1607.42
460.218	1645.83
460.591	1664.36
460.964	1677.92
461.337	1710.24
461.71	1736.68
462.083	1713.4
462.456	1693.74
462.829	1700.97
463.201	1732.16
463.574	1768.77
463.947	1768.77
464.32	1769.44
464.692	1789.78
465.065	1820.97
465.438	1833.17
465.81	1824.13
466.183	1856.9
466.555	1871.14
466.928	1895.09
467.3	1899.39
467.672	1910.91
468.045	1954.75
468.417	1940.74
468.789	1938.93
469.161	1955.88
469.534	1973.28
469.906	2016.9
470.278	2046.5
470.65	2084.01
471.022	2057.12
471.394	2078.59
471.766	2098.25
472.138	2105.48
472.51	2116.55
472.882	2151.36
473.253	2177.12
473.625	2177.8
473.997	2212.6
474.369	2232.71
474.74	2234.74
475.112	2250.56
475.484	2272.26
475.855	2310.22
476.227	2304.8
476.598	2390.45
476.97	2397.45
477.341	2429.31
477.713	2441.74
478.084	2449.2
478.455	2484
478.827	2498.24
479.198	2525.36
479.569	2509.09
479.94	2600.61
480.311	2611.68
480.682	2628.86
481.053	2673.38
481.424	2719.48
481.795	2749.76
482.166	2731.68
482.537	2769.42
482.908	2824.11
483.279	2829.98
483.65	2884.9
484.021	2903.65
484.391	2918.57
484.762	2924.67
485.133	2947.49
485.503	2978.9
485.874	3044.44
486.244	3066.59
486.615	3107.04
486.985	3102.07
487.356	3120.37
487.726	3186.36
488.097	3213.02
488.467	3225.45
488.837	3294.6
489.207	3265.22
489.578	3361.72
489.948	3311.55
490.318	3380.02
490.688	3360.36
491.058	3389.74
491.428	3416.41
491.798	3448.5
492.168	3508.38
492.538	3528.27
492.908	3560.81
493.278	3571.21
493.648	3531.21
494.017	3600.13
494.387	3644.65
494.757	3702.05
495.126	3655.5
495.496	3658.43
495.866	3675.38
496.235	3716.06
496.605	3818.66
496.974	3723.74
497.344	3777.53
497.713	3749.05
498.082	3827.7
498.452	3837.41
498.821	3841.03
499.19	3821.14
499.559	3866.56
499.928	3875.38
500.298	3937.52
500.667	3905.89
501.036	3922.16
501.405	3973
501.774	3930.74
502.143	3978.88
502.512	3942.95
502.88	4023.17
503.249	4033.79
503.618	4011.65
503.987	4057.07
504.356	4072.89
504.724	4063.62
505.093	4111.3
505.462	4062.04
505.83	4120.8
506.199	4123.96
506.567	4111.98
506.936	4137.29
507.304	4179.78
507.672	4159.89
508.041	4188.14
508.409	4234.92
508.777	4223.84
509.145	4263.84
509.514	4254.8
509.882	4276.27
510.25	4281.02
510.618	4325.31
510.986	4332.99
511.354	4330.28
511.722	4361.69
512.09	4400.56
512.458	4330.28
512.826	4350.85
513.193	4393.78
513.561	4346.78
513.929	4405.76
514.297	4393.33
514.664	4471.29
515.032	4464.06
515.4	4501.12
515.767	4492.76
516.135	4522.37
516.502	4481.92
516.869	4511.52
517.237	4510.16
517.604	4521.69
517.972	4588.58
518.339	4585.87
518.706	4537.96
519.073	4582.48
519.44	4612.99
519.808	4627.67
520.175	4639.43
520.542	4637.84
520.909	4654.57
521.276	4686.66
521.643	4699.54
522.009	4692.76
522.376	4697.05
522.743	4751.51
523.11	4748.12
523.477	4830.61
523.843	4841.91
524.21	4826.77
524.577	4856.37
524.943	4856.82
525.31	4891.4
525.676	4928.01
526.043	4956.25
526.409	5011.39
526.776	5029.25
527.142	4984.28
527.508	5050.94
527.874	5055.69
528.241	5037.83
528.607	5139.53
528.973	5157.38
529.339	5138.4
529.705	5190.82
530.071	5209.35
530.437	5177.49
530.803	5218.17
531.169	5277.6
531.535	5240.54
531.901	5276.47
532.267	5328.9
532.632	5346.98
532.998	5357.83
533.364	5396.24
533.73	5433.98
534.095	5394.43
534.461	5420.87
534.826	5478.5
535.192	5484.83
535.557	5546.52
535.923	5524.83
536.288	5527.09
536.653	5600.53
537.019	5505.17
537.384	5611.15
537.749	5677.14
538.114	5614.54
538.479	5612.51
538.845	5689.79
539.21	5678.27
539.575	5737.7
539.94	5748.78
540.305	5739.96
540.67	5805.5
541.034	5813.86
541.399	5819.73
541.764	5835.33
542.129	5897.02
542.494	5854.76
542.858	5843.46
543.223	5902.9
543.587	5939.5
543.952	5966.4
544.316	6031.93
544.681	5974.08
545.045	6068.54
545.41	6076.45
545.774	6116
546.138	6090.46
546.503	6158.26
546.867	6171.36
547.231	6215.66
547.595	6181.31
547.959	6221.76
548.324	6265.6
548.688	6283
549.052	6232.83
549.416	6331.13
549.779	6378.36
550.143	6306.05
550.507	6361.41
550.871	6421.75
551.235	6387.85
551.599	6395.76
551.962	6431.7
552.326	6399.83
552.689	6538.13
553.053	6471.47
553.417	6476.67
553.78	6568.19
554.143	6515.08
554.507	6549.21
554.87	6582.88
555.234	6649.09
555.597	6622.42
555.96	6620.39
556.323	6711.24
556.686	6640.5
557.05	6721.63
557.413	6720.5
557.776	6772.03
558.139	6777
558.502	6722.31
558.865	6756.21
559.228	6832.59
559.59	6825.36
559.953	6849.76
560.316	6886.6
560.679	6904
561.041	6932.47
561.404	7008.86
561.767	7036.65
562.129	6917.33
562.492	7047.95
562.854	7006.82
563.217	7066.48
563.579	7027.39
563.941	7047.27
564.304	7151.9
564.666	7106.48
565.028	7178.34
565.39	7135.18
565.753	7199.58
566.115	7257.21
566.477	7262.41
566.839	7271.9
567.201	7260.6
567.563	7324.78
567.925	7380.37
568.287	7370.65
568.648	7385.34
569.01	7498.33
569.372	7464.66
569.734	7555.51
570.095	7508.05
570.457	7600.25
570.819	7639.35
571.18	7673.7
571.542	7712.34
571.903	7689.74
572.265	7786.69
572.626	7814.71
572.987	7847.7
573.349	7838.66
573.71	7923.63
574.071	8024.2
574.432	8006.57
574.794	8112.56
575.155	8136.74
575.516	8122.05
575.877	8272.1
576.238	8237.07
576.599	8322.27
576.96	8418.99
577.32	8462.83
577.681	8579.21
578.042	8678.64
578.403	8694.23
578.763	8769.49
579.124	8889.71
579.485	8997.5
579.845	9189.36
580.206	9141.23
580.566	9250.38
580.927	9369.25
581.287	9526.76
581.648	9615.34
582.008	9899.85
582.368	9915.67
582.728	10142.33
583.089	10210.13
583.449	10357.24
583.809	10523.34
584.169	10794.97
584.529	10959.49
584.889	11225.69
585.249	11298.23
585.609	11454.61
585.969	11758.79
586.329	11865.68
586.688	12140.47
587.048	12334.36
587.408	12614.58
587.768	12809.83
588.127	13020.67
588.487	13177.51
588.846	13598.51
589.206	13819.98
589.565	14075.11
589.925	14349.68
590.284	14444.82
590.643	14859.5
591.003	15132.71
591.362	15477.79
591.721	15685.24
592.08	15957.77
592.44	16261.27
592.799	16571.09
593.158	16731.31
593.517	17143.96
593.876	17443.16
594.235	17582.81
594.593	17798.4
594.952	18399.97
595.311	18514.09
595.67	18891.03
596.029	19172.83
596.387	19642.87
596.746	19833.38
597.104	20137.78
597.463	20361.27
597.822	20731.88
598.18	20932.33
598.538	21249.61
598.897	21700.67
599.255	21747.22
599.613	22426.3
599.972	22467.21
600.33	22927.31
600.688	23086.17
601.046	23430.34
601.404	23856.32
601.762	24051.34
602.12	24384.22
602.478	24669.41
602.836	24944.65
603.194	25017.2
603.552	25531.98
603.91	25543.06
604.268	25942.37
604.625	26185.3
604.983	26376.48
605.341	26632.07
605.698	26992.96
606.056	27219.85
606.413	27356.12
606.771	27815.31
607.128	27936.21
607.485	27954.97
607.843	28370.1
608.2	28583.43
608.557	28933.7
608.914	29034.04
609.272	29344.77
609.629	29511.54
609.986	29874.47
610.343	30039.21
610.7	30353.55
611.057	30518.07
611.414	30658.18
611.771	30912.86
612.127	31175
612.484	31399.4
612.841	31576.34
613.198	31639.17
613.554	31850.24
613.911	32055.88
614.267	32306.72
614.624	32361.18
614.98	32586.04
615.337	32838.68
615.693	32888.17
616.05	33070.99
616.406	33506.46
616.762	33362.96
617.118	33453.58
617.475	33752.33
617.831	33910.07
618.187	34141.48
618.543	34109.61
618.899	34430.96
619.255	34424.41
619.611	34439.77
619.967	34747.56
620.323	34892.42
620.678	34906.43
621.034	34897.39
621.39	35001.57
621.746	35160.43
622.101	35669.8
622.457	35496.02
622.812	35533.3
623.168	35666.63
623.523	35794.09
623.879	35953.18
624.234	35757.25
624.589	36099.39
624.945	36153.17
625.3	36267.29
625.655	36140.97
626.01	36307.52
626.365	36620.05
626.72	36534.18
627.075	36556.55
627.43	36662.54
627.785	36723.1
628.14	36712.26
628.495	36765.14
628.85	36924.23
629.205	36890.33
629.559	37140.94
629.914	36829.09
630.269	36991.8
630.623	36957.9
630.978	36798.81
631.332	37169.19
631.687	37257.1
632.041	37178.68
632.396	37306.59
632.75	37001.51
633.104	37236.08
633.459	37075.41
633.813	37199.93
634.167	37271.34
634.521	37184.33
634.875	37295.06
635.229	37371.9
635.583	37325.8
635.937	37317.89
636.291	37170.32
636.645	37265.69
636.999	37265.23
637.352	37410.54
637.706	37173.26
638.06	37283.99
638.413	37267.95
638.767	37201.06
639.121	37241.96
639.474	37063.66
639.828	37246.93
640.181	37120.61
640.534	37241.05
640.888	37006.71
641.241	37120.83
641.594	37015.75
641.947	37252.13
642.301	37125.13
642.654	37186.37
643.007	37135.29
643.36	37215.97
643.713	37215.74
644.066	37189.3
644.419	37098.01
644.771	36734.4
645.124	36432.04
645.477	36424.8
645.83	36288.76
646.182	36164.02
646.535	36167.18
646.888	36270.91
647.24	36022.33
647.593	36163.12
647.945	36198.82
648.298	36065.04
648.65	35848.1
649.002	35778.95
649.355	36084.47
649.707	36116.34
650.059	36124.7
650.411	36634.97
650.763	36728.07
651.115	36972.36
651.467	36878.35
651.819	36881.29
652.171	36678.13
652.523	36728.75
652.875	36796.77
653.227	36644.91
653.578	36947.5
653.93	36953.38
654.282	36634.29
654.633	36532.82
654.985	36645.82
655.337	36690.33
655.688	36611.92
656.039	36837.9
656.391	36636.55
656.742	36605.82
657.094	36745.02
657.445	36653.05
657.796	36603.56
658.147	36597.23
658.498	36600.17
658.849	36631.35
659.2	36798.58
659.551	36417.8
659.902	36696.21
660.253	36591.81
660.604	36598.13
660.955	36489.89
661.306	36633.39
661.656	36640.84
662.007	36609.21
662.358	36496.22
662.708	36573.95
663.059	36623.9
663.409	36309.78
663.76	36669.54
664.11	36643.33
664.461	36641.75
664.811	36551.36
665.161	36509.32
665.511	36476.56
665.862	36412.83
666.212	36485.14
666.562	36428.87
666.912	36408.53
667.262	36537.8
667.612	36497.57
667.962	36469.55
668.312	36387.07
668.662	36626.83
669.011	36378.03
669.361	36400.4
669.711	36496.44
670.06	36438.82
670.41	36433.17
670.76	36336.22
671.109	36416.67
671.459	36301.87
671.808	36405.14
672.157	36533.28
672.507	36286.5
672.856	36204.25
673.205	36195.66
673.554	36394.98
673.904	36239.5
674.253	36360.17
674.602	36237.24
674.951	35740.98
675.3	35613.3
675.649	36186.39
675.998	36114.3
676.346	36144.81
676.695	36207.41
677.044	35994.99
677.393	36122.89
677.741	36197.92
678.09	36112.04
678.438	35923.12
678.787	35972.16
679.135	35996.34
679.484	35764.94
679.832	35761.55
680.181	35629.57
680.529	35813.75
680.877	35589.8
681.225	35646.75
681.573	35869.11
681.922	35540.08
682.27	35450.59
682.618	35476.81
682.966	35432.74
683.314	35527.2
683.661	35470.48
684.009	35290.15
684.357	35136.7
684.705	35026.65
685.053	35037.72
685.4	35146.87
685.748	35048.8
686.095	35026.2
686.443	34894
686.79	34821.46
687.138	34820.55
687.485	34949.36
687.832	34701.91
688.18	34668.24
688.527	34533.56
688.874	34538.07
689.221	34472.77
689.568	34431.41
689.915	34198.65
690.262	34185.09
690.609	34053.79
690.956	34026.68
691.303	34073.91
691.65	33920.92
691.997	33887.24
692.344	33737.64
692.69	33738.32
693.037	33713.92
693.383	33483.19
693.73	33567.48
694.077	33427.82
694.423	33356.19
694.769	33229.63
695.116	33128.62
695.462	33086.59
695.808	32983.77
696.155	33095.4
696.501	32835.29
696.847	32819.48
697.193	32708.97
697.539	32793.94
697.885	32469.65
698.231	32362.09
698.577	32430.33
698.923	32449.99
699.269	32287.74
699.614	32087.74
699.96	32107.4
700.306	32006.62
700.651	31880.29
700.997	31679.84
701.342	31768.88
701.688	31776.57
702.033	31560.98
702.379	31590.58
702.724	31463.35
703.069	31569.79
703.415	31292.06
703.76	31200.08
704.105	31248.22
704.45	31157.6
704.795	30972.07
705.14	30847.55
705.485	30828.34
705.83	30630.61
706.175	30757.61
706.52	30701.11
706.865	30613.88
707.209	30469.03
707.554	30375.92
707.899	30519.65
708.243	30248.92
708.588	30275.59
708.932	30075.37
709.277	30085.54
709.621	30143.61
709.966	29851.42
710.31	30062.71
710.654	29607.81
710.998	29724.42
711.342	29782.72
711.687	29777.75
712.031	29517.42
712.375	29428.38
712.719	29457.3
713.063	29388.61
713.407	29517.87
713.75	29185.45
714.094	29290.08
714.438	29145.22
714.782	29119.23
715.125	29003.08
715.469	29058.67
715.812	28913.36
716.156	28805.34
716.499	28790.43
716.843	28820.03
717.186	28630.89
717.53	28801.05
717.873	28668.62
718.216	28585.46
718.559	28598.34
718.902	28259.6
719.246	28491.68
719.589	28247.62
719.932	28323.1
720.275	28215.98
720.617	28254.4
720.96	28156.77
721.303	28205.36
721.646	28182.99
721.989	27912.03
722.331	28183.21
722.674	27919.94
723.016	27947.74
723.359	27900.74
723.701	27903.9
724.044	27718.59
724.386	27519.73
724.729	27689.44
725.071	27586.17
725.413	27548.88
725.755	27623.23
726.097	27510.69
726.439	27407.87
726.782	27320.86
727.124	27514.98
727.465	27317.25
727.807	27402.44
728.149	27247.87
728.491	27255.1
728.833	27106.18
729.175	27164.71
729.516	27017.14
729.858	27069.34
730.199	27056.69
730.541	26972.17
730.882	27006.07
731.224	27073.19
731.565	26854.66
731.906	26968.1
732.248	26926.75
732.589	26865.06
732.93	26616.7
733.271	26788.9
733.612	26770.6
733.953	26782.8
734.294	26670.71
734.635	26590.94
734.976	26622.58
735.317	26435.46
735.658	26518.4
735.999	26505.07
736.339	26415.58
736.68	26546.42
737.021	26421.9
737.361	26399.31
737.702	26384.17
738.042	26228.91
738.383	26281.57
738.723	26287.67
739.063	26200.22
739.404	26221.01
739.744	26146.43
740.084	26053.33
740.424	25994.8
740.764	26045.64
741.104	26078.18
741.444	26008.36
741.784	25929.26
742.124	25900.79
742.464	25844.74
742.804	25835.25
743.143	25911.64
743.483	25743.73
743.823	25637.97
744.162	25776.27
744.502	25663.73
744.841	25576.05
745.181	25730.62
745.52	25575.15
745.86	25548.71
746.199	25601.59
746.538	25473.68
746.877	25507.35
747.216	25582.15
747.556	25525.88
747.895	25473.68
748.234	25233.46
748.573	25357.75
748.911	25373.57
749.25	25348.49
749.589	25134.25
749.928	25286.34
750.267	25297.64
750.605	25142.16
750.944	25224.65
751.283	25037.99
751.621	25200.24
751.96	24993.92
752.298	25059.45
752.636	25095.16
752.975	24840.25
753.313	24844.09
753.651	24951.21
753.989	24838.67
754.327	24697.66
754.666	24747.15
755.004	24679.58
755.342	24732.91
755.679	24677.77
756.017	24560.03
756.355	24574.72
756.693	24501.5
757.031	24538.56
757.368	24378.34
757.706	24382.18
758.044	24249.31
758.381	24482.52
758.719	24285.01
759.056	24289.53
759.394	24297.21
759.731	24040.5
