Data from hue_26_FLMS001491_00007.txt Node
Date: Tue Feb 07 17:13:29 GMT 2017
User: dcchb
Spectrometer: FLMS00149
Trigger mode: 0
Integration Time (sec): 2.000000E-2
Scans to average: 10
Electric dark correction enabled: true
Nonlinearity correction enabled: false
Boxcar width: 0
XAxis mode: Wavelengths
Number of Pixels in Spectrum: 2048
>>>>>Begin Spectral Data<<<<<
341.393	-13.78
341.776	-13.78
342.16	-13.78
342.543	-56.04
342.927	-57.85
343.31	-60.79
343.693	-83.39
344.077	-88.13
344.46	-58.3
344.843	-57.63
345.226	-43.61
345.61	-28.93
345.993	-0.9
346.376	-1.81
346.759	18.98
347.142	11.3
347.525	64.86
347.908	56.27
348.291	72.77
348.674	89.94
349.057	109.38
349.44	114.35
349.823	130.62
350.206	147.11
350.588	193.67
350.971	222.14
351.354	216.94
351.737	257.39
352.119	245.64
352.502	286.55
352.884	265.98
353.267	274.34
353.65	307.11
354.032	298.3
354.414	312.99
354.797	311.18
355.179	322.25
355.562	317.28
355.944	304.4
356.326	324.74
356.709	329.03
357.091	331.52
357.473	328.8
357.855	345.75
358.238	342.14
358.62	337.39
359.002	330.16
359.384	367.67
359.766	336.94
360.148	354.34
360.53	338.52
360.912	321.35
361.294	324.96
361.676	320.67
362.057	316.15
362.439	320.22
362.821	346.88
363.203	324.96
363.584	326.77
363.966	319.77
364.348	315.47
364.729	320.67
365.111	326.77
365.493	325.87
365.874	340.78
366.256	311.86
366.637	322.03
367.019	296.04
367.4	316.6
367.781	307.11
368.163	322.25
368.544	297.17
368.925	303.04
369.306	323.38
369.688	310.5
370.069	298.98
370.45	293.1
370.831	301.24
371.212	318.18
371.593	304.4
371.974	301.69
372.355	311.4
372.736	330.39
373.117	312.53
373.498	317.51
373.879	320.9
374.26	284.51
374.641	323.61
375.021	313.44
375.402	310.05
375.783	341.46
376.163	342.59
376.544	292.87
376.925	309.6
377.305	328.58
377.686	312.53
378.066	307.11
378.447	334
378.827	321.35
379.208	357.28
379.588	326.09
379.968	341.23
380.349	305.53
380.729	326.32
381.109	344.62
381.489	339.43
381.87	339.2
382.25	334
382.63	345.75
383.01	335.58
383.39	353.21
383.77	348.24
384.15	329.71
384.53	336.04
384.91	331.74
385.29	335.13
385.67	340.78
386.049	367.22
386.429	346.88
386.809	369.71
387.189	350.95
387.568	344.85
387.948	357.73
388.328	333.55
388.707	360.44
389.087	354.57
389.466	342.36
389.846	366.54
390.225	351.86
390.605	388.46
390.984	360.67
391.363	367
391.743	376.26
392.122	353.21
392.501	366.09
392.881	383.27
393.26	395.7
393.639	392.31
394.018	365.41
394.397	372.19
394.776	389.59
395.155	382.81
395.534	371.97
395.913	373.1
396.292	357.28
396.671	391.63
397.05	379.43
397.429	381.01
397.808	398.41
398.186	371.74
398.565	387.33
398.944	379.65
399.323	395.92
399.701	394.34
400.08	401.8
400.458	406.09
400.837	379.65
401.215	404.74
401.594	409.48
401.972	395.47
402.351	371.29
402.729	401.35
403.107	405.87
403.486	410.16
403.864	418.75
404.242	406.54
404.62	404.28
404.999	432.31
405.377	439.31
405.755	423.72
406.133	437.95
406.511	433.43
406.889	410.38
407.267	430.5
407.645	416.49
408.023	435.02
408.401	414.45
408.779	435.47
409.156	463.04
409.534	460.78
409.912	449.48
410.29	432.08
410.667	456.03
411.045	475.92
411.422	448.8
411.8	464.17
412.178	462.13
412.555	477.95
412.933	462.81
413.31	455.58
413.687	465.75
414.065	482.7
414.442	460.33
414.819	466.43
415.197	474.34
415.574	499.65
415.951	483.83
416.328	509.14
416.705	483.38
417.082	511.62
417.46	503.94
417.837	506.88
418.214	496.26
418.591	509.59
418.967	501
419.344	510.95
419.721	530.16
420.098	524.73
420.475	491.96
420.852	515.47
421.228	519.31
421.605	527.67
421.982	515.24
422.358	552.75
422.735	516.37
423.111	530.83
423.488	535.81
423.864	541.91
424.241	534.45
424.617	564.05
424.994	527.9
425.37	546.65
425.746	546.2
426.123	563.6
426.499	550.04
426.875	567.89
427.251	579.42
427.627	566.99
428.003	588.69
428.379	566.99
428.756	588.46
429.132	609.02
429.507	597.5
429.883	611.51
430.259	595.92
430.635	608.8
431.011	601.57
431.387	617.16
431.763	635.24
432.138	607.67
432.514	661.23
432.89	638.85
433.265	644.95
433.641	655.35
434.016	648.8
434.392	652.64
434.767	668.23
435.143	680.66
435.518	683.82
435.894	674.11
436.269	706.42
436.644	710.26
437.02	700.32
437.395	679.3
437.77	708.46
438.145	713.65
438.52	720.43
438.895	735.8
439.271	716.37
439.646	728.57
440.021	748.23
440.395	734.67
440.77	734.67
441.145	757.04
441.52	771.73
441.895	766.08
442.27	765.18
442.645	774.67
443.019	794.78
443.394	771.73
443.769	793.2
444.143	783.71
444.518	785.97
444.892	775.8
445.267	790.04
445.641	785.06
446.016	795.91
446.39	796.14
446.764	802.24
447.139	819.64
447.513	802.24
447.887	815.35
448.262	784.39
448.636	803.37
449.01	817.83
449.384	852.63
449.758	827.1
450.132	853.08
450.506	832.97
450.88	863.03
451.254	864.84
451.628	850.83
452.002	848.79
452.376	895.12
452.75	899.19
453.123	910.48
453.497	898.51
453.871	916.13
454.244	915.46
454.618	944.38
454.992	945.96
455.365	947.55
455.739	943.03
456.112	960.43
456.486	965.85
456.859	982.35
457.232	999.52
457.606	1002.46
457.979	1026.64
458.352	1004.27
458.725	1024.83
459.099	1024.38
459.472	1032.29
459.845	1067.32
460.218	1082.23
460.591	1078.84
460.964	1083.36
461.337	1112.06
461.71	1084.94
462.083	1112.51
462.456	1119.97
462.829	1122.46
463.201	1149.8
463.574	1167.88
463.947	1164.72
464.32	1192.74
464.692	1206.52
465.065	1199.97
465.438	1218.27
465.81	1252.85
466.183	1262.79
466.555	1261.21
466.928	1296.92
467.3	1309.34
467.672	1296.24
468.045	1322.45
468.417	1365.84
468.789	1322.9
469.161	1363.81
469.534	1375.33
469.906	1409.45
470.278	1418.04
470.65	1447.42
471.022	1465.27
471.394	1474.99
471.766	1477.02
472.138	1548.66
472.51	1552.95
472.882	1556.8
473.253	1595.89
473.625	1631.82
473.997	1621.88
474.369	1647.41
474.74	1673.18
475.112	1731.25
475.484	1731.93
475.855	1744.36
476.227	1776.9
476.598	1813.74
476.97	1890.57
477.341	1907.07
477.713	1910.91
478.084	1953.62
478.455	1971.02
478.827	2025.48
479.198	2084.24
479.569	2077.69
479.94	2147.06
480.311	2179.15
480.682	2215.76
481.053	2283.56
481.424	2307.51
481.795	2334.18
482.166	2374.17
482.537	2405.36
482.908	2476.55
483.279	2530.1
483.65	2541.4
484.021	2603.1
484.391	2667.5
484.762	2721.28
485.133	2699.82
485.503	2772.36
485.874	2825.69
486.244	2865.24
486.615	2899.13
486.985	2973.71
487.356	3043.99
487.726	3086.47
488.097	3133.48
488.467	3175.96
488.837	3228.16
489.207	3228.84
489.578	3319.23
489.948	3363.08
490.318	3425.67
490.688	3418.89
491.058	3493.69
491.428	3547.03
491.798	3544.31
492.168	3702.5
492.538	3730.52
492.908	3756.74
493.278	3783.4
493.648	3782.05
494.017	3859.33
494.387	3934.81
494.757	3954.02
495.126	4013.68
495.496	4058.42
495.866	4082.38
496.235	4100.46
496.605	4158.99
496.974	4193.56
497.344	4238.53
497.713	4243.96
498.082	4267.68
498.452	4333.22
498.821	4331.86
499.19	4376.83
499.559	4448.92
499.928	4452.99
500.298	4490.73
500.667	4551.74
501.036	4563.95
501.405	4533.21
501.774	4572.54
502.143	4663.83
502.512	4650.27
502.88	4757.16
503.249	4763.94
503.618	4804.17
503.987	4756.49
504.356	4805.3
504.724	4889.59
505.093	4874
505.462	4951.96
505.83	4940.89
506.199	4958.51
506.567	5041.9
506.936	5017.04
507.304	5092.97
507.672	5104.95
508.041	5134.33
508.409	5212.52
508.777	5196.93
509.145	5210.94
509.514	5220.2
509.882	5259.52
510.25	5237.38
510.618	5360.31
510.986	5334.77
511.354	5406.19
511.722	5397.6
512.09	5434.66
512.458	5390.82
512.826	5501.32
513.193	5487.77
513.561	5542.23
513.929	5561.21
514.297	5557.82
514.664	5642.79
515.032	5620.87
515.4	5746.97
515.767	5671.49
516.135	5641.21
516.502	5651.6
516.869	5782.67
517.237	5797.14
517.604	5786.51
517.972	5853.63
518.339	5904.25
518.706	5839.85
519.073	5901.54
519.44	5892.95
519.808	5972.5
520.175	5966.85
520.542	6025.15
520.909	6053.4
521.276	6066.06
521.643	6173.4
522.009	6137.01
522.376	6134.53
522.743	6177.24
523.11	6249.78
523.477	6289.78
523.843	6283
524.21	6405.71
524.577	6433.28
524.943	6431.47
525.31	6389.44
525.676	6448.42
526.043	6516.89
526.409	6562.99
526.776	6631.69
527.142	6630.33
527.508	6649.32
527.874	6687.96
528.241	6720.95
528.607	6783.32
528.973	6809.31
529.339	6809.54
529.705	6880.72
530.071	6934.05
530.437	7002.08
530.803	6975.41
531.169	7017.44
531.535	7016.54
531.901	7067.38
532.267	7097.21
532.632	7093.37
532.998	7245.23
533.364	7186.25
533.73	7208.62
534.095	7297.44
534.461	7332.24
534.826	7319.36
535.192	7303.76
535.557	7427.6
535.923	7370.43
536.288	7467.6
536.653	7501.05
537.019	7504.21
537.384	7433.48
537.749	7560.71
538.114	7573.59
538.479	7583.53
538.845	7688.16
539.21	7636.18
539.575	7710.08
539.94	7826.91
540.305	7743.75
540.67	7829.85
541.034	7863.52
541.399	7811.77
541.764	7860.58
542.129	7846.35
542.494	7951.43
542.858	7972.22
543.223	7984.87
543.587	8085.66
543.952	8064.42
544.316	8089.96
544.681	8094.93
545.045	8121.82
545.41	8215.6
545.774	8196.85
546.138	8268.03
546.503	8255.6
546.867	8247.01
547.231	8388.25
547.595	8365.88
547.959	8463.96
548.324	8403.39
548.688	8488.36
549.052	8521.36
549.416	8534.69
549.779	8514.13
550.143	8553.9
550.507	8627.57
550.871	8623.5
551.235	8541.92
551.599	8691.3
551.962	8694.46
552.326	8762.93
552.689	8808.58
553.053	8775.81
553.417	8816.49
553.78	8930.61
554.143	8782.82
554.507	8878.64
554.87	8939.88
555.234	8986.88
555.597	8962.48
555.96	8980.55
556.323	9039.99
556.686	9047.9
557.05	9099.87
557.413	9139.42
557.776	9139.19
558.139	9253.09
558.502	9254.22
558.865	9241.34
559.228	9283.6
559.59	9346.19
559.953	9360.66
560.316	9460.99
560.679	9467.1
561.041	9450.6
561.404	9487.43
561.767	9610.59
562.129	9545.29
562.492	9686.75
562.854	9590.93
563.217	9677.71
563.579	9634.77
563.941	9750.7
564.304	9810.59
564.666	9827.09
565.028	9861.44
565.39	9829.35
565.753	9891.72
566.115	9960.42
566.477	9945.5
566.839	10040.41
567.201	10117.02
567.563	10108.89
567.925	10147.98
568.287	10179.39
568.648	10154.99
569.01	10256.45
569.372	10334.42
569.734	10328.54
570.095	10388.65
570.457	10427.75
570.819	10450.12
571.18	10499.61
571.542	10538.93
571.903	10541.87
572.265	10715.65
572.626	10652.6
572.987	10657.35
573.349	10718.59
573.71	10855.31
574.071	10885.59
574.432	10956.1
574.794	11060.5
575.155	11088.75
575.516	11084.23
575.877	11173.04
576.238	11234.51
576.599	11312.7
576.96	11407.61
577.32	11433.82
577.681	11575.74
578.042	11668.17
578.403	11684.44
578.763	11791.33
579.124	11929.86
579.485	11994.26
579.845	12116.29
580.206	12225.67
580.566	12342.05
580.927	12406.23
581.287	12600.12
581.648	12738.87
582.008	12860.23
582.368	13046.21
582.728	13216.38
583.089	13287.11
583.449	13459.31
583.809	13679.19
584.169	13895.45
584.529	13940.65
584.889	14280.3
585.249	14434.87
585.609	14433.97
585.969	14828.31
586.329	14948.08
586.688	15207.74
587.048	15484.79
587.408	15615.63
587.768	15810.66
588.127	15988.96
588.487	16299.91
588.846	16622.16
589.206	16726.11
589.565	17033.68
589.925	17362.03
590.284	17552.08
590.643	17809.93
591.003	18139.41
591.362	18554.99
591.721	18738.94
592.08	19025.49
592.44	19293.96
592.799	19533.5
593.158	19747.5
593.517	20087.38
593.876	20366.7
594.235	20542.96
594.593	20894.82
594.952	21283.28
595.311	21564.18
595.67	21898.18
596.029	22330.03
596.387	22612.74
596.746	22916.23
597.104	23140.63
597.463	23440.97
597.822	23805.93
598.18	24076.88
598.538	24339.47
598.897	24711.21
599.255	24913.7
599.613	25440.01
599.972	25641.13
600.33	25923.39
600.688	26176.49
601.046	26537.83
601.404	26905.73
601.762	27052.62
602.12	27467.75
602.478	27825.03
602.836	28115.87
603.194	28134.63
603.552	28424.11
603.91	28712.92
604.268	29077.2
604.625	29269.96
604.983	29547.47
605.341	29751.31
605.698	30195.59
606.056	30507.9
606.413	30574.11
606.771	30964.61
607.128	31277.14
607.485	31285.96
607.843	31549.68
608.2	32065.15
608.557	32360.05
608.914	32462.42
609.272	32703.55
609.629	33033.48
609.986	33366.13
610.343	33310.31
610.7	33747.59
611.057	33900.35
611.414	34145.77
611.771	34293.34
612.127	34621.24
612.484	34758.63
612.841	35084.05
613.198	35186.19
613.554	35232.07
613.911	35537.14
614.267	35760.64
614.624	35999.73
614.98	36194.3
615.337	36328.54
615.693	36539.83
616.05	36515.88
616.406	36964.23
616.762	37037.9
617.118	37150.89
617.475	37274.95
617.831	37546.81
618.187	37739.35
618.543	37846.69
618.899	38163.06
619.255	38168.71
619.611	38241.48
619.967	38531.42
620.323	38750.62
620.678	38593.56
621.034	38760.56
621.39	38907.68
621.746	38795.59
622.101	39381.56
622.457	39130.5
622.812	39399.19
623.168	39566.64
623.523	39548.34
623.879	39817.94
624.234	39645.29
624.589	39800.99
624.945	39976.35
625.3	40038.5
625.655	40160.3
626.01	40147.19
626.365	40319.39
626.72	40240.07
627.075	40382.67
627.43	40495.43
627.785	40388.09
628.14	40572.27
628.495	40752.37
628.85	40748.76
629.205	40823.56
629.559	40971.58
629.914	40925.48
630.269	40999.15
630.623	40792.83
630.978	40831.24
631.332	41013.84
631.687	41078.02
632.041	41000.5
632.396	41221.51
632.75	41017.9
633.104	41128.41
633.459	41037.57
633.813	41180.84
634.167	41189.2
634.521	41160.27
634.875	41125.7
635.229	41126.83
635.583	40997.57
635.937	41125.92
636.291	41150.33
636.645	41069.2
636.999	41104.91
637.352	41215.64
637.706	40970.67
638.06	41162.08
638.413	41153.04
638.767	41021.97
639.121	41218.13
639.474	40971.13
639.828	41049.09
640.181	41120.05
640.534	41015.87
640.888	41045.25
641.241	40961.18
641.594	41033.72
641.947	41083.44
642.301	41065.36
642.654	41108.52
643.007	41051.12
643.36	41125.7
643.713	40992.14
644.066	41049.32
644.419	40853.39
644.771	40630.57
645.124	40377.47
645.477	40309.9
645.83	40029.46
646.182	39840.99
646.535	39765.51
646.888	39929.35
647.24	39625.85
647.593	39994.43
647.945	39920.76
648.298	39740.88
648.65	39761.44
649.002	39621.33
649.355	39856.81
649.707	39640.31
650.059	40101.32
650.411	40383.8
650.763	40413.63
651.115	40763.45
651.467	40647.29
651.819	40677.35
652.171	40577.24
652.523	40483.91
652.875	40590.8
653.227	40246.4
653.578	40624.47
653.93	40569.78
654.282	40396
654.633	40494.08
654.985	40393.06
655.337	40427.64
655.688	40426.06
656.039	40615.66
656.391	40207.08
656.742	40390.12
657.094	40416.79
657.445	40440.52
657.796	40513.74
658.147	40366.85
658.498	40329.34
658.849	40527.3
659.2	40489.33
659.551	40242.33
659.902	40433.29
660.253	40315.1
660.604	40283.01
660.955	40243.01
661.306	40208.21
661.656	40230.58
662.007	40258.38
662.358	40248.66
662.708	40267.87
663.059	40234.87
663.409	40029
663.76	40209.79
664.11	40119.62
664.461	40208.89
664.811	40245.27
665.161	40234.65
665.511	40164.59
665.862	40204.82
666.212	40332.05
666.562	40233.97
666.912	40106.06
667.262	40147.87
667.612	40132.28
667.962	40280.75
668.312	40097.48
668.662	40353.29
669.011	40137.02
669.361	40166.63
669.711	40093.86
670.06	40098.15
670.41	40013.64
670.76	40026.07
671.109	40197.36
671.459	40066.97
671.808	39997.14
672.157	40076.23
672.507	39844.15
672.856	39863.13
673.205	39885.05
673.554	40033.52
673.904	39897.03
674.253	39940.42
674.602	39953.53
674.951	39379.53
675.3	39151.96
675.649	39929.12
675.998	39883.47
676.346	39769.8
676.695	39937.48
677.044	39574.1
677.393	39690.71
677.741	39738.16
678.09	39559.86
678.438	39507.21
678.787	39610.03
679.135	39655.91
679.484	39363.03
679.832	39515.8
680.181	39347.21
680.529	39406.2
680.877	39252.3
681.225	39337.27
681.573	39395.12
681.922	39189.25
682.27	39135.24
682.618	39162.36
682.966	38990.84
683.314	39181.34
683.661	38892.08
684.009	38769.15
684.357	38760.34
684.705	38671.75
685.053	38919.2
685.4	38793.56
685.748	38668.14
686.095	38535.94
686.443	38496.39
686.79	38379.33
687.138	38407.58
687.485	38438.99
687.832	38332.55
688.18	38292.55
688.527	38182.5
688.874	38034.71
689.221	37946.35
689.568	37902.05
689.915	37737.76
690.262	37838.55
690.609	37579.12
690.956	37599.01
691.303	37545.23
691.65	37411.67
691.997	37405.34
692.344	37241.28
692.69	37206.71
693.037	37040.16
693.383	36837
693.73	36935.07
694.077	36698.92
694.423	36764.68
694.769	36751.58
695.116	36700.96
695.462	36561.07
695.808	36436.78
696.155	36701.18
696.501	36298.71
696.847	36309.55
697.193	36047.19
697.539	36105.72
697.885	35947.3
698.231	35917.47
698.577	35805.61
698.923	35864.82
699.269	35616.46
699.614	35527.43
699.96	35518.39
700.306	35421.67
700.651	35176.02
700.997	35107.55
701.342	35207.21
701.688	35050.83
702.033	34958.63
702.379	34907.56
702.724	34768.58
703.069	34854
703.415	34568.36
703.76	34473.44
704.105	34549.37
704.45	34403.84
704.795	34277.52
705.14	34092.66
705.485	34240.23
705.83	34059.22
706.175	34135.15
706.52	33962.72
706.865	34009.95
707.209	33869.17
707.554	33792.33
707.899	33791.65
708.243	33513.02
708.588	33482.51
708.932	33341.72
709.277	33344.21
709.621	33277.09
709.966	33016.08
710.31	33104.44
710.654	32859.47
710.998	32878.01
711.342	32960.04
711.687	32770.21
712.031	32792.81
712.375	32532.25
712.719	32546.26
713.063	32559.6
713.407	32590.33
713.75	32560.95
714.094	32428.53
714.438	32283.44
714.782	32370
715.125	32144.24
715.469	32178.59
715.812	32067.86
716.156	31955.54
716.499	31839.39
716.843	32028.31
717.186	31833.06
717.53	31956.45
717.873	31968.65
718.216	31855.43
718.559	31572.73
718.902	31523.46
719.246	31673.07
719.589	31449.34
719.932	31349.91
720.275	31305.17
720.617	31347.88
720.96	31206.64
721.303	31242.79
721.646	31205.51
721.989	31047.32
722.331	31151.5
722.674	31093.42
723.016	31027.43
723.359	30963.03
723.701	30930.03
724.044	30705.41
724.386	30796.7
724.729	30855.69
725.071	30617.05
725.413	30782.02
725.755	30627.67
726.097	30518.97
726.439	30440.78
726.782	30329.82
727.124	30588.57
727.465	30328.69
727.807	30314.23
728.149	30307.23
728.491	30153.78
728.833	30278.07
729.175	30130.73
729.516	30178.42
729.858	30043.96
730.199	30148.81
730.541	29925.09
730.882	29895.71
731.224	30045.09
731.565	29752.21
731.906	29755.6
732.248	29732.33
732.589	29654.14
732.93	29618.88
733.271	29605.78
733.612	29557.64
733.953	29565.78
734.294	29499.34
734.635	29380.02
734.976	29468.6
735.317	29341.38
735.658	29349.51
735.999	29339.79
736.339	29220.47
736.68	29312
737.021	29182.74
737.361	29067.71
737.702	29194.71
738.042	29076.98
738.383	28890.54
738.723	29036.3
739.063	28964.44
739.404	29045.11
739.744	28923.99
740.084	28938.45
740.424	28818.45
740.764	28749.98
741.104	28890.77
741.444	28726.25
741.784	28638.12
742.124	28668.62
742.464	28659.59
742.804	28438.35
743.143	28551.79
743.483	28462.08
743.823	28258.47
744.162	28434.51
744.502	28324.45
744.841	28170.11
745.181	28338.92
745.52	28313.83
745.86	28204.46
746.199	28094.85
746.538	28067.06
746.877	28144.8
747.216	28074.06
747.556	28142.31
747.895	27990.9
748.234	27968.08
748.573	27738.71
748.911	27879.49
749.25	27896.44
749.589	27700.29
749.928	27631.59
750.267	27771.93
750.605	27579.61
750.944	27680.18
751.283	27479.96
751.621	27550.24
751.96	27455.32
752.298	27325.16
752.636	27330.58
752.975	27223.46
753.313	27252.16
753.651	27298.72
753.989	27148.21
754.327	27221.88
754.666	27018.05
755.004	27056.24
755.342	27065.73
755.679	26887.2
756.017	26824.15
756.355	26931.95
756.693	26663.93
757.031	26779.86
757.368	26623.25
757.706	26614.67
758.044	26484.73
758.381	26637.27
758.719	26343.26
759.056	26308.91
759.394	26350.27
759.731	26215.13
760.068	26226.66
