Data from hue_100_FLMS001491_00011.txt Node
Date: Tue Feb 07 17:02:42 GMT 2017
User: dcchb
Spectrometer: FLMS00149
Trigger mode: 0
Integration Time (sec): 2.000000E-2
Scans to average: 10
Electric dark correction enabled: true
Nonlinearity correction enabled: false
Boxcar width: 0
XAxis mode: Wavelengths
Number of Pixels in Spectrum: 2048
>>>>>Begin Spectral Data<<<<<
341.393	-2.36
341.776	-2.36
342.16	-2.36
342.543	-59.53
342.927	-72.87
343.31	-74.22
343.693	-70.38
344.077	-63.6
344.46	-55.69
344.843	-60.21
345.226	-52.53
345.61	-26.76
345.993	-9.59
346.376	-0.1
346.759	-4.17
347.142	18.88
347.525	47.81
347.908	70.41
348.291	96.85
348.674	71.99
349.057	111.31
349.44	119.67
349.823	143.17
350.206	169.84
350.588	181.37
350.971	215.94
351.354	230.4
351.737	222.95
352.119	245.54
352.502	277.41
352.884	290.74
353.267	295.03
353.65	298.2
354.032	288.03
354.414	305.2
354.797	320.12
355.179	331.42
355.562	323.28
355.944	316.95
356.326	327.35
356.709	337.97
357.091	346.56
357.473	370.06
357.855	339.33
358.238	333.9
358.62	342.49
359.002	346.11
359.384	353.11
359.766	335.94
360.148	339.55
360.53	346.11
360.912	350.4
361.294	344.52
361.676	353.79
362.057	334.58
362.439	340.46
362.821	338.42
363.203	324.86
363.584	345.43
363.966	314.7
364.348	315.15
364.729	317.86
365.111	334.81
365.493	340.68
365.874	331.64
366.256	333.68
366.637	332.32
367.019	315.6
367.4	336.39
367.781	330.29
368.163	328.93
368.544	316.28
368.925	306.79
369.306	334.13
369.688	320.12
370.069	336.39
370.45	311.08
370.831	317.41
371.212	307.01
371.593	299.1
371.974	329.61
372.355	312.66
372.736	333
373.117	313.79
373.498	324.86
373.879	327.12
374.26	328.48
374.641	317.63
375.021	344.3
375.402	344.75
375.783	326.45
376.163	329.38
376.544	339.78
376.925	331.19
377.305	342.72
377.686	330.29
378.066	330.74
378.447	316.28
378.827	336.84
379.208	322.38
379.588	342.72
379.968	315.83
380.349	343.17
380.729	350.63
381.109	362.15
381.489	347.24
381.87	349.04
382.25	368.03
382.63	370.06
383.01	343.62
383.39	358.08
383.77	380.68
384.15	364.64
384.53	359.89
384.91	351.76
385.29	377.74
385.67	354.69
386.049	365.32
386.429	376.61
386.809	386.78
387.189	359.67
387.568	362.38
387.948	373.22
388.328	365.99
388.707	392.89
389.087	368.7
389.466	375.48
389.846	368.93
390.225	367.35
390.605	379.78
390.984	374.13
391.363	383.85
391.743	372.55
392.122	366.45
392.501	392.21
392.881	397.86
393.26	387.01
393.639	398.76
394.018	406.67
394.397	408.25
394.776	383.62
395.155	391.08
395.534	393.11
395.913	414.35
396.292	401.47
396.671	393.34
397.05	395.82
397.429	422.71
397.808	393.79
398.186	423.17
398.565	392.89
398.944	398.99
399.323	436.95
399.701	429.27
400.08	412.32
400.458	419.55
400.837	404.86
401.215	439.89
401.594	440.12
401.972	439.21
402.351	416.16
402.729	424.07
403.107	427.01
403.486	423.84
403.864	453.67
404.242	456.61
404.62	426.78
404.999	445.54
405.377	448.93
405.755	460.68
406.133	455.26
406.511	447.35
406.889	438.99
407.267	452.77
407.645	451.87
408.023	454.13
408.401	479.44
408.779	462.71
409.156	471.98
409.534	481.92
409.912	483.96
410.29	476.95
410.667	476.27
411.045	489.38
411.422	480.11
411.8	486.44
412.178	517.85
412.555	518.31
412.933	489.83
413.31	523.5
413.687	525.31
414.065	517.18
414.442	504.75
414.819	521.02
415.197	515.37
415.574	516.95
415.951	516.72
416.328	530.06
416.705	537.51
417.082	543.39
417.46	554.01
417.837	572.54
418.214	567.34
418.591	560.56
418.967	556.27
419.344	541.13
419.721	560.56
420.098	558.53
420.475	572.32
420.852	558.53
421.228	562.6
421.605	577.51
421.982	592.43
422.358	601.47
422.735	572.09
423.111	601.02
423.488	599.43
423.864	609.83
424.241	614.57
424.617	619.09
424.994	613.22
425.37	619.32
425.746	617.96
426.123	674.69
426.499	637.4
426.875	642.6
427.251	633.33
427.627	633.78
428.003	652.77
428.379	669.04
428.756	660
429.132	663.84
429.507	676.72
429.883	679.66
430.259	684.4
430.635	698.87
431.011	680.34
431.387	720.56
431.763	701.8
432.138	717.62
432.514	740.45
432.89	724.4
433.265	730.28
433.641	737.06
434.016	768.24
434.392	764.4
434.767	754.01
435.143	774.57
435.518	779.09
435.894	777.51
436.269	822.03
436.644	799.2
437.02	812.31
437.395	798.52
437.77	829.03
438.145	841.46
438.52	833.78
438.895	840.78
439.271	837.39
439.646	862.48
440.021	877.17
440.395	825.19
440.77	877.39
441.145	859.77
441.52	892.31
441.895	880.33
442.27	882.82
442.645	893.44
443.019	886.66
443.394	926.2
443.769	917.39
444.143	921.68
444.518	909.03
444.892	929.59
445.267	935.24
445.641	950.16
446.016	920.78
446.39	953.1
446.764	958.29
447.139	983.6
447.513	984.51
447.887	960.78
448.262	962.14
448.636	1010.27
449.01	1012.98
449.384	1004.62
449.758	1004.62
450.132	1018.18
450.506	1030.61
450.88	1042.13
451.254	1055.47
451.628	1043.72
452.002	1063.15
452.376	1080.55
452.75	1096.6
453.123	1071.74
453.497	1108.8
453.871	1122.36
454.244	1137.05
454.618	1147.89
454.992	1167.1
455.365	1149.02
455.739	1167.33
456.112	1208.46
456.486	1221.56
456.859	1214.56
457.232	1234.22
457.606	1255.69
457.979	1226.54
458.352	1278.96
458.725	1314.22
459.099	1296.36
459.472	1299.75
459.845	1297.72
460.218	1305.63
460.591	1356.7
460.964	1347.89
461.337	1404.84
461.71	1404.16
462.083	1464.5
462.456	1459.75
462.829	1456.13
463.201	1476.25
463.574	1478.73
463.947	1523.7
464.32	1556.92
464.692	1546.53
465.065	1575
465.438	1598.28
465.81	1633.76
466.183	1668.56
466.555	1667.88
466.928	1697.03
467.3	1724.15
467.672	1752.85
468.045	1820.42
468.417	1775.67
468.789	1812.96
469.161	1861.32
469.534	1894.99
469.906	1907.42
470.278	1960.75
470.65	1991.71
471.022	2037.14
471.394	2084.59
471.766	2113.07
472.138	2148.09
472.51	2205.49
472.882	2263.12
473.253	2279.62
473.625	2354.19
473.997	2326.39
474.369	2434.87
474.74	2426.73
475.112	2499.5
475.484	2591.25
475.855	2623.79
476.227	2682.54
476.598	2786.49
476.97	2847.06
477.341	2903.78
477.713	2967.28
478.084	3002.08
478.455	3146.26
478.827	3219.03
479.198	3333.82
479.569	3356.88
479.94	3467.38
480.311	3565.01
480.682	3657.21
481.053	3776.3
481.424	3887.03
481.795	3962.06
482.166	4080.92
482.537	4130.41
482.908	4265.55
483.279	4366.57
483.65	4542.83
484.021	4673.45
484.391	4745.31
484.762	4878.19
485.133	5001.58
485.503	5141.01
485.874	5252.42
486.244	5392.08
486.615	5534.67
486.985	5661.45
487.356	5820.54
487.726	5956.58
488.097	6131.72
488.467	6283.13
488.837	6432.73
489.207	6564.7
489.578	6739.61
489.948	6829.55
490.318	7043.56
490.688	7177.57
491.058	7363.32
491.428	7489.2
491.798	7667.04
492.168	7883.54
492.538	7889.64
492.908	8180.7
493.278	8309.51
493.648	8377.08
494.017	8570.3
494.387	8778.65
494.757	8869.5
495.126	9047.57
495.496	9142.03
495.866	9242.14
496.235	9436.94
496.605	9616.37
496.974	9690.04
497.344	9894.1
497.713	10058.17
498.082	10095.68
498.452	10280.76
498.821	10371.83
499.19	10433.75
499.559	10604.14
499.928	10764.59
500.298	10864.02
500.667	11044.81
501.036	11096.11
501.405	11290
501.774	11281.86
502.143	11462.42
502.512	11533.84
502.88	11690.44
503.249	11746.71
503.618	11908.51
503.987	11950.77
504.356	12141.5
504.724	12170.43
505.093	12233.48
505.462	12315.51
505.83	12355.73
506.199	12505.34
506.567	12692
506.936	12667.82
507.304	12984.19
507.672	12899
508.041	13001.37
508.409	13126.56
508.777	13282.94
509.145	13288.14
509.514	13285.88
509.882	13402.49
510.25	13473.9
510.618	13501.92
510.986	13549.6
511.354	13687
511.722	13736.26
512.09	13874.56
512.458	13872.98
512.826	13979.65
513.193	14031.62
513.561	14058.06
513.929	14254.67
514.297	14319.98
514.664	14359.07
515.032	14332.18
515.4	14493.53
515.767	14463.48
516.135	14566.52
516.502	14456.7
516.869	14626.41
517.237	14750.25
517.604	14583.92
517.972	14751.15
518.339	14754.54
518.706	14796.57
519.073	14932.84
519.44	14953.63
519.808	15086.96
520.175	14972.39
520.542	15077.47
520.909	15190.91
521.276	15185.49
521.643	15329.22
522.009	15332.38
522.376	15382.77
522.743	15385.49
523.11	15430.46
523.477	15509.32
523.843	15573.05
524.21	15661.86
524.577	15752.26
524.943	15778.47
525.31	15740.5
525.676	15877.45
526.043	15887.62
526.409	15867.96
526.776	16030.21
527.142	16045.81
527.508	16039.25
527.874	16113.83
528.241	16093.04
528.607	16108.63
528.973	16206.25
529.339	16131
529.705	16161.51
530.071	16238.34
530.437	16237.67
530.803	16341.17
531.169	16363.09
531.535	16222.07
531.901	16268.63
532.267	16286.25
532.632	16216.88
532.998	16245.35
533.364	16308.4
533.73	16218.01
534.095	16264.78
534.461	16270.43
534.826	16271.34
535.192	16288.96
535.557	16404.22
535.923	16292.13
536.288	16269.76
536.653	16174.84
537.019	16197.44
537.384	16214.39
537.749	16198.57
538.114	16150.66
538.479	16157.44
538.845	16101.62
539.21	16048.97
539.575	16099.82
539.94	16082.19
540.305	16076.09
540.67	15917.67
541.034	15954.28
541.399	16027.28
541.764	15893.72
542.129	15931.01
542.494	15874.06
542.858	15802.2
543.223	15823.21
543.587	15812.59
543.952	15787.73
544.316	15774.85
544.681	15686.72
545.045	15704.8
545.41	15778.92
545.774	15681.75
546.138	15599.49
546.503	15609.66
546.867	15577.34
547.231	15601.07
547.595	15516.78
547.959	15470.45
548.324	15490.34
548.688	15488.08
549.052	15404.92
549.416	15318.59
549.779	15268.88
550.143	15241.53
550.507	15394.52
550.871	15334.19
551.235	15224.36
551.599	15337.58
551.962	15255.32
552.326	15206.05
552.689	15307.07
553.053	15107.75
553.417	15067.75
553.78	15199.73
554.143	15112.05
554.507	15035.89
554.87	15028.43
555.234	15166.06
555.597	14964.48
555.96	15051.71
556.323	15074.53
556.686	14984.82
557.05	15013.52
557.413	15048.32
557.776	14971.03
558.139	14995.67
558.502	14985.04
558.865	14944.59
559.228	15026.17
559.59	14904.59
559.953	14912.05
560.316	15090.13
560.679	15109.56
561.041	15046.29
561.404	15095.78
561.767	15135.77
562.129	15044.48
562.492	15165.15
562.854	15081.76
563.217	15063.01
563.579	15122.89
563.941	15053.06
564.304	15112.72
564.666	15204.7
565.028	15169.67
565.39	15141.42
565.753	15216.22
566.115	15188.65
566.477	15249.9
566.839	15291.7
567.201	15312.04
567.563	15279.27
567.925	15281.99
568.287	15364.02
568.648	15379.84
569.01	15394.52
569.372	15424.13
569.734	15296.9
570.095	15477.23
570.457	15471.58
570.819	15400.63
571.18	15446.95
571.542	15510.91
571.903	15528.98
572.265	15490.34
572.626	15677
572.987	15482.21
573.349	15532.6
573.71	15566.05
574.071	15651.24
574.432	15589.32
574.794	15717.23
575.155	15669.77
575.516	15621.41
575.877	15597.68
576.238	15603.33
576.599	15667.74
576.96	15646.27
577.32	15599.26
577.681	15685.36
578.042	15722.2
578.403	15611.02
578.763	15673.16
579.124	15710.9
579.485	15706.83
579.845	15829.77
580.206	15686.04
580.566	15686.72
580.927	15636.1
581.287	15848.98
581.648	15670
582.008	15830.22
582.368	15695.76
582.728	15661.41
583.089	15689.21
583.449	15734.4
583.809	15655.53
584.169	15695.53
584.529	15546.16
584.889	15681.3
585.249	15636.78
585.609	15520.17
585.969	15535.09
586.329	15606.04
586.688	15649.89
587.048	15661.18
587.408	15534.63
587.768	15524.46
588.127	15514.3
588.487	15460.74
588.846	15536.67
589.206	15445.82
589.565	15580.28
589.925	15536.67
590.284	15532.37
590.643	15507.06
591.003	15572.15
591.362	15506.39
591.721	15468.19
592.08	15463.68
592.44	15518.59
592.799	15441.53
593.158	15500.28
593.517	15409.21
593.876	15456.67
594.235	15399.95
594.593	15433.39
594.952	15365.6
595.311	15402.21
595.67	15407.41
596.029	15458.7
596.387	15481.08
596.746	15493.51
597.104	15317.92
597.463	15402.89
597.822	15466.39
598.18	15377.58
598.538	15316.79
598.897	15401.08
599.255	15296.22
599.613	15388.65
599.972	15452.38
600.33	15441.98
600.688	15251.25
601.046	15379.16
601.404	15367.86
601.762	15372.6
602.12	15373.28
602.478	15500.06
602.836	15461.64
603.194	15301.87
603.552	15411.02
603.91	15389.1
604.268	15428.65
604.625	15328.76
604.983	15468.87
605.341	15311.36
605.698	15479.95
606.056	15453.73
606.413	15383.45
606.771	15371.25
607.128	15440.63
607.485	15407.18
607.843	15418.25
608.2	15418.25
608.557	15422.09
608.914	15454.64
609.272	15448.76
609.629	15492.83
609.986	15539.15
610.343	15409.67
610.7	15556.78
611.057	15450.12
611.414	15568.98
611.771	15518.59
612.127	15653.27
612.484	15509.78
612.841	15600.85
613.198	15575.99
613.554	15544.35
613.911	15674.52
614.267	15677.23
614.624	15582.77
614.98	15654.4
615.337	15683.1
615.693	15666.61
616.05	15638.36
616.406	15822.54
616.762	15668.64
617.118	15644.24
617.475	15820.5
617.831	15771.46
618.187	15776.66
618.543	15801.52
618.899	15818.47
619.255	15777.11
619.611	15820.5
619.967	15837.22
620.323	15845.13
620.678	15809.88
621.034	15782.31
621.39	15825.02
621.746	15785.02
622.101	15983.89
622.457	15804.01
622.812	15821.41
623.168	15871.8
623.523	15751.8
623.879	15928.52
624.234	15834.06
624.589	15887.84
624.945	15786.38
625.3	15904.57
625.655	15874.74
626.01	15880.39
626.365	15860.5
626.72	15842.87
627.075	15759.26
627.43	15815.3
627.785	15766.72
628.14	15837.68
628.495	15791.12
628.85	15855.76
629.205	15734.18
629.559	15865.92
629.914	15687.4
630.269	15793.38
630.623	15736.89
630.978	15665.25
631.332	15799.26
631.687	15718.58
632.041	15572.37
632.396	15734.85
632.75	15702.09
633.104	15672.03
633.459	15531.02
633.813	15627.74
634.167	15561.07
634.521	15505.93
634.875	15573.5
635.229	15519.72
635.583	15487.4
635.937	15413.73
636.291	15531.7
636.645	15495.76
636.999	15431.59
637.352	15404.24
637.706	15381.64
638.06	15424.81
638.413	15428.65
638.767	15251.7
639.121	15348.88
639.474	15279.95
639.828	15241.08
640.181	15254.19
640.534	15289.89
640.888	15247.86
641.241	15096.68
641.594	15248.31
641.947	15171.03
642.301	15261.87
642.654	15166.73
643.007	15174.64
643.36	15206.96
643.713	15162.89
644.066	15092.39
644.419	15046.74
644.771	14996.12
645.124	14898.27
645.477	14869.11
645.83	14784.82
646.182	14717.03
646.535	14725.39
646.888	14656.92
647.24	14625.28
647.593	14678.84
647.945	14652.62
648.298	14603.58
648.65	14598.16
649.002	14593.87
649.355	14618.05
649.707	14609.46
650.059	14799.06
650.411	14898.04
650.763	14919.51
651.115	15091.93
651.467	15011.94
651.819	15017.13
652.171	14970.81
652.523	14905.5
652.875	14851.49
653.227	14872.5
653.578	15006.51
653.93	14960.19
654.282	14875.22
654.633	14844.48
654.985	15059.17
655.337	14961.54
655.688	14941.43
656.039	15016.68
656.391	14833.41
656.742	14853.07
657.094	14950.69
657.445	15022.11
657.796	14941.2
658.147	14915.67
658.498	14939.85
658.849	15024.82
659.2	14946.17
659.551	14917.7
659.902	15018.49
660.253	14862.79
660.604	15040.41
660.955	14890.36
661.306	15039.05
661.656	14987.53
662.007	14989.11
662.358	15009.22
662.708	15027.53
663.059	15013.07
663.409	14912.96
663.76	15098.04
664.11	15042.22
664.461	15120.41
664.811	15026.17
665.161	14967.64
665.511	14992.73
665.862	15002.9
666.212	15082.22
666.562	15045.61
666.912	15085.61
667.262	15004.93
667.612	15111.14
667.962	15025.49
668.312	15014.2
668.662	15100.07
669.011	14990.47
669.361	15025.72
669.711	14999.73
670.06	14990.92
670.41	14988.43
670.76	14960.19
671.109	15036.12
671.459	15008.09
671.808	14941.88
672.157	15022.56
672.507	14927.19
672.856	14918.15
673.205	14803.13
673.554	14959.51
673.904	14852.39
674.253	14981.43
674.602	14893.75
674.951	14732.4
675.3	14591.83
675.649	14845.84
675.998	14802.22
676.346	14841.09
676.695	14785.5
677.044	14653.98
677.393	14805.16
677.741	14760.87
678.09	14707.76
678.438	14686.97
678.787	14711.6
679.135	14694.66
679.484	14605.62
679.832	14595.9
680.181	14579.63
680.529	14625.96
680.877	14454.66
681.225	14501.67
681.573	14676.13
681.922	14453.76
682.27	14399.07
682.618	14411.73
682.966	14449.01
683.314	14450.37
683.661	14347.09
684.009	14337.6
684.357	14301.45
684.705	14214.44
685.053	14273.88
685.4	14213.76
685.748	14212.18
686.095	14207.44
686.443	14064.84
686.79	14014.22
687.138	14101.9
687.485	14103.71
687.832	14042.02
688.18	14034.56
688.527	13934.9
688.874	13859.88
689.221	13784.62
689.568	13864.62
689.915	13737.62
690.262	13782.82
690.609	13701.24
690.956	13674.12
691.303	13619.2
691.65	13508.25
691.997	13553.9
692.344	13458.53
692.69	13491.75
693.037	13455.14
693.383	13353
693.73	13403.62
694.077	13284.52
694.423	13274.35
694.769	13344.18
695.116	13199.78
695.462	13182.38
695.808	13091.31
696.155	13047.69
696.501	13014.93
696.847	12949.84
697.193	12864.2
697.539	12898.55
697.885	12871.65
698.231	12883.18
698.577	12679.79
698.923	12758.66
699.269	12646.12
699.614	12524.09
699.96	12579.01
700.306	12546.01
700.651	12461.49
700.997	12445.22
701.342	12361.38
701.688	12390.99
702.033	12296.3
702.379	12258.56
702.724	12310.09
703.069	12282.52
703.415	12052.01
703.76	12163.65
704.105	12129.3
704.45	12080.26
704.795	11992.58
705.14	11920.94
705.485	11849.76
705.83	11832.58
706.175	11872.81
706.52	11748.52
706.865	11796.2
707.209	11803.88
707.554	11738.8
707.899	11735.19
708.243	11712.59
708.588	11584
708.932	11551.24
709.277	11509.43
709.621	11585.13
709.966	11400.73
710.31	11388.3
710.654	11334.29
710.998	11380.62
711.342	11306.5
711.687	11313.73
712.031	11280.96
712.375	11268.76
712.719	11289.77
713.063	11193.51
713.407	11227.85
713.75	11219.04
714.094	11210.68
714.438	11112.83
714.782	11140.4
715.125	11100.63
715.469	11090.46
715.812	11031.25
716.156	11003.91
716.499	10951.25
716.843	10967.3
717.186	10952.83
717.53	10991.48
717.873	10965.26
718.216	11007.75
718.559	10923
718.902	10833.74
719.246	10836.68
719.589	10750.8
719.932	10793.74
720.275	10801.2
720.617	10705.16
720.96	10752.16
721.303	10745.83
721.646	10776.34
721.989	10747.19
722.331	10720.75
722.674	10622.9
723.016	10724.59
723.359	10721.88
723.701	10685.5
724.044	10599.62
724.386	10590.81
724.729	10699.96
725.071	10582
725.413	10676.23
725.755	10574.99
726.097	10517.59
726.439	10499.74
726.782	10560.08
727.124	10563.01
727.465	10527.08
727.807	10535.22
728.149	10514.2
728.491	10519.17
728.833	10472.85
729.175	10443.47
729.516	10519.62
729.858	10460.19
730.199	10535.67
730.541	10466.74
730.882	10462
731.224	10455.22
731.565	10416.35
731.906	10474.88
732.248	10452.73
732.589	10346.97
732.93	10451.38
733.271	10391.49
733.612	10435.33
733.953	10409.12
734.294	10415.22
734.635	10416.35
734.976	10440.76
735.317	10380.87
735.658	10340.65
735.999	10407.76
736.339	10433.75
736.68	10476.01
737.021	10446.86
737.361	10434.66
737.702	10500.19
738.042	10414.77
738.383	10459.51
738.723	10427.42
739.063	10453.86
739.404	10541.54
739.744	10485.05
740.084	10454.77
740.424	10506.07
740.764	10489.57
741.104	10512.62
741.444	10525.73
741.784	10520.75
742.124	10557.59
742.464	10551.71
742.804	10571.6
743.143	10577.7
743.483	10628.55
743.823	10537.25
744.162	10760.3
744.502	10753.97
744.841	10763.69
745.181	10791.93
745.52	10837.81
745.86	10857.24
746.199	10899.28
746.538	10913.51
746.877	10998.03
747.216	11023.34
747.556	11146.05
747.895	11186.05
748.234	11103.11
748.573	11296.55
748.911	11264.69
749.25	11386.04
749.589	11494.29
749.928	11548.07
750.267	11619.03
750.605	11673.27
750.944	11668.07
751.283	11867.84
751.621	11933.82
751.96	11937.21
752.298	12071.67
752.636	12196.42
752.975	12331.78
753.313	12356.86
753.651	12573.13
753.989	12639.12
754.327	12740.36
754.666	12818.1
755.004	12970.86
755.342	13141.02
755.679	13318.87
756.017	13407.68
756.355	13567.23
