Data from hue_210_FLMS001491_00097.txt Node
Date: Tue Feb 07 16:42:01 GMT 2017
User: dcchb
Spectrometer: FLMS00149
Trigger mode: 0
Integration Time (sec): 2.000000E-2
Scans to average: 10
Electric dark correction enabled: true
Nonlinearity correction enabled: false
Boxcar width: 0
XAxis mode: Wavelengths
Number of Pixels in Spectrum: 2048
>>>>>Begin Spectral Data<<<<<
341.393	-34.56
341.776	-34.56
342.16	-34.56
342.543	-72.75
342.927	-83.15
343.31	-85.86
343.693	-87.44
344.077	-70.27
344.46	-63.94
344.843	-50.15
345.226	-34.56
345.61	-26.43
345.993	-26.88
346.376	-0.44
346.759	-0.21
347.142	43.18
347.525	37.98
347.908	48.15
348.291	88.83
348.674	95.15
349.057	132.89
349.44	140.8
349.823	146.45
350.206	156.62
350.588	176.73
350.971	226.45
351.354	203.62
351.737	220.12
352.119	235.94
352.502	252.21
352.884	264.87
353.267	264.87
353.65	298.54
354.032	314.81
354.414	297.86
354.797	298.31
355.179	330.63
355.562	306.67
355.944	321.59
356.326	327.46
356.709	335.6
357.091	332.21
357.473	339.89
357.855	351.87
358.238	357.52
358.62	343.96
359.002	334.02
359.384	337.41
359.766	328.82
360.148	323.85
360.53	333.79
360.912	310.97
361.294	301.7
361.676	319.78
362.057	327.24
362.439	332.66
362.821	311.64
363.203	312.32
363.584	307.12
363.966	321.36
364.348	326.33
364.729	315.26
365.111	316.62
365.493	314.58
365.874	291.08
366.256	309.38
366.637	329.27
367.019	308.93
367.4	296.05
367.781	318.2
368.163	295.6
368.544	299.22
368.925	311.19
369.306	310.51
369.688	297.18
370.069	289.95
370.45	290.4
370.831	302.83
371.212	289.95
371.593	304.86
371.974	310.06
372.355	311.42
372.736	294.92
373.117	301.7
373.498	301.93
373.879	305.77
374.26	303.28
374.641	298.99
375.021	301.02
375.402	302.38
375.783	317.29
376.163	318.65
376.544	294.7
376.925	303.51
377.305	321.36
377.686	314.36
378.066	324.53
378.447	314.36
378.827	329.95
379.208	329.95
379.588	319.33
379.968	321.14
380.349	326.11
380.729	320.01
381.109	338.76
381.489	336.73
381.87	328.82
382.25	334.24
382.63	340.8
383.01	329.5
383.39	334.47
383.77	325.66
384.15	342.15
384.53	349.16
384.91	336.95
385.29	336.28
385.67	323.4
386.049	333.11
386.429	350.74
386.809	354.81
387.189	337.18
387.568	350.06
387.948	340.57
388.328	347.12
388.707	338.99
389.087	358.42
389.466	354.13
389.846	362.04
390.225	360.68
390.605	341.47
390.984	363.62
391.363	385.54
391.743	350.74
392.122	368.82
392.501	345.54
392.881	365.65
393.26	364.07
393.639	373.56
394.018	387.12
394.397	376.5
394.776	380.34
395.155	361.13
395.534	374.02
395.913	382.83
396.292	402.72
396.671	388.03
397.05	395.94
397.429	380.12
397.808	384.18
398.186	388.03
398.565	400.23
398.944	409.27
399.323	402.72
399.701	413.34
400.08	404.07
400.458	397.29
400.837	442.04
401.215	417.4
401.594	428.48
401.972	412.43
402.351	407.69
402.729	421.7
403.107	429.61
403.486	421.7
403.864	451.08
404.242	437.52
404.62	451.75
404.999	429.16
405.377	436.39
405.755	459.89
406.133	436.61
406.511	466.89
406.889	456.5
407.267	458.31
407.645	469.61
408.023	490.62
408.401	490.85
408.779	479.78
409.156	475.48
409.534	520.23
409.912	505.09
410.29	531.07
410.667	515.25
411.045	546.67
411.422	556.61
411.8	541.24
412.178	572.88
412.555	576.72
412.933	560.9
413.31	580.79
413.687	597.51
414.065	592.77
414.442	617.4
414.819	615.59
415.197	627.34
415.574	630.28
415.951	623.5
416.328	665.76
416.705	669.6
417.082	667.12
417.46	674.8
417.837	678.19
418.214	697.17
418.591	698.07
418.967	709.83
419.344	711.18
419.721	733.1
420.098	757.06
420.475	741.92
420.852	724.06
421.228	766.55
421.605	773.78
421.982	774.91
422.358	791.86
422.735	832.31
423.111	825.08
423.488	864.17
423.864	863.72
424.241	870.95
424.617	901.46
424.994	909.14
425.37	905.3
425.746	898.75
426.123	935.81
426.499	912.53
426.875	953.21
427.251	994.56
427.627	992.3
428.003	1013.32
428.379	1022.36
428.756	1014.9
429.132	1038.86
429.507	1037.95
429.883	1050.83
430.259	1083.83
430.635	1097.16
431.011	1118.18
431.387	1134.67
431.763	1141
432.138	1128.12
432.514	1167.89
432.89	1195.91
433.265	1230.26
433.641	1245.86
434.016	1248.12
434.392	1257.61
434.767	1303.26
435.143	1302.58
435.518	1337.15
435.894	1368.11
436.269	1375.12
436.644	1409.69
437.02	1430.71
437.395	1422.35
437.77	1437.72
438.145	1498.28
438.52	1536.7
438.895	1510.71
439.271	1550.03
439.646	1573.76
440.021	1611.95
440.395	1644.04
440.77	1626.19
441.145	1668.67
441.52	1678.39
441.895	1669.57
442.27	1738.73
442.645	1728.33
443.019	1797.71
443.394	1768.56
443.769	1816.24
444.143	1805.62
444.518	1839.97
444.892	1863.02
445.267	1856.69
445.641	1857.14
446.016	1879.96
446.39	1910.92
446.764	1914.31
447.139	1909.12
447.513	1951.6
447.887	1965.39
448.262	1962.67
448.636	1974.43
449.01	1986.63
449.384	2031.6
449.758	2056.23
450.132	2096.46
450.506	2089.68
450.88	2066.85
451.254	2089
451.628	2105.95
452.002	2151.37
452.376	2131.94
452.75	2184.59
453.123	2173.97
453.497	2229.33
453.871	2250.12
454.244	2314.53
454.618	2323.34
454.992	2301.42
455.365	2379.61
455.739	2368.54
456.112	2397.47
456.486	2421.19
456.859	2481.3
457.232	2497.8
457.606	2453.28
457.979	2506.84
458.352	2577.8
458.725	2601.08
459.099	2621.41
459.472	2663.45
459.845	2661.87
460.218	2732.82
460.591	2722.88
460.964	2733.28
461.337	2803.33
461.71	2840.62
462.083	2886.94
462.456	2890.56
462.829	2912.25
463.201	2921.07
463.574	2952.93
463.947	3003.55
464.32	3045.36
464.692	3091.68
465.065	3095.53
465.438	3125.13
465.81	3213.26
466.183	3245.13
466.555	3296.88
466.928	3310.44
467.3	3298.91
467.672	3393.37
468.045	3406.93
468.417	3432.24
468.789	3478.34
469.161	3525.57
469.534	3595.17
469.906	3611.67
470.278	3634.95
470.65	3672.01
471.022	3777.99
471.394	3809.18
471.766	3865
472.138	3912.45
472.51	3957.2
472.882	4018.21
473.253	4034.26
473.625	4081.26
473.997	4179.11
474.369	4179.11
474.74	4250.98
475.112	4270.86
475.484	4374.81
475.855	4389.05
476.227	4481.25
476.598	4583.62
476.97	4592.66
477.341	4704.52
477.713	4744.3
478.084	4774.35
478.455	4915.37
478.827	4928.47
479.198	5059.09
479.569	5084.63
479.94	5204.17
480.311	5277.16
480.682	5333.66
481.053	5483.49
481.424	5539.3
481.795	5574.1
482.166	5658.4
482.537	5658.17
482.908	5796.92
483.279	5785.4
483.65	5965.28
484.021	6026.52
484.391	6120.53
484.762	6185.39
485.133	6196.91
485.503	6282.56
485.874	6387.19
486.244	6413.18
486.615	6558.03
486.985	6618.6
487.356	6635.09
487.726	6697.69
488.097	6908.53
488.467	6888.42
488.837	7002.54
489.207	7074.86
489.578	7169.32
489.948	7232.59
490.318	7302.65
490.688	7351.91
491.058	7369.54
491.428	7488.4
491.798	7559.59
492.168	7707.16
492.538	7671.22
492.908	7776.76
493.278	7923.2
493.648	7930.65
494.017	8005.68
494.387	8010.65
494.757	8095.62
495.126	8174.04
495.496	8136.07
495.866	8225.56
496.235	8280.47
496.605	8328.83
496.974	8363.18
497.344	8414.93
497.713	8463.97
498.082	8484.99
498.452	8539.68
498.821	8616.51
499.19	8627.81
499.559	8623.29
499.928	8684.53
500.298	8754.36
500.667	8815.6
501.036	8764.08
501.405	8822.16
501.774	8867.8
502.143	8873.45
502.512	8995.03
502.88	8951.42
503.249	9005.88
503.618	9047.01
503.987	9111.64
504.356	9111.19
504.724	9094.46
505.093	9192.99
505.462	9142.37
505.83	9211.75
506.199	9288.81
506.567	9336.04
506.936	9300.11
507.304	9337.85
507.672	9394.34
508.041	9408.58
508.409	9376.26
508.777	9474.12
509.145	9557.95
509.514	9490.61
509.882	9502.59
510.25	9495.13
510.618	9590.72
510.986	9554.79
511.354	9585.07
511.722	9670.49
512.09	9742.13
512.458	9645.64
512.826	9733.77
513.193	9798.85
513.561	9707.56
513.929	9785.52
514.297	9885.18
514.664	9874.56
515.032	9832.98
515.4	9918.4
515.767	9892.41
516.135	9961.11
516.502	9830.94
516.869	9981.67
517.237	9975.8
517.604	9975.12
517.972	10004.5
518.339	10028.45
518.706	9971.73
519.073	9980.32
519.44	9986.87
519.808	10111.84
520.175	10059.86
520.542	10094.89
520.909	10134.21
521.276	10050.37
521.643	10113.42
522.009	10149.8
522.376	10140.09
522.743	10145.28
523.11	10213.76
523.477	10296.24
523.843	10271.38
524.21	10343.24
524.577	10378.95
524.943	10312.06
525.31	10327.43
525.676	10383.24
526.043	10317.93
526.409	10437.71
526.776	10384.83
527.142	10378.05
527.508	10352.96
527.874	10369.23
528.241	10398.61
528.607	10426.63
528.973	10425.5
529.339	10437.48
529.705	10567.65
530.071	10465.28
530.437	10431.38
530.803	10458.04
531.169	10418.27
531.535	10426.86
531.901	10374.2
532.267	10416.92
532.632	10439.29
532.998	10511.6
533.364	10402.23
533.73	10423.24
534.095	10393.64
534.461	10392.74
534.826	10391.61
535.192	10312.74
535.557	10342.79
535.923	10294.88
536.288	10310.25
536.653	10357.93
537.019	10327.43
537.384	10252.63
537.749	10220.99
538.114	10192.51
538.479	10211.27
538.845	10176.02
539.21	10115.23
539.575	10131.05
539.94	10110.48
540.305	10073.2
540.67	10044.95
541.034	10041.56
541.399	9992.97
541.764	9919.3
542.129	9902.8
542.494	9921.79
542.858	9909.13
543.223	9855.8
543.587	9869.13
543.952	9832.3
544.316	9759.76
544.681	9769.25
545.045	9812.41
545.41	9783.71
545.774	9715.24
546.138	9664.39
546.503	9686.54
546.867	9654
547.231	9623.49
547.595	9613.32
547.959	9572.87
548.324	9533.1
548.688	9478.18
549.052	9454.23
549.416	9410.84
549.779	9444.51
550.143	9428.69
550.507	9454.23
550.871	9368.36
551.235	9323.84
551.599	9422.14
551.962	9335.14
552.326	9233.22
552.689	9248.36
553.053	9163.84
553.417	9198.19
553.78	9275.7
554.143	9221.92
554.507	9229.38
554.87	9128.81
555.234	9194.8
555.597	9082.94
555.96	9028.48
556.323	9106.89
556.686	9023.73
557.05	9066.89
557.413	9090.4
557.776	9018.08
558.139	9024.41
558.502	9026.44
558.865	9061.92
559.228	9062.15
559.59	9015.6
559.953	9034.8
560.316	9080.91
560.679	9014.01
561.041	9019.21
561.404	9069.15
561.767	9032.09
562.129	8963.39
562.492	9064.41
562.854	8986.22
563.217	8959.1
563.579	9027.35
563.941	9034.13
564.304	9011.75
564.666	8979.89
565.028	8988.93
565.39	9049.72
565.753	8991.42
566.115	8981.7
566.477	9011.75
566.839	9038.65
567.201	9037.52
567.563	9047.23
567.925	9084.3
568.287	9088.14
568.648	9066.44
569.01	9123.39
569.372	9089.72
569.734	9059.44
570.095	9164.52
570.457	9086.78
570.819	9125.65
571.18	9152.77
571.542	9199.09
571.903	9141.69
572.265	9227.79
572.626	9177.4
572.987	9220.34
573.349	9176.5
573.71	9225.99
574.071	9228.02
574.432	9244.74
574.794	9313.22
575.155	9246.78
575.516	9223.73
575.877	9247.91
576.238	9250.62
576.599	9305.98
576.96	9273.44
577.32	9306.44
577.681	9322.71
578.042	9336.49
578.403	9365.64
578.763	9341.24
579.124	9334.23
579.485	9357.51
579.845	9391.41
580.206	9352.31
580.566	9367.68
580.927	9368.13
581.287	9469.14
581.648	9411.29
582.008	9470.27
582.368	9439.09
582.728	9476.15
583.089	9376.04
583.449	9420.78
583.809	9419.43
584.169	9453.78
584.529	9415.13
584.889	9572.19
585.249	9429.37
585.609	9443.16
585.969	9499.43
586.329	9454
586.688	9462.14
587.048	9459.88
587.408	9489.26
587.768	9472.99
588.127	9562.02
588.487	9473.66
588.846	9589.82
589.206	9541.46
589.565	9474.12
589.925	9509.14
590.284	9474.12
590.643	9540.55
591.003	9551.4
591.362	9547.33
591.721	9527.9
592.08	9537.62
592.44	9590.72
592.799	9523.15
593.158	9548.46
593.517	9587.33
593.876	9616.71
594.235	9508.01
594.593	9511.4
594.952	9605.64
595.311	9607.22
595.67	9565.19
596.029	9647.44
596.387	9583.04
596.746	9615.13
597.104	9614.22
597.463	9558.41
597.822	9584.85
598.18	9608.12
598.538	9529.93
598.897	9614.22
599.255	9542.14
599.613	9660.1
599.972	9576.71
600.33	9557.95
600.688	9565.41
601.046	9588.69
601.404	9623.26
601.762	9589.14
602.12	9664.39
602.478	9655.13
602.836	9654.45
603.194	9621
603.552	9535.81
603.91	9592.98
604.268	9682.47
604.625	9678.86
604.983	9686.09
605.341	9594.79
605.698	9601.8
606.056	9621.46
606.413	9671.4
606.771	9646.09
607.128	9676.82
607.485	9625.3
607.843	9624.85
608.2	9707.1
608.557	9705.97
608.914	9690.61
609.272	9650.83
609.629	9733.54
609.986	9720.89
610.343	9701.45
610.7	9678.4
611.057	9789.36
611.414	9742.36
611.771	9767.21
612.127	9738.29
612.484	9774.22
612.841	9821.9
613.198	9747.33
613.554	9748.91
613.911	9802.92
614.267	9784.16
614.624	9785.75
614.98	9849.25
615.337	9849.47
615.693	9811.06
616.05	9846.76
616.406	9808.57
616.762	9867.33
617.118	9817.61
617.475	9886.53
617.831	9805.18
618.187	9932.63
618.543	9874.33
618.899	9923.37
619.255	9867.78
619.611	9955.46
619.967	9926.31
620.323	9901.22
620.678	9926.76
621.034	9899.64
621.39	9924.5
621.746	9890.15
622.101	9950.03
622.457	9890.83
622.812	9905.74
623.168	9973.99
623.523	9939.87
623.879	9938.74
624.234	9912.07
624.589	9884.5
624.945	9909.36
625.3	9909.81
625.655	9912.52
626.01	9879.53
626.365	9879.75
626.72	9900.32
627.075	9888.57
627.43	9895.8
627.785	9886.76
628.14	9969.24
628.495	9886.31
628.85	9817.38
629.205	9853.77
629.559	9920.88
629.914	9845.63
630.269	9841.56
630.623	9809.93
630.978	9825.97
631.332	9749.36
631.687	9812.86
632.041	9818.74
632.396	9824.84
632.75	9820.09
633.104	9739.65
633.459	9717.05
633.813	9739.19
634.167	9715.92
634.521	9707.1
634.875	9683.6
635.229	9709.59
635.583	9589.14
635.937	9705.52
636.291	9643.83
636.645	9581.23
636.999	9573.55
637.352	9620.55
637.706	9611.51
638.06	9526.77
638.413	9635.02
638.767	9547.33
639.121	9587.78
639.474	9422.59
639.828	9534.45
640.181	9509.14
640.534	9540.78
640.888	9457.17
641.241	9466.43
641.594	9482.93
641.947	9440.67
642.301	9495.13
642.654	9501.46
643.007	9576.49
643.36	9471.18
643.713	9407.22
644.066	9413.55
644.419	9427.56
644.771	9336.94
645.124	9305.98
645.477	9305.31
645.83	9197.51
646.182	9200.45
646.535	9164.29
646.888	9191.41
647.24	9061.7
647.593	9190.28
647.945	9082.04
648.298	9119.32
648.65	9101.47
649.002	9131.07
649.355	9148.02
649.707	9147.8
650.059	9211.52
650.411	9304.4
650.763	9278.87
651.115	9295.81
651.467	9315.02
651.819	9292.88
652.171	9383.27
652.523	9270.28
652.875	9260.56
653.227	9230.51
653.578	9351.63
653.93	9296.49
654.282	9273.67
654.633	9240
654.985	9330.62
655.337	9297.85
655.688	9289.04
656.039	9321.8
656.391	9258.98
656.742	9333.55
657.094	9282.93
657.445	9311.41
657.796	9305.31
658.147	9388.92
658.498	9289.94
658.849	9339.88
659.2	9366.1
659.551	9346.44
659.902	9382.82
660.253	9347.34
660.604	9350.73
660.955	9336.04
661.306	9353.21
661.656	9329.49
662.007	9319.09
662.358	9318.87
662.708	9328.58
663.059	9358.41
663.409	9315.48
663.76	9380.11
664.11	9408.81
664.461	9390.05
664.811	9447.22
665.161	9391.18
665.511	9332.2
665.862	9412.65
666.212	9413.55
666.562	9437.51
666.912	9372.42
667.262	9354.12
667.612	9385.76
667.962	9437.05
668.312	9388.69
668.662	9343.05
669.011	9385.3
669.361	9413.33
669.711	9389.6
670.06	9355.93
670.41	9328.81
670.76	9286.32
671.109	9333.1
671.459	9380.33
671.808	9296.04
672.157	9330.62
672.507	9248.13
672.856	9284.06
673.205	9345.98
673.554	9398.64
673.904	9229.15
674.253	9321.58
674.602	9311.63
674.951	9162.26
675.3	9115.25
675.649	9267.79
675.998	9240.45
676.346	9307.79
676.695	9294.68
677.044	9178.08
677.393	9214.01
677.741	9237.06
678.09	9177.4
678.438	9194.8
678.787	9217.4
679.135	9082.94
679.484	9089.94
679.832	9108.93
680.181	9036.16
680.529	9107.57
680.877	9040.45
681.225	9096.95
681.573	9117.51
681.922	9030.51
682.27	8979.67
682.618	8975.37
682.966	9010.85
683.314	8977.18
683.661	8951.87
684.009	8853.79
684.357	8918.65
684.705	8874.58
685.053	8883.85
685.4	8843.17
685.748	8798.43
686.095	8781.25
686.443	8705.77
686.79	8719.11
687.138	8800.91
687.485	8778.31
687.832	8730.18
688.18	8713.23
688.527	8689.05
688.874	8611.31
689.221	8694.25
689.568	8611.09
689.915	8633.01
690.262	8597.75
690.609	8560.69
690.956	8574.25
691.303	8508.49
691.65	8418.32
691.997	8456.74
692.344	8372.9
692.69	8370.87
693.037	8287.93
693.383	8304.43
693.73	8330.42
694.077	8250.87
694.423	8260.59
694.769	8191.89
695.116	8220.81
695.462	8179.69
695.808	8135.17
696.155	8207.26
696.501	8045.23
696.847	8101.27
697.193	8000.26
697.539	8005
697.885	7936.98
698.231	7961.39
698.577	7945.34
698.923	7950.99
699.269	7898.79
699.614	7776.31
699.96	7811.11
700.306	7774.05
700.651	7746.7
700.997	7752.13
701.342	7681.17
701.688	7666.03
702.033	7641.62
702.379	7574.96
702.724	7528.4
703.069	7560.27
703.415	7487.73
703.76	7490.21
704.105	7545.58
704.45	7449.08
704.795	7373.15
705.14	7364.11
705.485	7317.79
705.83	7300.39
706.175	7327.96
706.52	7236.21
706.865	7184.91
707.209	7270.56
707.554	7199.82
707.899	7247.51
708.243	7183.55
708.588	7147.85
708.932	7120.73
709.277	7131.58
709.621	7111.69
709.966	7012.03
710.31	7112.14
710.654	7016.1
710.998	7009.77
711.342	6986.5
711.687	6961.19
712.031	6934.52
712.375	6922.54
712.719	6973.84
713.063	6927.29
713.407	6922.09
713.75	6840.74
714.094	6834.64
714.438	6908.76
714.782	6871.47
715.125	6820.17
715.469	6859.04
715.812	6804.35
716.156	6782.43
716.499	6810.68
716.843	6828.08
717.186	6778.37
717.53	6727.07
717.873	6732.72
718.216	6711.25
718.559	6742.66
718.902	6677.13
719.246	6681.87
719.589	6706.28
719.932	6629.44
720.275	6688.88
720.617	6701.08
720.96	6593.06
721.303	6624.47
721.646	6600.29
721.989	6611.82
722.331	6618.82
722.674	6617.02
723.016	6633.74
723.359	6629.44
723.701	6598.26
724.044	6584.47
724.386	6581.08
724.729	6548.77
725.071	6590.35
725.413	6550.58
725.755	6587.41
726.097	6424.25
726.439	6494.53
726.782	6506.28
727.124	6513.74
727.465	6474.42
727.807	6464.02
728.149	6523.23
728.491	6509.67
728.833	6487.08
729.175	6517.13
729.516	6443.69
729.858	6511.48
730.199	6500.86
730.541	6469.9
730.882	6438.26
731.224	6505.61
731.565	6449.34
731.906	6495.89
732.248	6491.59
732.589	6484.14
732.93	6416.12
733.271	6464.48
733.612	6512.39
733.953	6493.63
734.294	6474.42
734.635	6472.39
734.976	6483.01
735.317	6402.11
735.658	6416.34
735.999	6433.52
736.339	6476.45
736.68	6469.9
737.021	6466.51
737.361	6434.87
737.702	6523.01
738.042	6521.65
738.383	6523.01
738.723	6519.62
739.063	6540.41
739.404	6513.29
739.744	6588.99
740.084	6532.5
740.424	6547.64
740.764	6544.7
741.104	6577.02
741.444	6597.81
741.784	6557.81
742.124	6617.69
742.464	6690.91
742.804	6709.22
743.143	6665.83
743.483	6679.16
743.823	6686.39
744.162	6704.47
744.502	6718.71
744.841	6744.92
745.181	6786.28
745.52	6775.66
745.86	6867.86
746.199	6881.64
746.538	6936.33
746.877	6948.08
747.216	7029.43
747.556	7052.03
747.895	7120.5
748.234	7117.79
748.573	7204.8
748.911	7214.51
749.25	7344.68
749.589	7315.3
749.928	7392.14
750.267	7478.46
750.605	7479.59
750.944	7591
751.283	7685.24
751.621	7771.11
751.96	7786.93
752.298	7934.72
752.636	8005.45
752.975	8101.27
753.313	8159.12
753.651	8311.43
753.989	8355.05
754.327	8459.45
754.666	8592.56
755.004	8734.02
755.342	8810.63
755.679	8933.56
756.017	9008.82
756.355	9228.92
756.693	9345.53
757.031	9486.77
757.368	9608.12
757.706	9719.31
758.044	9869.59
758.381	10046.08
758.719	10108.67
759.056	10298.27
759.394	10412.85
759.731	10548.66
760.068	10732.84
760.405	10937.13
760.743	10966.96
761.08	11251.02
761.417	11408.08
761.754	11569.88
762.091	11691.23
762.428	11827.95
762.765	11950.66
763.102	12273.59
763.438	12312.23
763.775	12535.73
764.112	12721.49
764.449	12863.86
764.785	12911.99
765.122	13122.15
765.458	13317.4
765.795	13444.86
766.131	13610.96
766.467	13696.38
766.804	13823.83
767.14	14061.11
767.476	14155.57
