Data from hue_230_FLMS001491_00088.txt Node
Date: Tue Feb 07 16:37:52 GMT 2017
User: dcchb
Spectrometer: FLMS00149
Trigger mode: 0
Integration Time (sec): 2.000000E-2
Scans to average: 10
Electric dark correction enabled: true
Nonlinearity correction enabled: false
Boxcar width: 0
XAxis mode: Wavelengths
Number of Pixels in Spectrum: 2048
>>>>>Begin Spectral Data<<<<<
341.393	-10.86
341.776	-10.86
342.16	-10.86
342.543	-65.55
342.927	-74.36
343.31	-51.99
343.693	-59.22
344.077	-56.96
344.46	-43.85
344.843	-63.97
345.226	-28.94
345.61	-36.85
345.993	-44.76
346.376	3.38
346.759	-10.18
347.142	34.11
347.525	50.83
347.908	44.05
348.291	68.68
348.674	87.22
349.057	108.46
349.44	127.67
349.823	143.71
350.206	158.63
350.588	200.21
350.971	203.82
351.354	214.44
351.737	208.12
352.119	263.48
352.502	243.82
352.884	277.04
353.267	270.94
353.65	287.44
354.032	285.85
354.414	301.22
354.797	327.89
355.179	328.11
355.562	311.62
355.944	322.69
356.326	329.92
356.709	326.53
357.091	338.28
357.473	342.35
357.855	338.73
358.238	324.05
358.62	336.7
359.002	359.98
359.384	333.08
359.766	332.86
360.148	336.93
360.53	343.93
360.912	318.17
361.294	331.05
361.676	339.19
362.057	311.62
362.439	337.83
362.821	308.68
363.203	332.41
363.584	318.4
363.966	311.39
364.348	300.77
364.729	304.16
365.111	298.28
365.493	309.36
365.874	300.77
366.256	287.89
366.637	336.02
367.019	320.66
367.4	322.24
367.781	310.49
368.163	311.16
368.544	314.55
368.925	310.03
369.306	321.56
369.688	296.48
370.069	318.4
370.45	301.22
370.831	315.46
371.212	321.56
371.593	305.06
371.974	315.01
372.355	320.88
372.736	319.53
373.117	316.14
373.498	327.21
373.879	301.45
374.26	301.22
374.641	307.77
375.021	338.06
375.402	341.67
375.783	330.37
376.163	317.94
376.544	302.35
376.925	324.05
377.305	329.02
377.686	345.29
378.066	321.79
378.447	330.6
378.827	336.25
379.208	319.98
379.588	355.68
379.968	329.69
380.349	329.47
380.729	310.71
381.109	339.86
381.489	332.86
381.87	321.33
382.25	337.15
382.63	327.66
383.01	339.86
383.39	329.92
383.77	331.05
384.15	351.62
384.53	342.8
384.91	329.47
385.29	328.56
385.67	349.13
386.049	367.43
386.429	333.99
386.809	341.9
387.189	346.64
387.568	374.21
387.948	357.26
388.328	375.34
388.707	350.71
389.087	351.84
389.466	353.65
389.846	350.94
390.225	366.3
390.605	369.24
390.984	360.88
391.363	350.71
391.743	348.9
392.122	364.5
392.501	352.52
392.881	379.41
393.26	372.18
393.639	388.68
394.018	377.83
394.397	379.64
394.776	398.62
395.155	393.2
395.534	366.98
395.913	371.05
396.292	392.29
396.671	392.97
397.05	359.3
397.429	381.9
397.808	361.11
398.186	406.53
398.565	382.35
398.944	404.27
399.323	390.94
399.701	377.15
400.08	385.06
400.458	413.99
400.837	414.89
401.215	407.88
401.594	412.63
401.972	429.35
402.351	407.43
402.729	396.59
403.107	408.56
403.486	399.07
403.864	411.73
404.242	412.63
404.62	418.51
404.999	439.52
405.377	421.22
405.755	439.75
406.133	438.17
406.511	448.11
406.889	455.12
407.267	438.62
407.645	438.62
408.023	463.02
408.401	456.25
408.779	484.04
409.156	460.31
409.534	468.9
409.912	486.3
410.29	491.27
410.667	487.66
411.045	505.06
411.422	527.43
411.8	513.19
412.178	520.88
412.555	526.98
412.933	521.55
413.31	519.07
413.687	554.55
414.065	556.36
414.442	557.71
414.819	554.32
415.197	554.1
415.574	569.91
415.951	583.93
416.328	591.83
416.705	597.03
417.082	598.61
417.46	625.51
417.837	614.66
418.214	613.76
418.591	619.86
418.967	616.24
419.344	639.29
419.721	650.36
420.098	649.69
420.475	664.83
420.852	674.32
421.228	693.53
421.605	647.2
421.982	676.13
422.358	689.23
422.735	688.1
423.111	714.32
423.488	735.33
423.864	740.76
424.241	756.35
424.617	748.21
424.994	756.12
425.37	766.75
425.746	793.86
426.123	803.58
426.499	791.15
426.875	834.54
427.251	807.87
427.627	847.65
428.003	853.97
428.379	847.87
428.756	862.56
429.132	856.91
429.507	887.19
429.883	894.43
430.259	911.15
430.635	910.47
431.011	907.31
431.387	928.55
431.763	964.03
432.138	954.31
432.514	973.52
432.89	972.39
433.265	992.05
433.641	1013.74
434.016	1000.64
434.392	1032.73
434.767	1061.65
435.143	1062.56
435.518	1092.16
435.894	1096
436.269	1116.34
436.644	1142.78
437.02	1129.9
437.395	1139.62
437.77	1193.17
438.145	1197.02
438.52	1221.65
438.895	1212.84
439.271	1244.92
439.646	1278.37
440.021	1279.27
440.395	1278.6
440.77	1279.73
441.145	1294.64
441.52	1379.16
441.895	1323.79
442.27	1345.26
442.645	1359.5
443.019	1374.41
443.394	1374.41
443.769	1418.48
444.143	1423.68
444.518	1431.36
444.892	1457.12
445.267	1442.21
445.641	1463.68
446.016	1468.2
446.39	1477.24
446.764	1507.97
447.139	1498.93
447.513	1504.13
447.887	1525.14
448.262	1541.64
448.636	1534.63
449.01	1543
449.384	1566.95
449.758	1586.61
450.132	1596.1
450.506	1560.62
450.88	1584.8
451.254	1627.51
451.628	1633.16
452.002	1673.39
452.376	1685.37
452.75	1684.91
453.123	1669.32
453.497	1705.25
453.871	1734.4
454.244	1766.49
454.618	1793.16
454.992	1804.68
455.365	1817.34
455.739	1808.53
456.112	1839.94
456.486	1844.68
456.859	1851.91
457.232	1896.66
457.606	1889.65
457.979	1916.32
458.352	1962.65
458.725	1973.72
459.099	1962.87
459.472	1997.45
459.845	2031.8
460.218	2025.24
460.591	2055.53
460.964	2056.2
461.337	2119.25
461.71	2127.39
462.083	2156.54
462.456	2184.79
462.829	2166.03
463.201	2226.14
463.574	2231.11
463.947	2230.44
464.32	2280.6
464.692	2292.58
465.065	2300.94
465.438	2380.71
465.81	2356.31
466.183	2395.18
466.555	2431.11
466.928	2423.42
467.3	2441.5
467.672	2496.64
468.045	2572.8
468.417	2549.52
468.789	2565.12
469.161	2594.27
469.534	2617.77
469.906	2705.45
470.278	2684.66
470.65	2742.06
471.022	2747.71
471.394	2781.83
471.766	2819.57
472.138	2859.35
472.51	2915.39
472.882	2937.76
473.253	2956.29
473.625	3020.7
473.997	3076.52
474.369	3073.13
474.74	3085.78
475.112	3163.07
475.484	3159.45
475.855	3281.71
476.227	3283.74
476.598	3358.99
476.97	3384.53
477.341	3479.89
477.713	3490.06
478.084	3516.96
478.455	3590.85
478.827	3572.77
479.198	3693.67
479.569	3706.1
479.94	3773.22
480.311	3825.87
480.682	3855.03
481.053	3937.28
481.424	4009.15
481.795	4072.65
482.166	4088.47
482.537	4161.91
482.908	4210.5
483.279	4228.8
483.65	4313.09
484.021	4408.23
484.391	4431.96
484.762	4453.88
485.133	4446.65
485.503	4540.88
485.874	4646.19
486.244	4655.68
486.615	4763.48
486.985	4778.17
487.356	4831.05
487.726	4859.07
488.097	4954.66
488.467	4979.97
488.837	5076.24
489.207	5055.67
489.578	5146.29
489.948	5223.13
490.318	5271.94
490.688	5242.33
491.058	5382.44
491.428	5375.44
491.798	5425.61
492.168	5537.24
492.538	5541.76
492.908	5597.8
493.278	5644.58
493.648	5642.32
494.017	5699.05
494.387	5751.02
494.757	5784.47
495.126	5897.68
495.496	5879.15
495.866	5895.65
496.235	5962.09
496.605	5994.18
496.974	6010.9
497.344	5996.89
497.713	6054.97
498.082	6068.07
498.452	6142.88
498.821	6173.16
499.19	6098.13
499.559	6204.57
499.928	6226.04
500.298	6292.48
500.667	6304.45
501.036	6319.37
501.405	6363.43
501.774	6350.33
502.143	6317.56
502.512	6443.88
502.88	6465.13
503.249	6433.04
503.618	6482.3
503.987	6513.26
504.356	6535.18
504.724	6576.31
505.093	6562.07
505.462	6599.59
505.83	6625.57
506.199	6622.86
506.567	6705.8
506.936	6673.48
507.304	6739.92
507.672	6742.18
508.041	6750.54
508.409	6813.82
508.777	6816.98
509.145	6828.96
509.514	6807.94
509.882	6870.09
510.25	6833.7
510.618	6881.16
510.986	6890.2
511.354	6967.71
511.722	6938.56
512.09	7040.03
512.458	6976.98
512.826	7042.06
513.193	7040.7
513.561	7046.35
513.929	7082.29
514.297	7079.8
514.664	7109.86
515.032	7136.52
515.4	7137.88
515.767	7119.57
516.135	7120.48
516.502	7076.64
516.869	7195.05
517.237	7236.18
517.604	7141.94
517.972	7195.05
518.339	7216.29
518.706	7225.11
519.073	7235.28
519.44	7223.52
519.808	7240.02
520.175	7225.33
520.542	7380.81
520.909	7282.51
521.276	7308.95
521.643	7321.15
522.009	7331.77
522.376	7384.88
522.743	7401.15
523.11	7421.26
523.477	7415.16
523.843	7454.93
524.21	7511.88
524.577	7575.61
524.943	7503.07
525.31	7567.7
525.676	7563.85
526.043	7580.35
526.409	7531.99
526.776	7565.89
527.142	7586.23
527.508	7610.18
527.874	7632.33
528.241	7613.35
528.607	7647.24
528.973	7698.77
529.339	7635.49
529.705	7628.26
530.071	7718.65
530.437	7723.17
530.803	7666.68
531.169	7678.43
531.535	7623.74
531.901	7635.04
532.267	7653.8
532.632	7642.72
532.998	7703.51
533.364	7646.56
533.73	7635.94
534.095	7631.88
534.461	7649.5
534.826	7622.61
535.192	7644.53
535.557	7652.67
535.923	7651.76
536.288	7671.2
536.653	7697.41
537.019	7652.21
537.384	7584.42
537.749	7606.57
538.114	7575.38
538.479	7561.82
538.845	7607.47
539.21	7511.65
539.575	7550.07
539.94	7602.05
540.305	7564.76
540.67	7500.35
541.034	7521.82
541.399	7537.41
541.764	7428.04
542.129	7520.01
542.494	7480.69
542.858	7482.95
543.223	7465.1
543.587	7506.23
543.952	7416.06
544.316	7458.77
544.681	7408.15
545.045	7401.83
545.41	7404.99
545.774	7344.43
546.138	7344.43
546.503	7347.59
546.867	7321.83
547.231	7331.32
547.595	7326.35
547.959	7324.99
548.324	7320.25
548.688	7230.53
549.052	7294.94
549.416	7264.2
549.779	7220.59
550.143	7208.84
550.507	7267.82
550.871	7223.07
551.235	7186.46
551.599	7258.78
551.962	7182.62
552.326	7163.64
552.689	7193.47
553.053	7153.02
553.417	7166.35
553.78	7182.17
554.143	7173.13
554.507	7144.2
554.87	7141.94
555.234	7138.78
555.597	7152.34
555.96	7199.8
556.323	7110.99
556.686	7087.26
557.05	7145.79
557.413	7162.74
557.776	7089.07
558.139	7128.61
558.502	7148.27
558.865	7090.19
559.228	7140.36
559.59	7163.19
559.953	7189.63
560.316	7194.15
560.679	7163.41
561.041	7251.09
561.404	7202.51
561.767	7207.93
562.129	7149.4
562.492	7246.8
562.854	7207.48
563.217	7189.4
563.579	7242.28
563.941	7223.3
564.304	7260.13
564.666	7285.67
565.028	7275.05
565.39	7295.39
565.753	7282.96
566.115	7281.6
566.477	7368.83
566.839	7317.08
567.201	7335.84
567.563	7377.87
567.925	7400.47
568.287	7371.09
568.648	7402.5
569.01	7432.11
569.372	7474.37
569.734	7410.19
570.095	7437.08
570.457	7514.82
570.819	7465.1
571.18	7432.33
571.542	7564.98
571.903	7504.42
572.265	7560.69
572.626	7607.02
572.987	7645.21
573.349	7611.54
573.71	7635.49
574.071	7658.77
574.432	7670.52
574.794	7721.14
575.155	7671.2
575.516	7635.04
575.877	7705.77
576.238	7744.87
576.599	7731.99
576.96	7753.45
577.32	7735.15
577.681	7722.27
578.042	7791.42
578.403	7771.31
578.763	7778.09
579.124	7858.99
579.485	7828.93
579.845	7867.35
580.206	7887.69
580.566	7853.79
580.927	7858.08
581.287	7904.64
581.648	7891.76
582.008	7987.57
582.368	7975.14
582.728	7942.15
583.089	7960.68
583.449	7931.75
583.809	7985.76
584.169	8003.39
584.529	7951.64
584.889	8089.04
585.249	7971.53
585.609	7975.6
585.969	8062.6
586.329	8101.02
586.688	8037.51
587.048	8063.28
587.408	8060.56
587.768	8070.51
588.127	8065.99
588.487	8092.88
588.846	8183.05
589.206	8097.17
589.565	8163.84
589.925	8077.74
590.284	8146.21
590.643	8160
591.003	8177.17
591.362	8191.86
591.721	8161.81
592.08	8139.66
592.44	8151.64
592.799	8217.4
593.158	8155.03
593.517	8184.18
593.876	8200.22
594.235	8177.62
594.593	8197.28
594.952	8161.81
595.311	8189.83
595.67	8223.05
596.029	8320.67
596.387	8312.76
596.746	8325.19
597.104	8311.18
597.463	8294.01
597.822	8281.35
598.18	8265.31
598.538	8253.55
598.897	8360.44
599.255	8312.08
599.613	8315.7
599.972	8291.29
600.33	8301.24
600.688	8278.64
601.046	8359.09
601.404	8352.31
601.762	8337.39
602.12	8364.51
602.478	8349.14
602.836	8382.14
603.194	8326.09
603.552	8391.63
603.91	8358.41
604.268	8419.65
604.625	8390.27
604.983	8355.47
605.341	8394.12
605.698	8369.48
606.056	8409.93
606.413	8460.1
606.771	8453.1
607.128	8382.82
607.485	8386.43
607.843	8411.97
608.2	8438.63
608.557	8480.21
608.914	8498.75
609.272	8490.16
609.629	8490.61
609.986	8449.48
610.343	8500.55
610.7	8560.66
611.057	8573.32
611.414	8508.24
611.771	8479.08
612.127	8535.81
612.484	8558.4
612.841	8574.9
613.198	8477.28
613.554	8528.58
613.911	8548.69
614.267	8590.49
614.624	8591.85
614.98	8586.43
615.337	8671.85
615.693	8628.91
616.05	8634.56
616.406	8679.31
616.762	8597.27
617.118	8632.08
617.475	8609.03
617.831	8711.62
618.187	8625.3
618.543	8681.34
618.899	8690.38
619.255	8717.95
619.611	8658.06
619.967	8735.12
620.323	8691.28
620.678	8639.31
621.034	8699.19
621.39	8703.94
621.746	8701.68
622.101	8793.65
622.457	8703.49
622.812	8677.5
623.168	8684.96
623.523	8687.67
623.879	8765.63
624.234	8726.76
624.589	8704.39
624.945	8733.99
625.3	8707.78
625.655	8730.15
626.01	8733.77
626.365	8783.03
626.72	8742.81
627.075	8731.51
627.43	8698.74
627.785	8692.19
628.14	8737.38
628.495	8676.59
628.85	8663.49
629.205	8645.63
629.559	8665.97
629.914	8653.32
630.269	8687.67
630.623	8626.43
630.978	8606.54
631.332	8618.52
631.687	8671.85
632.041	8571.29
632.396	8683.6
632.75	8595.92
633.104	8609.03
633.459	8578.74
633.813	8549.59
634.167	8536.94
634.521	8568.35
634.875	8528.58
635.229	8555.92
635.583	8527.22
635.937	8565.18
636.291	8492.42
636.645	8490.38
636.999	8429.59
637.352	8462.36
637.706	8447
638.06	8432.76
638.413	8470.5
638.767	8426.2
639.121	8492.42
639.474	8383.27
639.828	8400.22
640.181	8479.76
640.534	8427.79
640.888	8429.37
641.241	8332.87
641.594	8371.97
641.947	8352.99
642.301	8330.16
642.654	8330.39
643.007	8318.86
643.36	8385.75
643.713	8359.99
644.066	8431.18
644.419	8309.6
644.771	8255.59
645.124	8192.09
645.477	8138.08
645.83	8136.27
646.182	8146.21
646.535	8101.47
646.888	8089.26
647.24	8056.27
647.593	8108.02
647.945	8038.64
648.298	8034.8
648.65	7976.5
649.002	7998.87
649.355	8025.31
649.707	7970.85
650.059	8067.57
650.411	8127.23
650.763	8167.23
651.115	8200.9
651.467	8243.16
651.819	8199.77
652.171	8197.06
652.523	8185.53
652.875	8183.27
653.227	8044.29
653.578	8186.89
653.93	8202.48
654.282	8120.45
654.633	8157.06
654.985	8082.49
655.337	8175.82
655.688	8185.99
656.039	8193.44
656.391	8121.35
656.742	8128.59
657.094	8200.45
657.445	8225.08
657.796	8176.95
658.147	8106.21
658.498	8160.9
658.849	8157.96
659.2	8188.47
659.551	8162.03
659.902	8139.66
660.253	8191.63
660.604	8194.8
660.955	8149.38
661.306	8198.64
661.656	8212.43
662.007	8203.84
662.358	8224.4
662.708	8141.01
663.059	8151.41
663.409	8074.8
663.76	8202.93
664.11	8256.27
664.461	8170.17
664.811	8151.41
665.161	8178.08
665.511	8233.44
665.862	8207.45
666.212	8195.02
666.562	8213.1
666.912	8132.65
667.262	8175.82
667.612	8164.06
667.962	8157.51
668.312	8205.19
668.662	8194.35
669.011	8183.5
669.361	8192.31
669.711	8187.57
670.06	8187.79
670.41	8175.14
670.76	8110.51
671.109	8128.13
671.459	8109.15
671.808	8152.99
672.157	8156.61
672.507	8154.8
672.856	8090.62
673.205	8133.11
673.554	8170.62
673.904	8128.81
674.253	8192.31
674.602	8097.17
674.951	8017.63
675.3	7945.77
675.649	8097.85
675.998	8063.05
676.346	8066.67
676.695	8101.24
677.044	7990.96
677.393	8075.71
677.741	8037.06
678.09	8007.46
678.438	8004.07
678.787	7969.49
679.135	7999.78
679.484	7941.02
679.832	7989.83
680.181	7883.17
680.529	7958.65
680.877	7888.14
681.225	7861.93
681.573	7929.04
681.922	7954.13
682.27	7877.52
682.618	7833.9
682.966	7884.3
683.314	7897.86
683.661	7793.91
684.009	7818.31
684.357	7750.97
684.705	7786.67
685.053	7777.86
685.4	7729.95
685.748	7655.15
686.095	7705.32
686.443	7687.69
686.79	7585.32
687.138	7614.93
687.485	7579.9
687.832	7602.95
688.18	7646.79
688.527	7629.16
688.874	7538.77
689.221	7569.73
689.568	7470.98
689.915	7530.86
690.262	7452.22
690.609	7480.69
690.956	7415.84
691.303	7422.84
691.65	7360.24
691.997	7468.72
692.344	7336.29
692.69	7345.56
693.037	7367.25
693.383	7314.14
693.73	7219.91
694.077	7292.68
694.423	7215.39
694.769	7226.46
695.116	7182.85
695.462	7147.82
695.808	7175.62
696.155	7107.6
696.501	7083.19
696.847	7040.03
697.193	7025.79
697.539	6993.93
697.885	6966.58
698.231	7012.91
698.577	6936.07
698.923	6977.88
699.269	6913.02
699.614	6857.21
699.96	6891.33
700.306	6873.25
700.651	6793.25
700.997	6818.79
701.342	6791.22
701.688	6774.95
702.033	6762.52
702.379	6736.31
702.724	6682.75
703.069	6748.06
703.415	6670.77
703.76	6649.53
704.105	6633.48
704.45	6594.61
704.795	6518.23
705.14	6552.81
705.485	6546.48
705.83	6495.86
706.175	6525.01
706.52	6426.48
706.865	6395.75
707.209	6461.51
707.554	6407.28
707.899	6439.14
708.243	6416.31
708.588	6398.24
708.932	6324.11
709.277	6282.08
709.621	6367.05
709.966	6311.46
710.31	6325.24
710.654	6312.14
710.998	6275.08
711.342	6186.72
711.687	6207.05
712.031	6178.13
712.375	6176.32
712.719	6195.76
713.063	6182.65
713.407	6243.66
713.75	6165.93
714.094	6130.22
714.438	6145.59
714.782	6132.48
715.125	6106.72
715.469	6098.81
715.812	6100.16
716.156	6071.69
716.499	6001.41
716.843	6082.54
717.186	6000.28
717.53	6036.89
717.873	6070.56
718.216	6030.79
718.559	5973.39
718.902	5955.31
719.246	5945.37
719.589	6027.62
719.932	5937.46
720.275	6016.1
720.617	5965.93
720.96	5931.13
721.303	5908.08
721.646	5891.36
721.989	5893.62
722.331	5959.6
722.674	5869.21
723.016	5958.47
723.359	5908.31
723.701	5920.96
724.044	5903.79
724.386	5861.98
724.729	5889.1
725.071	5824.69
725.413	5852.26
725.755	5895.2
726.097	5875.76
726.439	5781.98
726.782	5837.57
727.124	5814.97
727.465	5774.52
727.807	5821.53
728.149	5828.31
728.491	5823.11
728.833	5857.01
729.175	5823.11
729.516	5852.04
729.858	5851.58
730.199	5852.04
730.541	5817.46
730.882	5820.17
731.224	5808.87
731.565	5750.8
731.906	5836.89
732.248	5785.37
732.589	5805.48
732.93	5736.11
733.271	5779.49
733.612	5803.22
733.953	5810.23
734.294	5778.59
734.635	5742.89
734.976	5809.32
735.317	5727.07
735.658	5770
735.999	5796.22
736.339	5759.16
736.68	5766.84
737.021	5747.18
737.361	5821.3
737.702	5758.48
738.042	5761.42
738.383	5804.35
738.723	5786.73
739.063	5802.09
739.404	5834.41
739.744	5792.83
740.084	5842.54
740.424	5814.07
740.764	5840.28
741.104	5887.74
741.444	5781.98
741.784	5844.8
742.124	5889.77
742.464	5868.31
742.804	5870.57
743.143	5904.46
743.483	5912.15
743.823	5906.72
744.162	5917.57
744.502	5952.6
744.841	5985.59
745.181	6038.47
745.52	6064.23
745.86	6015.87
746.199	6080.05
746.538	6114.18
746.877	6131.58
747.216	6137.45
747.556	6196.21
747.895	6238.47
748.234	6224.45
748.573	6285.02
748.911	6330.67
749.25	6343.77
749.589	6362.98
749.928	6439.59
750.267	6506.93
750.605	6437.56
750.944	6559.81
751.283	6569.3
751.621	6704.44
751.96	6690.66
752.298	6711.9
752.636	6851.56
752.975	6854.95
753.313	6986.92
753.651	7093.13
753.989	7129.06
754.327	7195.28
754.666	7175.39
755.004	7371.32
755.342	7404.31
755.679	7528.15
756.017	7563.85
756.355	7679.33
756.693	7803.62
757.031	7868.48
757.368	7950.06
757.706	8000.23
758.044	8202.71
758.381	8308.92
758.719	8407.9
759.056	8516.15
759.394	8572.64
759.731	8706.42
760.068	8789.13
760.405	8956.36
760.743	8985.74
761.08	9218.5
761.417	9284.94
761.754	9325.84
762.091	9493.52
762.428	9604.25
762.765	9700.75
763.102	9836.34
763.438	9872.72
763.775	9991.36
764.112	10123.34
764.449	10321.07
764.785	10323.33
765.122	10442.2
765.458	10523.32
765.795	10666.37
766.131	10796.99
766.467	10872.69
766.804	10951.79
767.14	11045.8
767.476	11124.67
767.812	11268.39
768.148	11340.25
768.485	11417.99
768.821	11512.9
