Data from hue_320_FLMS001491_32.txt Node
Date: Mon Feb 06 15:47:06 GMT 2017
User: dcchb
Spectrometer: FLMS00149
Trigger mode: 0
Integration Time (sec): 2.000000E-2
Scans to average: 10
Electric dark correction enabled: true
Nonlinearity correction enabled: false
Boxcar width: 0
XAxis mode: Wavelengths
Number of Pixels in Spectrum: 2048
>>>>>Begin Spectral Data<<<<<
341.393	-21.76
341.776	-21.76
342.16	-21.76
342.543	-75.32
342.927	-70.13
343.31	-71.03
343.693	-77.13
344.077	-70.35
344.46	-56.11
344.843	-54.08
345.226	-59.5
345.61	-24.7
345.993	-12.95
346.376	7.84
346.759	2.87
347.142	25.01
347.525	24.79
347.908	64.33
348.291	90.1
348.674	107.5
349.057	103.43
349.44	131.23
349.823	136.65
350.206	145.69
350.588	192.69
350.971	221.17
351.354	224.33
351.737	244.44
352.119	252.13
352.502	269.07
352.884	267.94
353.267	276.53
353.65	280.6
354.032	289.41
354.414	313.14
354.797	298.23
355.179	311.79
355.562	350.2
355.944	322.86
356.326	302.75
356.709	343.88
357.091	323.54
357.473	336.87
357.855	316.31
358.238	343.65
358.62	326.47
359.002	332.58
359.384	322.63
359.766	328.96
360.148	337.77
360.53	323.31
360.912	352.91
361.294	337.55
361.676	339.36
362.057	333.25
362.439	301.62
362.821	317.66
363.203	309.07
363.584	321.95
363.966	317.21
364.348	327.38
364.729	314.05
365.111	325.8
365.493	312.92
365.874	296.19
366.256	309.98
366.637	306.59
367.019	313.14
367.4	319.47
367.781	302.07
368.163	312.92
368.544	295.29
368.925	306.59
369.306	313.14
369.688	309.75
370.069	307.49
370.45	303.88
370.831	311.56
371.212	295.51
371.593	303.88
371.974	316.31
372.355	303.65
372.736	304.33
373.117	302.97
373.498	317.21
373.879	304.1
374.26	321.05
374.641	314.5
375.021	300.03
375.402	328.73
375.783	333.48
376.163	333.93
376.544	325.12
376.925	341.39
377.305	313.59
377.686	318.79
378.066	301.39
378.447	332.12
378.827	332.8
379.208	332.12
379.588	305.68
379.968	351.56
380.349	337.32
380.729	332.58
381.109	331.22
381.489	325.57
381.87	323.08
382.25	333.25
382.63	349.75
383.01	338.9
383.39	361.5
383.77	342.07
384.15	327.6
384.53	343.42
384.91	331.67
385.29	332.35
385.67	321.28
386.049	364.21
386.429	369.41
386.809	356.53
387.189	365.57
387.568	331.67
387.948	349.98
388.328	369.41
388.707	347.26
389.087	369.41
389.466	346.59
389.846	343.88
390.225	339.36
390.605	375.74
390.984	360.37
391.363	356.53
391.743	357.21
392.122	374.61
392.501	355.17
392.881	379.13
393.26	362.86
393.639	362.18
394.018	385.91
394.397	371.45
394.776	368.28
395.155	361.95
395.534	380.03
395.913	377.55
396.292	366.7
396.671	388.39
397.05	374.83
397.429	378.68
397.808	388.85
398.186	356.3
398.565	385.68
398.944	382.07
399.323	393.37
399.701	402.18
400.08	390.88
400.458	392.91
400.837	398.56
401.215	432.69
401.594	377.77
401.972	390.65
402.351	408.96
402.729	427.49
403.107	409.18
403.486	424.78
403.864	416.19
404.242	428.62
404.62	430.43
404.999	431.33
405.377	423.87
405.755	426.81
406.133	432.46
406.511	424.33
406.889	441.27
407.267	447.83
407.645	428.84
408.023	431.78
408.401	435.4
408.779	466.81
409.156	488.05
409.534	452.12
409.912	498.67
410.29	476.08
410.667	486.02
411.045	479.92
411.422	485.34
411.8	492.57
412.178	486.7
412.555	498.9
412.933	500.93
413.31	530.31
413.687	504.1
414.065	549.52
414.442	532.12
414.819	528.28
415.197	532.34
415.574	552.23
415.951	565.79
416.328	577.99
416.705	564.66
417.082	572.57
417.46	594.49
417.837	573.47
418.214	594.04
418.591	596.3
418.967	614.15
419.344	594.94
419.721	625.22
420.098	611.21
420.475	625
420.852	615.51
421.228	646.47
421.605	658.22
421.982	643.75
422.358	646.47
422.735	669.74
423.111	674.94
423.488	693.24
423.864	685.79
424.241	666.13
424.617	694.6
424.994	671.32
425.37	694.15
425.746	701.61
426.123	721.94
426.499	733.24
426.875	719.91
427.251	749.74
427.627	746.58
428.003	787.25
428.379	753.13
428.756	783.41
429.132	812.79
429.507	787.71
429.883	779.34
430.259	811.43
430.635	848.72
431.011	830.87
431.387	812.56
431.763	827.25
432.138	823.64
432.514	852.11
432.89	831.09
433.265	863.64
433.641	859.57
434.016	905.44
434.392	901.15
434.767	928.04
435.143	916.74
435.518	923.52
435.894	939.79
436.269	919.68
436.644	956.06
437.02	942.5
437.395	992.67
437.77	962.84
438.145	991.54
438.52	989.28
438.895	1019.11
439.271	1015.95
439.646	1019.79
440.021	1000.36
440.395	1040.81
440.77	1052.33
441.145	1018.43
441.52	1036.51
441.895	1048.72
442.27	1043.29
442.645	1051.65
443.019	1076.74
443.394	1083.74
443.769	1066.34
444.143	1079.22
444.518	1079.9
444.892	1071.99
445.267	1117.64
445.641	1111.54
446.016	1116.28
446.39	1137.75
446.764	1129.17
447.139	1099.34
447.513	1148.83
447.887	1121.03
448.262	1126.91
448.636	1151.54
449.01	1122.61
449.384	1147.47
449.758	1150.41
450.132	1151.54
450.506	1182.27
450.88	1188.37
451.254	1166
451.628	1180.69
452.002	1185.21
452.376	1198.77
452.75	1187.47
453.123	1201.03
453.497	1207.58
453.871	1232.44
454.244	1263.17
454.618	1255.72
454.992	1273.12
455.365	1254.81
455.739	1262.5
456.112	1286.22
456.486	1290.74
456.859	1278.99
457.232	1314.92
457.606	1299.56
457.979	1333.91
458.352	1345.88
458.725	1379.78
459.099	1363.06
459.472	1368.48
459.845	1401.25
460.218	1394.69
460.591	1398.08
460.964	1390.63
461.337	1434.47
461.71	1444.19
462.083	1469.04
462.456	1472.21
462.829	1445.54
463.201	1480.12
463.574	1486.22
463.947	1497.74
464.32	1534.8
464.692	1522.38
465.065	1530.96
465.438	1520.12
465.81	1579.32
466.183	1556.72
466.555	1603.28
466.928	1588.81
467.3	1601.92
467.672	1608.02
468.045	1662.03
468.417	1629.27
468.789	1648.47
469.161	1668.36
469.534	1694.35
469.906	1716.49
470.278	1716.27
470.65	1701.81
471.022	1774.35
471.394	1751.97
471.766	1812.76
472.138	1789.94
472.51	1823.61
472.882	1836.72
473.253	1878.98
473.625	1902.93
473.997	1917.17
474.369	1916.26
474.74	1964.62
475.112	1996.26
475.484	1994.91
475.855	1977.05
476.227	2028.35
476.598	2059.31
476.97	2071.97
477.341	2091.63
477.713	2140.44
478.084	2141.12
478.455	2191.51
478.827	2232.41
479.198	2257.95
479.569	2273.32
479.94	2285.74
480.311	2296.14
480.682	2348.12
481.053	2385.4
481.424	2427.44
481.795	2422.69
482.166	2433.76
482.537	2510.82
482.908	2542.91
483.279	2561.22
483.65	2548.11
484.021	2620.65
484.391	2638.96
484.762	2681.67
485.133	2654.77
485.503	2708.11
485.874	2763.47
486.244	2755.11
486.615	2810.7
486.985	2826.3
487.356	2852.96
487.726	2845.96
488.097	2900.64
488.467	2913.98
488.837	2960.98
489.207	2997.14
489.578	3055.89
489.948	3065.61
490.318	3067.42
490.688	3074.42
491.058	3169.56
491.428	3150.13
491.798	3189.22
492.168	3232.84
492.538	3267.64
492.908	3272.84
493.278	3288.66
493.648	3323.68
494.017	3374.3
494.387	3391.93
494.757	3409.56
495.126	3422.66
495.496	3425.15
495.866	3462.89
496.235	3500.18
496.605	3513.96
496.974	3486.62
497.344	3572.49
497.713	3547.41
498.082	3592.83
498.452	3577.01
498.821	3601.19
499.19	3599.83
499.559	3687.97
499.928	3689.78
500.298	3638.25
500.667	3726.39
501.036	3679.83
501.405	3730.23
501.774	3732.71
502.143	3793.95
502.512	3758.25
502.88	3791.02
503.249	3824.01
503.618	3834.63
503.987	3860.17
504.356	3808.42
504.724	3871.69
505.093	3869.43
505.462	3889.54
505.83	3913.05
506.199	3933.84
506.567	3950.11
506.936	3928.87
507.304	3958.02
507.672	4024.46
508.041	4000.73
508.409	4022.42
508.777	4065.81
509.145	4063.55
509.514	4034.85
509.882	4097.45
510.25	4047.96
510.618	4100.61
510.986	4108.3
511.354	4138.8
511.722	4186.94
512.09	4234.39
512.458	4172.25
512.826	4191.01
513.193	4206.6
513.561	4178.58
513.929	4221.06
514.297	4250.89
514.664	4249.76
515.032	4292.7
515.4	4311.45
515.767	4296.54
516.135	4331.57
516.502	4239.14
516.869	4319.59
517.237	4281.85
517.604	4301.06
517.972	4328.4
518.339	4352.13
518.706	4372.02
519.073	4354.17
519.44	4418.34
519.808	4447.27
520.175	4398.91
520.542	4418.34
520.909	4469.87
521.276	4470.55
521.643	4498.79
522.009	4566.36
522.376	4540.37
522.743	4535.18
523.11	4578.57
523.477	4594.61
523.843	4582.63
524.21	4632.12
524.577	4617.66
524.943	4692.24
525.31	4695.85
525.676	4786.24
526.043	4777.43
526.409	4799.13
526.776	4774.95
527.142	4807.03
527.508	4833.47
527.874	4908.05
528.241	4936.75
528.607	4900.59
528.973	4940.82
529.339	4942.85
529.705	4981.49
530.071	5001.15
530.437	5032.34
530.803	5084.32
531.169	5100.36
531.535	5061.49
531.901	5132
532.267	5130.87
532.632	5137.42
532.998	5186.01
533.364	5225.55
533.73	5210.19
534.095	5261.03
534.461	5253.35
534.826	5265.33
535.192	5337.87
535.557	5345.33
535.923	5310.75
536.288	5372.44
536.653	5401.6
537.019	5355.04
537.384	5437.3
537.749	5456.06
538.114	5451.76
538.479	5455.15
538.845	5478.88
539.21	5486.56
539.575	5544.42
539.94	5574.25
540.305	5604.98
540.67	5590.29
541.034	5618.09
541.399	5662.38
541.764	5674.36
542.129	5706.9
542.494	5750.51
542.858	5730.4
543.223	5755.26
543.587	5828.25
543.952	5798.42
544.316	5808.36
544.681	5814.24
545.045	5874.13
545.41	5943.95
545.774	5951.19
546.138	5909.38
546.503	5955.25
546.867	5976.5
547.231	6020.11
547.595	6046.55
547.959	6084.74
548.324	6031.86
548.688	6080.45
549.052	6109.6
549.416	6136.27
549.779	6095.14
550.143	6157.73
550.507	6211.74
550.871	6213.1
551.235	6214.91
551.599	6218.52
551.962	6268.47
552.326	6301.46
552.689	6294.45
553.053	6319.09
553.417	6350.95
553.78	6411.06
554.143	6382.59
554.507	6407.9
554.87	6422.36
555.234	6477.5
555.597	6462.13
555.96	6477.27
556.323	6523.6
556.686	6524.96
557.05	6506.42
557.413	6553.43
557.776	6563.15
558.139	6599.3
558.502	6648.79
558.865	6589.59
559.228	6643.6
559.59	6680.43
559.953	6654.44
560.316	6738.96
560.679	6756.81
561.041	6759.98
561.404	6769.24
561.767	6851.73
562.129	6824.83
562.492	6856.7
562.854	6903.25
563.217	6891.5
563.579	6896.02
563.941	6894.89
564.304	7013.98
564.666	7048.33
565.028	7017.37
565.39	7046.07
565.753	7110.02
566.115	7118.61
566.477	7111.15
566.839	7106.86
567.201	7179.85
567.563	7139.18
567.925	7280.87
568.287	7268.89
568.648	7244.03
569.01	7335.56
569.372	7355.67
569.734	7341.66
570.095	7412.39
570.457	7416.91
570.819	7423.01
571.18	7477.47
571.542	7510.69
571.903	7537.58
572.265	7572.61
572.626	7570.8
572.987	7653.06
573.349	7701.87
573.71	7786.62
574.071	7807.18
574.432	7886.73
574.794	7976.67
575.155	7983.67
575.516	8016.89
575.877	8096.89
576.238	8155.65
576.599	8143.44
576.96	8204.46
577.32	8359.03
577.681	8348.64
578.042	8437.22
578.403	8525.58
578.763	8604
579.124	8694.84
579.485	8830.66
579.845	8921.5
580.206	8942.29
580.566	9099.8
580.927	9232.91
581.287	9375.5
581.648	9377.08
582.008	9560.81
582.368	9739.79
582.728	9861.14
583.089	10036.5
583.449	10137.97
583.809	10375.25
584.169	10551.29
584.529	10637.84
584.889	10842.58
585.249	10973.2
585.609	11162.12
585.969	11424.71
586.329	11506.29
586.688	11801.65
587.048	12020.4
587.408	12270.79
587.768	12482.54
588.127	12696.77
588.487	12868.07
588.846	13224.89
589.206	13366.58
589.565	13640.47
589.925	13963.63
590.284	14171.76
590.643	14422.15
591.003	14759.09
591.362	15005.18
591.721	15252.18
592.08	15494.21
592.44	15862.56
592.799	16093.52
593.158	16340.97
593.517	16585.26
593.876	16873.16
594.235	17235.41
594.593	17538.45
594.952	17840.82
595.311	18092.79
595.67	18382.95
596.029	18736.39
596.387	19060.9
596.746	19461.79
597.104	19669.47
597.463	19850.25
597.822	20339.51
598.18	20499.96
598.538	20756.22
598.897	21160.5
599.255	21346.71
599.613	21950.76
599.972	22020.37
600.33	22213.13
600.688	22511.2
601.046	22944.18
601.404	23225.53
601.762	23494.9
602.12	23837.95
602.478	24092.86
602.836	24265.05
603.194	24486.97
603.552	24859.16
603.91	25032.72
604.268	25301.41
604.625	25537.79
604.983	25764
605.341	26068.17
605.698	26402.4
606.056	26702.28
606.413	26840.13
606.771	27114.02
607.128	27439.89
607.485	27422.03
607.843	27697.05
608.2	28016.37
608.557	28293.87
608.914	28507.65
609.272	28818.61
609.629	29070.13
609.986	29303.34
610.343	29429.66
610.7	29833.72
611.057	29914.62
611.414	30199.14
611.771	30403.88
612.127	30555.96
612.484	30668.73
612.841	30972.67
613.198	31076.4
613.554	31292.67
613.911	31573.34
614.267	31714.35
614.624	31968.58
614.98	31998.18
615.337	32417.38
615.693	32363.82
616.05	32453.54
616.406	32883.13
616.762	32809.69
617.118	32902.12
617.475	33145.05
617.831	33420.75
618.187	33462.1
618.543	33592.04
618.899	33972.6
619.255	34044.46
619.611	34024.57
619.967	34262.53
620.323	34521.06
620.678	34554.73
621.034	34614.84
621.39	34635.63
621.746	34674.27
622.101	35192.45
622.457	35031.1
622.812	35201.26
623.168	35358.32
623.523	35310.87
623.879	35533.68
624.234	35334.82
624.589	35664.3
624.945	35613.68
625.3	35827.46
625.655	35933
626.01	35977.29
626.365	36051.86
626.72	36030.17
627.075	36188.58
627.43	36254.8
627.785	36100
628.14	36326.43
628.495	36275.59
628.85	36419.08
629.205	36338.18
629.559	36564.17
629.914	36544.05
630.269	36639.87
630.623	36562.58
630.978	36666.54
631.332	36742.92
631.687	36884.61
632.041	36723.48
632.396	36836.47
632.75	36678.29
633.104	36876.25
633.459	36814.1
633.813	36801
634.167	36735.91
634.521	36910.15
634.875	36890.03
635.229	36856.81
635.583	36706.08
635.937	36814.78
636.291	36815.23
636.645	36818.85
636.999	36815.23
637.352	36910.37
637.706	36790.6
638.06	36976.81
638.413	36973.19
638.767	36695.46
639.121	36957.6
639.474	36692.52
639.828	36815.68
640.181	36892.97
640.534	36871.05
640.888	36737.04
641.241	36607.55
641.594	36759.41
641.947	36861.11
642.301	36703.37
642.654	36791.73
643.007	36902.24
643.36	36810.49
643.713	36740.88
644.066	36907.89
644.419	36599.42
644.771	36530.95
645.124	36197.17
645.477	36141.13
645.83	35950.85
646.182	35796.5
646.535	35743.85
646.888	35777.29
647.24	35641.93
647.593	35858.87
647.945	35810.06
648.298	35621.59
648.65	35592.67
649.002	35435.61
649.355	35765.32
649.707	35582.95
650.059	35724.64
650.411	36053.9
650.763	36192.88
651.115	36604.62
651.467	36436.71
651.819	36410.05
652.171	36253.89
652.523	36415.02
652.875	36318.3
653.227	36214.57
653.578	36451.17
653.93	36232.42
654.282	36169.37
654.633	36172.99
654.985	36198.3
655.337	36160.11
655.688	36234.23
656.039	36236.26
656.391	35974.58
656.742	36172.31
657.094	36093.44
657.445	36169.15
657.796	36043.5
658.147	36120.34
658.498	36076.95
658.849	36242.14
659.2	36024.29
659.551	35979.77
659.902	36170.73
660.253	36072.2
660.604	36023.39
660.955	35999.89
661.306	36083.95
661.656	36037.4
662.007	36025.2
662.358	36048.02
662.708	36041.24
663.059	35952.2
663.409	35769.61
663.76	36094.8
664.11	36027.23
664.461	36097.96
664.811	36040.11
665.161	36047.57
665.511	35969.61
665.862	35944.52
666.212	36118.75
666.562	36013.67
666.912	36007.34
667.262	35915.37
667.612	35966.89
667.962	35974.58
668.312	35924.63
668.662	35952.43
669.011	35906.33
669.361	35976.84
669.711	35843.51
670.06	35807.12
670.41	35972.99
670.76	35770.51
671.109	35837.18
671.459	35872.21
671.808	35791.08
672.157	35854.13
672.507	35638.31
672.856	35685.32
673.205	35799.67
673.554	35784.98
673.904	35694.13
674.253	35853.22
674.602	35679.9
674.951	35213.01
675.3	34972.34
675.649	35689.61
675.998	35640.8
676.346	35628.37
676.695	35681.25
677.044	35455.49
677.393	35512.22
677.741	35579.33
678.09	35467.25
678.438	35401.26
678.787	35525.1
679.135	35518.54
679.484	35268.38
679.832	35418.43
680.181	35211.88
680.529	35345.89
680.877	35181.15
681.225	35203.75
681.573	35452.78
681.922	35078.1
682.27	34949.74
682.618	35021.16
682.966	34789.07
683.314	34969.18
683.661	34897.77
684.009	34741.84
684.357	34679.02
684.705	34593.82
685.053	34727.6
685.4	34573.71
685.748	34417.56
686.095	34490.55
686.443	34427.05
686.79	34297.56
687.138	34361.51
687.485	34335.3
687.832	34218.46
688.18	34254.62
688.527	34099.82
688.874	34088.07
689.221	34040.84
689.568	33900.05
689.915	33894.63
690.262	33856.67
690.609	33854.18
690.956	33516.34
691.303	33686.73
691.65	33384.14
691.997	33529.44
692.344	33266.17
692.69	33298.71
693.037	33307.08
693.383	33075.22
693.73	33178.49
694.077	33016.24
694.423	32976.01
694.769	32926.3
695.116	32679.3
695.462	32686.08
695.808	32583.25
696.155	32651.27
696.501	32385.74
696.847	32516.59
697.193	32258.97
697.539	32295.58
697.885	32192.76
698.231	31954.57
698.577	32157.73
698.923	31976.49
699.269	31832.76
699.614	31661.47
699.96	31626.44
700.306	31623.5
700.651	31446.33
700.997	31511.19
701.342	31435.04
701.688	31291.54
702.033	31258.99
702.379	31144.87
702.724	31102.61
703.069	31066.46
703.415	30710.53
703.76	30813.58
704.105	30860.36
704.45	30759.12
704.795	30504.89
705.14	30546.24
705.485	30535.4
705.83	30449.52
706.175	30555.06
706.52	30346.48
706.865	30120.95
707.209	30309.19
707.554	29940.16
707.899	30189.87
708.243	29944
708.588	29939.03
708.932	29738.36
709.277	29702.43
709.621	29751.92
709.966	29531.36
710.31	29639.38
710.654	29355.09
710.998	29412.04
711.342	29452.49
711.687	29382.21
712.031	29140.63
712.375	29115.1
712.719	29181.99
713.063	29107.41
713.407	29092.27
713.75	28930.02
714.094	28936.12
714.438	28751.26
714.782	28859.28
715.125	28711.04
715.469	28685.05
715.812	28520.76
716.156	28368.67
716.499	28410.93
716.843	28401.22
717.186	28355.79
717.53	28412.74
717.873	28402.57
718.216	28331.39
718.559	28202.58
718.902	28144.95
719.246	28096.82
719.589	28094.78
719.932	27852.53
720.275	27990.61
720.617	27885.07
720.96	27815.02
721.303	27873.32
721.646	27948.12
721.989	27628.36
722.331	27656.38
722.674	27721.23
723.016	27684.85
723.359	27511.07
723.701	27633.78
724.044	27337.29
724.386	27397.85
724.729	27316.95
725.071	27313.56
725.413	27380
725.755	27352.43
726.097	27191.08
726.439	27015.26
726.782	27060.91
727.124	27161.48
727.465	26959.67
727.807	26947.47
728.149	26932.1
728.491	26958.32
728.833	26933.23
729.175	26889.84
729.516	26760.36
729.858	26697.08
730.199	26787.93
730.541	26625.67
730.882	26628.61
731.224	26792.67
731.565	26476.52
731.906	26609.17
732.248	26483.75
732.589	26396.75
732.93	26385.45
733.271	26459.57
733.612	26311.1
733.953	26361.72
734.294	26246.02
734.635	26220.03
734.976	26286.7
735.317	26115.4
735.658	26011.22
735.999	26114.5
736.339	25927.16
736.68	26068.17
737.021	26002.41
737.361	25843.09
737.702	25939.36
738.042	25906.14
738.383	25799.25
738.723	25779.82
739.063	25771.91
739.404	25721.74
739.744	25738.69
740.084	25673.15
740.424	25698.24
740.764	25653.27
741.104	25663.21
741.444	25527.17
741.784	25434.51
742.124	25384.8
742.464	25482.2
742.804	25368.3
743.143	25283.33
743.483	25422.54
743.823	25203.11
744.162	25286.95
744.502	25235.88
744.841	25073.17
745.181	25199.27
745.52	25079.5
745.86	25110.23
746.199	25002.66
746.538	24952.49
746.877	24907.07
747.216	25015.77
747.556	24887.18
747.895	24943
748.234	24811.93
748.573	24769.45
748.911	24727.64
749.25	24776.68
749.589	24546.63
749.928	24627.76
750.267	24547.31
750.605	24555.89
750.944	24524.93
751.283	24416.24
751.621	24470.7
751.96	24387.99
752.298	24232.74
752.636	24290.36
752.975	24239.74
753.313	24140.31
753.651	24252.4
753.989	24063.48
754.327	24016.7
754.666	23937.83
755.004	23946.19
755.342	23980.09
755.679	23921.56
756.017	23744.16
756.355	23819.64
756.693	23718.18
757.031	23770.15
757.368	23649.93
757.706	23645.64
758.044	23374
758.381	23430.05
758.719	23338.52
759.056	23462.14
759.394	23281.13
759.731	23147.34
760.068	23148.7
