Data from hue_36_FLMS001491_00018.txt Node
Date: Tue Feb 07 17:29:28 GMT 2017
User: dcchb
Spectrometer: FLMS00149
Trigger mode: 0
Integration Time (sec): 2.000000E-2
Scans to average: 10
Electric dark correction enabled: true
Nonlinearity correction enabled: false
Boxcar width: 0
XAxis mode: Wavelengths
Number of Pixels in Spectrum: 2048
>>>>>Begin Spectral Data<<<<<
341.393	3.25
341.776	3.25
342.16	3.25
342.543	-45.34
342.927	-63.64
343.31	-60.48
343.693	-67.26
344.077	-64.09
344.46	-57.54
344.843	-55.51
345.226	-19.12
345.61	-37.65
345.993	-6.24
346.376	-23.87
346.759	19.97
347.142	36.02
347.525	32.63
347.908	40.99
348.291	63.59
348.674	83.47
349.057	115.11
349.44	157.59
349.823	165.73
350.206	196.92
350.588	211.6
350.971	218.38
351.354	214.32
351.737	256.12
352.119	265.39
352.502	256.12
352.884	292.05
353.267	298.16
353.65	297.48
354.032	303.13
354.414	323.01
354.797	305.16
355.179	316.91
355.562	343.13
355.944	323.47
356.326	339.06
356.709	338.38
357.091	311.94
357.473	347.42
357.855	346.97
358.238	341.54
358.62	333.86
359.002	354.88
359.384	356.23
359.766	341.32
360.148	355.78
360.53	324.37
360.912	326.4
361.294	337.7
361.676	339.06
362.057	342.22
362.439	343.13
362.821	317.59
363.203	336.57
363.584	332.73
363.966	351.71
364.348	331.83
364.729	341.54
365.111	315.56
365.493	326.86
365.874	344.93
366.256	325.27
366.637	358.04
367.019	327.53
367.4	319.62
367.781	323.24
368.163	340.87
368.544	324.82
368.925	311.49
369.306	337.48
369.688	315.78
370.069	326.86
370.45	325.27
370.831	325.27
371.212	310.59
371.593	324.14
371.974	315.33
372.355	323.24
372.736	316.46
373.117	330.92
373.498	304.94
373.879	310.81
374.26	320.98
374.641	310.59
375.021	323.47
375.402	317.82
375.783	336.8
376.163	323.92
376.544	335.44
376.925	336.8
377.305	314.88
377.686	328.21
378.066	339.28
378.447	317.59
378.827	351.49
379.208	310.81
379.588	330.7
379.968	343.13
380.349	348.32
380.729	353.75
381.109	326.18
381.489	342.67
381.87	349
382.25	341.32
382.63	354.2
383.01	342.22
383.39	332.05
383.77	364.59
384.15	346.06
384.53	365.95
384.91	367.76
385.29	362.79
385.67	349.23
386.049	337.93
386.429	344.03
386.809	349.68
387.189	355.78
387.568	375.44
387.948	364.14
388.328	385.61
388.707	359.62
389.087	366.4
389.466	366.63
389.846	355.78
390.225	365.27
390.605	364.37
390.984	370.24
391.363	372.73
391.743	363.92
392.122	391.26
392.501	388.32
392.881	395.33
393.26	373.63
393.639	379.51
394.018	385.84
394.397	375.89
394.776	385.16
395.155	383.58
395.534	382
395.913	369.34
396.292	398.04
396.671	396.23
397.05	385.39
397.429	392.16
397.808	391.26
398.186	381.09
398.565	391.49
398.944	403.92
399.323	376.8
399.701	410.92
400.08	395.33
400.458	401.43
400.837	405.05
401.215	421.77
401.594	396.68
401.972	402.33
402.351	419.73
402.729	404.82
403.107	401.88
403.486	414.76
403.864	419.51
404.242	411.6
404.62	412.96
404.999	419.06
405.377	407.31
405.755	421.54
406.133	418.38
406.511	439.85
406.889	444.37
407.267	438.27
407.645	439.85
408.023	435.1
408.401	418.83
408.779	418.15
409.156	441.43
409.534	440.75
409.912	447.08
410.29	435.55
410.667	457.93
411.045	459.51
411.422	451.82
411.8	439.62
412.178	471.94
412.555	461.99
412.933	472.61
413.31	461.32
413.687	462.45
414.065	481.2
414.442	500.41
414.819	497.02
415.197	487.3
415.574	459.96
415.951	496.12
416.328	488.66
416.705	495.66
417.082	487.08
417.46	502.9
417.837	510.81
418.214	515.1
418.591	508.77
418.967	503.8
419.344	508.55
419.721	512.84
420.098	496.34
420.475	478.72
420.852	503.57
421.228	524.14
421.605	524.36
421.982	528.21
422.358	528.66
422.735	533.4
423.111	532.05
423.488	529.79
423.864	513.97
424.241	546.29
424.617	546.74
424.994	542.22
425.37	557.58
425.746	570.47
426.123	556
426.499	571.14
426.875	563.01
427.251	569.11
427.627	573.18
428.003	598.71
428.379	579.5
428.756	578.83
429.132	589
429.507	617.47
429.883	565.27
430.259	629.22
430.635	600.07
431.011	608.66
431.387	610.24
431.763	642.33
432.138	611.37
432.514	627.86
432.89	603.91
433.265	624.25
433.641	634.87
434.016	626.96
434.392	666.28
434.767	658.82
435.143	659.95
435.518	652.5
435.894	671.25
436.269	660.18
436.644	685.04
437.02	697.02
437.395	683
437.77	699.5
438.145	717.58
438.52	708.99
438.895	717.35
439.271	707.18
439.646	722.55
440.021	714.19
440.395	708.09
440.77	709.44
441.145	715.77
441.52	752.16
441.895	744.47
442.27	726.62
442.645	733.85
443.019	732.04
443.394	744.25
443.769	755.32
444.143	777.47
444.518	772.49
444.892	758.71
445.267	770.91
445.641	768.43
446.016	758.26
446.39	772.04
446.764	758.93
447.139	787.41
447.513	789.44
447.887	781.31
448.262	780.86
448.636	800.29
449.01	795.32
449.384	828.09
449.758	796.45
450.132	803.23
450.506	852.27
450.88	845.71
451.254	824.02
451.628	847.75
452.002	870.57
452.376	874.64
452.75	865.6
453.123	873.28
453.497	880.97
453.871	887.07
454.244	903.34
454.618	899.95
454.992	898.37
455.365	908.99
455.739	937.01
456.112	921.64
456.486	958.7
456.859	980.62
457.232	952.15
457.606	959.61
457.979	968.19
458.352	1000.28
458.725	1012.49
459.099	1004.58
459.472	1018.59
459.845	1033.5
460.218	1016.33
460.591	1058.36
460.964	1068.08
461.337	1067.85
461.71	1080.96
462.083	1100.62
462.456	1121.86
462.829	1106.72
463.201	1112.6
463.574	1122.77
463.947	1147.85
464.32	1162.09
464.692	1177.23
465.065	1180.62
465.438	1193.73
465.81	1213.84
466.183	1233.95
466.555	1236.66
466.928	1276.66
467.3	1279.6
467.672	1271.46
468.045	1306.27
468.417	1336.77
468.789	1317.79
469.161	1337.9
469.534	1385.59
469.906	1415.41
470.278	1414.51
470.65	1435.53
471.022	1468.29
471.394	1465.36
471.766	1499.03
472.138	1543.32
472.51	1544.9
472.882	1601.85
473.253	1617.67
473.625	1650.44
473.997	1718.68
474.369	1708.74
474.74	1723.2
475.112	1770.66
475.484	1786.93
475.855	1857.89
476.227	1868.96
476.598	1966.13
476.97	1985.57
477.341	2021.5
477.713	2074.38
478.084	2090.2
478.455	2153.25
478.827	2181.72
479.198	2231.21
479.569	2311.89
479.94	2387.37
480.311	2429.63
480.682	2463.07
481.053	2560.02
481.424	2609.28
481.795	2675.72
482.166	2748.49
482.537	2787.36
482.908	2870.29
483.279	2957.07
483.65	3030.74
484.021	3105.77
484.391	3173.79
484.762	3270.06
485.133	3314.8
485.503	3374.91
485.874	3497.39
486.244	3594.57
486.615	3704.39
486.985	3747.78
487.356	3860.1
487.726	3945.52
488.097	4035.46
488.467	4108.23
488.837	4216.47
489.207	4287.2
489.578	4371.5
489.948	4455.11
490.318	4600.87
490.688	4615.33
491.058	4726.29
491.428	4801.77
491.798	4912.05
492.168	5050.12
492.538	5112.27
492.908	5274.07
493.278	5357.23
493.648	5387.74
494.017	5518.36
494.387	5578.02
494.757	5730.78
495.126	5806.26
495.496	5879.25
495.866	5972.36
496.235	6080.38
496.605	6110.43
496.974	6177.1
497.344	6315.17
497.713	6369.63
498.082	6449.86
498.452	6555.62
498.821	6614.6
499.19	6724.2
499.559	6768.27
499.928	6914.71
500.298	6952.22
500.667	7020.24
501.036	7057.75
501.405	7194.02
501.774	7221.59
502.143	7297.07
502.512	7339.55
502.88	7444.18
503.249	7494.35
503.618	7564.63
503.987	7637.85
504.356	7749.49
504.724	7820.44
505.093	7865.87
505.462	7984.51
505.83	8016.15
506.199	8136.82
506.567	8180.43
506.936	8157.38
507.304	8375.68
507.672	8450.94
508.041	8341.33
508.409	8526.41
508.777	8570.71
509.145	8672.4
509.514	8691.61
509.882	8733.87
510.25	8733.87
510.618	8936.57
510.986	8915.56
511.354	8968.89
511.722	9062.67
512.09	9134.31
512.458	9206.17
512.826	9216.79
513.193	9341.31
513.561	9365.49
513.929	9404.81
514.297	9520.29
514.664	9590.34
515.032	9642.77
515.4	9715.99
515.767	9802.31
516.135	9810.22
516.502	9781.97
516.869	9929.09
517.237	10011.57
517.604	9993.04
517.972	10136.99
518.339	10085.92
518.706	10095.86
519.073	10258.57
519.44	10302.41
519.808	10359.36
520.175	10349.87
520.542	10547.83
520.909	10544.21
521.276	10595.29
521.643	10733.81
522.009	10763.87
522.376	10795.96
522.743	10887.03
523.11	10967.48
523.477	11034.14
523.843	11124.09
524.21	11218.32
524.577	11260.58
524.943	11317.75
525.31	11392.33
525.676	11477.07
526.043	11550.74
526.409	11610.17
526.776	11734.01
527.142	11764.07
527.508	11727.46
527.874	11976.04
528.241	11909.6
528.607	11981.01
528.973	12184.4
529.339	12114.79
529.705	12284.06
530.071	12326.31
530.437	12384.17
530.803	12618.74
531.169	12574.67
531.535	12442.47
531.901	12510.94
532.267	12686.98
532.632	12690.6
532.998	12742.35
533.364	12846.53
533.73	12923.81
534.095	12984.15
534.461	13086.07
534.826	13093.98
535.192	13096.46
535.557	13239.96
535.923	13182.11
536.288	13320.64
536.653	13409.22
537.019	13335.1
537.384	13389.79
537.749	13477.24
538.114	13486.51
538.479	13583.23
538.845	13666.62
539.21	13705.49
539.575	13721.53
539.94	13794.52
540.305	13876.33
540.67	13881.98
541.034	13940.28
541.399	14089.88
541.764	13998.13
542.129	14101.63
542.494	14102.99
542.858	14213.04
543.223	14302.99
543.587	14350.89
543.952	14279.71
544.316	14402.19
544.681	14334.17
545.045	14433.6
545.41	14583.43
545.774	14627.5
546.138	14689.64
546.503	14698.23
546.867	14722.18
547.231	14842.63
547.595	14785.91
547.959	14949.52
548.324	14990.2
548.688	14995.62
549.052	15056.41
549.416	15056.86
549.779	15183.19
550.143	15182.28
550.507	15331.89
550.871	15370.53
551.235	15341.15
551.599	15452.33
551.962	15559
552.326	15621.82
552.689	15641.03
553.053	15446.01
553.417	15569.17
553.78	15840.35
554.143	15701.82
554.507	15880.12
554.87	15858.65
555.234	16020.45
555.597	15923.06
555.96	16132.32
556.323	16154.69
556.686	16074.92
557.05	16267.68
557.413	16371.63
557.776	16370.95
558.139	16437.62
558.502	16525.75
558.865	16471.06
559.228	16574.56
559.59	16581.34
559.953	16749.7
560.316	16897.95
560.679	16834.9
561.041	16996.02
561.404	17040.09
561.767	17114.89
562.129	17031.73
562.492	17215.23
562.854	17205.51
563.217	17246.86
563.579	17322.79
563.941	17406.63
564.304	17500.42
564.666	17593.97
565.028	17618.15
565.39	17670.35
565.753	17735.89
566.115	17819.5
566.477	17996.67
566.839	17957.58
567.201	18062.66
567.563	18046.39
567.925	18204.35
568.287	18214.75
568.648	18242.99
569.01	18314.86
569.372	18543.78
569.734	18558.69
570.095	18545.81
570.457	18589.88
570.819	18723.66
571.18	18730.67
571.542	18955.29
571.903	19024.9
572.265	19044.78
572.626	19141.05
572.987	19224.21
573.349	19207.94
573.71	19297.88
574.071	19544.88
574.432	19457.88
574.794	19619.91
575.155	19645.44
575.516	19673.01
575.877	19802.73
576.238	19953.91
576.599	20028.26
576.96	20074.13
577.32	20246.11
577.681	20367.01
578.042	20513.67
578.403	20674.57
578.763	20759.99
579.124	20836.83
579.485	21031.85
579.845	21237.94
580.206	21307.77
580.566	21418.5
580.927	21613.3
581.287	21703.69
581.648	21779.63
582.008	21993.63
582.368	22043.57
582.728	22334.86
583.089	22511.58
583.449	22620.73
583.809	22925.13
584.169	23018.24
584.529	23146.82
584.889	23525.79
585.249	23518.56
585.609	23665.9
585.969	23980.92
586.329	24053.01
586.688	24412.55
587.048	24420.01
587.408	24548.59
587.768	24816.16
588.127	25022.93
588.487	25140.67
588.846	25674.44
589.206	25656.59
589.565	25936.8
589.925	26168.44
590.284	26329.11
590.643	26531.36
591.003	26946.49
591.362	27083.89
591.721	27276.43
592.08	27311.68
592.44	27809.75
592.799	27944.89
593.158	28227.82
593.517	28383.07
593.876	28602.5
594.235	28830.06
594.593	29028.7
594.952	29279.77
595.311	29400.44
595.67	29748.23
596.029	30125.62
596.387	30217.82
596.746	30390.47
597.104	30512.95
597.463	30750.01
597.822	30939.61
598.18	31012.38
598.538	31267.06
598.897	31668.4
599.255	31669.08
599.613	32249.63
599.972	32095.29
600.33	32432
600.688	32484.43
601.046	32679.68
601.404	33050.06
601.762	33096.39
602.12	33422.93
602.478	33499.77
602.836	33685.53
603.194	33810.95
603.552	34022.47
603.91	34026.76
604.268	34214.78
604.625	34360.99
604.983	34628.55
605.341	34635.11
605.698	34988.32
606.056	35092.72
606.413	35208.42
606.771	35446.84
607.128	35589.88
607.485	35595.76
607.843	35588.3
608.2	35952.81
608.557	36277.55
608.914	36200.49
609.272	36519.8
609.629	36627.6
609.986	36911.66
610.343	36689.06
610.7	37199.11
611.057	37256.05
611.414	37319.33
611.771	37418.99
612.127	37559.32
612.484	37722.71
612.841	37910.05
613.198	37971.74
613.554	38042.7
613.911	38281.34
614.267	38315.01
614.624	38467.32
614.98	38702.57
615.337	38839.52
615.693	38912.28
616.05	38820.53
616.406	39279.5
616.762	39048.55
617.118	39160.19
617.475	39260.07
617.831	39358.15
618.187	39418.26
618.543	39546.62
618.899	39685.14
619.255	39806.5
619.611	39924.01
619.967	39874.06
620.323	40036.55
620.678	39927.62
621.034	40140.05
621.39	40109.99
621.746	40137.33
622.101	40568.96
622.457	40275.64
622.812	40570.09
623.168	40507.49
623.523	40568.51
623.879	40802.85
624.234	40534.16
624.589	40767.37
624.945	40705.91
625.3	40992.68
625.655	41046.46
626.01	41107.93
626.365	40923.08
626.72	41051.21
627.075	41053.69
627.43	41048.72
627.785	40953.81
628.14	41098.44
628.495	41041.94
628.85	41152.45
629.205	41240.13
629.559	41385.44
629.914	41040.59
630.269	41349.05
630.623	41298.43
630.978	41152.68
631.332	41241.26
631.687	41457.75
632.041	41265.67
632.396	41380.47
632.75	41209.85
633.104	41306.12
633.459	41085.11
633.813	41345.44
634.167	41266.12
634.521	41189.06
634.875	41271.09
635.229	41241.71
635.583	41169.62
635.937	41311.31
636.291	41193.8
636.645	41260.92
636.999	41119.91
637.352	41370.52
637.706	41144.31
638.06	41237.64
638.413	41146.12
638.767	41051.89
639.121	41156.06
639.474	40882.63
639.828	40988.16
640.181	41026.12
640.534	40958.1
640.888	40968.05
641.241	40829.29
641.594	40938.44
641.947	40935.05
642.301	40878.78
642.654	40894.38
643.007	40940.7
643.36	40870.65
643.713	40741.39
644.066	40909.07
644.419	40759.92
644.771	40400.83
645.124	40002.42
645.477	40042.65
645.83	39910.45
646.182	39758.59
646.535	39763.56
646.888	39599.95
647.24	39561.76
647.593	39726.72
647.945	39643.34
648.298	39396.79
648.65	39455.32
649.002	39444.02
649.355	39522.21
649.707	39447.86
650.059	39654.18
650.411	40008.52
650.763	40119.71
651.115	40588.62
651.467	40387.72
651.819	40414.16
652.171	40347.72
652.523	40209.65
652.875	40112.25
653.227	40078.8
653.578	40376.65
653.93	40249.42
654.282	40154.51
654.633	39931.01
654.985	40105.7
655.337	40156.32
655.688	40193.15
656.039	40250.1
656.391	40066.83
656.742	40020.5
657.094	40168.52
657.445	40040.16
657.796	39964.46
658.147	40010.11
658.498	39951.58
658.849	40121.06
659.2	39984.34
659.551	39774.41
659.902	40140.27
660.253	39917.45
660.604	40029.54
660.955	39761.98
661.306	39973.72
661.656	39884.69
662.007	39939.83
662.358	39896.66
662.708	39818.92
663.059	39867.29
663.409	39794.07
663.76	39849.88
664.11	39875.42
664.461	39992.48
664.811	39880.17
665.161	39891.69
665.511	39759.72
665.862	39764.01
666.212	39974.4
666.562	39956.55
666.912	39823.9
667.262	39791.81
667.612	39828.19
667.962	39830.68
668.312	39696.22
668.662	39855.53
669.011	39757.68
669.361	39731.02
669.711	39632.04
670.06	39660.06
670.41	39651.47
670.76	39554.75
671.109	39686.05
671.459	39615.31
671.808	39472.72
672.157	39692.37
672.507	39519.27
672.856	39482.66
673.205	39567.63
673.554	39750.68
673.904	39554.52
674.253	39737.8
674.602	39545.26
674.951	38983.24
675.3	38786.64
675.649	39521.98
675.998	39320.18
676.346	39337.36
676.695	39450.8
677.044	39230.92
677.393	39395.21
677.741	39357.02
678.09	39214.65
678.438	39192.05
678.787	39287.64
679.135	39149.11
679.484	39140.3
679.832	39283.8
680.181	38957.7
680.529	39004.03
680.877	38982.79
681.225	38811.49
681.573	39114.31
681.922	38891.27
682.27	38853.75
682.618	38850.81
682.966	38722.23
683.314	38761.55
683.661	38649.46
684.009	38459.19
684.357	38430.26
684.705	38448.34
685.053	38381.22
685.4	38403.59
685.748	38262.36
686.095	38201.11
686.443	38052.42
686.79	38090.16
687.138	38044.73
687.485	38086.77
687.832	37881.12
688.18	37883.38
688.527	37777.85
688.874	37769.94
689.221	37696.95
689.568	37534.47
689.915	37552.09
690.262	37570.4
690.609	37450.17
690.956	37399.55
691.303	37445.43
691.65	37042.5
691.997	37041.14
692.344	36967.93
692.69	36905.78
693.037	36930.87
693.383	36657.65
693.73	36776.07
694.077	36555.73
694.423	36397.09
694.769	36411.1
695.116	36322.97
695.462	36343.54
695.808	36187.38
696.155	36215.63
696.501	35881.4
696.847	35922.76
697.193	35731.12
697.539	35831.68
697.885	35636.89
698.231	35489.77
698.577	35499.26
698.923	35380.4
699.269	35263.11
699.614	35160.52
699.96	35015.66
700.306	35126.84
700.651	34974.31
700.997	34786.51
701.342	34845.04
701.688	34681.88
702.033	34526.18
702.379	34592.17
702.724	34606.86
703.069	34633.3
703.415	34073.09
703.76	34256.81
704.105	34251.84
704.45	34124.84
704.795	34011.17
705.14	33762.59
705.485	33861.34
705.83	33745.86
706.175	33694.11
706.52	33644.85
706.865	33475.36
707.209	33486.21
707.554	33388.81
707.899	33393.56
708.243	33131.19
708.588	33217.06
708.932	32925.32
709.277	32968.94
709.621	33030.85
709.966	32807.36
710.31	32930.07
710.654	32566.23
710.998	32644.65
711.342	32556.97
711.687	32562.17
712.031	32407.37
712.375	32231.1
712.719	32401.94
713.063	32249.41
713.407	32435.16
713.75	32262.74
714.094	32149.52
714.438	32102.29
714.782	32076.3
715.125	31861.39
715.469	31961.5
715.812	31636.77
716.156	31613.94
716.499	31739.59
716.843	31653.72
717.186	31495.08
717.53	31598.12
717.873	31487.39
718.216	31504.12
718.559	31269.09
718.902	31023
719.246	31213.95
719.589	31060.74
719.932	31002.43
720.275	30898.26
720.617	30998.14
720.96	30974.64
721.303	30848.31
721.646	30895.32
721.989	30764.93
722.331	30792.5
722.674	30650.58
723.016	30665.04
723.359	30637.02
723.701	30693.06
724.044	30610.58
724.386	30397.93
724.729	30674.31
725.071	30383.24
725.413	30499.4
725.755	30378.72
726.097	30214.21
726.439	30091.04
726.782	30173.08
727.124	30171.27
727.465	30141.67
727.807	29996.13
728.149	29872.75
728.491	29796.36
728.833	29945.06
729.175	29813.54
729.516	29837.72
729.858	29679.3
730.199	29775.12
730.541	29649.25
730.882	29617.61
731.224	29684.95
731.565	29569.02
731.906	29582.36
732.248	29502.13
732.589	29279.54
732.93	29161.8
733.271	29362.25
733.612	29223.95
733.953	29396.83
734.294	29243.38
734.635	29093.33
734.976	29185.08
735.317	29060.56
735.658	28903.73
735.999	28960.45
736.339	28934.69
736.68	28955.48
737.021	28904.18
737.361	28734.47
737.702	28865.99
738.042	28738.54
738.383	28711.19
738.723	28826.45
739.063	28644.3
739.404	28773.34
739.744	28569.73
740.084	28555.27
740.424	28552.1
740.764	28454.03
741.104	28586.23
741.444	28329.51
741.784	28195.73
742.124	28349.4
742.464	28237.53
742.804	28169.29
743.143	28213.13
743.483	28165.45
743.823	28132.68
744.162	28035.51
744.502	28072.57
744.841	27896.98
745.181	28043.42
745.52	27912.57
745.86	27966.36
746.199	27871.44
746.538	27743.54
746.877	27809.97
747.216	27882.06
747.556	27813.82
747.895	27786.92
748.234	27573.37
748.573	27590.77
748.911	27618.34
749.25	27611.11
749.589	27306.26
749.928	27576.76
750.267	27486.37
750.605	27298.8
750.944	27220.16
751.283	27213.15
751.621	27231.23
751.96	27036.66
752.298	27173.61
752.636	27057.9
752.975	26921.64
753.313	26794.86
753.651	26911.47
753.989	26896.33
754.327	26818.59
754.666	26599.16
755.004	26736.1
755.342	26665.37
755.679	26650.46
756.017	26526.39
756.355	26645.94
756.693	26385.38
757.031	26456.79
757.368	26309.68
