Data from hue_36_FLMS001491_00066.txt Node
Date: Tue Feb 07 17:30:08 GMT 2017
User: dcchb
Spectrometer: FLMS00149
Trigger mode: 0
Integration Time (sec): 2.000000E-2
Scans to average: 10
Electric dark correction enabled: true
Nonlinearity correction enabled: false
Boxcar width: 0
XAxis mode: Wavelengths
Number of Pixels in Spectrum: 2048
>>>>>Begin Spectral Data<<<<<
341.393	-11.2
341.776	-11.2
342.16	-11.2
342.543	-51.43
342.927	-73.8
343.31	-70.63
343.693	-86
344.077	-74.48
344.46	-61.37
344.843	-43.06
345.226	-45.32
345.61	-45.32
345.993	-20.47
346.376	1.91
346.759	8.69
347.142	12.53
347.525	66.09
347.908	57.05
348.291	73.54
348.674	92.98
349.057	133.88
349.44	127.33
349.823	117.84
350.206	154.67
350.588	200.77
350.971	201.68
351.354	232.18
351.737	212.3
352.119	255.23
352.502	271.96
352.884	261.56
353.267	271.73
353.65	305.4
354.032	301.79
354.414	304.27
354.797	313.54
355.179	317.6
355.562	325.06
355.944	317.83
356.326	336.81
356.709	314.21
357.091	324.38
357.473	329.58
357.855	347.21
358.238	337.27
358.62	358.51
359.002	312.63
359.384	342.46
359.766	323.93
360.148	324.38
360.53	329.36
360.912	327.32
361.294	338.62
361.676	354.67
362.057	323.71
362.439	318.73
362.821	343.59
363.203	316.93
363.584	341.33
363.966	321.9
364.348	337.49
364.729	310.83
365.111	288.45
365.493	327.1
365.874	326.87
366.256	327.77
366.637	327.1
367.019	314.21
367.4	327.1
367.781	300.43
368.163	314.89
368.544	315.57
368.925	306.53
369.306	300.43
369.688	301.79
370.069	315.57
370.45	324.16
370.831	302.46
371.212	336.59
371.593	299.75
371.974	313.31
372.355	318.28
372.736	316.7
373.117	321.67
373.498	322.8
373.879	302.01
374.26	306.31
374.641	326.42
375.021	331.39
375.402	306.98
375.783	299.07
376.163	319.64
376.544	318.51
376.925	332.97
377.305	330.26
377.686	299.3
378.066	306.76
378.447	308.79
378.827	308.57
379.208	326.19
379.588	343.37
379.968	343.59
380.349	327.32
380.729	313.08
381.109	315.8
381.489	305.4
381.87	326.42
382.25	345.17
382.63	330.94
383.01	342.24
383.39	343.14
383.77	337.94
384.15	323.03
384.53	340.88
384.91	342.46
385.29	337.27
385.67	314.89
386.049	347.43
386.429	336.81
386.809	334.33
387.189	352.41
387.568	344.04
387.948	346.53
388.328	340.2
388.707	331.16
389.087	347.21
389.466	360.54
389.846	363.71
390.225	360.54
390.605	368.9
390.984	366.87
391.363	354.89
391.743	352.86
392.122	357.38
392.501	371.39
392.881	362.58
393.26	354.44
393.639	385.4
394.018	374.1
394.397	357.6
394.776	377.49
395.155	353.99
395.534	382.01
395.913	380.65
396.292	364.38
396.671	371.61
397.05	375
397.429	370.48
397.808	397.38
398.186	384.27
398.565	367.77
398.944	367.77
399.323	372.52
399.701	388.56
400.08	372.74
400.458	382.91
400.837	375.91
401.215	381.78
401.594	394.44
401.972	386.08
402.351	387.21
402.729	393.31
403.107	376.36
403.486	399.41
403.864	383.82
404.242	395.12
404.62	411.84
404.999	395.12
405.377	395.34
405.755	408.45
406.133	400.99
406.511	412.97
406.889	397.83
407.267	419.3
407.645	417.72
408.023	405.96
408.401	407.32
408.779	404.16
409.156	410.48
409.534	398.28
409.912	393.99
410.29	429.24
410.667	447.54
411.045	445.51
411.422	427.88
411.8	431.73
412.178	448
412.555	450.93
412.933	447.32
413.31	452.97
413.687	458.62
414.065	450.93
414.442	462.46
414.819	453.42
415.197	471.27
415.574	486.64
415.951	480.76
416.328	474.21
416.705	472.18
417.082	459.75
417.46	457.04
417.837	499.97
418.214	496.58
418.591	458.62
418.967	482.35
419.344	492.29
419.721	496.36
420.098	485.96
420.475	513.76
420.852	488.67
421.228	502.91
421.605	498.62
421.982	494.55
422.358	510.37
422.735	509.01
423.111	502.91
423.488	516.24
423.864	510.59
424.241	535.9
424.617	546.75
424.994	540.65
425.37	515.11
425.746	534.77
426.123	556.24
426.499	543.59
426.875	546.3
427.251	556.92
427.627	571.61
428.003	568.9
428.379	579.97
428.756	572.97
429.132	567.77
429.507	574.77
429.883	569.35
430.259	578.16
430.635	571.16
431.011	580.42
431.387	599.18
431.763	584.49
432.138	591.95
432.514	601.21
432.89	614.55
433.265	625.85
433.641	611.61
434.016	611.83
434.392	629.01
434.767	626.07
435.143	610.93
435.518	640.76
435.894	650.48
436.269	639.63
436.644	650.93
437.02	676.69
437.395	665.17
437.77	675.56
438.145	683.47
438.52	681.66
438.895	683.92
439.271	701.78
439.646	685.5
440.021	706.29
440.395	690.02
440.77	699.52
441.145	702.68
441.52	710.14
441.895	692.96
442.27	720.08
442.645	731.83
443.019	717.37
443.394	689.35
443.769	729.57
444.143	739.97
444.518	742.9
444.892	723.47
445.267	760.3
445.641	764.15
446.016	770.47
446.39	754.88
446.764	750.14
447.139	782.23
447.513	764.15
447.887	752.85
448.262	765.5
448.636	775.67
449.01	777.48
449.384	791.94
449.758	793.98
450.132	803.47
450.506	812.05
450.88	791.04
451.254	809.12
451.628	815.44
452.002	830.81
452.376	844.37
452.75	859.96
453.123	841.88
453.497	856.57
453.871	854.31
454.244	856.12
454.618	853.41
454.992	887.76
455.365	908.55
455.739	894.31
456.112	903.58
456.486	901.32
456.859	902.9
457.232	920.53
457.606	915.1
457.979	940.87
458.352	934.99
458.725	972.5
459.099	987.87
459.472	987.87
459.845	1013.63
460.218	998.94
460.591	998.49
460.964	1008.21
461.337	1037.59
461.71	1030.58
462.083	1059.28
462.456	1063.8
462.829	1054.99
463.201	1063.12
463.574	1078.94
463.947	1109.9
464.32	1139.5
464.692	1139.5
465.065	1161.2
465.438	1163.68
465.81	1177.7
466.183	1174.76
466.555	1210.01
466.928	1222.67
467.3	1204.59
467.672	1249.78
468.045	1261.53
468.417	1275.77
468.789	1300.63
469.161	1321.65
469.534	1331.36
469.906	1357.8
470.278	1378.59
470.65	1408.42
471.022	1376.79
471.394	1441.64
471.766	1462.89
472.138	1498.14
472.51	1515.09
472.882	1539.95
473.253	1571.36
473.625	1593.96
473.997	1619.72
474.369	1657.46
474.74	1670.34
475.112	1725.48
475.484	1762.76
475.855	1795.31
476.227	1823.78
476.598	1869.65
476.97	1928.41
477.341	1953.49
477.713	2011.35
478.084	2033.27
478.455	2103.09
478.827	2114.17
479.198	2226.03
479.569	2265.12
479.94	2293.6
480.311	2368.17
480.682	2397.1
481.053	2498.34
481.424	2526.13
481.795	2587.83
482.166	2701.27
482.537	2742.4
482.908	2824.43
483.279	2849.29
483.65	2925.67
484.021	3042.05
484.391	3070.53
484.762	3176.29
485.133	3233.23
485.503	3322.95
485.874	3396.39
486.244	3468.48
486.615	3605.88
486.985	3644.07
487.356	3727.23
487.726	3790.96
488.097	3914.57
488.467	3994.8
488.837	4123.38
489.207	4195.24
489.578	4272.75
489.948	4352.53
490.318	4453.77
490.688	4543.93
491.058	4627.55
491.428	4689.92
491.798	4826.86
492.168	4936.24
492.538	4998.16
492.908	5094.88
493.278	5238.83
493.648	5269.79
494.017	5426.4
494.387	5453.29
494.757	5571.03
495.126	5615.77
495.496	5746.16
495.866	5766.05
496.235	5933.73
496.605	5969.66
496.974	6062.54
497.344	6230.44
497.713	6226.38
498.082	6365.58
498.452	6464.11
498.821	6488.52
499.19	6564.22
499.559	6661.39
499.928	6724.44
500.298	6755.18
500.667	6930.09
501.036	6949.52
501.405	7043.76
501.774	7086.01
502.143	7166.24
502.512	7197.42
502.88	7271.09
503.249	7324.2
503.618	7432.22
503.987	7504.76
504.356	7566.23
504.724	7647.58
505.093	7770.74
505.462	7753.79
505.83	7818.2
506.199	7963.05
506.567	8030.17
506.936	8059.55
507.304	8165.08
507.672	8241.92
508.041	8282.37
508.409	8313.33
508.777	8411.86
509.145	8492.53
509.514	8501.34
509.882	8596.48
510.25	8554.22
510.618	8691.85
510.986	8677.61
511.354	8803.71
511.722	8888.68
512.09	8973.42
512.458	9023.36
512.826	9102.46
513.193	9186.98
513.561	9194.89
513.929	9303.58
514.297	9332.96
514.664	9403.92
515.032	9437.14
515.4	9529.34
515.767	9541.77
516.135	9672.61
516.502	9624.25
516.869	9793.29
517.237	9788.32
517.604	9848.88
517.972	9893.85
518.339	9997.35
518.706	10014.98
519.073	9973.85
519.44	10070.34
519.808	10184.01
520.175	10220.17
520.542	10261.52
520.909	10376.78
521.276	10363.44
521.643	10430.79
522.009	10514.17
522.376	10567.96
522.743	10611.12
523.11	10740.38
523.477	10823.54
523.843	10885.69
524.21	11020.37
524.577	11046.14
524.943	11106.47
525.31	11162.29
525.676	11223.76
526.043	11280.48
526.409	11293.59
526.776	11466.24
527.142	11574.48
527.508	11546.69
527.874	11673.01
528.241	11707.36
528.607	11707.81
528.973	11821.48
529.339	11822.61
529.705	11957.52
530.071	12067.58
530.437	12107.13
530.803	12141.25
531.169	12268.48
531.535	12177.63
531.901	12298.31
532.267	12396.84
532.632	12390.96
532.998	12471.86
533.364	12562.03
533.73	12629.37
534.095	12708.92
534.461	12739.42
534.826	12780.55
535.192	12898.52
535.557	13000.44
535.923	12954.11
536.288	12991.85
536.653	13143.93
537.019	13067.55
537.384	13144.16
537.749	13305.74
538.114	13280.88
538.479	13188.23
538.845	13303.48
539.21	13309.81
539.575	13492.17
539.94	13454.89
540.305	13539.63
540.67	13625.96
541.034	13604.71
541.399	13733.75
541.764	13748.66
542.129	13820.53
542.494	13838.15
542.858	13909.11
543.223	13914.08
543.587	14075.43
543.952	14041.31
544.316	14086.28
544.681	14105.72
545.045	14308.88
545.41	14274.53
545.774	14380.74
546.138	14388.42
546.503	14371.92
546.867	14421.87
547.231	14574.18
547.595	14582.54
547.959	14638.36
548.324	14689.66
548.688	14683.1
549.052	14757.45
549.416	14753.38
549.779	14772.37
550.143	14851.91
550.507	14959.25
550.871	15037.9
551.235	15096.2
551.599	15143.2
551.962	15187.27
552.326	15122.41
552.689	15316.76
553.053	15201.51
553.417	15321.5
553.78	15509.97
554.143	15487.15
554.507	15511.78
554.87	15565.79
555.234	15689.63
555.597	15638.11
555.96	15738.89
556.323	15683.98
556.686	15818.21
557.05	15922.62
557.413	15890.3
557.776	15961.49
558.139	16048.04
558.502	16152.67
558.865	16096.17
559.228	16255.72
559.59	16417.75
559.953	16344.3
560.316	16488.7
560.679	16508.14
561.041	16591.98
561.404	16624.97
561.767	16756.04
562.129	16681.69
562.492	16810.96
562.854	16867.68
563.217	16912.2
563.579	16823.39
563.941	17114.23
564.304	17124.39
564.666	17199.87
565.028	17140.67
565.39	17274.9
565.753	17394.44
566.115	17492.29
566.477	17532.07
566.839	17515.12
567.201	17572.29
567.563	17680.31
567.925	17797.6
568.287	17809.57
568.648	17873.53
569.01	17918.27
569.372	18082.11
569.734	18082.56
570.095	18163.01
570.457	18217.7
570.819	18281.2
571.18	18357.13
571.542	18330.69
571.903	18532.72
572.265	18553.96
572.626	18671.7
572.987	18651.13
573.349	18748.53
573.71	18951.69
574.071	18955.98
574.432	19098.35
574.794	19219.03
575.155	19395.3
575.516	19285.47
575.877	19336.54
576.238	19568.4
576.599	19664.44
576.96	19814.27
577.32	19811.56
577.681	20013.81
578.042	20111.43
578.403	20166.8
578.763	20233.92
579.124	20429.62
579.485	20683.4
579.845	20749.16
580.206	20892.43
580.566	20980.11
580.927	21061.69
581.287	21384.17
581.648	21381.91
582.008	21680.66
582.368	21650.15
582.728	21965.4
583.089	22131.04
583.449	22279.74
583.809	22431.6
584.169	22524.25
584.529	22769.9
584.889	23068.42
585.249	23206.72
585.609	23208.53
585.969	23630.44
586.329	23780.26
586.688	24066.36
587.048	24239.46
587.408	24332.57
587.768	24579.79
588.127	24879.44
588.487	24943.4
588.846	25364.18
589.206	25323.73
589.565	25702.47
589.925	25851.4
590.284	26106.76
590.643	26234.44
591.003	26586.74
591.362	26832.84
591.721	27170.68
592.08	27266.27
592.44	27577.45
592.799	27693.38
593.158	27879.59
593.517	28253.59
593.876	28376.98
594.235	28585.11
594.593	28736.52
594.952	28914.82
595.311	29142.84
595.67	29424.41
596.029	29866.88
596.387	30042.92
596.746	30239.53
597.104	30287.21
597.463	30470.48
597.822	30679.97
598.18	31084.25
598.538	31178.94
598.897	31482.66
599.255	31499.61
599.613	32100.72
599.972	32065.92
600.33	32277.89
600.688	32429.75
601.046	32580.49
601.404	32935.73
601.762	33023.19
602.12	33401.25
602.478	33565.54
602.836	33689.61
603.194	33623.17
603.552	33929.6
603.91	34073.55
604.268	34263.38
604.625	34346.09
604.983	34698.4
605.341	34524.39
605.698	34870.37
606.056	35191.26
606.413	35195.78
606.771	35413.41
607.128	35522.33
607.485	35393.29
607.843	35598.48
608.2	35905.14
608.557	36121.63
608.914	36336.09
609.272	36450.44
609.629	36563.66
609.986	36876.87
610.343	36882.97
610.7	37178.1
611.057	37274.15
611.414	37270.31
611.771	37560.02
612.127	37667.13
612.484	37616.96
612.841	38031.42
613.198	38002.04
613.554	38032.09
613.911	38352.31
614.267	38399.77
614.624	38444.06
614.98	38535.81
615.337	38782.36
615.693	38765.41
616.05	38858.29
616.406	39215.11
616.762	39068
617.118	39013.99
617.475	39187.32
617.831	39459.63
618.187	39623.46
618.543	39525.61
618.899	39827.3
619.255	39737.36
619.611	39782.56
619.967	40005.15
620.323	40291.92
620.678	40146.39
621.034	40104.81
621.39	40203.11
621.746	40147.29
622.101	40723.55
622.457	40429.09
622.812	40497.11
623.168	40778.01
623.523	40746.6
623.879	40878.8
624.234	40577.34
624.589	40894.16
624.945	40870.66
625.3	40963.32
625.655	40932.58
626.01	40981.85
626.365	41077.21
626.72	41001.73
627.075	41152.46
627.43	41051.45
627.785	40974.61
628.14	41099.13
628.495	41165.57
628.85	41189.75
629.205	41071.79
629.559	41403.76
629.914	41211.67
630.269	41284.89
630.623	41123.09
630.978	41196.08
631.332	41354.27
631.687	41394.04
632.041	41107.72
632.396	41431.1
632.75	41186.81
633.104	41265
633.459	41243.31
633.813	41190.88
634.167	41312.01
634.521	41182.29
634.875	41203.31
635.229	41148.4
635.583	41176.87
635.937	41284.44
636.291	41139.58
636.645	41058
636.999	41033.82
637.352	41298
637.706	41044.67
638.06	41215.51
638.413	41058.45
638.767	40885.58
639.121	40928.51
639.474	40822.3
639.828	40757.67
640.181	40933.26
640.534	40927.61
640.888	40926.93
641.241	40734.62
641.594	40766.48
641.947	40989.3
642.301	40891.68
642.654	40792.47
643.007	40943.66
643.36	40832.02
643.713	40822.3
644.066	40926.25
644.419	40699.59
644.771	40399.26
645.124	39946.39
645.477	39960.86
645.83	39761.31
646.182	39790.69
646.535	39673.63
646.888	39647.42
647.24	39553.18
647.593	39766.74
647.945	39608.77
648.298	39346.41
648.65	39507.08
649.002	39332.62
649.355	39469.12
649.707	39374.88
650.059	39554.54
650.411	40174.64
650.763	40108.87
651.115	40527.39
651.467	40286.05
651.819	40233.39
652.171	40133.28
652.523	40113.39
652.875	40200.62
653.227	40049.44
653.578	40215.76
653.93	40199.49
654.282	39922.89
654.633	39838.6
654.985	40045.83
655.337	40172.6
655.688	40032.72
656.039	40074.75
656.391	39827.98
656.742	39999.05
657.094	39927.86
657.445	40004.24
657.796	39952.04
658.147	39841.31
658.498	39881.54
658.849	39948.65
659.2	39918.37
659.551	39863.68
659.902	39726.51
660.253	39765.38
660.604	39903.91
660.955	39597.02
661.306	39817.58
661.656	39738.04
662.007	39801.54
662.358	39752.05
662.708	39746.85
663.059	39726.74
663.409	39469.57
663.76	39930.35
664.11	39799.96
664.461	39770.58
664.811	39783.91
665.161	39776.68
665.511	39690.35
665.862	39645.38
666.212	39799.05
666.562	39821.2
666.912	39758.83
667.262	39624.59
667.612	39706.85
667.962	39751.14
668.312	39715.21
668.662	39860.52
669.011	39798.6
669.361	39743.69
669.711	39759.28
670.06	39608.1
670.41	39479.96
670.76	39462.34
671.109	39551.15
671.459	39361.32
671.808	39472.96
672.157	39527.65
672.507	39301.21
672.856	39364.26
673.205	39503.47
673.554	39567.65
673.904	39386.86
674.253	39595.22
674.602	39407.88
674.951	38807.67
675.3	38830.72
675.649	39440.87
675.998	39320.87
676.346	39352.74
676.695	39364.49
677.044	39072.07
677.393	39185.51
677.741	39228.22
678.09	39287.43
678.438	39107.32
678.787	39084.72
679.135	39130.14
679.484	38930.37
679.832	39148.45
680.181	38965.4
680.529	39013.54
680.877	38822.35
681.225	38791.62
681.573	38911.17
681.922	38702.81
682.27	38600.44
682.618	38698.52
682.966	38532.65
683.314	38679.76
683.661	38392.99
684.009	38389.6
684.357	38311.41
684.705	38154.8
685.053	38377.39
685.4	38205.87
685.748	38065.76
686.095	38103.5
686.443	37800.91
686.79	37806.11
687.138	37864.64
687.485	38009.95
687.832	37800.01
688.18	37819.67
688.527	37550.98
688.874	37588.04
689.221	37489.51
689.568	37327.7
689.915	37279.12
690.262	37393.69
690.609	37172.68
690.956	37062.4
691.303	37153.47
691.65	36939.01
691.997	36933.82
692.344	36631.45
692.69	36660.83
693.037	36743.77
693.383	36407.28
693.73	36488.63
694.077	36349.43
694.423	36367.28
694.769	36214.06
695.116	36093.39
695.462	36237.11
695.808	36008.87
696.155	35964.58
696.501	35618.15
696.847	35902.66
697.193	35535.89
697.539	35579.95
697.885	35395.33
698.231	35325.27
698.577	35221.55
698.923	35254.99
699.269	35171.15
699.614	34916.47
699.96	34976.35
700.306	35010.48
700.651	34812.97
700.997	34660.43
701.342	34698.85
701.688	34550.83
702.033	34452.75
702.379	34454.56
702.724	34385.41
703.069	34401.91
703.415	34036.27
703.76	33989.26
704.105	34119.65
704.45	34005.98
704.795	33730.96
705.14	33715.14
705.485	33694.81
705.83	33514.7
706.175	33576.62
706.52	33542.04
706.865	33437.41
707.209	33252.11
707.554	33340.92
707.899	33346.34
708.243	33085.33
708.588	33046.91
708.932	32926.01
709.277	32787.49
709.621	32958.55
709.966	32579.36
710.31	32730.99
710.654	32302.3
710.998	32494.39
711.342	32464.56
711.687	32383.2
712.031	32244.22
712.375	32285.58
712.719	32239.25
713.063	32139.14
713.407	32196.99
713.75	32029.77
714.094	31846.49
714.438	31746.16
714.782	31901.18
715.125	31824.35
715.469	31759.94
715.812	31511.13
716.156	31418.26
716.499	31437.01
716.843	31396.79
717.186	31237.92
717.53	31356.56
717.873	31408.54
718.216	31234.53
718.559	31168.09
718.902	30987.98
719.246	31044.25
719.589	31007.42
719.932	30780.31
720.275	30889
720.617	30833.41
720.96	30703.47
721.303	30642.23
721.646	30725.84
721.989	30556.81
722.331	30562.23
722.674	30445.85
723.016	30465.96
723.359	30494.21
723.701	30543.25
724.044	30207.89
724.386	30119.53
724.729	30235.24
725.071	30230.72
725.413	30110.04
725.755	30154.56
726.097	30094.67
726.439	29936.26
726.782	29939.2
727.124	30004.06
727.465	30037.95
727.807	29843.16
728.149	29762.03
728.491	29715.48
728.833	29668.92
729.175	29626.44
729.516	29484.75
729.858	29541.47
730.199	29581.02
730.541	29399.1
730.882	29420.57
731.224	29551.64
731.565	29406.33
731.906	29372.43
732.248	29261.02
732.589	29042.73
732.93	29132.89
733.271	29085.66
733.612	29130.18
733.953	29077.07
734.294	29009.73
734.635	28935.16
734.976	28905.1
735.317	28808.61
735.658	28815.39
735.999	28919.79
736.339	28813.58
736.68	28863.07
737.021	28751.21
737.361	28697.65
737.702	28629.18
738.042	28573.58
738.383	28582.62
738.723	28579.69
739.063	28384.44
739.404	28515.73
739.744	28506.92
740.084	28316.42
740.424	28359.13
740.764	28370.88
741.104	28369.75
741.444	28173.14
741.784	28067.61
742.124	28070.1
742.464	28151.45
742.804	28082.07
743.143	28049.98
743.483	27925.01
743.823	27859.25
744.162	27883.43
744.502	27884.56
744.841	27732.93
745.181	27820.16
745.52	27680.28
745.86	27715.75
746.199	27611.8
746.538	27586.94
746.877	27554.18
747.216	27597.57
747.556	27529.09
747.895	27560.73
748.234	27308.76
748.573	27378.81
748.911	27312.15
749.25	27322.32
749.589	27162.77
749.928	27274.86
750.267	27289.78
750.605	27033.29
750.944	27020.41
751.283	26938.15
751.621	27176.11
751.96	26809.11
752.298	26975.43
752.636	26957.58
752.975	26859.51
753.313	26615.44
753.651	26889.34
753.989	26566.86
754.327	26584.03
754.666	26418.61
755.004	26483.92
755.342	26596.69
755.679	26398.95
756.017	26268.11
756.355	26288.67
756.693	26186.08
757.031	26190.6
757.368	26073.76
