Data from hue_36_FLMS001491_00063.txt Node
Date: Tue Feb 07 17:30:07 GMT 2017
User: dcchb
Spectrometer: FLMS00149
Trigger mode: 0
Integration Time (sec): 2.000000E-2
Scans to average: 10
Electric dark correction enabled: true
Nonlinearity correction enabled: false
Boxcar width: 0
XAxis mode: Wavelengths
Number of Pixels in Spectrum: 2048
>>>>>Begin Spectral Data<<<<<
341.393	-12.34
341.776	-12.34
342.16	-12.34
342.543	-52.8
342.927	-84.21
343.31	-71.78
343.693	-68.84
344.077	-60.48
344.46	-62.29
344.843	-47.82
345.226	-24.77
345.61	-28.39
345.993	-14.15
346.376	-18.45
346.759	12.06
347.142	21.1
347.525	51.83
347.908	65.85
348.291	70.82
348.674	72.63
349.057	102.68
349.44	118.05
349.823	147.65
350.206	174.32
350.588	215.45
350.971	215.67
351.354	225.84
351.737	219.97
352.119	254.54
352.502	277.59
352.884	266.97
353.267	288.89
353.65	311.26
354.032	307.2
354.414	307.42
354.797	319.85
355.179	310.13
355.562	331.15
355.944	324.14
356.326	338.38
356.709	331.15
357.091	333.41
357.473	348.55
357.855	326.86
358.238	309.91
358.62	307.42
359.002	351.71
359.384	340.87
359.766	327.08
360.148	327.08
360.53	344.26
360.912	348.55
361.294	345.16
361.676	332.51
362.057	326.4
362.439	337.93
362.821	321.66
363.203	327.08
363.584	323.69
363.966	335.9
364.348	336.35
364.729	323.24
365.111	332.51
365.493	320.08
365.874	305.61
366.256	323.69
366.637	299.51
367.019	319.4
367.4	308.1
367.781	308.33
368.163	311.94
368.544	311.04
368.925	315.56
369.306	342.67
369.688	323.47
370.069	321.21
370.45	323.47
370.831	305.84
371.212	310.36
371.593	306.52
371.974	311.04
372.355	316.01
372.736	297.48
373.117	340.64
373.498	317.36
373.879	305.39
374.26	324.82
374.641	317.82
375.021	334.54
375.402	316.91
375.783	327.76
376.163	320.53
376.544	324.14
376.925	321.88
377.305	337.03
377.686	332.05
378.066	334.99
378.447	329.12
378.827	341.32
379.208	332.05
379.588	322.56
379.968	331.83
380.349	338.61
380.729	335.9
381.109	313.97
381.489	353.07
381.87	341.54
382.25	338.61
382.63	337.93
383.01	313.07
383.39	320.53
383.77	343.13
384.15	354.65
384.53	340.64
384.91	337.93
385.29	332.51
385.67	346.29
386.049	365.27
386.429	320.3
386.809	344.48
387.189	357.59
387.568	362.11
387.948	344.48
388.328	358.72
388.707	375.22
389.087	365.27
389.466	358.04
389.846	358.72
390.225	348.1
390.605	371.6
390.984	363.92
391.363	366.85
391.743	367.76
392.122	342.22
392.501	366.4
392.881	368.44
393.26	366.18
393.639	366.85
394.018	376.57
394.397	372.5
394.776	373.63
395.155	379.06
395.534	384.48
395.913	362.11
396.292	357.36
396.671	369.79
397.05	379.51
397.429	394.88
397.808	386.97
398.186	405.95
398.565	367.31
398.944	386.74
399.323	386.06
399.701	379.28
400.08	374.76
400.458	386.74
400.837	381.77
401.215	409.11
401.594	384.03
401.972	401.2
402.351	397.59
402.729	393.52
403.107	393.52
403.486	411.37
403.864	410.92
404.242	398.27
404.62	409.79
404.999	406.85
405.377	410.92
405.755	420.19
406.133	415.67
406.511	415.44
406.889	430.13
407.267	414.99
407.645	408.89
408.023	417.25
408.401	399.17
408.779	429.9
409.156	414.99
409.534	419.73
409.912	441.43
410.29	444.14
410.667	423.58
411.045	461.32
411.422	445.5
411.8	451.6
412.178	454.76
412.555	452.95
412.933	452.5
413.31	446.85
413.687	475.78
414.065	441.88
414.442	445.72
414.819	464.93
415.197	458.15
415.574	443.46
415.951	465.61
416.328	486.85
416.705	477.13
417.082	490.47
417.46	468.55
417.837	500.86
418.214	483.69
418.591	495.89
418.967	483.24
419.344	492.05
419.721	505.61
420.098	503.35
420.475	508.09
420.852	498.6
421.228	512.39
421.605	479.17
421.982	500.86
422.358	506.74
422.735	509
423.111	501.54
423.488	512.39
423.864	515.1
424.241	536.57
424.617	524.82
424.994	524.36
425.37	529.11
425.746	537.02
426.123	536.57
426.499	544.93
426.875	542.44
427.251	568.88
427.627	565.49
428.003	559.62
428.379	544.7
428.756	570.92
429.132	579.05
429.507	572.05
429.883	578.37
430.259	571.6
430.635	599.84
431.011	563.46
431.387	582.67
431.763	632.84
432.138	582.22
432.514	601.65
432.89	611.59
433.265	612.95
433.641	633.29
434.016	644.36
434.392	610.01
434.767	621.76
435.143	638.49
435.518	662.21
435.894	658.6
436.269	652.05
436.644	653.63
437.02	679.16
437.395	680.97
437.77	675.32
438.145	675.32
438.52	671.71
438.895	672.61
439.271	682.33
439.646	722.33
440.021	701.31
440.395	702.89
440.77	695.43
441.145	710.8
441.52	709.44
441.895	721.65
442.27	732.27
442.645	719.16
443.019	732.72
443.394	719.39
443.769	744.92
444.143	730.01
444.518	744.25
444.892	739.73
445.267	748.09
445.641	741.08
446.016	754.64
446.39	769.78
446.764	783.79
447.139	777.24
447.513	792.38
447.887	747.41
448.262	777.01
448.636	774.3
449.01	798.71
449.384	783.57
449.758	777.92
450.132	779.05
450.506	780.63
450.88	803.23
451.254	793.74
451.628	834.41
452.002	821.08
452.376	821.98
452.75	854.53
453.123	880.51
453.497	853.62
453.871	854.98
454.244	861.76
454.618	873.51
454.992	880.97
455.365	917.8
455.739	904.24
456.112	904.47
456.486	898.14
456.859	930
457.232	965.03
457.606	951.92
457.979	954.41
458.352	928.42
458.725	982.66
459.099	978.82
459.472	980.4
459.845	1010.45
460.218	993.5
460.591	999.38
460.964	1038.25
461.337	1058.59
461.71	1046.16
462.083	1060.62
462.456	1085.25
462.829	1083.67
463.201	1076.21
463.574	1077.8
463.947	1095.88
464.32	1161.41
464.692	1122.77
465.065	1138.36
465.438	1157.34
465.81	1161.86
466.183	1170.9
466.555	1202.54
466.928	1245.02
467.3	1214.74
467.672	1253.16
468.045	1279.15
468.417	1294.97
468.789	1278.02
469.161	1324.8
469.534	1354.4
469.906	1371.35
470.278	1371.8
470.65	1391.91
471.022	1418.13
471.394	1442.31
471.766	1468.07
472.138	1487.73
472.51	1507.39
472.882	1559.82
473.253	1593.94
473.625	1607.95
473.997	1630.32
474.369	1653.6
474.74	1675.29
475.112	1749.42
475.484	1763.88
475.855	1805.46
476.227	1851.34
476.598	1873.48
476.97	1920.71
477.341	1990.77
477.713	2009.98
478.084	2030.31
478.455	2085.23
478.827	2140.37
479.198	2207.94
479.569	2234.83
479.94	2302.85
480.311	2353.24
480.682	2425.56
481.053	2496.06
481.424	2577.42
481.795	2592.11
482.166	2675.49
482.537	2734.25
482.908	2798.43
483.279	2897.18
483.65	2937.18
484.021	3075.03
484.391	3093.34
484.762	3162.49
485.133	3185.76
485.503	3325.65
485.874	3369.26
486.244	3482.48
486.615	3564.51
486.985	3650.61
487.356	3777.84
487.726	3818.97
488.097	3931.28
488.467	3966.08
488.837	4087.43
489.207	4201.56
489.578	4305.28
489.948	4390.03
490.318	4467.99
490.688	4561.55
491.058	4636.8
491.428	4756.57
491.798	4849.9
492.168	4925.83
492.538	5017.58
492.908	5106.84
493.278	5242.21
493.648	5274.75
494.017	5396.55
494.387	5506.83
494.757	5522.65
495.126	5651.01
495.496	5747.73
495.866	5871.79
496.235	5924.67
496.605	5993.6
496.974	6082.86
497.344	6192.24
497.713	6207.83
498.082	6385.91
498.452	6462.74
498.821	6464.77
499.19	6622.06
499.559	6668.84
499.928	6705.67
500.298	6850.07
500.667	6940.02
501.036	6936.85
501.405	7084.87
501.774	7116.51
502.143	7210.06
502.512	7208.48
502.88	7391.53
503.249	7336.16
503.618	7460.91
503.987	7485.54
504.356	7525.76
504.724	7656.61
505.093	7730.28
505.462	7780.45
505.83	7855.47
506.199	7913.55
506.567	8102.02
506.936	8041
507.304	8170.27
507.672	8235.57
508.041	8336.36
508.409	8355.12
508.777	8409.13
509.145	8535
509.514	8587.88
509.882	8610.48
510.25	8633.08
510.618	8693.64
510.986	8733.87
511.354	8880.08
511.722	8872.17
512.09	8960.53
512.458	8975.22
512.826	9081.65
513.193	9123.01
513.561	9161.88
513.929	9324.36
514.297	9298.37
514.664	9426.73
515.032	9485.03
515.4	9522.77
515.767	9605.71
516.135	9670.34
516.502	9624.01
516.869	9741.98
517.237	9882.31
517.604	9802.54
517.972	9924.34
518.339	9921.41
518.706	10024.45
519.073	10044.79
519.44	10082.98
519.808	10220.61
520.175	10199.14
520.542	10338.8
520.909	10403.88
521.276	10384.44
521.643	10493.59
522.009	10545.12
522.376	10585.8
522.743	10629.64
523.11	10746.47
523.477	10800.25
523.843	10917.99
524.21	11014.26
524.577	11100.13
524.943	11136.52
525.31	11165.21
525.676	11330.18
526.043	11285.21
526.409	11340.8
526.776	11530.86
527.142	11532.89
527.508	11580.8
527.874	11632.1
528.241	11752.54
528.607	11687.24
528.973	11882.26
529.339	11887.91
529.705	11999.77
530.071	12102.37
530.437	12094.23
530.803	12174
531.169	12289.93
531.535	12336.03
531.901	12305.07
532.267	12424.16
532.632	12457.61
532.998	12495.12
533.364	12534.67
533.73	12588
534.095	12698.73
534.461	12684.05
534.826	12830.26
535.192	12858.28
535.557	12933.76
535.923	12964.49
536.288	13005.62
536.653	12977.82
537.019	13082.68
537.384	13177.14
537.749	13267.53
538.114	13260.08
538.479	13327.19
538.845	13381.43
539.21	13265.05
539.575	13456.68
539.94	13483.8
540.305	13527.64
540.67	13632.04
541.034	13595.66
541.399	13725.37
541.764	13728.99
542.129	13888.08
542.494	13809.44
542.858	13895.54
543.223	13893.73
543.587	13998.36
543.952	14028.42
544.316	14083.1
544.681	14095.53
545.045	14222.54
545.41	14226.6
545.774	14264.79
546.138	14330.56
546.503	14354.28
546.867	14427.5
547.231	14529.19
547.595	14647.38
547.959	14633.82
548.324	14725.35
548.688	14661.62
549.052	14713.82
549.416	14751.79
549.779	14854.84
550.143	14882.63
550.507	15009.18
550.871	15034.72
551.235	15017.54
551.599	15103.64
551.962	15124.88
552.326	15190.42
552.689	15288.95
553.053	15205.56
553.417	15291.89
553.78	15452.79
554.143	15492.33
554.507	15526.46
554.87	15443.97
555.234	15625.44
555.597	15660.69
555.96	15632.22
556.323	15731.42
556.686	15719.9
557.05	15860.23
557.413	15972.55
557.776	15977.52
558.139	16056.16
558.502	16149.72
558.865	16165.31
559.228	16258.19
559.59	16423.38
559.953	16302.03
560.316	16487.33
560.679	16464.51
561.041	16595.35
561.404	16682.58
561.767	16721.9
562.129	16680.32
562.492	16813.88
562.854	16782.92
563.217	16876.48
563.579	16913.76
563.941	17021.56
564.304	17030.15
564.666	17126.64
565.028	17218.62
565.39	17284.6
565.753	17418.61
566.115	17459.06
566.477	17526.18
566.839	17563.92
567.201	17669.9
567.563	17690.47
567.925	17839.62
568.287	17804.14
568.648	17857.02
569.01	17896.34
569.372	18166.16
569.734	18049.78
570.095	18159.38
570.457	18310.56
570.819	18290.9
571.18	18320.73
571.542	18360.51
571.903	18477.57
572.265	18488.86
572.626	18620.84
572.987	18790.78
573.349	18758.69
573.71	18912.36
574.071	18980.15
574.432	19016.53
574.794	19259.69
575.155	19208.62
575.516	19250.65
575.877	19458.33
576.238	19534.26
576.599	19661.94
576.96	19736.06
577.32	19870.52
577.681	20067.35
578.042	20166.56
578.403	20113.45
578.763	20334.47
579.124	20426.89
579.485	20651.75
579.845	20700.78
580.206	20901
580.566	20976.03
580.927	21074.56
581.287	21318.17
581.648	21432.97
582.008	21733.98
582.368	21762.68
582.728	21922.67
583.089	22073.18
583.449	22193.17
583.809	22461.42
584.169	22627.29
584.529	22770.79
584.889	22957.22
585.249	23173.94
585.609	23253.03
585.969	23608.96
586.329	23762.17
586.688	24035.84
587.048	24133.46
587.408	24340.91
587.768	24550.4
588.127	24745.42
588.487	24998.75
588.846	25395.8
589.206	25339.76
589.565	25600.09
589.925	26038.5
590.284	26119.17
590.643	26303.57
591.003	26623.11
591.362	26879.83
591.721	26947.4
592.08	27238.01
592.44	27514.16
592.799	27722.97
593.158	27885.45
593.517	28068.73
593.876	28353.46
594.235	28453.57
594.593	28739.89
594.952	28946.67
595.311	29159.54
595.67	29427.11
596.029	29850.37
596.387	29982.12
596.746	30170.14
597.104	30362
597.463	30521.32
597.822	30826.17
598.18	30948.88
598.538	31139.6
598.897	31334.85
599.255	31460.73
599.613	32033.59
599.972	32121.73
600.33	32261.38
600.688	32309.07
601.046	32706.12
601.404	32947.24
601.762	33070.63
602.12	33382.48
602.478	33567.34
602.836	33661.57
603.194	33754.45
603.552	33869.93
603.91	33974.78
604.268	34290.03
604.625	34330.71
604.983	34627.65
605.341	34590.14
605.698	34805.5
606.056	35138.14
606.413	35169.1
606.771	35466.72
607.128	35560.28
607.485	35435.76
607.843	35678.92
608.2	36026.26
608.557	36239.58
608.914	36072.13
609.272	36391.9
609.629	36586.92
609.986	36836.63
610.343	36789.4
610.7	37210.86
611.057	37201.59
611.414	37315.26
611.771	37361.59
612.127	37762.48
612.484	37728.81
612.841	38010.38
613.198	37925.19
613.554	38012.19
613.911	38305.07
614.267	38461.67
614.624	38500.09
614.98	38495.12
615.337	38804.71
615.693	38729.91
616.05	38884.71
616.406	39153.86
616.762	39059.62
617.118	39126.06
617.475	39138.49
617.831	39314.31
618.187	39470.69
618.543	39565.15
618.899	39780.28
619.255	39731.47
619.611	39860.28
619.967	40013.72
620.323	40147.5
620.678	40109.76
621.034	40132.14
621.39	40097.79
621.746	40204.9
622.101	40679.47
622.457	40403.54
622.812	40586.59
623.168	40660.03
623.523	40745.23
623.879	40868.84
624.234	40569.41
624.589	40799.01
624.945	40736.87
625.3	40881.04
625.655	40892.57
626.01	41003.75
626.365	41052.34
626.72	40964.66
627.075	41018.44
627.43	41028.38
627.785	41006.46
628.14	41116.29
628.495	41069.51
628.85	41224.09
629.205	41093.92
629.559	41383.86
629.914	41063.64
630.269	41271.32
630.623	41152.45
630.978	41102.51
631.332	41316.74
631.687	41495.49
632.041	41105.9
632.396	41231.32
632.75	41164.88
633.104	41383.86
633.459	41136.4
633.813	41246.46
634.167	41147.7
634.521	41143.41
634.875	41382.5
635.229	41261.15
635.583	41091.89
635.937	41068.38
636.291	41066.8
636.645	41104.99
636.999	41035.39
637.352	41267.25
637.706	40907.71
638.06	41178.66
638.413	40975.05
638.767	40908.16
639.121	41084.2
639.474	40881.95
639.828	40951.78
640.181	40844.43
640.534	40978.89
640.888	40862.51
641.241	40733.25
641.594	40883.08
641.947	40886.24
642.301	40891.66
642.654	40914.04
643.007	40881.04
643.36	40898.22
643.713	40750.88
644.066	40891.44
644.419	40708.84
644.771	40492.81
645.124	39908.64
645.477	39974.17
645.83	39788.19
646.182	39590.91
646.535	39487.63
646.888	39716.33
647.24	39321.31
647.593	39588.2
647.945	39555.65
648.298	39458.48
648.65	39394.3
649.002	39218.71
649.355	39447.41
649.707	39351.82
650.059	39580.96
650.411	40004.91
650.763	40015.76
651.115	40394.05
651.467	40234.73
651.819	40290.78
652.171	40160.61
652.523	40029.99
652.875	40178.46
653.227	39971.92
653.578	40267.27
653.93	40108.63
654.282	40073.16
654.633	39964.46
654.985	39966.04
655.337	40088.52
655.688	40072.25
656.039	40189.76
656.391	39736.67
656.742	39925.36
657.094	39895.53
657.445	40090.1
657.796	39932.14
658.147	39964.23
658.498	39816.66
658.849	39937.79
659.2	39835.87
659.551	39697.57
659.902	39896.89
660.253	39757.91
660.604	39876.1
660.955	39663.22
661.306	39834.74
661.656	39657.8
662.007	39726.72
662.358	39837
662.708	39764.46
663.059	39771.92
663.409	39492.83
663.76	39742.54
664.11	39811.47
664.461	39831.13
664.811	39817.57
665.161	39733.05
665.511	39688.76
665.862	39683.79
666.212	39791.81
666.562	39777.57
666.912	39715.42
667.262	39528.99
667.612	39608.99
667.962	39793.84
668.312	39632.26
668.662	39908.87
669.011	39716.78
669.361	39632.71
669.711	39728.76
670.06	39654.41
670.41	39430.23
670.76	39471.36
671.109	39579.16
671.459	39510.91
671.808	39537.58
672.157	39575.99
672.507	39302.78
672.856	39262.33
673.205	39317.7
673.554	39385.94
673.904	39346.62
674.253	39500.06
674.602	39279.73
674.951	38827.99
675.3	38709.8
675.649	39354.08
675.998	39270.92
676.346	39227.53
676.695	39414.19
677.044	39122.45
677.393	39257.81
677.741	39223.23
678.09	39196.12
678.438	39056.23
678.787	39092.84
679.135	39173.29
679.484	38944.6
679.832	38965.16
680.181	38898.95
680.529	38983.69
680.877	38679.75
681.225	38814.21
681.573	39172.84
681.922	38677.49
682.27	38636.58
682.618	38729.46
682.966	38498.96
683.314	38613.76
683.661	38424.16
684.009	38317.27
684.357	38351.84
684.705	38112.98
685.053	38287.67
685.4	38163.6
685.748	37967.22
686.095	38041.34
686.443	37821.46
686.79	37781.69
687.138	37888.58
687.485	37794.35
687.832	37730.84
688.18	37708.47
688.527	37548.48
688.874	37572.43
689.221	37413.34
689.568	37353
689.915	37306
690.262	37280.23
690.609	37243.17
690.956	37070.3
691.303	37174.7
691.65	36858.1
691.997	36911.66
692.344	36700.59
692.69	36781.94
693.037	36732.23
693.383	36341.73
693.73	36720.25
694.077	36432.35
694.423	36295.63
694.769	36331.56
695.116	36116.42
695.462	36125.69
695.808	36036.65
696.155	36016.09
696.501	35826.49
696.847	35704.68
697.193	35421.53
697.539	35570.67
697.885	35419.27
698.231	35239.16
698.577	35370
698.923	35152.15
699.269	35057.92
699.614	35033.97
699.96	35021.31
700.306	34882.33
700.651	34793.52
700.997	34696.35
701.342	34566.86
701.688	34507.65
702.033	34400.76
702.379	34495.22
702.724	34314.89
703.069	34470.82
703.415	33973.43
703.76	33969.14
704.105	34105.18
704.45	33829.25
704.795	33701.35
705.14	33675.81
705.485	33578.41
705.83	33503.38
706.175	33657.28
706.52	33526.66
706.865	33393.78
707.209	33390.85
707.554	33310.85
707.899	33228.14
708.243	32996.96
708.588	33016.39
708.932	32798.54
709.277	32774.82
709.621	32855.49
709.966	32547.93
710.31	32616.63
710.654	32408.05
710.998	32437.2
711.342	32316.75
711.687	32378.67
712.031	32155.4
712.375	32189.52
712.719	32171.22
713.063	32141.39
713.407	32041.05
713.75	32042.86
714.094	31890.77
714.438	31897.55
714.782	31755.63
715.125	31731.68
715.469	31779.59
715.812	31483.55
716.156	31550.89
716.499	31428.86
716.843	31471.8
717.186	31256.44
717.53	31418.92
717.873	31439.03
718.216	31286.72
718.559	31166.95
718.902	31032.94
719.246	30955.43
719.589	30821.42
719.932	30742.33
720.275	30804.02
720.617	30770.58
720.96	30778.03
721.303	30770.58
721.646	30750.91
721.989	30518.15
722.331	30605.83
722.674	30427.53
723.016	30545.5
723.359	30638.6
723.701	30456.91
724.044	30201.55
724.386	30233.64
724.729	30193.64
725.071	30302.79
725.413	30112.74
725.755	30150.03
726.097	29910.71
726.439	29969.47
726.782	29941.67
727.124	30048.56
727.465	29882.01
727.807	29897.83
728.149	29750.26
728.491	29595.92
728.833	29805.63
729.175	29624.16
729.516	29623.49
729.858	29474.56
730.199	29544.17
730.541	29281.57
730.882	29242.25
731.224	29497.84
731.565	29192.76
731.906	29383.49
732.248	29314.12
732.589	29073.44
732.93	29064.63
733.271	29052.88
733.612	29068.7
733.953	29087
734.294	28927.46
734.635	28924.75
734.976	28938.98
735.317	28801.36
735.658	28894.47
735.999	28786.9
736.339	28805.88
736.68	28738.99
737.021	28678.88
737.361	28548.94
737.702	28748.03
738.042	28523.63
738.383	28545.1
738.723	28582.84
739.063	28446.34
739.404	28439.11
739.744	28337.42
740.084	28254.03
740.424	28278.66
740.764	28319.11
741.104	28385.78
741.444	28137.2
741.784	28128.16
742.124	28171.55
742.464	28205.9
742.804	27978.78
743.143	28034.83
743.483	28047.71
743.823	27734.27
744.162	27846.81
744.502	27821.95
744.841	27770.65
745.181	27749.64
745.52	27649.08
745.86	27684.78
746.199	27684.78
746.538	27537.21
746.877	27563.2
747.216	27503.32
747.556	27451.57
747.895	27446.37
748.234	27287.95
748.573	27279.37
748.911	27246.15
749.25	27419.48
749.589	27103.78
749.928	27164.34
750.267	27230.56
750.605	27103.55
750.944	27020.17
751.283	26958.7
751.621	26940.62
751.96	26959.38
752.298	26758.7
752.636	26967.29
752.975	26810.23
753.313	26717.35
753.651	26754.18
753.989	26459.05
754.327	26500.86
754.666	26448.2
755.004	26567.52
755.342	26475.77
755.679	26254.76
756.017	26215.21
756.355	26281.2
756.693	26236.01
757.031	26167.98
757.368	26101.32
757.706	25961.21
