Data from hue_28_FLMS001491_00021.txt Node
Date: Tue Feb 07 17:17:03 GMT 2017
User: dcchb
Spectrometer: FLMS00149
Trigger mode: 0
Integration Time (sec): 2.000000E-2
Scans to average: 10
Electric dark correction enabled: true
Nonlinearity correction enabled: false
Boxcar width: 0
XAxis mode: Wavelengths
Number of Pixels in Spectrum: 2048
>>>>>Begin Spectral Data<<<<<
341.393	-5.21
341.776	-5.21
342.16	-5.21
342.543	-60.35
342.927	-69.39
343.31	-65.78
343.693	-73.01
344.077	-73.01
344.46	-63.97
344.843	-49.96
345.226	-39.11
345.61	-18.54
345.993	-15.61
346.376	-2.95
346.759	1.12
347.142	24.39
347.525	37.5
347.908	56.71
348.291	82.7
348.674	71.85
349.057	127.67
349.44	135.58
349.823	148.68
350.206	162.69
350.588	206.08
350.971	213.31
351.354	247.21
351.737	243.6
352.119	256.7
352.502	280.2
352.884	281.11
353.267	264.84
353.65	291.5
354.032	308.45
354.414	317.72
354.797	306.87
355.179	299.86
355.562	313.88
355.944	353.2
356.326	350.26
356.709	344.84
357.091	344.38
357.473	354.78
357.855	333.54
358.238	348
358.62	363.14
359.002	343.48
359.384	329.47
359.766	352.97
360.148	348.45
360.53	342.12
360.912	349.81
361.294	338.06
361.676	347.55
362.057	324.05
362.439	339.64
362.821	329.92
363.203	331.73
363.584	353.87
363.966	340.09
364.348	338.73
364.729	342.8
365.111	319.3
365.493	326.98
365.874	343.48
366.256	317.72
366.637	318.17
367.019	324.72
367.4	327.66
367.781	329.92
368.163	325.18
368.544	345.74
368.925	312.29
369.306	325.85
369.688	319.53
370.069	324.95
370.45	316.81
370.831	324.27
371.212	334.89
371.593	327.21
371.974	324.27
372.355	315.23
372.736	328.79
373.117	312.07
373.498	321.79
373.879	322.24
374.26	326.98
374.641	318.4
375.021	323.82
375.402	327.89
375.783	324.5
376.163	339.86
376.544	309.58
376.925	328.11
377.305	337.6
377.686	332.41
378.066	333.08
378.447	348.45
378.827	324.05
379.208	340.54
379.588	324.5
379.968	329.47
380.349	352.07
380.729	348.68
381.109	353.65
381.489	355.68
381.87	332.86
382.25	356.36
382.63	332.63
383.01	339.64
383.39	349.13
383.77	337.15
384.15	350.49
384.53	355.91
384.91	359.98
385.29	353.87
385.67	366.53
386.049	367.66
386.429	367.43
386.809	386.87
387.189	341.45
387.568	353.65
387.948	353.42
388.328	364.72
388.707	371.73
389.087	368.11
389.466	375.8
389.846	367.43
390.225	383.25
390.605	377.83
390.984	357.49
391.363	393.2
391.743	371.5
392.122	398.62
392.501	375.57
392.881	389.13
393.26	403.37
393.639	393.42
394.018	411.5
394.397	395
394.776	388.22
395.155	396.81
395.534	400.43
395.913	396.13
396.292	412.18
396.671	394.78
397.05	397.72
397.429	410.14
397.808	426.87
398.186	393.87
398.565	409.24
398.944	398.39
399.323	422.57
399.701	415.34
400.08	429.35
400.458	416.25
400.837	437.04
401.215	432.97
401.594	421.9
401.972	434.1
402.351	432.29
402.729	425.51
403.107	417.38
403.486	432.29
403.864	423.03
404.242	423.25
404.62	444.27
404.999	426.42
405.377	443.14
405.755	439.07
406.133	424.83
406.511	444.04
406.889	455.12
407.267	433.42
407.645	446.75
408.023	449.92
408.401	467.09
408.779	470.93
409.156	446.53
409.534	466.87
409.912	464.38
410.29	489.69
410.667	476.58
411.045	451.95
411.422	481.33
411.8	464.15
412.178	468.9
412.555	470.48
412.933	487.88
413.31	498.73
413.687	502.57
414.065	499.18
414.442	506.41
414.819	519.75
415.197	530.37
415.574	508.9
415.951	512.06
416.328	515.45
416.705	523.59
417.082	537.6
417.46	535.34
417.837	534.44
418.214	533.08
418.591	551.61
418.967	546.64
419.344	525.4
419.721	543.93
420.098	547.99
420.475	519.07
420.852	565.85
421.228	555.68
421.605	556.36
421.982	570.82
422.358	552.29
422.735	590.7
423.111	567.2
423.488	574.43
423.864	594.09
424.241	587.09
424.617	580.31
424.994	603.13
425.37	599.52
425.746	629.57
426.123	590.25
426.499	617.37
426.875	617.37
427.251	612.85
427.627	617.82
428.003	627.77
428.379	625.05
428.756	654.88
429.132	658.27
429.507	664.83
429.883	655.11
430.259	657.14
430.635	669.57
431.011	667.54
431.387	662.12
431.763	693.3
432.138	705.28
432.514	688.78
432.89	692.85
433.265	721.77
433.641	727.42
434.016	687.88
434.392	736.01
434.767	753.64
435.143	736.69
435.518	745.28
435.894	722.23
436.269	751.15
436.644	732.17
437.02	747.54
437.395	744.6
437.77	792.28
438.145	777.59
438.52	794.77
438.895	797.03
439.271	780.3
439.646	812.17
440.021	827.31
440.395	810.13
440.77	799.51
441.145	804.94
441.52	845.39
441.895	823.69
442.27	827.53
442.645	842.22
443.019	835.67
443.394	865.05
443.769	877.93
444.143	869.34
444.518	886.29
444.892	887.65
445.267	869.12
445.641	875.22
446.016	886.29
446.39	897.36
446.764	881.32
447.139	878.83
447.513	895.33
447.887	902.34
448.262	901.66
448.636	909.34
449.01	959.51
449.384	935.33
449.758	958.15
450.132	920.87
450.506	939.17
450.88	919.28
451.254	949.34
451.628	979.4
452.002	955.44
452.376	993.63
452.75	1014.2
453.123	1021.2
453.497	1008.55
453.871	1036.12
454.244	1037.25
454.618	1037.02
454.992	1074.99
455.365	1046.51
455.739	1085.83
456.112	1061.88
456.486	1104.36
456.859	1092.39
457.232	1089.45
457.606	1115.21
457.979	1139.84
458.352	1172.16
458.725	1155.44
459.099	1142.55
459.472	1176
459.845	1185.49
460.218	1218.03
460.591	1221.65
460.964	1217.13
461.337	1240.86
461.71	1260.97
462.083	1281.08
462.456	1253.06
462.829	1295.32
463.201	1269.11
463.574	1317.24
463.947	1336
464.32	1342.32
464.692	1336.9
465.065	1376.9
465.438	1412.83
465.81	1412.83
466.183	1402.89
466.555	1462.09
466.928	1448.08
467.3	1455.77
467.672	1488.53
468.045	1522.43
468.417	1517.69
468.789	1535.31
469.161	1569.21
469.534	1573.96
469.906	1611.24
470.278	1622.77
470.65	1619.38
471.022	1679.04
471.394	1716.78
471.766	1744.57
472.138	1743.67
472.51	1801.97
472.882	1812.14
473.253	1812.59
473.625	1848.07
473.997	1881.07
474.369	1909.77
474.74	1906.83
475.112	1964.68
475.484	2038.8
475.855	2037.22
476.227	2068.41
476.598	2129.65
476.97	2151.12
477.341	2205.35
477.713	2232.02
478.084	2283.77
478.455	2354.5
478.827	2350.88
479.198	2421.17
479.569	2459.13
479.94	2506.59
480.311	2523.31
480.682	2616.64
481.053	2663.64
481.424	2663.64
481.795	2709.07
482.166	2799.69
482.537	2819.35
482.908	2919.68
483.279	2929.17
483.65	3032.45
484.021	3081.26
484.391	3114.71
484.762	3186.79
485.133	3228.38
485.503	3306.57
485.874	3330.29
486.244	3385.43
486.615	3467.47
486.985	3542.04
487.356	3559.67
487.726	3626.78
488.097	3670.17
488.467	3740.45
488.837	3808.02
489.207	3848.25
489.578	3956.72
489.948	4012.31
490.318	4058.64
490.688	4106.32
491.058	4142.7
491.428	4216.6
491.798	4308.35
492.168	4379.76
492.538	4413.2
492.908	4469.7
493.278	4466.99
493.648	4553.31
494.017	4595.35
494.387	4618.85
494.757	4696.36
495.126	4759.86
495.496	4862
495.866	4859.75
496.235	4929.8
496.605	4970.7
496.974	5000.08
497.344	5060.19
497.713	5105.16
498.082	5163.69
498.452	5178.83
498.821	5219.28
499.19	5209.11
499.559	5318.49
499.928	5328.66
500.298	5367.3
500.667	5421.76
501.036	5446.17
501.405	5480.07
501.774	5523.91
502.143	5574.98
502.512	5574.53
502.88	5651.59
503.249	5653.62
503.618	5710.12
503.987	5744.24
504.356	5758.03
504.724	5812.49
505.093	5851.81
505.462	5884.8
505.83	5854.52
506.199	5955.54
506.567	6017.23
506.936	6021.3
507.304	6090.45
507.672	6104.68
508.041	6140.84
508.409	6166.15
508.777	6169.99
509.145	6253.83
509.514	6297
509.882	6258.8
510.25	6313.49
510.618	6393.94
510.986	6421.74
511.354	6449.99
511.722	6482.08
512.09	6515.07
512.458	6579.7
512.826	6607.95
513.193	6676.87
513.561	6585.8
513.929	6646.59
514.297	6716.42
514.664	6765.91
515.032	6729.3
515.4	6771.11
515.767	6819.92
516.135	6825.8
516.502	6799.13
516.869	6961.38
517.237	6950.31
517.604	6883.65
517.972	7054.04
518.339	7012.68
518.706	7021.5
519.073	7050.42
519.44	7127.48
519.808	7146.92
520.175	7173.81
520.542	7216.07
520.909	7334.26
521.276	7248.61
521.643	7320.25
522.009	7359.57
522.376	7407.02
522.743	7435.04
523.11	7448.83
523.477	7478.66
523.843	7591.88
524.21	7712.1
524.577	7681.14
524.943	7747.13
525.31	7773.11
525.676	7763.85
526.043	7849.27
526.409	7863.73
526.776	7969.04
527.142	7995.71
527.508	7990.74
527.874	8105.76
528.241	8161.58
528.607	8087
528.973	8227.79
529.339	8177.62
529.705	8277.51
530.071	8376.26
530.437	8399.54
530.803	8450.39
531.169	8483.6
531.535	8415.36
531.901	8505.07
532.267	8502.59
532.632	8604.05
532.998	8626.43
533.364	8679.53
533.73	8722.02
534.095	8697.16
534.461	8725.41
534.826	8831.84
535.192	8806.53
535.557	8918.17
535.923	8961.33
536.288	8942.12
536.653	9027.55
537.019	9031.16
537.384	9048.56
537.749	9127.66
538.114	9133.53
538.479	9166.75
538.845	9162
539.21	9240.65
539.575	9193.87
539.94	9258.5
540.305	9363.81
540.67	9350.47
541.034	9416.01
541.399	9465.73
541.764	9432.96
542.129	9487.42
542.494	9492.84
542.858	9570.36
543.223	9601.99
543.587	9657.36
543.952	9675.89
544.316	9698.71
544.681	9691.93
545.045	9844.92
545.41	9834.08
545.774	9851.7
546.138	9906.84
546.503	9956.11
546.867	9914.3
547.231	10074.3
547.595	10067.07
547.959	10130.11
548.324	10140.51
548.688	10096.22
549.052	10166.72
549.416	10194.29
549.779	10206.05
550.143	10264.57
550.507	10302.99
550.871	10313.39
551.235	10313.61
551.599	10411.46
551.962	10450.56
552.326	10474.29
552.689	10592.02
553.053	10512.7
553.417	10582.98
553.78	10626.37
554.143	10608.52
554.507	10656.43
554.87	10711.79
555.234	10793.6
555.597	10759.25
555.96	10860.49
556.323	10908.85
556.686	10879.93
557.05	10975.06
557.413	10946.59
557.776	10994.95
558.139	11032.24
558.502	11056.64
558.865	11071.56
559.228	11138
559.59	11228.17
559.953	11259.12
560.316	11321.95
560.679	11312.46
561.041	11397.88
561.404	11397.43
561.767	11412.12
562.129	11376.86
562.492	11589.06
562.854	11526.01
563.217	11529.4
563.579	11601.26
563.941	11690.07
564.304	11708.15
564.666	11752.9
565.028	11784.76
565.39	11850.3
565.753	11848.49
566.115	11891.42
566.477	11996.28
566.839	12025.21
567.201	12044.87
567.563	12076.73
567.925	12159.67
568.287	12198.54
568.648	12210.51
569.01	12222.49
569.372	12349.04
569.734	12310.4
570.095	12378.64
570.457	12428.13
570.819	12449.83
571.18	12506.1
571.542	12554.23
571.903	12625.19
572.265	12763.72
572.626	12742.48
572.987	12790.84
573.349	12790.84
573.71	12918.29
574.071	12998.51
574.432	13149.02
574.794	13257.04
575.155	13208
575.516	13211.39
575.877	13297.04
576.238	13430.14
576.599	13518.27
576.96	13646.18
577.32	13634.88
577.681	13752.84
578.042	13907.64
578.403	13957.58
578.763	14078.94
579.124	14201.65
579.485	14274.86
579.845	14447.06
580.206	14536.1
580.566	14701.75
580.927	14814.29
581.287	15007.05
581.648	15002.53
582.008	15175.41
582.368	15322.75
582.728	15510.76
583.089	15698.78
583.449	15933.13
583.809	16068.04
584.169	16320.69
584.529	16431.19
584.889	16672.32
585.249	16732.65
585.609	17044.96
585.969	17294.22
586.329	17464.39
586.688	17739.41
587.048	17879.52
587.408	18118.83
587.768	18279.96
588.127	18630.91
588.487	18806.05
588.846	19328.52
589.206	19307.95
589.565	19586.59
589.925	19985
590.284	20180.02
590.643	20509.5
591.003	20715.83
591.362	21172.54
591.721	21322.36
592.08	21636.03
592.44	22059.07
592.799	22327.99
593.158	22551.03
593.517	22858.14
593.876	23100.4
594.235	23316.89
594.593	23680.49
594.952	24054.49
595.311	24211.78
595.67	24580.58
596.029	24973.11
596.387	25288.59
596.746	25565.87
597.104	25845.18
597.463	26144.84
597.822	26399.97
598.18	26749.79
598.538	26860.3
598.897	27342.54
599.255	27479.49
599.613	28142.75
599.972	28206.7
600.33	28705.45
600.688	28881.03
601.046	29208.94
601.404	29633.56
601.762	29813.89
602.12	30144.05
602.478	30378.62
602.836	30726.41
603.194	30944.71
603.552	31009.57
603.91	31367.52
604.268	31757.57
604.625	31904.68
604.983	32257.89
605.341	32440.49
605.698	32647.49
606.056	33068.72
606.413	33241.6
606.771	33582.15
607.128	33856.95
607.485	33995.7
607.843	34161.8
608.2	34535.8
608.557	34918.16
608.914	34901.44
609.272	35213.3
609.629	35546.62
609.986	35907.74
610.343	35822.55
610.7	36176.21
611.057	36279.94
611.414	36499.37
611.771	36762.18
612.127	37030.65
612.484	37057.32
612.841	37540.69
613.198	37611.2
613.554	37791.31
613.911	38161.69
614.267	38227.46
614.624	38376.83
614.98	38539.09
615.337	38903.6
615.693	39043.71
616.05	39057.04
616.406	39423.13
616.762	39370.93
617.118	39587.65
617.475	39615.44
617.831	39980.63
618.187	40172.94
618.543	40191.47
618.899	40527.96
619.255	40579.94
619.611	40581.29
619.967	40958.46
620.323	41146.25
620.678	40861.06
621.034	41003.88
621.39	40998.23
621.746	41202.97
622.101	41662.39
622.457	41460.36
622.812	41576.29
623.168	41920.69
623.523	41754.14
623.879	41927.92
624.234	41948.94
624.589	42070.74
624.945	42243.85
625.3	42394.13
625.655	42252.89
626.01	42460.34
626.365	42578.53
626.72	42465.76
627.075	42692.87
627.43	42654.01
627.785	42570.39
628.14	42647.45
628.495	42740.11
628.85	42908.01
629.205	42814.91
629.559	43094.22
629.914	43009.48
630.269	42989.82
630.623	43001.79
630.978	43011.96
631.332	43125.63
631.687	43303.71
632.041	43292.63
632.396	43363.59
632.75	43131.96
633.104	43282.92
633.459	43106.65
633.813	43251.28
634.167	43239.07
634.521	43283.37
634.875	43315.23
635.229	43172.18
635.583	43010.15
635.937	43207.21
636.291	43258.28
636.645	43079.08
636.999	43137.61
637.352	43343.25
637.706	43143.48
638.06	43320.88
638.413	43008.35
638.767	43080.66
639.121	43211.73
639.474	42980.1
639.828	43148.23
640.181	43115.01
640.534	43074.56
640.888	42977.16
641.241	43002.02
641.594	43033.88
641.947	43078.63
642.301	43096.25
642.654	43116.82
643.007	43081.79
643.36	42976.26
643.713	42891.97
644.066	43190.04
644.419	42909.82
644.771	42755.47
645.124	42236.62
645.477	42244.52
645.83	41930.86
646.182	41895.83
646.535	41956.4
646.888	41896.96
647.24	41668.27
647.593	41953.46
647.945	41834.82
648.298	41607.48
648.65	41653.81
649.002	41534.71
649.355	41745.33
649.707	41725.67
650.059	41816.97
650.411	42347.12
650.763	42383.96
651.115	42729.03
651.467	42514.35
651.819	42635.47
652.171	42519.55
652.523	42522.26
652.875	42568.13
653.227	42381.7
653.578	42635.02
653.93	42499.21
654.282	42293.34
654.633	42261.93
654.985	42368.82
655.337	42274.81
655.688	42403.16
656.039	42596.15
656.391	42276.39
656.742	42252.43
657.094	42264.64
657.445	42549.38
657.796	42364.75
658.147	42343.51
658.498	42303.28
658.849	42388.48
659.2	42170.63
659.551	42184.41
659.902	42396.84
660.253	42272.09
660.604	42399.32
660.955	42090.18
661.306	42235.94
661.656	42099.44
662.007	42271.19
662.358	42242.72
662.708	42141.02
663.059	42151.19
663.409	41876.17
663.76	42298.99
664.11	42300.12
664.461	42214.7
664.811	42216.5
665.161	42209.95
665.511	42186.67
665.862	42154.58
666.212	42288.37
666.562	42227.35
666.912	42176.73
667.262	42120.01
667.612	42058.32
667.962	42105.32
668.312	41990.07
668.662	42132.89
669.011	42228.03
669.361	42143.74
669.711	42042.95
670.06	42044.98
670.41	41910.75
670.76	42037.98
671.109	42132.21
671.459	41940.8
671.808	41867.59
672.157	41995.27
672.507	41703.97
672.856	41906
673.205	41771.09
673.554	41938.32
673.904	41876.62
674.253	42002.95
674.602	41777.42
674.951	41359.12
675.3	41165.46
675.649	41724.54
675.998	41650.19
676.346	41628.27
676.695	41877.08
677.044	41457.88
677.393	41658.1
677.741	41679.79
678.09	41639.34
678.438	41439.8
678.787	41555.05
679.135	41542.62
679.484	41264.44
679.832	41510.76
680.181	41294.27
680.529	41395.06
680.877	41224.21
681.225	41262.4
681.573	41495.39
681.922	41151.9
682.27	41085.01
682.618	41057.89
682.966	41029.87
683.314	40957.55
683.661	41003.2
684.009	40955.75
684.357	40634.62
684.705	40673.04
685.053	40731.12
685.4	40680.72
685.748	40486.83
686.095	40538.58
686.443	40398.02
686.79	40209.55
687.138	40262.88
687.485	40239.83
687.832	40140.17
688.18	40209.1
688.527	40003.45
688.874	40048.88
689.221	40029.22
689.568	39736.34
689.915	39754.65
690.262	39641.43
690.609	39497.25
690.956	39478.27
691.303	39418.16
691.65	39301.1
691.997	39285.96
692.344	39106.98
692.69	39062.91
693.037	39165.96
693.383	38674.22
693.73	38971.16
694.077	38726.88
694.423	38739.98
694.769	38649.82
695.116	38574.34
695.462	38406.89
695.808	38329.37
696.155	38455.47
696.501	38033.79
696.847	38176.16
697.193	37749.95
697.539	37971.87
697.885	37592.67
698.231	37681.25
698.577	37566.68
698.923	37568.26
699.269	37338.67
699.614	37170.31
699.96	37157.65
700.306	37158.33
700.651	37006.7
700.997	36968.73
701.342	36907.94
701.688	36754.5
702.033	36636.99
702.379	36652.58
702.724	36480.61
703.069	36589.76
703.415	36161.29
703.76	36324.45
704.105	36299.37
704.45	36168.07
704.795	35943
705.14	35831.81
705.485	35811.93
705.83	35546.62
706.175	35766.96
706.52	35566.96
706.865	35489.67
707.209	35396.12
707.554	35323.58
707.899	35439.96
708.243	35167.42
708.588	35194.99
708.932	34984.83
709.277	34915.68
709.621	34923.81
709.966	34647.66
710.31	34799.07
710.654	34545.29
710.998	34546.87
711.342	34548.46
711.687	34278.63
712.031	34264.4
712.375	34148.24
712.719	34340.55
713.063	34269.82
713.407	34286.09
713.75	34093.78
714.094	34123.83
714.438	33967.45
714.782	33844.29
715.125	33786.89
715.469	33861.69
715.812	33602.27
716.156	33544.64
716.499	33539.44
716.843	33524.08
717.186	33288.15
717.53	33495.6
717.873	33510.07
718.216	33423.97
718.559	33378.09
718.902	33106.69
719.246	33077.53
719.589	33143.52
719.932	32863.08
720.275	32973.58
720.617	32923.41
720.96	32771.1
721.303	32732.23
721.646	32749.41
721.989	32473.71
722.331	32635.06
722.674	32526.36
723.016	32465.12
723.359	32446.36
723.701	32573.59
724.044	32318.23
724.386	32108.52
724.729	32356.88
725.071	32169.54
725.413	32288.85
725.755	32169.31
726.097	31943.55
726.439	31807.29
726.782	31928.41
727.124	32106.26
727.465	31897.9
727.807	31807.51
728.149	31702.66
728.491	31664.46
728.833	31782.65
729.175	31628.53
729.516	31623.56
729.858	31473.51
730.199	31394.64
730.541	31394.41
730.882	31374.75
731.224	31613.39
731.565	31248.43
731.906	31277.58
732.248	31231.93
732.589	31175.21
732.93	31014.76
733.271	31090.69
733.612	31038.27
733.953	31145.61
734.294	31020.19
734.635	30887.76
734.976	30913.75
735.317	30736.13
735.658	30711.49
735.999	30666.98
736.339	30779.74
736.68	30767.54
737.021	30568
737.361	30534.78
737.702	30623.14
738.042	30590.82
738.383	30486.19
738.723	30410.94
739.063	30385.63
739.404	30447.55
739.744	30443.03
740.084	30141.11
740.424	30317.61
740.764	30202.36
741.104	30380.2
741.444	30050.95
741.784	30039.42
742.124	30144.28
742.464	30132.98
742.804	30000.33
743.143	29785.87
743.483	29887.11
743.823	29741.8
744.162	29694.12
744.502	29667
744.841	29580.68
745.181	29695.25
745.52	29508.14
745.86	29674.91
746.199	29618.42
746.538	29510.17
746.877	29537.51
747.216	29494.35
747.556	29495.71
747.895	29482.83
748.234	29238.31
748.573	29249.39
748.911	29269.27
749.25	29181.82
749.589	29148.15
749.928	29113.12
750.267	29188.14
750.605	29282.38
750.944	29102.95
751.283	28852.11
751.621	28897.31
751.96	28767.14
752.298	28870.41
752.636	28869.06
752.975	28691.43
753.313	28594.71
753.651	28722.85
753.989	28585.67
754.327	28528.05
754.666	28446.02
755.004	28450.31
755.342	28472.46
755.679	28304.1
756.017	28132.58
756.355	28297.77
756.693	28169.64
757.031	28270.88
757.368	27997.67
757.706	28020.49
758.044	27840.16
758.381	27941.17
758.719	27823.21
