Data from hue_38_FLMS001491_00052.txt Node
Date: Tue Feb 07 17:31:40 GMT 2017
User: dcchb
Spectrometer: FLMS00149
Trigger mode: 0
Integration Time (sec): 2.000000E-2
Scans to average: 10
Electric dark correction enabled: true
Nonlinearity correction enabled: false
Boxcar width: 0
XAxis mode: Wavelengths
Number of Pixels in Spectrum: 2048
>>>>>Begin Spectral Data<<<<<
341.393	-17.4
341.776	-17.4
342.16	-17.4
342.543	-70.28
342.927	-69.83
343.31	-61.47
343.693	-81.81
344.077	-64.86
344.46	-52.88
344.843	-66.21
345.226	-54.91
345.61	-35.93
345.993	-7.91
346.376	-4.29
346.759	13.78
347.142	54.46
347.525	39.1
347.908	66.66
348.291	55.14
348.674	91.3
349.057	109.83
349.44	133.78
349.823	127.23
350.206	167.68
350.588	208.13
350.971	244.97
351.354	239.32
351.737	220.11
352.119	249.26
352.502	265.3
352.884	262.14
353.267	265.53
353.65	301.91
354.032	295.36
354.414	293.33
354.797	327.22
355.179	315.02
355.562	337.17
355.944	335.36
356.326	341.69
356.709	359.99
357.091	343.27
357.473	359.99
357.855	338.07
358.238	328.35
358.62	349.82
359.002	351.4
359.384	335.58
359.766	362.25
360.148	342.82
360.53	354.57
360.912	335.58
361.294	328.58
361.676	331.29
362.057	332.65
362.439	351.4
362.821	320.67
363.203	332.65
363.584	351.86
363.966	336.71
364.348	342.14
364.729	338.07
365.111	329.26
365.493	322.48
365.874	331.52
366.256	322.93
366.637	328.13
367.019	317.96
367.4	317.96
367.781	319.54
368.163	312.08
368.544	321.8
368.925	314.57
369.306	333.1
369.688	331.52
370.069	317.51
370.45	339.65
370.831	306.21
371.212	331.52
371.593	323.16
371.974	315.92
372.355	321.12
372.736	331.29
373.117	325.19
373.498	331.52
373.879	325.64
374.26	305.75
374.641	338.07
375.021	308.01
375.402	323.61
375.783	319.54
376.163	338.52
376.544	334.45
376.925	324.29
377.305	312.76
377.686	336.04
378.066	353.66
378.447	326.09
378.827	331.52
379.208	335.36
379.588	351.63
379.968	353.21
380.349	351.4
380.729	323.61
381.109	340.33
381.489	340.1
381.87	328.13
382.25	353.66
382.63	329.48
383.01	334.23
383.39	362.48
383.77	373.55
384.15	329.03
384.53	356.83
384.91	354.79
385.29	357.73
385.67	360.67
386.049	369.03
386.429	379.65
386.809	364.96
387.189	371.06
387.568	357.28
387.948	345.53
388.328	349.37
388.707	378.52
389.087	368.35
389.466	357.73
389.846	358.86
390.225	389.59
390.605	379.43
390.984	368.13
391.363	384.4
391.743	369.93
392.122	390.27
392.501	367.22
392.881	384.4
393.26	368.13
393.639	387.11
394.018	384.4
394.397	383.49
394.776	373.1
395.155	387.11
395.534	399.76
395.913	392.98
396.292	410.38
396.671	404.06
397.05	394.11
397.429	399.31
397.808	409.71
398.186	387.56
398.565	397.73
398.944	409.03
399.323	413.32
399.701	402.93
400.08	405.87
400.458	416.26
400.837	432.53
401.215	421.68
401.594	420.78
401.972	416.26
402.351	428.01
402.729	437.05
403.107	424.4
403.486	407.22
403.864	421.68
404.242	426.2
404.62	432.31
404.999	432.76
405.377	430.5
405.755	438.18
406.133	446.77
406.511	424.62
406.889	418.75
407.267	440.44
407.645	450.16
408.023	432.31
408.401	442.47
408.779	458.97
409.156	445.41
409.534	447.45
409.912	457.39
410.29	476.82
410.667	466.43
411.045	465.07
411.422	480.89
411.8	468.69
412.178	471.4
412.555	489.03
412.933	499.65
413.31	471.63
413.687	499.2
414.065	493.55
414.442	506.2
414.819	508.01
415.197	481.34
415.574	516.6
415.951	490.16
416.328	513.88
416.705	515.01
417.082	540.32
417.46	532.87
417.837	523.83
418.214	524.05
418.591	529.03
418.967	528.8
419.344	542.81
419.721	546.43
420.098	544.62
420.475	538.29
420.852	543.71
421.228	541.68
421.605	561.12
421.982	552.08
422.358	554.34
422.735	558.86
423.111	569.7
423.488	589.82
423.864	585.3
424.241	580.55
424.617	587.56
424.994	582.36
425.37	576.71
425.746	581.68
426.123	584.17
426.499	634.11
426.875	611.74
427.251	621.45
427.627	626.65
428.003	611.28
428.379	616.93
428.756	630.04
429.132	638.63
429.507	638.4
429.883	649.7
430.259	660.1
430.635	662.13
431.011	688.34
431.387	676.14
431.763	698.51
432.138	677.27
432.514	697.83
432.89	681.11
433.265	717.95
433.641	710.72
434.016	713.2
434.392	729.92
434.767	724.05
435.143	719.3
435.518	725.18
435.894	755.91
436.269	731.73
436.644	739.87
437.02	763.14
437.395	746.87
437.77	767.21
438.145	766.76
438.52	756.36
438.895	773.09
439.271	780.32
439.646	797.95
440.021	796.59
440.395	796.59
440.77	807.66
441.145	822.8
441.52	831.16
441.895	851.28
442.27	839.75
442.645	848.57
443.019	849.47
443.394	851.73
443.769	853.08
444.143	839.98
444.518	839.53
444.892	839.98
445.267	851.05
445.641	875.23
446.016	849.02
446.39	892.63
446.764	863.71
447.139	902.58
447.513	917.49
447.887	883.59
448.262	906.64
448.636	904.83
449.01	900.54
449.384	927.43
449.758	922.69
450.132	952.52
450.506	926.3
450.88	943.48
451.254	962.23
451.628	947.55
452.002	955
452.376	960.43
452.75	996.13
453.123	974.89
453.497	1001.78
453.871	1016.47
454.244	1002.01
454.618	1028.22
454.992	1021.22
455.365	1048.33
455.739	1061.67
456.112	1057.6
456.486	1077.94
456.859	1084.27
457.232	1101.21
457.606	1087.43
457.979	1142.34
458.352	1119.07
458.725	1157.71
459.099	1150.7
459.472	1156.35
459.845	1194.54
460.218	1195.67
460.591	1188.67
460.964	1211.04
461.337	1238.84
461.71	1222.79
462.083	1250.59
462.456	1286.75
462.829	1283.36
463.201	1290.14
463.574	1314.09
463.947	1312.96
464.32	1349.8
464.692	1340.76
465.065	1359.06
465.438	1380.08
465.81	1430.92
466.183	1423.01
466.555	1452.84
466.928	1447.42
467.3	1476.8
467.672	1513.41
468.045	1535.55
468.417	1560.86
468.789	1550.92
469.161	1588.43
469.534	1621.43
469.906	1624.14
470.278	1651.26
470.65	1692.61
471.022	1739.16
471.394	1737.58
471.766	1797.69
472.138	1818.94
472.51	1861.19
472.882	1910.01
473.253	1944.36
473.625	1909.1
473.997	2001.98
474.369	2028.65
474.74	2055.09
475.112	2086.5
475.484	2162.65
475.855	2202.88
476.227	2206.95
476.598	2333.05
476.97	2330.79
477.341	2379.6
477.713	2432.93
478.084	2502.08
478.455	2550.89
478.827	2568.29
479.198	2699.36
479.569	2760.61
479.94	2798.8
480.311	2856.2
480.682	2970.54
481.053	3049.64
481.424	3132.8
481.795	3140.71
482.166	3289.63
482.537	3361.49
482.908	3430.42
483.279	3498.21
483.65	3565.33
484.021	3711.99
484.391	3781.82
484.762	3837.64
485.133	3887.36
485.503	4012.1
485.874	4097.52
486.244	4178.87
486.615	4289.15
486.985	4456.15
487.356	4492.31
487.726	4603.27
488.097	4682.36
488.467	4832.42
488.837	4947.89
489.207	5061.11
489.578	5156.93
489.948	5289.58
490.318	5393.3
490.688	5447.09
491.058	5578.61
491.428	5722.11
491.798	5770.7
492.168	5968.2
492.538	6050.24
492.908	6142.44
493.278	6299.5
493.648	6319.61
494.017	6433.28
494.387	6553.95
494.757	6671.46
495.126	6785.13
495.496	6849.31
495.866	6952.59
496.235	7089.31
496.605	7224.44
496.974	7260.6
497.344	7367.49
497.713	7452.46
498.082	7579.46
498.452	7635.96
498.821	7762.06
499.19	7783.07
499.559	7915.95
499.928	8011.99
500.298	8100.13
500.667	8225.77
501.036	8277.07
501.405	8351.87
501.774	8468.93
502.143	8515.71
502.512	8644.29
502.88	8744.85
503.249	8752.54
503.618	8891.29
503.987	8905.08
504.356	9054.23
504.724	9096.71
505.093	9180.55
505.462	9288.57
505.83	9314.78
506.199	9424.16
506.567	9536.02
506.936	9569.01
507.304	9733.3
507.672	9782.57
508.041	9836.58
508.409	9971.04
508.777	10068.21
509.145	10083.58
509.514	10198.6
509.882	10199.05
510.25	10284.93
510.618	10433.62
510.986	10467.75
511.354	10526.73
511.722	10571.7
512.09	10810.34
512.458	10791.81
512.826	10889.43
513.193	10926.49
513.561	10992.03
513.929	11115.87
514.297	11100.73
514.664	11236.54
515.032	11320.61
515.4	11305.47
515.767	11488.74
516.135	11504.33
516.502	11432.47
516.869	11587.49
517.237	11654.16
517.604	11730.09
517.972	11793.81
518.339	11868.84
518.706	11962.62
519.073	12014.37
519.44	12089.17
519.808	12201.04
520.175	12199.45
520.542	12344.76
520.909	12417.75
521.276	12473.34
521.643	12521.25
522.009	12589.5
522.376	12693.68
522.743	12749.04
523.11	12912.65
523.477	13019.32
523.843	13041.01
524.21	13129.82
524.577	13278.75
524.943	13349.03
525.31	13404.62
525.676	13423.6
526.043	13625.63
526.409	13697.72
526.776	13823.14
527.142	13818.39
527.508	13867.88
527.874	14078.05
528.241	14031.5
528.607	14100.19
528.973	14224.48
529.339	14162.34
529.705	14335.22
530.071	14466.51
530.437	14580.63
530.803	14698.82
531.169	14707.41
531.535	14645.72
531.901	14683.46
532.267	14892.04
532.632	14919.83
532.998	15021.3
533.364	15026.05
533.73	15145.14
534.095	15289.54
534.461	15320.5
534.826	15367.73
535.192	15464.23
535.557	15657.22
535.923	15633.94
536.288	15542.42
536.653	15706.71
537.019	15679.59
537.384	15770.66
537.749	15871.67
538.114	15874.61
538.479	15975.4
538.845	16057.2
539.21	16011.33
539.575	16185.79
539.94	16141.95
540.305	16303.98
540.67	16261.95
541.034	16374.03
541.399	16414.26
541.764	16492
542.129	16551.66
542.494	16594.14
542.858	16626.68
543.223	16692.22
543.587	16807.69
543.952	16768.37
544.316	16829.39
544.681	16962.04
545.045	17126.33
545.41	17157.06
545.774	17192.32
546.138	17233.67
546.503	17356.83
546.867	17271.18
547.231	17470.05
547.595	17485.42
547.959	17595.24
548.324	17539.2
548.688	17587.11
549.052	17670.27
549.416	17769.02
549.779	17773.54
550.143	17784.84
550.507	17991.39
550.871	18030.71
551.235	17888.34
551.599	18108.22
551.962	18137.15
552.326	18150.71
552.689	18290.37
553.053	18323.13
553.417	18292.85
553.78	18543.92
554.143	18460.76
554.507	18531.04
554.87	18690.36
555.234	18794.08
555.597	18729.23
555.96	18816.23
556.323	18926.96
556.686	18859.62
557.05	19104.13
557.413	19098.93
557.776	19097.12
558.139	19254.86
558.502	19297.12
558.865	19359.94
559.228	19449.43
559.59	19490.79
559.953	19526.04
560.316	19784.56
560.679	19752.25
561.041	19791.34
561.404	20000.15
561.767	20020.26
562.129	20023.65
562.492	20149.53
562.854	20172.12
563.217	20183.65
563.579	20213.03
563.941	20299.81
564.304	20493.92
564.666	20532.12
565.028	20553.58
565.39	20688.95
565.753	20854.37
566.115	20925.33
566.477	20965.55
566.839	20893.69
567.201	21088.49
567.563	21146.34
567.925	21384.52
568.287	21304.52
568.648	21366.9
569.01	21442.15
569.372	21597.17
569.734	21578.64
570.095	21800.1
570.457	21835.58
570.819	21864.28
571.18	21913.55
571.542	22122.13
571.903	22144.73
572.265	22216.59
572.626	22389.92
572.987	22327.77
573.349	22513.98
573.71	22617.26
574.071	22679.86
574.432	22826.97
574.794	23022.67
575.155	23015.44
575.516	23003.69
575.877	23207.98
576.238	23218.37
576.599	23372.49
576.96	23614.52
577.32	23609.55
577.681	23791.24
578.042	23857.45
578.403	24115.75
578.763	24145.35
579.124	24229.42
579.485	24492.01
579.845	24731.33
580.206	24731.33
580.566	24800.48
580.927	25081.83
581.287	25215.16
581.648	25279.34
582.008	25612.43
582.368	25660.57
582.728	25884.97
583.089	26033.89
583.449	26137.17
583.809	26414.67
584.169	26529.02
584.529	26716.13
584.889	27221.66
585.249	27092.39
585.609	27268.21
585.969	27670.01
586.329	27626.84
586.688	27958.81
587.048	28269.54
587.408	28303.66
587.768	28446.48
588.127	28674.27
588.487	28898.45
588.846	29408.27
589.206	29331.43
589.565	29548.38
589.925	29950.4
590.284	30046.89
590.643	30358.98
591.003	30601.46
591.362	30861.34
591.721	30923.03
592.08	31217.48
592.44	31454.99
592.799	31656.79
593.158	31810.01
593.517	32043.23
593.876	32287.51
594.235	32339.71
594.593	32698.8
594.952	32928.17
595.311	33116.64
595.67	33311.67
596.029	33746.68
596.387	33974.25
596.746	34226.44
597.104	34225.09
597.463	34443.39
597.822	34835.47
598.18	34797.73
598.538	35003.15
598.897	35418.5
599.255	35232.97
599.613	35885.61
599.972	35756.8
600.33	36090.58
600.688	36072.05
601.046	36567.63
601.404	36675.87
601.762	36748.64
602.12	37169.64
602.478	37154.5
602.836	37225.91
603.194	37461.61
603.552	37548.84
603.91	37600.82
604.268	37930.98
604.625	37947.93
604.983	38199
605.341	38283.74
605.698	38379.33
606.056	38596.95
606.413	38780.68
606.771	39119.42
607.128	39340.43
607.485	39197.84
607.843	39413.43
608.2	39599.18
608.557	39961.66
608.914	39751.27
609.272	40054.99
609.629	40367.3
609.986	40417.02
610.343	40405.72
610.7	40661.98
611.057	40747.86
611.414	40749.89
611.771	41002.54
612.127	41246.15
612.484	41270.78
612.841	41582.86
613.198	41443.66
613.554	41622.63
613.911	41795.29
614.267	41858.56
614.624	42012.68
614.98	42235.27
615.337	42310.75
615.693	42272.11
616.05	42437.98
616.406	42623.06
616.762	42569.5
617.118	42721.36
617.475	42831.64
617.831	42832.32
618.187	43108.47
618.543	43035.7
618.899	43296.49
619.255	43337.84
619.611	43296.71
619.967	43453.55
620.323	43590.49
620.678	43709.13
621.034	43523.83
621.39	43590.49
621.746	43585.29
622.101	44145.28
622.457	43938.28
622.812	43936.7
623.168	44165.84
623.523	44061.21
623.879	44371.94
624.234	44070.25
624.589	44246.07
624.945	44211.72
625.3	44506.17
625.655	44405.84
626.01	44508.89
626.365	44421.66
626.72	44339.63
627.075	44490.36
627.43	44518.38
627.785	44484.03
628.14	44599.51
628.495	44583.91
628.85	44665.27
629.205	44484.71
629.559	44827.3
629.914	44599.96
630.269	44750.69
630.623	44604.25
630.978	44627.75
631.332	44779.84
631.687	44876.11
632.041	44622.78
632.396	44868.88
632.75	44555.89
633.104	44777.81
633.459	44579.39
633.813	44660.29
634.167	44652.39
634.521	44793.62
634.875	44756.79
635.229	44673.63
635.583	44505.72
635.937	44695.55
636.291	44620.75
636.645	44557.47
636.999	44577.81
637.352	44726.73
637.706	44324.94
638.06	44582.56
638.413	44641.31
638.767	44447.42
639.121	44547.76
639.474	44348.44
639.828	44505.95
640.181	44321.09
640.534	44403.13
640.888	44303.47
641.241	44189.35
641.594	44193.19
641.947	44377.36
642.301	44360.87
642.654	44204.71
643.007	44305.73
643.36	44251.94
643.713	44094.89
644.066	44331.49
644.419	43957.04
644.771	43764.5
645.124	43396.15
645.477	43539.87
645.83	43103.73
646.182	43087.23
646.535	42919.1
646.888	43071.41
647.24	42788.03
647.593	43155.7
647.945	43049.49
648.298	42847.69
648.65	42797.07
649.002	42717.29
649.355	42880
649.707	42945.99
650.059	43076.61
650.411	43454.9
650.763	43478.4
651.115	43896.7
651.467	43826.64
651.819	43829.36
652.171	43662.35
652.523	43638.17
652.875	43672.3
653.227	43462.81
653.578	43651.28
653.93	43568.35
654.282	43572.87
654.633	43397.05
654.985	43431.63
655.337	43513.66
655.688	43448.58
656.039	43552.75
656.391	43180.56
656.742	43372.87
657.094	43337.84
657.445	43575.58
657.796	43390.5
658.147	43372.42
658.498	43299.65
658.849	43270.05
659.2	43318.86
659.551	43161.58
659.902	43372.64
660.253	43219.2
660.604	43358.18
660.955	43025.08
661.306	43247.22
661.656	43105.31
662.007	43190.05
662.358	43207.68
662.708	43254.68
663.059	43093.56
663.409	42925.88
663.76	43344.85
664.11	43182.59
664.461	43177.4
664.811	43248.81
665.161	43128.81
665.511	43065.08
665.862	43027.34
666.212	43159.77
666.562	43146.21
666.912	43064.86
667.262	43040.45
667.612	43044.74
667.962	43177.85
668.312	43107.12
668.662	43283.83
669.011	43141.92
669.361	43121.35
669.711	43103.05
670.06	43032.31
670.41	42768.82
670.76	42930.17
671.109	43044.07
671.459	42922.94
671.808	42822.83
672.157	42880.91
672.507	42653.57
672.856	42681.36
673.205	42799.55
673.554	42985.08
673.904	42696.5
674.253	43071.64
674.602	42874.35
674.951	42331.54
675.3	42135.16
675.649	42679.1
675.998	42693.79
676.346	42669.61
676.695	42940.57
677.044	42607.92
677.393	42673.68
677.741	42734.92
678.09	42398.89
678.438	42404.99
678.787	42564.76
679.135	42446.34
679.484	42177.2
679.832	42464.42
680.181	42094.26
680.529	42280.47
680.877	42154.37
681.225	42187.14
681.573	42343.97
681.922	42153.47
682.27	41969.52
682.618	41986.47
682.966	41893.14
683.314	41887.26
683.661	41713.48
684.009	41654.27
684.357	41600.49
684.705	41511.22
685.053	41630.09
685.4	41479.14
685.748	41392.58
686.095	41337.9
686.443	41156.21
686.79	41138.35
687.138	41203.89
687.485	41260.38
687.832	41178.58
688.18	41012.93
688.527	40823.33
688.874	40911.69
689.221	40895.42
689.568	40833.28
689.915	40720.51
690.262	40644.81
690.609	40558.93
690.956	40432.38
691.303	40384.47
691.65	40142.9
691.997	40217.93
692.344	39998.72
692.69	39916.01
693.037	40107.19
693.383	39703.14
693.73	39681.44
694.077	39456.36
694.423	39674.21
694.769	39479.41
695.116	39422.47
695.462	39369.36
695.808	39164.85
696.155	39233.77
696.501	38934.8
696.847	38939.54
697.193	38738.87
697.539	38927.34
697.885	38633.79
698.231	38483.51
698.577	38483.28
698.923	38477.18
699.269	38338.2
699.614	38169.62
699.96	37990.19
700.306	38145.89
700.651	38036.06
700.997	37775.28
701.342	37648.73
701.688	37689.4
702.033	37522.63
702.379	37424.55
702.724	37436.3
703.069	37433.37
703.415	37193.6
703.76	37187.5
704.105	37109.76
704.45	37002.19
704.795	36713.61
705.14	36777.56
705.485	36660.05
705.83	36578.02
706.175	36565.14
706.52	36427.29
706.865	36344.58
707.209	36326.28
707.554	36069.79
707.899	36316.56
708.243	36050.35
708.588	36046.74
708.932	35745.05
709.277	35695.78
709.621	35752.28
709.966	35595.45
710.31	35560.19
710.654	35327.66
710.998	35275
711.342	35413.08
711.687	35405.17
712.031	35121.56
712.375	34954.79
712.719	34951.85
713.063	34970.38
713.407	35061.68
713.75	34876.37
714.094	34887.22
714.438	34670.05
714.782	34679.09
715.125	34619.2
715.469	34717.73
715.812	34465.31
716.156	34216.05
716.499	34385.76
716.843	34295.37
717.186	34167.46
717.53	34283.39
717.873	34255.37
718.216	34083.85
718.559	33976.06
718.902	33708.27
719.246	33853.35
719.589	33768.83
719.932	33550.76
720.275	33538.1
720.617	33712.33
720.96	33546.01
721.303	33642.51
721.646	33519.57
721.989	33307.82
722.331	33406.81
722.674	33227.15
723.016	33342.63
723.359	33216.3
723.701	33256.07
724.044	33067.38
724.386	32859.7
724.729	33088.17
725.071	32983.31
725.413	32882.98
725.755	32749.42
726.097	32775.18
726.439	32668.29
726.782	32633.27
727.124	32705.35
727.465	32477.11
727.807	32527.73
728.149	32436.66
728.491	32313.5
728.833	32453.84
729.175	32219.94
729.516	32216.55
729.858	32185.14
730.199	32300.17
730.541	32019.5
730.882	32120.06
731.224	32153.73
731.565	31936.34
731.906	31973.85
732.248	31976.79
732.589	31677.36
732.93	31694.31
733.271	31812.27
733.612	31809.56
733.953	31808.43
734.294	31667.87
734.635	31669.9
734.976	31712.16
735.317	31438.04
735.658	31446.63
735.999	31407.54
736.339	31273.53
736.68	31439.85
737.021	31306.97
737.361	31156.92
737.702	31219.74
738.042	31061.78
738.383	31152.18
738.723	31171.16
739.063	30962.35
739.404	30955.8
739.744	30897.94
740.084	30847.1
740.424	30726.65
740.764	30768.91
741.104	30923.25
741.444	30743.82
741.784	30658.4
742.124	30650.04
742.464	30609.82
742.804	30521.01
743.143	30504.96
743.483	30458.86
743.823	30279.88
744.162	30390.61
744.502	30394.91
744.841	30352.65
745.181	30435.36
745.52	30209.6
745.86	30311.29
746.199	30157.63
746.538	30047.12
746.877	30210.05
747.216	29994.92
747.556	30046.67
747.895	30077.4
748.234	29866.56
748.573	29895.49
748.911	29825.2
749.25	29782.04
749.589	29790.18
749.928	29627.02
750.267	29734.81
750.605	29771.87
750.944	29470.41
751.283	29533.01
751.621	29547.7
751.96	29386.12
752.298	29404.42
752.636	29369.17
752.975	29145.9
753.313	29073.81
753.651	29038.56
753.989	29101.83
754.327	29002.18
754.666	28942.06
755.004	28925.34
755.342	29005.11
755.679	28786.59
756.017	28811.22
756.355	28846.7
756.693	28577.33
