Data from hue_120_FLMS001491_00084.txt Node
Date: Tue Feb 07 17:00:08 GMT 2017
User: dcchb
Spectrometer: FLMS00149
Trigger mode: 0
Integration Time (sec): 2.000000E-2
Scans to average: 10
Electric dark correction enabled: true
Nonlinearity correction enabled: false
Boxcar width: 0
XAxis mode: Wavelengths
Number of Pixels in Spectrum: 2048
>>>>>Begin Spectral Data<<<<<
341.393	-7.64
341.776	-7.64
342.16	-7.64
342.543	-60.75
342.927	-68.43
343.31	-62.1
343.693	-66.4
344.077	-56
344.46	-66.17
344.843	-60.07
345.226	-43.12
345.61	-35.44
345.993	-14.87
346.376	-11.71
346.759	24.67
347.142	31
347.525	41.62
347.908	58.35
348.291	65.8
348.674	89.31
349.057	105.12
349.44	132.24
349.823	142.41
350.206	154.61
350.588	167.95
350.971	210.21
351.354	251.79
351.737	209.08
352.119	266.7
352.502	275.74
352.884	291.79
353.267	282.29
353.65	297.89
354.032	313.48
354.414	310.32
354.797	312.8
355.179	303.99
355.562	329.07
355.944	325.68
356.326	323.65
356.709	319.81
357.091	338.56
357.473	357.55
357.855	338.79
358.238	337.21
358.62	348.96
359.002	349.64
359.384	334.72
359.766	331.11
360.148	341.5
360.53	323.88
360.912	331.56
361.294	341.05
361.676	321.84
362.057	341.5
362.439	342.86
362.821	336.98
363.203	337.89
363.584	344.21
363.966	328.17
364.348	322.29
364.729	302.86
365.111	325.91
365.493	339.47
365.874	327.49
366.256	312.58
366.637	313.48
367.019	309.41
367.4	307.15
367.781	309.64
368.163	331.79
368.544	325.23
368.925	317.1
369.306	315.74
369.688	312.12
370.069	316.87
370.45	297.66
370.831	302.63
371.212	324.55
371.593	327.49
371.974	304.89
372.355	313.71
372.736	322.75
373.117	309.19
373.498	310.77
373.879	326.59
374.26	342.63
374.641	320.49
375.021	332.69
375.402	318
375.783	331.56
376.163	352.12
376.544	340.37
376.925	328.4
377.305	320.94
377.686	349.86
378.066	342.86
378.447	329.53
378.827	350.99
379.208	344.21
379.588	340.15
379.968	357.32
380.349	344.67
380.729	375.85
381.109	350.77
381.489	337.66
381.87	325.46
382.25	336.76
382.63	340.6
383.01	345.8
383.39	362.07
383.77	341.73
384.15	349.41
384.53	343.76
384.91	358.9
385.29	346.02
385.67	377.66
386.049	370.43
386.429	370.88
386.809	365.91
387.189	368.39
387.568	360.94
387.948	378.34
388.328	383.54
388.707	389.41
389.087	359.58
389.466	381.5
389.846	357.1
390.225	369.3
390.605	366.36
390.984	380.6
391.363	387.15
391.743	394.38
392.122	369.3
392.501	379.47
392.881	398.22
393.26	397.09
393.639	395.06
394.018	405.68
394.397	399.58
394.776	414.27
395.155	395.29
395.534	423.53
395.913	408.85
396.292	395.51
396.671	422.18
397.05	402.52
397.429	431.22
397.808	403.65
398.186	425.34
398.565	424.89
398.944	399.13
399.323	406.13
399.701	426.7
400.08	417.43
400.458	436.42
400.837	430.54
401.215	428.51
401.594	432.57
401.972	440.71
402.351	420.82
402.729	426.25
403.107	429.41
403.486	441.84
403.864	416.98
404.242	442.29
404.62	432.12
404.999	424.21
405.377	453.14
405.755	435.06
406.133	463.53
406.511	457.88
406.889	449.97
407.267	468.05
407.645	456.08
408.023	484.32
408.401	469.18
408.779	470.31
409.156	465.57
409.534	516.19
409.912	495.4
410.29	483.19
410.667	497.43
411.045	500.14
411.422	519.12
411.8	499.92
412.178	492.23
412.555	527.94
412.933	550.54
413.31	509.63
413.687	512.8
414.065	506.7
414.442	518.22
414.819	535.62
415.197	540.37
415.574	540.37
415.951	555.28
416.328	526.36
416.705	527.94
417.082	549.63
417.46	558.67
417.837	562.97
418.214	578.11
418.591	568.39
418.967	571.78
419.344	565
419.721	588.95
420.098	582.17
420.475	572.23
420.852	582.63
421.228	591.89
421.605	574.94
421.982	590.31
422.358	590.08
422.735	608.61
423.111	600.7
423.488	633.7
423.864	613.59
424.241	639.57
424.617	628.5
424.994	629.18
425.37	628.73
425.746	663.53
426.123	665.79
426.499	647.93
426.875	656.3
427.251	664.88
427.627	681.38
428.003	675.73
428.379	681.38
428.756	675.96
429.132	684.54
429.507	706.46
429.883	703.53
430.259	701.27
430.635	708.5
431.011	724.54
431.387	732.9
431.763	736.29
432.138	728.84
432.514	781.26
432.89	756.63
433.265	754.82
433.641	774.03
434.016	770.19
434.392	788.5
434.767	811.77
435.143	802.96
435.518	798.44
435.894	804.32
436.269	832.34
436.644	834.37
437.02	866.23
437.395	840.7
437.77	844.31
438.145	856.29
438.52	850.87
438.895	853.81
439.271	864.65
439.646	877.99
440.021	890.87
440.395	905.78
440.77	887.48
441.145	933.58
441.52	934.26
441.895	902.39
442.27	941.71
442.645	917.53
443.019	927.48
443.394	921.15
443.769	969.28
444.143	950.98
444.518	943.07
444.892	958.66
445.267	950.3
445.641	978.1
446.016	992.78
446.39	997.76
446.764	1009.28
447.139	1008.15
447.513	1012.45
447.887	1018.09
448.262	1030.3
448.636	1014.48
449.01	1034.82
449.384	1064.42
449.758	1039.34
450.132	1051.09
450.506	1084.53
450.88	1062.39
451.254	1073.01
451.628	1096.51
452.002	1097.41
452.376	1097.64
452.75	1135.38
453.123	1153.91
453.497	1153.91
453.871	1153.46
454.244	1180.58
454.618	1164.08
454.992	1190.75
455.365	1220.12
455.739	1209.5
456.112	1241.14
456.486	1244.98
456.859	1259.22
457.232	1302.38
457.606	1278.65
457.979	1315.49
458.352	1316.84
458.725	1335.15
459.099	1369.27
459.472	1353.23
459.845	1398.88
460.218	1416.05
460.591	1417.41
460.964	1438.42
461.337	1493.11
461.71	1495.6
462.083	1511.19
462.456	1497.63
462.829	1523.62
463.201	1538.53
463.574	1524.07
463.947	1608.59
464.32	1595.48
464.692	1619.66
465.065	1652.65
465.438	1657.85
465.81	1676.83
466.183	1678.64
466.555	1761.58
466.928	1761.13
467.3	1763.39
467.672	1797.51
468.045	1852.42
468.417	1862.14
468.789	1899.88
469.161	1903.72
469.534	1934.45
469.906	1983.49
470.278	1998.41
470.65	2028.69
471.022	2064.85
471.394	2134.22
471.766	2173.09
472.138	2207.22
472.51	2231.62
472.882	2306.42
473.253	2338.96
473.625	2370.38
473.997	2458.73
474.369	2457.83
474.74	2463.25
475.112	2580.77
475.484	2653.08
475.855	2708.67
476.227	2718.39
476.598	2828.89
476.97	2852.85
477.341	2959.51
477.713	3037.02
478.084	3060.07
478.455	3189.11
478.827	3214.87
479.198	3343.01
479.569	3375.32
479.94	3548.88
480.311	3573.51
480.682	3730.11
481.053	3789.55
481.424	3886.04
481.795	3944.57
482.166	4100.05
482.537	4148.86
482.908	4285.58
483.279	4374.39
483.65	4508.17
484.021	4637.43
484.391	4762.4
484.762	4821.84
485.133	4928.95
485.503	5084.65
485.874	5233.35
486.244	5325.1
486.615	5503.85
486.985	5580.01
487.356	5775.94
487.726	5820.23
488.097	6042.6
488.467	6103.61
488.837	6266.32
489.207	6490.72
489.578	6619.53
489.948	6724.39
490.318	6887.32
490.688	6979.29
491.058	7198.05
491.428	7310.36
491.798	7463.57
492.168	7677.13
492.538	7815.88
492.908	7948.08
493.278	8073.73
493.648	8185.82
494.017	8347.39
494.387	8530.89
494.757	8663.77
495.126	8758.91
495.496	8902.41
495.866	8942.41
496.235	9136.53
496.605	9261.04
496.974	9396.63
497.344	9604.31
497.713	9686.57
498.082	9780.12
498.452	10002.04
498.821	10053.34
499.19	10133.34
499.559	10298.3
499.928	10368.58
500.298	10475.93
500.667	10562.02
501.036	10720.89
501.405	10862.13
501.774	10874.33
502.143	11088.11
502.512	11127.43
502.88	11282.46
503.249	11289.24
503.618	11376.69
503.987	11587.53
504.356	11671.6
504.724	11659.4
505.093	11778.94
505.462	11906.4
505.83	11917.02
506.199	12087.41
506.567	12248.99
506.936	12230.23
507.304	12392.03
507.672	12465.7
508.041	12486.04
508.409	12557.68
508.777	12794.28
509.145	12867.05
509.514	12870.21
509.882	12931.45
510.25	12998.12
510.618	13038.12
510.986	13018.23
511.354	13243.31
511.722	13313.14
512.09	13418.67
512.458	13443.08
512.826	13512.46
513.193	13580.7
513.561	13639.01
513.929	13632
514.297	13819.79
514.664	13842.16
515.032	13893.69
515.4	13967.36
515.767	13962.61
516.135	14020.24
516.502	13957.19
516.869	14121.93
517.237	14169.39
517.604	14093.68
517.972	14276.28
518.339	14376.84
518.706	14385.65
519.073	14372.77
519.44	14331.87
519.808	14529.38
520.175	14588.81
520.542	14660.67
520.909	14652.99
521.276	14606.66
521.643	14830.84
522.009	14803.27
522.376	14851.86
522.743	14916.26
523.11	15022.25
523.477	15079.87
523.843	15057.73
524.21	15261.34
524.577	15295.91
524.943	15309.47
525.31	15288.91
525.676	15398.73
526.043	15447.77
526.409	15399.64
526.776	15531.61
527.142	15496.58
527.508	15429.69
527.874	15657.71
528.241	15673.98
528.607	15645.28
528.973	15720.76
529.339	15709.01
529.705	15753.75
530.071	15829.23
530.437	15720.76
530.803	15759.85
531.169	15860.87
531.535	15882.56
531.901	15791.04
532.267	15845.28
532.632	15961.43
532.998	15758.5
533.364	15887.31
533.73	15838.72
534.095	15860.19
534.461	15881.43
534.826	15899.51
535.192	15923.92
535.557	15880.75
535.923	15940.64
536.288	15843.24
536.653	15861.55
537.019	15772.28
537.384	15756.92
537.749	15884.14
538.114	15754.43
538.479	15781.55
538.845	15868.55
539.21	15664.94
539.575	15643.7
539.94	15557.37
540.305	15689.57
540.67	15652.51
541.034	15585.85
541.399	15682.57
541.764	15594.21
542.129	15623.81
542.494	15537.49
542.858	15557.6
543.223	15574.55
543.587	15491.61
543.952	15508.11
544.316	15476.25
544.681	15384.95
545.045	15321.22
545.41	15402.8
545.774	15442.57
546.138	15299.98
546.503	15253.88
546.867	15281
547.231	15306.08
547.595	15326.87
547.959	15193.32
548.324	15153.99
548.688	15109.7
549.052	15118.51
549.416	15199.19
549.779	15116.71
550.143	15115.8
550.507	15109.48
550.871	15074.67
551.235	15066.09
551.599	15041.91
551.962	15053.66
552.326	14951.06
552.689	15037.16
553.053	14860.22
553.417	14965.98
553.78	14961
554.143	14975.69
554.507	14868.8
554.87	14943.83
555.234	14997.61
555.597	14885.53
555.96	14956.71
556.323	14921.23
556.686	14915.81
557.05	14948.8
557.413	14870.84
557.776	14860.22
558.139	14862.7
558.502	14940.67
558.865	14920.1
559.228	14870.84
559.59	14899.54
559.953	14964.17
560.316	14948.35
560.679	14972.3
561.041	14928.69
561.404	15067.44
561.767	15065.86
562.129	14970.04
562.492	15025.86
562.854	15048.46
563.217	14958.29
563.579	15021.34
563.941	15088.46
564.304	15143.37
564.666	15175.46
565.028	15115.58
565.39	15086.2
565.753	15152.86
566.115	15210.04
566.477	15219.53
566.839	15286.42
567.201	15343.59
567.563	15270.38
567.925	15277.83
568.287	15335.68
568.648	15303.82
569.01	15355.12
569.372	15502.91
569.734	15324.61
570.095	15412.97
570.457	15413.65
570.819	15498.39
571.18	15479.64
571.542	15551.5
571.903	15518.73
572.265	15596.47
572.626	15530.71
572.987	15581.33
573.349	15603.25
573.71	15612.06
574.071	15642.79
574.432	15671.72
574.794	15777.25
575.155	15707.65
575.516	15684.15
575.877	15704.26
576.238	15724.37
576.599	15738.16
576.96	15793.3
577.32	15721.89
577.681	15742.68
578.042	15786.97
578.403	15774.54
578.763	15777.71
579.124	15695
579.485	15789.68
579.845	15850.7
580.206	15864.03
580.566	15803.24
580.927	15908.32
581.287	15804.15
581.648	15893.64
582.008	15890.92
582.368	15908.78
582.728	15870.81
583.089	15891.6
583.449	15821.1
583.809	15813.41
584.169	15829
584.529	15804.37
584.889	15930.24
585.249	15773.19
585.609	15718.73
585.969	15701.1
586.329	15698.61
586.688	15815.67
587.048	15737.93
587.408	15677.82
587.768	15630.37
588.127	15626.98
588.487	15626.52
588.846	15696.35
589.206	15659.29
589.565	15674.88
589.925	15671.04
590.284	15622.68
590.643	15686.86
591.003	15645.73
591.362	15661.78
591.721	15668.1
592.08	15698.61
592.44	15704.26
592.799	15697.71
593.158	15751.49
593.517	15654.77
593.876	15705.62
594.235	15635.56
594.593	15647.99
594.952	15633.53
595.311	15575
595.67	15649.57
596.029	15725.28
596.387	15675.11
596.746	15707.88
597.104	15613.64
597.463	15558.73
597.822	15694.77
598.18	15501.78
598.538	15573.42
598.897	15628.33
599.255	15535.91
599.613	15716.69
599.972	15525.74
600.33	15671.72
600.688	15547.2
601.046	15586.75
601.404	15723.47
601.762	15651.61
602.12	15615.45
602.478	15673.53
602.836	15680.53
603.194	15572.29
603.552	15569.35
603.91	15562.8
604.268	15602.34
604.625	15463.82
604.983	15615.68
605.341	15576.13
605.698	15645.05
606.056	15662.91
606.413	15561.22
606.771	15692.06
607.128	15641.21
607.485	15592.17
607.843	15635.11
608.2	15700.42
608.557	15791.04
608.914	15617.03
609.272	15838.72
609.629	15743.58
609.986	15832.39
610.343	15774.09
610.7	15876.46
611.057	15796.69
611.414	15817.93
611.771	15849.57
612.127	15904.71
612.484	15912.39
612.841	15920.75
613.198	15845.73
613.554	15878.27
613.911	15865.39
614.267	15954.2
614.624	15868.78
614.98	15945.16
615.337	15979.28
615.693	16040.98
616.05	15960.07
616.406	16016.57
616.762	16030.13
617.118	15992.62
617.475	16040.98
617.831	15945.39
618.187	16092.95
618.543	16058.6
618.899	16147.19
619.255	16170.24
619.611	16113.52
619.967	16164.82
620.323	16169.33
620.678	16135.66
621.034	16141.09
621.39	16087.3
621.746	16032.16
622.101	16276
622.457	16099.73
622.812	16221.99
623.168	16168.2
623.523	16188.32
623.879	16256.56
624.234	16077.36
624.589	16067.64
624.945	16210.46
625.3	16178.83
625.655	16117.13
626.01	16085.27
626.365	16164.36
626.72	16216.11
627.075	16123.69
627.43	16143.35
627.785	16137.25
628.14	16126.85
628.495	16129.56
628.85	16158.71
629.205	16028.55
629.559	16130.92
629.914	16038.94
630.269	16090.47
630.623	15957.81
630.978	16037.13
631.332	16048.21
631.687	16119.84
632.041	15975.44
632.396	15968.66
632.75	15971.37
633.104	16014.99
633.459	15880.75
633.813	15860.64
634.167	15860.19
634.521	15899.51
634.875	15819.51
635.229	15804.37
635.583	15768.22
635.937	15743.58
636.291	15770.48
636.645	15734.32
636.999	15711.27
637.352	15798.27
637.706	15619.29
638.06	15775.22
638.413	15740.87
638.767	15604.38
639.121	15725.73
639.474	15606.41
639.828	15609.58
640.181	15618.39
640.534	15573.87
640.888	15591.04
641.241	15529.58
641.594	15504.49
641.947	15568.45
642.301	15571.61
642.654	15557.83
643.007	15520.54
643.36	15490.71
643.713	15484.61
644.066	15525.28
644.419	15418.17
644.771	15369.58
645.124	15230.38
645.477	15180.21
645.83	15053.21
646.182	15088.69
646.535	14996.03
646.888	14968.69
647.24	14928.01
647.593	15033.77
647.945	14901.35
648.298	14860.89
648.65	14947.22
649.002	14928.92
649.355	14932.98
649.707	14945.41
650.059	14955.81
650.411	15198.06
650.763	15224.27
651.115	15301.56
651.467	15198.51
651.819	15282.8
652.171	15228.57
652.523	15262.01
652.875	15250.71
653.227	15120.55
653.578	15333.2
653.93	15187.44
654.282	15121.9
654.633	15113.09
654.985	15221.34
655.337	15171.17
655.688	15240.55
656.039	15260.21
656.391	15173.88
656.742	15195.35
657.094	15135.46
657.445	15255.01
657.796	15120.55
658.147	15187.89
658.498	15268.57
658.849	15283.03
659.2	15195.35
659.551	15219.53
659.902	15222.24
660.253	15166.2
660.604	15243.26
660.955	15132.53
661.306	15287.78
661.656	15253.2
662.007	15243.26
662.358	15264.5
662.708	15149.7
663.059	15220.21
663.409	15153.32
663.76	15292.97
664.11	15203.03
664.461	15316.48
664.811	15251.39
665.161	15227.21
665.511	15224.95
665.862	15217.04
666.212	15269.47
666.562	15310.37
666.912	15231.28
667.262	15196.03
667.612	15225.86
667.962	15273.77
668.312	15226.31
668.662	15313.54
669.011	15311.96
669.361	15218.85
669.711	15152.86
670.06	15160.77
670.41	15129.36
670.76	15048.91
671.109	15162.36
671.459	15191.28
671.808	15242.81
672.157	15185.86
672.507	15071.96
672.856	14974.11
673.205	15106.54
673.554	15079.65
673.904	15092.98
674.253	15127.1
674.602	15070.38
674.951	14862.48
675.3	14783.16
675.649	15033.09
675.998	14953.55
676.346	15044.84
676.695	15104.28
677.044	14925.75
677.393	15024.73
677.741	15012.98
678.09	14907
678.438	14938.18
678.787	14960.1
679.135	14968.91
679.484	14766.43
679.832	14888.01
680.181	14731.18
680.529	14815.47
680.877	14750.39
681.225	14781.35
681.573	14843.27
681.922	14656.83
682.27	14644.18
682.618	14765.08
682.966	14616.38
683.314	14614.8
683.661	14577.74
684.009	14510.17
684.357	14542.94
684.705	14396.5
685.053	14541.13
685.4	14482.6
685.748	14449.83
686.095	14327.35
686.443	14267.46
686.79	14285.09
687.138	14298.2
687.485	14339.55
687.832	14276.05
688.18	14341.81
688.527	14118.99
688.874	14154.02
689.221	14048.49
689.568	14072.67
689.915	13986.12
690.262	13981.37
690.609	14044.87
690.956	13862.05
691.303	13849.62
691.65	13863.41
691.997	13844.88
692.344	13686.69
692.69	13704.54
693.037	13638.55
693.383	13559.69
693.73	13568.73
694.077	13547.93
694.423	13505.22
694.769	13483.98
695.116	13360.14
695.462	13387.49
695.808	13373.7
696.155	13251.9
696.501	13167.83
696.847	13202.63
697.193	13102.97
697.539	13111.56
697.885	13047.83
698.231	13032.92
698.577	12989.98
698.923	13003.99
699.269	12811.91
699.614	12789.08
699.96	12737.79
700.306	12757.22
700.651	12724.68
700.997	12700.5
701.342	12593.16
701.688	12565.14
702.033	12613.95
702.379	12449.88
702.724	12461.18
703.069	12458.92
703.415	12320.85
703.76	12291.24
704.105	12264.35
704.45	12269.1
704.795	12219.83
705.14	12186.84
705.485	12153.85
705.83	12110.68
706.175	12091.25
706.52	12056.9
706.865	12060.06
707.209	11977.13
707.554	11929.45
707.899	11983.23
708.243	11841.54
708.588	11903.46
708.932	11776.23
709.277	11794.31
709.621	11771.48
709.966	11708.44
710.31	11755.44
710.654	11544.82
710.998	11580.3
711.342	11587.31
711.687	11572.17
712.031	11423.02
712.375	11463.47
712.719	11505.73
713.063	11437.26
713.407	11500.3
713.75	11434.32
714.094	11403.13
714.438	11360.87
714.782	11301.89
715.125	11316.13
715.469	11320.2
715.812	11263.7
716.156	11250.82
716.499	11219.86
716.843	11179.41
717.186	11184.61
717.53	11224.38
717.873	11199.97
718.216	11162.69
718.559	11082.69
718.902	11091.95
719.246	11069.13
719.589	11036.81
719.932	11035.91
720.275	10974.44
720.617	11024.39
720.96	10997.72
721.303	10963.14
721.646	11014.44
721.989	10861.68
722.331	10952.3
722.674	10877.04
723.016	10940.09
723.359	10888.34
723.701	10883.82
724.044	10818.06
724.386	10782.13
724.729	10926.31
725.071	10827.1
725.413	10879.76
725.755	10829.14
726.097	10802.02
726.439	10726.31
726.782	10729.48
727.124	10885.63
727.465	10727.67
727.807	10781.23
728.149	10688.57
728.491	10751.85
728.833	10718.18
729.175	10707.78
729.516	10693.32
729.858	10766.09
730.199	10728.12
730.541	10707.11
730.882	10684.96
731.224	10693.77
731.565	10615.13
731.906	10644.51
732.248	10687.44
732.589	10659.88
732.93	10643.15
733.271	10665.75
733.612	10629.82
733.953	10658.75
734.294	10565.19
734.635	10611.97
734.976	10614.68
735.317	10584.62
735.658	10608.35
735.999	10584.62
736.339	10598.63
736.68	10641.12
737.021	10572.87
737.361	10523.83
737.702	10685.64
738.042	10670.5
738.383	10624.4
738.723	10649.48
739.063	10581.91
739.404	10628.92
739.744	10585.75
740.084	10625.53
740.424	10644.51
740.764	10667.56
741.104	10690.83
741.444	10699.87
741.784	10632.53
742.124	10714.34
742.464	10629.37
742.804	10663.49
743.143	10714.11
743.483	10689.03
743.823	10689.25
744.162	10785.3
744.502	10807.67
744.841	10809.7
745.181	10893.32
745.52	10876.37
745.86	10921.79
746.199	10965.4
746.538	10919.3
746.877	11034.1
747.216	11088.79
747.556	11097.6
747.895	11128.79
748.234	11102.35
748.573	11253.98
748.911	11258.96
749.25	11327.65
749.589	11303.47
749.928	11456.24
750.267	11605.16
750.605	11557.7
750.944	11601.77
751.283	11628.89
751.621	11834.31
751.96	11851.93
752.298	12036.34
752.636	12003.57
752.975	12089.44
753.313	12222.32
753.651	12290.79
753.989	12381.86
754.327	12542.09
754.666	12611.46
755.004	12722.42
755.342	12877.44
755.679	13053.03
756.017	13055.74
