Data from hue_50_FLMS001491_84.txt Node
Date: Mon Feb 06 15:11:09 GMT 2017
User: dcchb
Spectrometer: FLMS00149
Trigger mode: 0
Integration Time (sec): 2.000000E-2
Scans to average: 10
Electric dark correction enabled: true
Nonlinearity correction enabled: false
Boxcar width: 0
XAxis mode: Wavelengths
Number of Pixels in Spectrum: 2048
>>>>>Begin Spectral Data<<<<<
341.393	18.08
341.776	18.08
342.16	18.08
342.543	-56.27
342.927	-87.46
343.31	-67.12
343.693	-80.68
344.077	-78.42
344.46	-42.94
344.843	-64.18
345.226	-46.33
345.61	-30.06
345.993	-26.89
346.376	-1.58
346.759	32.09
347.142	15.14
347.525	32.32
347.908	61.92
348.291	78.87
348.674	99.43
349.057	118.41
349.44	123.61
349.823	146.89
350.206	160
350.588	190.28
350.971	217.62
351.354	224.4
351.737	233.89
352.119	243.16
352.502	272.08
352.884	294.46
353.267	288.13
353.65	296.94
354.032	317.51
354.414	312.53
354.797	293.78
355.179	317.96
355.562	318.64
355.944	324.51
356.326	342.59
356.709	337.62
357.091	348.69
357.473	322.25
357.855	354.79
358.238	352.99
358.62	350.27
359.002	355.02
359.384	369.93
359.766	365.87
360.148	331.52
360.53	350.05
360.912	348.24
361.294	331.74
361.676	335.58
362.057	337.62
362.439	339.88
362.821	313.66
363.203	340.33
363.584	339.88
363.966	341.01
364.348	320.9
364.729	330.16
365.111	333.1
365.493	329.71
365.874	322.7
366.256	336.26
366.637	324.29
367.019	312.31
367.4	319.77
367.781	310.27
368.163	315.25
368.544	346.66
368.925	326.77
369.306	324.51
369.688	302.14
370.069	333.1
370.45	301.69
370.831	341.69
371.212	333.78
371.593	326.32
371.974	317.28
372.355	338.75
372.736	342.14
373.117	327.9
373.498	317.51
373.879	322.48
374.26	318.41
374.641	323.16
375.021	324.51
375.402	331.74
375.783	321.57
376.163	337.17
376.544	317.51
376.925	355.02
377.305	322.48
377.686	327
378.066	345.98
378.447	342.14
378.827	339.65
379.208	335.58
379.588	346.88
379.968	342.36
380.349	315.02
380.729	342.59
381.109	343.04
381.489	345.08
381.87	344.85
382.25	337.84
382.63	350.27
383.01	346.88
383.39	364.96
383.77	344.62
384.15	363.61
384.53	347.11
384.91	377.17
385.29	347.11
385.67	366.32
386.049	347.11
386.429	364.74
386.809	341.46
387.189	374.68
387.568	374.68
387.948	379.88
388.328	374.23
388.707	359.54
389.087	364.51
389.466	356.37
389.846	354.11
390.225	366.54
390.605	388.01
390.984	379.43
391.363	364.51
391.743	378.75
392.122	363.15
392.501	366.09
392.881	379.43
393.26	381.46
393.639	372.19
394.018	380.33
394.397	380.33
394.776	407.67
395.155	384.17
395.534	376.04
395.913	391.85
396.292	419.42
396.671	377.84
397.05	393.44
397.429	393.21
397.808	402.48
398.186	397.28
398.565	413.77
398.944	385.53
399.323	388.24
399.701	387.11
400.08	388.01
400.458	407.22
400.837	415.13
401.215	400.67
401.594	399.76
401.972	415.58
402.351	406.77
402.729	407.45
403.107	409.71
403.486	428.24
403.864	420.55
404.242	392.76
404.62	430.72
404.999	424.85
405.377	421.46
405.755	426.66
406.133	433.21
406.511	411.97
406.889	435.02
407.267	445.41
407.645	443.83
408.023	431.18
408.401	454.9
408.779	411.74
409.156	442.93
409.534	440.67
409.912	438.63
410.29	435.69
410.667	472.53
411.045	437.95
411.422	463.26
411.8	455.81
412.178	476.82
412.555	488.8
412.933	448.58
413.31	452.64
413.687	482.02
414.065	475.92
414.442	470.27
414.819	470.5
415.197	471.17
415.574	488.57
415.951	486.09
416.328	496.03
416.705	518.86
417.082	498.07
417.46	479.08
417.837	491.06
418.214	523.6
418.591	497.16
418.967	508.69
419.344	514.11
419.721	534.22
420.098	525.18
420.475	521.12
420.852	513.66
421.228	535.58
421.605	529.48
421.982	537.84
422.358	529.03
422.735	562.7
423.111	550.72
423.488	526.31
423.864	563.38
424.241	554.34
424.617	550.04
424.994	541.91
425.37	560.21
425.746	553.43
426.123	589.14
426.499	562.47
426.875	563.15
427.251	557.73
427.627	595.24
428.003	591.62
428.379	604.05
428.756	597.72
429.132	609.93
429.507	608.35
429.883	599.98
430.259	627.1
430.635	615.8
431.011	608.12
431.387	620.77
431.763	642.69
432.138	638.4
432.514	623.26
432.89	652.86
433.265	675.01
433.641	662.13
434.016	665.07
434.392	670.49
434.767	679.3
435.143	675.91
435.518	689.47
435.894	677.72
436.269	669.36
436.644	657.38
437.02	666.88
437.395	709.36
437.77	697.16
438.145	716.82
438.52	701.9
438.895	708
439.271	715.91
439.646	742.58
440.021	726.99
440.395	756.59
440.77	734.22
441.145	746.87
441.52	748.91
441.895	759.75
442.27	763.82
442.645	735.35
443.019	790.94
443.394	766.99
443.769	777.83
444.143	775.8
444.518	764.5
444.892	774.67
445.267	783.71
445.641	810.15
446.016	799.53
446.39	798.85
446.764	805.63
447.139	794.56
447.513	831.62
447.887	818.51
448.262	819.41
448.636	842.01
449.01	839.07
449.384	823.93
449.758	832.52
450.132	861.67
450.506	880.65
450.88	870.94
451.254	818.96
451.628	863.25
452.002	885.85
452.376	915.46
452.75	861.22
453.123	891.73
453.497	898.28
453.871	917.49
454.244	902.58
454.618	937.6
454.992	939.64
455.365	945.51
455.739	964.27
456.112	970.6
456.486	974.44
456.859	975.79
457.232	1009.92
457.606	976.7
457.979	974.89
458.352	1026.41
458.725	1046.98
459.099	1029.58
459.472	1041.1
459.845	1046.53
460.218	1081.55
460.591	1083.14
460.964	1089.01
461.337	1094.21
461.71	1157.94
462.083	1148.22
462.456	1143.92
462.829	1150.7
463.201	1147.54
463.574	1162.46
463.947	1178.27
464.32	1214.66
464.692	1211.72
465.065	1213.75
465.438	1241.1
465.81	1251.04
466.183	1265.05
466.555	1302.79
466.928	1301.89
467.3	1324.71
467.672	1366.52
468.045	1391.6
468.417	1409.23
468.789	1406.06
469.161	1410.58
469.534	1434.54
469.906	1455.55
470.278	1499.17
470.65	1510.47
471.022	1547.98
471.394	1599.73
471.766	1604.93
472.138	1647.87
472.51	1656.68
472.882	1687.64
473.253	1743.46
473.625	1757.92
473.997	1808.77
474.369	1854.19
474.74	1860.06
475.112	1916.56
475.484	1943.9
475.855	2008.08
476.227	2044.01
476.598	2129.21
476.97	2155.65
477.341	2259.83
477.713	2260.28
478.084	2309.32
478.455	2395.42
478.827	2386.83
479.198	2520.84
479.569	2555.64
479.94	2662.98
480.311	2719.48
480.682	2756.99
481.053	2892.58
481.424	2973.71
481.795	3021.84
482.166	3136.19
482.537	3186.36
482.908	3294.38
483.279	3394.49
483.65	3492.11
484.021	3601.49
484.391	3659.56
484.762	3757.64
485.133	3820.69
485.503	3963.51
485.874	4074.47
486.244	4187.46
486.615	4298.64
486.985	4436.04
487.356	4547.23
487.726	4660.89
488.097	4833.32
488.467	4906.76
488.837	5048.23
489.207	5163.71
489.578	5300.43
489.948	5400.08
490.318	5555.56
490.688	5603.69
491.058	5848.89
491.428	5977.92
491.798	6113.96
492.168	6289.78
492.538	6391.92
492.908	6484.58
493.278	6653.84
493.648	6760.73
494.017	6903.77
494.387	7076.2
494.757	7206.36
495.126	7362.97
495.496	7455.17
495.866	7610.87
496.235	7753.02
496.605	7876.63
496.974	7980.36
497.344	8222.16
497.713	8262.38
498.082	8359.33
498.452	8581.92
498.821	8687.23
499.19	8813.33
499.559	8903.95
499.928	9112.08
500.298	9218.97
500.667	9358.85
501.036	9423.93
501.405	9586.87
501.774	9724.94
502.143	9814.66
502.512	9937.59
502.88	10064.37
503.249	10153.86
503.618	10270.24
503.987	10402.89
504.356	10457.13
504.724	10573.51
505.093	10790
505.462	10804.69
505.83	10915.19
506.199	11048.07
506.567	11192.93
506.936	11232.25
507.304	11544.78
507.672	11522.63
508.041	11644.44
508.409	11712.91
508.777	11868.39
509.145	12001.49
509.514	12140.7
509.882	12252.33
510.25	12294.59
510.618	12409.17
510.986	12518.09
511.354	12577.52
511.722	12852.09
512.09	12947.46
512.458	13007.12
512.826	13125.08
513.193	13239.65
513.561	13209.6
513.929	13425.18
514.297	13550.83
514.664	13617.72
515.032	13727.77
515.4	13878.05
515.767	13951.5
516.135	13977.94
516.502	14055.22
516.869	14320.98
517.237	14358.49
517.604	14351.04
517.972	14455.44
518.339	14597.36
518.706	14715.09
519.073	14800.97
519.44	14956.44
519.808	15079.38
520.175	15116.89
520.542	15272.59
520.909	15304
521.276	15440.27
521.643	15624.9
522.009	15659.7
522.376	15815.86
522.743	15932.24
523.11	16027.83
523.477	16174.49
523.843	16395.73
524.21	16487.93
524.577	16646.34
524.943	16657.87
525.31	16800.01
525.676	17008.14
526.043	17014.92
526.409	17125.65
526.776	17277.51
527.142	17425.3
527.508	17494.46
527.874	17758.18
528.241	17772.19
528.607	17816.71
528.973	18045.63
529.339	18010.15
529.705	18224.38
530.071	18304.6
530.437	18379.18
530.803	18504.82
531.169	18631.15
531.535	18604.48
531.901	18728.32
532.267	18686.51
532.632	18924.25
532.998	19046.73
533.364	19148.2
533.73	19206.5
534.095	19326.05
534.461	19387.29
534.826	19603.1
535.192	19528.07
535.557	19660.05
535.923	19815.3
536.288	19788.63
536.653	19910.44
537.019	19858.01
537.384	20055.29
537.749	20087.16
538.114	20154.5
538.479	20158.34
538.845	20287.6
539.21	20282.18
539.575	20518.1
539.94	20461.16
540.305	20764.43
540.67	20674.03
541.034	20722.39
541.399	20726.91
541.764	20875.61
542.129	20927.36
542.494	21051.2
542.858	21131.87
543.223	21108.6
543.587	21287.8
543.952	21270.63
544.316	21294.58
544.681	21450.74
545.045	21501.58
545.41	21716.04
545.774	21688.47
546.138	21691.63
546.503	21873.78
546.867	21781.35
547.231	22091.85
547.595	22054.11
547.959	22256.59
548.324	22164.39
548.688	22315.8
549.052	22356.02
549.416	22416.13
549.779	22397.15
550.143	22491.39
550.507	22688.44
550.871	22688.67
551.235	22772.73
551.599	22882.34
551.962	22953.07
552.326	23030.58
552.689	23064.03
553.053	23057.92
553.417	23067.64
553.78	23473.28
554.143	23363.23
554.507	23461.53
554.87	23520.51
555.234	23773.61
555.597	23541.53
555.96	23735.65
556.323	23837.79
556.686	23886.83
557.05	24169.31
557.413	24105.58
557.776	24161.17
558.139	24338.12
558.502	24367.49
558.865	24416.08
559.228	24690.2
559.59	24717.99
559.953	24683.64
560.316	25006.12
560.679	25082.28
561.041	25133.35
561.404	25253.57
561.767	25370.41
562.129	25435.94
562.492	25615.82
562.854	25625.77
563.217	25633.22
563.579	25757.51
563.941	25823.5
564.304	26016.94
564.666	26212.19
565.028	26212.87
565.39	26358.85
565.753	26592.75
566.115	26524.73
566.477	26645.4
566.839	26751.39
567.201	26877.03
567.563	26950.48
567.925	27104.37
568.287	27061.44
568.648	27123.81
569.01	27271.15
569.372	27519.95
569.734	27302.11
570.095	27657.35
570.457	27736.9
570.819	27726.73
571.18	27766.73
571.542	27869.32
571.903	28129.66
572.265	28172.37
572.626	28319.26
572.987	28316.77
573.349	28607.84
573.71	28669.53
574.071	28696.65
574.432	28815.06
574.794	29138.67
575.155	29022.29
575.516	29117.88
575.877	29191.55
576.238	29245.33
576.599	29417.31
576.96	29343.86
577.32	29525.78
577.681	29660.92
578.042	29831.31
578.403	29855.03
578.763	29965.99
579.124	30068.36
579.485	30160.11
579.845	30407.56
580.206	30378.64
580.566	30438.75
580.927	30507.67
581.287	30770.49
581.648	30778.85
582.008	30971.16
582.368	31045.74
582.728	31164.83
583.089	31362.57
583.449	31330.25
583.809	31499.74
584.169	31559.17
584.529	31659.96
584.889	31968.88
585.249	31923
585.609	31923.68
585.969	32382.65
586.329	32150.79
586.688	32354.4
587.048	32511.91
587.408	32569.99
587.768	32840.72
588.127	32710.78
588.487	32878.91
588.846	33336.75
589.206	33024.22
589.565	33214.72
589.925	33507.59
590.284	33480.7
590.643	33745.1
591.003	33856.74
591.362	33932.89
591.721	34125.2
592.08	34110.74
592.44	34263.28
592.799	34566.77
593.158	34489.49
593.517	34595.02
593.876	34824.62
594.235	34757.96
594.593	34872.76
594.952	35161.56
595.311	35041.56
595.67	35252.41
596.029	35533.53
596.387	35684.26
596.746	35791.83
597.104	35616.46
597.463	35772.17
597.822	36122.44
598.18	35980.97
598.538	36053.06
598.897	36288.09
599.255	36082.44
599.613	36684.23
599.972	36550.45
600.33	36627.74
600.688	36579.38
601.046	36877.67
601.404	37136.65
601.762	37130.55
602.12	37241.96
602.478	37419.36
602.836	37413.03
603.194	37236.31
603.552	37421.39
603.91	37378.9
604.268	37629.29
604.625	37686.47
604.983	37874.94
605.341	37672
605.698	38045.33
606.056	38230.63
606.413	38241.03
606.771	38172.78
607.128	38358.09
607.485	38314.25
607.843	38320.57
608.2	38625.2
608.557	38669.27
608.914	38646.22
609.272	38954
609.629	38901.35
609.986	39070.61
610.343	38915.36
610.7	39319.19
611.057	39455.91
611.414	39412.97
611.771	39478.51
612.127	39596.02
612.484	39512.41
612.841	39842.34
613.198	39624.04
613.554	39764.38
613.911	40027.87
614.267	39962.79
614.624	39971.83
614.98	40111.04
615.337	40403.01
615.693	40220.86
616.05	40286.85
616.406	40585.37
616.762	40382.89
617.118	40452.5
617.475	40652.26
617.831	40643.9
618.187	40857.91
618.543	40802.32
618.899	41056.32
619.255	41118.47
619.611	40985.81
619.967	41166.38
620.323	41297.9
620.678	41130.22
621.034	41043.89
621.39	41148.97
621.746	41143.1
622.101	41550.32
622.457	41224.23
622.812	41468.29
623.168	41574.5
623.523	41493.15
623.879	41720.94
624.234	41404.34
624.589	41532.69
624.945	41572.47
625.3	41755.74
625.655	41606.36
626.01	41678
626.365	41687.94
626.72	41704.44
627.075	41860.82
627.43	41747.6
627.785	41632.58
628.14	41809.07
628.495	41812.91
628.85	41829.86
629.205	41745.57
629.559	41957.54
629.914	41829.18
630.269	41801.61
630.623	41776.75
630.978	41743.76
631.332	41994.83
631.687	41997.54
632.041	41849.52
632.396	41887.49
632.75	41676.87
633.104	41811.56
633.459	41494.5
633.813	41666.93
634.167	41729.52
634.521	41654.95
634.875	41654.72
635.229	41686.14
635.583	41467.38
635.937	41633.93
636.291	41467.16
636.645	41501.96
636.999	41409.76
637.352	41527.95
637.706	41397.1
638.06	41581.73
638.413	41355.75
638.767	41351.68
639.121	41388.06
639.474	41078.47
639.828	41160.95
640.181	41216.77
640.534	41236.2
640.888	41161.86
641.241	41065.36
641.594	41104.91
641.947	41247.95
642.301	41066.04
642.654	41126.15
643.007	41013.61
643.36	41224.68
643.713	40959.83
644.066	41063.1
644.419	40938.81
644.771	40704.01
645.124	40320.97
645.477	40177.47
645.83	39955.79
646.182	39797.82
646.535	39755.56
646.888	39740.2
647.24	39629.92
647.593	39812.74
647.945	39773.87
648.298	39396.93
648.65	39564.61
649.002	39444.39
649.355	39549.92
649.707	39540.88
650.059	39840.53
650.411	40111.49
650.763	40038.04
651.115	40540.85
651.467	40313.97
651.819	40396.9
652.171	40334.53
652.523	40315.32
652.875	40155.78
653.227	40196.68
653.578	40325.95
653.93	40161.43
654.282	40049.34
654.633	40062.68
654.985	39971.15
655.337	39972.96
655.688	40085.05
656.039	40255.44
656.391	39687.09
656.742	40023.81
657.094	39976.12
657.445	40050.25
657.796	39945.84
658.147	39883.47
658.498	39835.34
658.849	39952.17
659.2	39918.5
659.551	39822.23
659.902	40093.64
660.253	39856.58
660.604	39864.49
660.955	39706.53
661.306	39867.65
661.656	39684.15
662.007	39796.47
662.358	39768.22
662.708	39908.1
663.059	39852.06
663.409	39506.53
663.76	39950.14
664.11	39820.2
664.461	39853.64
664.811	39870.59
665.161	39832.4
665.511	39666.53
665.862	39736.36
666.212	39800.31
666.562	39852.96
666.912	39659.3
667.262	39590.37
667.612	39743.14
667.962	39886.41
668.312	39674.21
668.662	39840.08
669.011	39675.57
669.361	39558.73
669.711	39530.26
670.06	39419.08
670.41	39443.26
670.76	39370.26
671.109	39607.55
671.459	39498.62
671.808	39363.26
672.157	39480.09
672.507	39221.12
672.856	39206.65
673.205	39352.19
673.554	39388.79
673.904	39353.09
674.253	39381.79
674.602	39173.89
674.951	38740.9
675.3	38703.16
675.649	39247.1
675.998	39148.12
676.346	39228.12
676.695	39348.34
677.044	38996.71
677.393	39155.81
677.741	39184.73
678.09	39187.9
678.438	39030.84
678.787	39026.77
679.135	39049.14
679.484	38656.38
679.832	38864.06
680.181	38591.98
680.529	38921.69
680.877	38732.99
681.225	38756.04
681.573	38788.58
681.922	38573.22
682.27	38495.48
682.618	38554.24
682.966	38457.52
683.314	38569.38
683.661	38292.78
684.009	38362.16
684.357	38161.26
684.705	38046.46
685.053	38233.57
685.4	37999
685.748	37914.03
686.095	37869.96
686.443	37739.8
686.79	37828.16
687.138	37750.65
687.485	37949.28
687.832	37681.04
688.18	37674.94
688.527	37549.3
688.874	37433.59
689.221	37309.08
689.568	37280.15
689.915	37169.87
690.262	37116.09
690.609	36979.37
690.956	36940.72
691.303	36924
691.65	36721.29
691.997	36827.96
692.344	36507.51
692.69	36588.64
693.037	36433.39
693.383	36346.61
693.73	36362.21
694.077	36262.32
694.423	36136.45
694.769	35941.65
695.116	35886.29
695.462	35888.55
695.808	35871.37
696.155	35937.13
696.501	35550.93
696.847	35709.57
697.193	35301.9
697.539	35511.61
697.885	35132.18
698.231	35242.69
698.577	35207.21
698.923	35067.1
699.269	34857.84
699.614	34599.99
699.96	34613.1
700.306	34767.22
700.651	34517.96
700.997	34489.94
701.342	34392.32
701.688	34233.9
702.033	34201.13
702.379	34228.48
702.724	34076.39
703.069	34168.82
703.415	33771.99
703.76	33740.36
704.105	33767.7
704.45	33728.38
704.795	33514.37
705.14	33379.91
705.485	33389.18
705.83	33371.33
706.175	33385.56
706.52	33284.1
706.865	33080.03
707.209	33052.92
707.554	33065.12
707.899	33072.8
708.243	32930.43
708.588	32835.52
708.932	32672.81
709.277	32609.09
709.621	32622.42
709.966	32468.98
710.31	32551.69
710.654	32144.47
710.998	32270.79
711.342	32274.18
711.687	32063.11
712.031	31988.54
712.375	31819.73
712.719	32029.89
713.063	31869.67
713.407	32010.68
713.75	31772.05
714.094	31775.21
714.438	31538.38
714.782	31734.31
715.125	31427.65
715.469	31555.33
715.812	31405.73
716.156	31207.32
716.499	31332.96
716.843	31299.52
717.186	31061.56
717.53	31242.12
717.873	31206.86
718.216	31125.74
718.559	30898.4
718.902	30725.52
719.246	30868.79
719.589	30703.15
719.932	30696.82
720.275	30610.95
720.617	30584.96
720.96	30604.17
721.303	30543.6
721.646	30472.42
721.989	30300.67
722.331	30390.39
722.674	30255.02
723.016	30321.69
723.359	30335.02
723.701	30220.45
724.044	30092.32
724.386	29959.89
724.729	30175.25
725.071	30008.25
725.413	29984.75
725.755	30014.13
726.097	29796.96
726.439	29634.02
726.782	29587.24
727.124	29754.7
727.465	29592.67
727.807	29638.32
728.149	29514.03
728.491	29553.12
728.833	29353.8
729.175	29300.47
729.516	29331.43
729.858	29211.89
730.199	29246.69
730.541	29136.64
730.882	29131.66
731.224	29167.82
731.565	28922.4
731.906	28918.11
732.248	29015.28
732.589	28896.87
732.93	28860.71
733.271	28788.62
733.612	28879.92
733.953	28764.89
734.294	28716.76
734.635	28576.2
734.976	28653.48
735.317	28569.64
735.658	28652.13
735.999	28552.24
736.339	28488.97
736.68	28472.7
737.021	28360.16
737.361	28254.62
737.702	28392.02
738.042	28312.93
738.383	28268.86
738.723	28314.96
739.063	28185.02
739.404	28111.13
739.744	28035.2
740.084	27973.28
740.424	28044.46
740.764	27953.84
741.104	28038.81
741.444	27810.34
741.784	27742.55
742.124	27875.88
742.464	27797.91
742.804	27757.69
743.143	27757.91
743.483	27591.14
743.823	27558.82
744.162	27499.39
744.502	27745.71
744.841	27446.28
745.181	27511.37
745.52	27323.35
745.86	27431.82
746.199	27428.21
746.538	27399.05
746.877	27281.99
747.216	27278.83
747.556	27217.14
747.895	27323.8
748.234	27037.48
748.573	27010.36
748.911	26969.23
749.25	27000.19
749.589	26883.59
749.928	26904.83
750.267	26886.75
750.605	26723.82
750.944	26759.3
751.283	26653.76
751.621	26584.61
751.96	26565.18
752.298	26553.43
752.636	26497.16
752.975	26381.45
753.313	26404.73
753.651	26421.9
753.989	26273.43
754.327	26320.89
754.666	26140.56
755.004	26186.2
755.342	26159.54
755.679	26113.21
756.017	25941.69
756.355	25931.75
756.693	25892.88
