Data from hue_190_FLMS001491_00017.txt Node
Date: Tue Feb 07 16:44:55 GMT 2017
User: dcchb
Spectrometer: FLMS00149
Trigger mode: 0
Integration Time (sec): 2.000000E-2
Scans to average: 10
Electric dark correction enabled: true
Nonlinearity correction enabled: false
Boxcar width: 0
XAxis mode: Wavelengths
Number of Pixels in Spectrum: 2048
>>>>>Begin Spectral Data<<<<<
341.393	-3.76
341.776	-3.76
342.16	-3.76
342.543	-67.03
342.927	-57.09
343.31	-78.11
343.693	-63.19
344.077	-54.15
344.46	-43.3
344.843	-60.7
345.226	-52.57
345.61	-13.02
345.993	-7.37
346.376	-7.37
346.759	-1.72
347.142	17.03
347.525	60.87
347.908	48.9
348.291	71.72
348.674	83.25
349.057	99.74
349.44	124.15
349.823	134.54
350.206	144.26
350.588	186.52
350.971	209.34
351.354	220.64
351.737	232.4
352.119	225.39
352.502	282.34
352.884	261.77
353.267	266.52
353.65	269.68
354.032	302.45
354.414	299.74
354.797	312.39
355.179	299.74
355.562	308.33
355.944	336.35
356.326	330.02
356.709	307.87
357.091	341.09
357.473	325.73
357.855	324.14
358.238	343.35
358.62	348.32
359.002	345.84
359.384	345.16
359.766	351.71
360.148	328.44
360.53	351.94
360.912	318.49
361.294	326.86
361.676	300.19
362.057	328.66
362.439	332.28
362.821	319.4
363.203	331.6
363.584	325.95
363.966	338.61
364.348	297.48
364.729	328.66
365.111	343.58
365.493	303.13
365.874	316.23
366.256	307.87
366.637	311.04
367.019	298.38
367.4	303.35
367.781	300.19
368.163	317.14
368.544	305.84
368.925	307.87
369.306	314.88
369.688	295.9
370.069	306.74
370.45	328.89
370.831	315.1
371.212	307.2
371.593	290.92
371.974	306.52
372.355	304.48
372.736	308.1
373.117	301.55
373.498	288.89
373.879	313.07
374.26	307.65
374.641	318.72
375.021	314.43
375.402	318.95
375.783	320.08
376.163	310.13
376.544	309.91
376.925	332.05
377.305	327.76
377.686	319.17
378.066	349
378.447	323.47
378.827	325.5
379.208	335.22
379.588	325.5
379.968	338.61
380.349	339.06
380.729	349.45
381.109	331.38
381.489	314.2
381.87	308.1
382.25	333.64
382.63	353.75
383.01	338.61
383.39	339.06
383.77	327.76
384.15	339.96
384.53	332.51
384.91	343.58
385.29	337.48
385.67	334.99
386.049	345.16
386.429	358.72
386.809	348.32
387.189	353.07
387.568	371.83
387.948	359.62
388.328	353.97
388.707	365.05
389.087	347.65
389.466	350.36
389.846	363.01
390.225	360.98
390.605	354.43
390.984	361.43
391.363	331.15
391.743	376.12
392.122	376.35
392.501	361.21
392.881	376.8
393.26	361.21
393.639	397.59
394.018	387.19
394.397	364.14
394.776	372.5
395.155	379.06
395.534	384.48
395.913	414.09
396.292	396.01
396.671	405.5
397.05	386.52
397.429	387.19
397.808	402.79
398.186	384.93
398.565	389
398.944	397.81
399.323	382.22
399.701	417.7
400.08	412.73
400.458	406.85
400.837	423.35
401.215	415.22
401.594	412.05
401.972	426.51
402.351	429.45
402.729	426.06
403.107	437.36
403.486	448.43
403.864	417.7
404.242	454.31
404.62	434.2
404.999	437.81
405.377	456.12
405.755	459.51
406.133	430.36
406.511	457.25
406.889	473.74
407.267	465.61
407.645	487.3
408.023	463.12
408.401	481.43
408.779	497.47
409.156	512.84
409.534	509.22
409.912	494.76
410.29	507.19
410.667	506.51
411.045	525.72
411.422	517.13
411.8	521.2
412.178	550.35
412.555	558.94
412.933	551.71
413.31	566.62
413.687	581.76
414.065	592.16
414.442	595.55
414.819	595.1
415.197	612.27
415.574	642.78
415.951	659.73
416.328	635.77
416.705	647.75
417.082	638.03
417.46	674.42
417.837	660.18
418.214	653.63
418.591	683.23
418.967	707.86
419.344	695.89
419.721	722.33
420.098	735.21
420.475	728.88
420.852	729.33
421.228	741.99
421.605	757.13
421.982	793.06
422.358	797.58
422.735	796
423.111	795.77
423.488	831.48
423.864	851.81
424.241	864.24
424.617	866.05
424.994	892.72
425.37	871.47
425.746	881.19
426.123	920.96
426.499	926.84
426.875	949.89
427.251	997.35
427.627	1000.06
428.003	986.95
428.379	1028.53
428.756	987.63
429.132	1011.36
429.507	1046.38
429.883	1039.83
430.259	1053.16
430.635	1069.89
431.011	1087.06
431.387	1117.8
431.763	1107.4
432.138	1164.12
432.514	1145.14
432.89	1174.52
433.265	1202.09
433.641	1208.64
434.016	1219.71
434.392	1212.48
434.767	1280.73
435.143	1285.93
435.518	1308.52
435.894	1318.47
436.269	1361.86
436.644	1367.28
437.02	1378.81
437.395	1412.48
437.77	1438.92
438.145	1457.45
438.52	1461.52
438.895	1528.63
439.271	1508.52
439.646	1572.02
440.021	1600.49
440.395	1594.85
440.77	1588.07
441.145	1598.01
441.52	1660.61
441.895	1677.55
442.27	1672.36
442.645	1695.86
443.019	1722.75
443.394	1727.72
443.769	1779.25
444.143	1777.89
444.518	1783.54
444.892	1788.06
445.267	1835.29
445.641	1848.17
446.016	1842.07
446.39	1852.69
446.764	1909.87
447.139	1900.37
447.513	1925.46
447.887	1924.33
448.262	1912.35
448.636	1929.07
449.01	1979.47
449.384	2009.75
449.758	2019.24
450.132	2041.61
450.506	2038.22
450.88	2062.4
451.254	2070.09
451.628	2128.62
452.002	2161.16
452.376	2142.4
452.75	2179.69
453.123	2162.97
453.497	2201.61
453.871	2239.57
454.244	2275.96
454.618	2299.46
454.992	2310.76
455.365	2317.76
455.739	2395.95
456.112	2419
456.486	2423.3
456.859	2440.7
457.232	2477.31
457.606	2510.98
457.979	2518.21
458.352	2613.58
458.725	2610.19
459.099	2635.27
459.472	2682.5
459.845	2688.83
460.218	2756.85
460.591	2748.04
460.964	2748.04
461.337	2817.64
461.71	2894.47
462.083	2941.25
462.456	2932.89
462.829	2939.44
463.201	3019.44
463.574	3041.59
463.947	3048.37
464.32	3135.6
464.692	3156.39
465.065	3245.2
465.438	3187.8
465.81	3289.49
466.183	3331.75
466.555	3380.56
466.928	3406.32
467.3	3432.31
467.672	3482.25
468.045	3580.1
468.417	3538.52
468.789	3631.63
469.161	3683.15
469.534	3709.59
469.906	3798.85
470.278	3823.94
470.65	3872.98
471.022	3943.71
471.394	4016.7
471.766	3999.3
472.138	4111.62
472.51	4156.81
472.882	4256.7
473.253	4272.74
473.625	4350.48
473.997	4446.3
474.369	4506.86
474.74	4540.76
475.112	4577.37
475.484	4691.26
475.855	4781.43
476.227	4789.79
476.598	4967.64
476.97	4989.11
477.341	5154.75
477.713	5216.44
478.084	5221.19
478.455	5390
478.827	5413.95
479.198	5562.65
479.569	5603.78
479.94	5800.84
480.311	5791.8
480.682	5967.39
481.053	6071.11
481.424	6206.7
481.795	6220.26
482.166	6352.69
482.537	6376.87
482.908	6554.04
483.279	6583.87
483.65	6752
484.021	6839
484.391	6950.86
484.762	7012.1
485.133	7097.53
485.503	7160.35
485.874	7338.87
486.244	7398.53
486.615	7526.89
486.985	7689.37
487.356	7759.65
487.726	7848.01
488.097	7968.24
488.467	8052.3
488.837	8170.04
489.207	8279.19
489.578	8389.92
489.948	8546.53
490.318	8568.9
490.688	8633.3
491.058	8665.39
491.428	8831.72
491.798	8938.15
492.168	9057.25
492.538	9124.82
492.908	9211.82
493.278	9304.25
493.648	9309.44
494.017	9431.25
494.387	9534.3
494.757	9619.27
495.126	9669.21
495.496	9675.76
495.866	9787.62
496.235	9865.14
496.605	9927.28
496.974	10028.97
497.344	10078.46
497.713	10074.85
498.082	10186.48
498.452	10241.17
498.821	10281.17
499.19	10261.51
499.559	10330.43
499.928	10439.36
500.298	10486.59
500.667	10555.97
501.036	10506.7
501.405	10598.9
501.774	10692.91
502.143	10652.69
502.512	10703.98
502.88	10757.54
503.249	10806.81
503.618	10835.96
503.987	10816.3
504.356	10842.06
504.724	10954.15
505.093	10987.82
505.462	11011.77
505.83	10983.07
506.199	11080.7
506.567	11067.82
506.936	11069.85
507.304	11243.63
507.672	11244.31
508.041	11306.91
508.409	11302.39
508.777	11425.32
509.145	11465.09
509.514	11432.78
509.882	11406.34
510.25	11390.52
510.618	11477.98
510.986	11461.48
511.354	11579.44
511.722	11513
512.09	11635.94
512.458	11611.98
512.826	11637.52
513.193	11667.8
513.561	11663.73
513.929	11685.2
514.297	11751.41
514.664	11821.24
515.032	11748.93
515.4	11782.6
515.767	11819.21
516.135	11881.13
516.502	11696.95
516.869	11938.08
517.237	11922.03
517.604	11797.97
517.972	11943.73
518.339	11922.03
518.706	11870.06
519.073	11911.64
519.44	11951.41
519.808	11978.75
520.175	11830.73
520.542	12102.82
520.909	11977.4
521.276	11936.27
521.643	12016.72
522.009	12076.38
522.376	12028.7
522.743	12018.98
523.11	12162.48
523.477	12127.68
523.843	12090.84
524.21	12186.66
524.577	12272.08
524.943	12223.94
525.31	12210.61
525.676	12254
526.043	12282.93
526.409	12269.14
526.776	12262.59
527.142	12235.24
527.508	12257.39
527.874	12249.93
528.241	12193.66
528.607	12181.01
528.973	12130.39
529.339	12164.06
529.705	12155.02
530.071	12238.86
530.437	12171.74
530.803	12119.09
531.169	12229.14
531.535	12049.94
531.901	12140.78
532.267	12047.45
532.632	12082.25
532.998	11985.53
533.364	11997.06
533.73	11987.57
534.095	11997.28
534.461	11948.02
534.826	11910.73
535.192	11867.57
535.557	11856.5
535.923	11780.11
536.288	11790.96
536.653	11787.35
537.019	11661.47
537.384	11721.58
537.749	11662.83
538.114	11552.32
538.479	11550.97
538.845	11488.37
539.21	11349.16
539.575	11420.58
539.94	11362.5
540.305	11396.85
540.67	11279.11
541.034	11214.93
541.399	11175.16
541.764	11203.18
542.129	11143.75
542.494	11054.48
542.858	11056.07
543.223	10986.01
543.587	11018.78
543.952	10813.81
544.316	10853.36
544.681	10787.15
545.045	10810.87
545.41	10725.9
545.774	10630.99
546.138	10630.99
546.503	10577.66
546.867	10439.58
547.231	10496.76
547.595	10432.13
547.959	10392.35
548.324	10358
548.688	10328.4
549.052	10204.79
549.416	10174.05
549.779	10139.48
550.143	10169.53
550.507	10238.46
550.871	10104.9
551.235	10015.64
551.599	10017.45
551.962	9946.94
552.326	9865.36
552.689	9926.83
553.053	9774.97
553.417	9747.17
553.78	9811.13
554.143	9776.55
554.507	9690.68
554.87	9637.57
555.234	9708.3
555.597	9642.77
555.96	9543.56
556.323	9557.8
556.686	9489.78
557.05	9512.6
557.413	9512.6
557.776	9462.43
558.139	9442.55
558.502	9406.17
558.865	9349.67
559.228	9384.92
559.59	9300.63
559.953	9316.68
560.316	9308.09
560.679	9244.36
561.041	9288.65
561.404	9268.32
561.767	9315.09
562.129	9248.43
562.492	9345.38
562.854	9236.9
563.217	9256.34
563.579	9188.09
563.941	9284.36
564.304	9277.13
564.666	9280.07
565.028	9248.88
565.39	9245.04
565.753	9264.25
566.115	9172.27
566.477	9186.96
566.839	9148.54
567.201	9189.67
567.563	9229.45
567.925	9260.86
568.287	9217.92
568.648	9142.22
569.01	9250.01
569.372	9260.86
569.734	9196.91
570.095	9259.05
570.457	9176.11
570.819	9195.32
571.18	9156.68
571.542	9314.64
571.903	9189.45
572.265	9210.24
572.626	9231.25
572.987	9225.83
573.349	9213.85
573.71	9236.9
574.071	9272.84
574.432	9193.29
574.794	9287.98
575.155	9229.9
575.516	9227.86
575.877	9247.07
576.238	9326.17
576.599	9223.35
576.96	9260.86
577.32	9176.79
577.681	9254.08
578.042	9183.57
578.403	9195.1
578.763	9187.87
579.124	9214.98
579.485	9195.55
579.845	9217.02
580.206	9215.44
580.566	9203.68
580.927	9179.28
581.287	9175.89
581.648	9147.19
582.008	9156
582.368	9191.03
582.728	9162.78
583.089	9135.66
583.449	9098.83
583.809	9151.71
584.169	9069.68
584.529	9141.99
584.889	9209.11
585.249	9103.35
585.609	9120.3
585.969	9036.68
586.329	9059.51
586.688	9078.94
587.048	9052.73
587.408	9085.5
587.768	9045.5
588.127	9063.35
588.487	8939.06
588.846	9064.48
589.206	9029.68
589.565	8960.75
589.925	9000.75
590.284	8964.14
590.643	9028.77
591.003	8981.54
591.362	9005.5
591.721	8966.85
592.08	8927.76
592.44	8963.69
592.799	8983.8
593.158	8968.66
593.517	8907.87
593.876	8959.17
594.235	8899.29
594.593	8921.66
594.952	8868.78
595.311	8909.91
595.67	8878.95
596.029	8838.5
596.387	8906.97
596.746	8902.45
597.104	8860.19
597.463	8840.98
597.822	8908.33
598.18	8861.32
598.538	8824.94
598.897	8822.68
599.255	8792.4
599.613	8879.85
599.972	8912.39
600.33	8835.33
600.688	8818.61
601.046	8878.72
601.404	8862.45
601.762	8839.85
602.12	8887.76
602.478	8830.36
602.836	8887.99
603.194	8840.3
603.552	8805.5
603.91	8777.26
604.268	8848.44
604.625	8795.33
604.983	8837.82
605.341	8812.06
605.698	8884.82
606.056	8868.33
606.413	8828.1
606.771	8835.78
607.128	8862.9
607.485	8738.61
607.843	8821.77
608.2	8885.73
608.557	8885.95
608.914	8747.65
609.272	8837.82
609.629	8897.93
609.986	8844.15
610.343	8812.51
610.7	8904.03
611.057	8881.21
611.414	8880.3
611.771	8895.22
612.127	8916.46
612.484	8896.8
612.841	8864.94
613.198	8852.06
613.554	8882.11
613.911	8872.85
614.267	8909.91
614.624	8904.48
614.98	8949
615.337	8972.96
615.693	8925.5
616.05	8931.15
616.406	8960.75
616.762	8911.04
617.118	8950.81
617.475	8912.62
617.831	8979.51
618.187	8939.06
618.543	8955.56
618.899	8947.65
619.255	9012.28
619.611	8976.35
619.967	8971.6
620.323	9020.19
620.678	9010.02
621.034	8949.68
621.39	8969.57
621.746	8981.77
622.101	9076.46
622.457	8953.3
622.812	8956.91
623.168	9001.2
623.523	8963.24
623.879	9016.57
624.234	8957.14
624.589	8982.45
624.945	9031.94
625.3	8968.21
625.655	9008.89
626.01	8987.42
626.365	9036.23
626.72	9011.15
627.075	8989.68
627.43	9002.33
627.785	8988.77
628.14	8980.87
628.495	9031.03
628.85	8970.47
629.205	8911.94
629.559	9016.12
629.914	8952.39
630.269	8968.44
630.623	8921.88
630.978	8953.75
631.332	8917.82
631.687	8898.83
632.041	8864.26
632.396	8848.89
632.75	8850.47
633.104	8866.97
633.459	8813.64
633.813	8840.76
634.167	8824.49
634.521	8810.25
634.875	8830.14
635.229	8844.15
635.583	8814.99
635.937	8743.58
636.291	8677.14
636.645	8767.54
636.999	8704.71
637.352	8768.67
637.706	8655.22
638.06	8743.81
638.413	8648.22
638.767	8626.75
639.121	8668.78
639.474	8614.55
639.828	8658.84
640.181	8637.37
640.534	8701.78
640.888	8620.42
641.241	8635.34
641.594	8613.87
641.947	8670.14
642.301	8573.19
642.654	8616.58
643.007	8651.38
643.36	8543.36
643.713	8559.18
644.066	8606.64
644.419	8527.32
644.771	8454.55
645.124	8425.85
645.477	8455.23
645.83	8399.19
646.182	8361.67
646.535	8264.73
646.888	8301.79
647.24	8316.48
647.593	8320.77
647.945	8297.04
648.298	8276.48
648.65	8257.49
649.002	8236.48
649.355	8253.2
649.707	8304.5
650.059	8287.1
650.411	8403.03
650.763	8335.91
651.115	8479.86
651.467	8486.19
651.819	8491.16
652.171	8469.24
652.523	8476.02
652.875	8431.5
653.227	8449.35
653.578	8502.23
653.93	8464.49
654.282	8425.85
654.633	8444.38
654.985	8448.68
655.337	8449.58
655.688	8429.02
656.039	8492.29
656.391	8441.44
656.742	8406.64
657.094	8500.88
657.445	8473.99
657.796	8476.7
658.147	8501.33
658.498	8429.47
658.849	8507.66
659.2	8475.34
659.551	8429.02
659.902	8478.73
660.253	8453.87
660.604	8440.54
660.955	8475.79
661.306	8450.94
661.656	8555.79
662.007	8530.03
662.358	8508.34
662.708	8472.18
663.059	8479.18
663.409	8458.62
663.76	8530.26
664.11	8502.91
664.461	8496.36
664.811	8525.51
665.161	8540.88
665.511	8560.31
665.862	8504.72
666.212	8571.38
666.562	8579.07
666.912	8504.04
667.262	8553.98
667.612	8499.3
667.962	8546.07
668.312	8536.58
668.662	8533.42
669.011	8513.99
669.361	8530.93
669.711	8507.43
670.06	8525.06
670.41	8482.57
670.76	8433.08
671.109	8470.37
671.459	8508.11
671.808	8470.6
672.157	8441.22
672.507	8452.07
672.856	8382.24
673.205	8456.13
673.554	8483.03
673.904	8441.22
674.253	8526.19
674.602	8424.04
674.951	8291.62
675.3	8310.6
675.649	8446.87
675.998	8406.42
676.346	8324.61
676.695	8362.8
677.044	8376.14
677.393	8373.88
677.741	8407.32
678.09	8310.37
678.438	8285.74
678.787	8320.77
679.135	8304.27
679.484	8257.49
679.832	8330.94
680.181	8304.05
680.529	8269.02
680.877	8201.9
681.225	8219.3
681.573	8256.82
681.922	8220.43
682.27	8209.81
682.618	8196.93
682.966	8125.07
683.314	8122.58
683.661	8137.27
684.009	8125.97
684.357	8098.85
684.705	8069.93
685.053	8027.44
685.4	8066.99
685.748	8031.74
686.095	7997.61
686.443	7888.92
686.79	7968.91
687.138	7928.24
687.485	7984.28
687.832	7924.62
688.18	7986.09
688.527	7941.8
688.874	7890.72
689.221	7818.64
689.568	7804.17
689.915	7778.86
690.262	7768.24
690.609	7767.11
690.956	7707.9
691.303	7708.36
691.65	7724.63
691.997	7743.38
692.344	7622.03
692.69	7606.21
693.037	7562.15
693.383	7505.65
693.73	7519.44
694.077	7527.57
694.423	7424.52
694.769	7479.44
695.116	7465.65
695.462	7381.13
695.808	7402.83
696.155	7348.14
696.501	7299.33
696.847	7299.1
697.193	7250.74
697.539	7214.13
697.885	7144.08
698.231	7171.42
698.577	7152.44
698.923	7196.51
699.269	7095.49
699.614	7119.22
699.96	7005.55
700.306	7037.64
700.651	6990.18
700.997	6993.12
701.342	6952.22
701.688	6915.84
702.033	6940.24
702.379	6878.77
702.724	6876.74
703.069	6874.03
703.415	6828.15
703.76	6832
704.105	6797.65
704.45	6735.5
704.795	6712
705.14	6693.47
705.485	6705.45
705.83	6698.44
706.175	6649.18
706.52	6688.72
706.865	6586.58
707.209	6585
707.554	6563.3
707.899	6562.62
708.243	6561.95
708.588	6547.03
708.932	6490.76
709.277	6439.92
709.621	6445.11
709.966	6472
710.31	6475.62
710.654	6390.65
710.998	6387.26
711.342	6418.45
711.687	6340.71
712.031	6339.35
712.375	6337.77
712.719	6350.88
713.063	6328.28
713.407	6332.57
713.75	6341.16
714.094	6316.3
714.438	6282.18
714.782	6228.17
715.125	6205.35
715.469	6233.14
715.812	6220.49
716.156	6187.04
716.499	6177.55
716.843	6207.38
717.186	6143.43
717.53	6172.35
717.873	6183.42
718.216	6113.14
718.559	6132.13
718.902	6068.85
719.246	6135.74
719.589	6126.03
719.932	6086.03
720.275	6028.63
720.617	6112.24
720.96	6103.65
721.303	6054.39
721.646	6086.93
721.989	6059.81
722.331	6093.94
722.674	6029.08
723.016	6065.69
723.359	6036.99
723.701	6055.74
724.044	5975.07
724.386	6005.35
724.729	6026.82
725.071	6003.77
725.413	6029.76
725.755	5994.96
726.097	6017.1
726.439	5956.31
726.782	6000.38
727.124	6014.62
727.465	5971.91
727.807	5949.31
728.149	5958.12
728.491	5948.85
728.833	6026.14
729.175	5995.86
729.516	5963.32
729.858	5943.66
730.199	5963.32
730.541	5965.58
730.882	5971.91
731.224	6012.13
731.565	5930.55
731.906	5942.98
732.248	5962.87
732.589	5962.64
732.93	5949.76
733.271	5944.56
733.612	5961.28
733.953	5959.93
734.294	5891
734.635	5926.03
734.976	5928.74
735.317	5992.24
735.658	5935.75
735.999	5982.3
736.339	6002.19
736.68	5993.83
737.021	5906.37
737.361	5934.62
737.702	6008.97
738.042	5979.59
738.383	5974.84
738.723	5964.67
739.063	5985.24
739.404	5971.91
739.744	6066.82
740.084	6004.9
740.424	6009.42
740.764	6040.83
741.104	6074.95
741.444	6083.31
741.784	6140.71
742.124	6091.22
742.464	6155.4
742.804	6091.22
743.143	6156.08
743.483	6195.85
743.823	6127.38
744.162	6200.83
744.502	6226.36
744.841	6251.45
745.181	6312.01
745.52	6310.43
745.86	6361.05
746.199	6466.81
746.538	6422.29
746.877	6493.7
747.216	6552.68
747.556	6575.05
747.895	6620.48
748.234	6659.57
748.573	6643.53
748.911	6724.2
749.25	6776.4
749.589	6868.15
749.928	6893.24
750.267	7001.71
750.605	7022.95
750.944	7055.94
751.283	7189.5
751.621	7318.31
751.96	7320.34
752.298	7431.08
752.636	7493.22
752.975	7586.33
753.313	7683.27
753.651	7752.42
753.989	7902.48
754.327	7954.9
754.666	8047.33
755.004	8246.2
755.342	8357.61
755.679	8499.07
756.017	8584.94
756.355	8792.85
756.693	8887.76
757.031	9015.89
757.368	9059.73
757.706	9323
758.044	9475.77
758.381	9662.2
758.719	9771.81
759.056	9905.14
759.394	9989.88
759.731	10144.22
760.068	10331.11
760.405	10511.67
760.743	10678.22
761.08	10816.75
761.417	11045.9
761.754	11185.33
762.091	11336.06
762.428	11443.17
762.765	11603.4
763.102	11915.48
763.438	12029.82
763.775	12201.8
764.112	12364.96
764.449	12644.5
764.785	12715.91
765.122	12856.24
765.458	13042.23
765.795	13194.77
766.131	13307.76
766.467	13500.29
766.804	13653.96
