Data from hue_280_FLMS001491_00076.txt Node
Date: Tue Feb 07 15:55:45 GMT 2017
User: dcchb
Spectrometer: FLMS00149
Trigger mode: 0
Integration Time (sec): 2.000000E-2
Scans to average: 10
Electric dark correction enabled: true
Nonlinearity correction enabled: false
Boxcar width: 0
XAxis mode: Wavelengths
Number of Pixels in Spectrum: 2048
>>>>>Begin Spectral Data<<<<<
341.393	-3.98
341.776	-3.98
342.16	-3.98
342.543	-64.77
342.927	-84.43
343.31	-87.82
343.693	-62.29
344.077	-49.63
344.46	-62.29
344.843	-40.59
345.226	-40.14
345.61	-28.39
345.993	-11.67
346.376	-25.68
346.759	11.38
347.142	25.62
347.525	36.92
347.908	66.75
348.291	72.85
348.674	82.12
349.057	112.85
349.44	136.13
349.823	130.93
350.206	148.78
350.588	205.05
350.971	207.08
351.354	225.62
351.737	251.6
352.119	233.3
352.502	256.58
352.884	278.95
353.267	258.38
353.65	275.56
354.032	310.36
354.414	313.97
354.797	302.22
355.179	323.01
355.562	304.71
355.944	315.1
356.326	344.03
356.709	313.75
357.091	344.26
357.473	324.82
357.855	325.27
358.238	319.4
358.62	333.64
359.002	334.99
359.384	330.92
359.766	330.25
360.148	353.75
360.53	331.6
360.912	322.34
361.294	329.12
361.676	324.14
362.057	335.22
362.439	327.76
362.821	330.7
363.203	323.92
363.584	309
363.966	323.24
364.348	322.34
364.729	320.08
365.111	326.63
365.493	303.81
365.874	290.25
366.256	294.77
366.637	297.25
367.019	308.33
367.4	311.04
367.781	319.62
368.163	310.59
368.544	310.59
368.925	312.84
369.306	320.08
369.688	297.48
370.069	310.13
370.45	296.57
370.831	310.81
371.212	295.22
371.593	300.42
371.974	304.71
372.355	298.83
372.736	330.92
373.117	308.78
373.498	335.44
373.879	311.71
374.26	312.62
374.641	324.6
375.021	319.62
375.402	316.23
375.783	315.78
376.163	334.54
376.544	323.47
376.925	319.4
377.305	328.44
377.686	309.91
378.066	308.55
378.447	324.82
378.827	330.25
379.208	338.61
379.588	332.51
379.968	350.36
380.349	337.7
380.729	328.44
381.109	329.12
381.489	327.99
381.87	338.38
382.25	334.54
382.63	346.29
383.01	329.79
383.39	349
383.77	339.28
384.15	341.77
384.53	334.77
384.91	347.87
385.29	348.32
385.67	351.26
386.049	363.24
386.429	348.78
386.809	339.74
387.189	351.04
387.568	352.17
387.948	361.88
388.328	370.7
388.707	361.88
389.087	351.94
389.466	373.18
389.846	363.47
390.225	365.05
390.605	363.24
390.984	346.74
391.363	362.79
391.743	371.37
392.122	367.98
392.501	380.19
392.881	383.35
393.26	399.85
393.639	393.75
394.018	386.06
394.397	388.55
394.776	379.96
395.155	371.6
395.534	372.73
395.913	382.9
396.292	391.71
396.671	399.62
397.05	395.1
397.429	399.4
397.808	405.5
398.186	410.92
398.565	411.6
398.944	406.63
399.323	427.87
399.701	408.89
400.08	414.31
400.458	405.27
400.837	403.24
401.215	425.84
401.594	425.84
401.972	426.97
402.351	416.57
402.729	449.56
403.107	449.79
403.486	438.27
403.864	451.82
404.242	465.61
404.62	454.31
404.999	430.36
405.377	465.38
405.755	456.8
406.133	461.32
406.511	478.04
406.889	469.45
407.267	460.64
407.645	462.9
408.023	448.21
408.401	492.05
408.779	466.29
409.156	501.77
409.534	474.2
409.912	493.18
410.29	509
410.667	522.1
411.045	504.03
411.422	536.57
411.8	531.37
412.178	550.35
412.555	547.64
412.933	561.88
413.31	556.91
413.687	571.37
414.065	557.81
414.442	573.18
414.819	577.47
415.197	597.36
415.574	615.21
415.951	619.28
416.328	631.71
416.705	620.18
417.082	634.64
417.46	630.12
417.837	639.62
418.214	649.56
418.591	648.88
418.967	679.16
419.344	670.58
419.721	668.77
420.098	689.78
420.475	687.07
420.852	696.11
421.228	733.17
421.605	732.72
421.982	745.83
422.358	728.43
422.735	764.58
423.111	763.45
423.488	741.31
423.864	756
424.241	777.92
424.617	805.26
424.994	786.73
425.37	812.04
425.746	811.81
426.123	825.15
426.499	836.45
426.875	827.63
427.251	860.18
427.627	879.16
428.003	883.9
428.379	875.54
428.756	904.47
429.132	907.18
429.507	902.89
429.883	933.17
430.259	930
430.635	937.46
431.011	973.17
431.387	994.63
431.763	988.08
432.138	998.7
432.514	1000.96
432.89	1001.19
433.265	1015.43
433.641	1052.71
434.016	1098.36
434.392	1075.99
434.767	1073.73
435.143	1115.31
435.518	1099.72
435.894	1100.17
436.269	1137.68
436.644	1142.43
437.02	1173.16
437.395	1186.95
437.77	1203.22
438.145	1191.47
438.52	1215.87
438.895	1238.02
439.271	1244.8
439.646	1286.6
440.021	1292.93
440.395	1271.46
440.77	1273.05
441.145	1319.6
441.52	1335.42
441.895	1333.83
442.27	1364.79
442.645	1327.73
443.019	1322.99
443.394	1346.49
443.769	1384
444.143	1347.39
444.518	1391.23
444.892	1387.62
445.267	1379.48
445.641	1419.93
446.016	1411.12
446.39	1423.32
446.764	1454.74
447.139	1449.31
447.513	1438.47
447.887	1455.87
448.262	1469.42
448.636	1445.24
449.01	1489.54
449.384	1490.44
449.758	1502.87
450.132	1532.7
450.506	1536.09
450.88	1527.95
451.254	1543.77
451.628	1554.39
452.002	1555.3
452.376	1538.35
452.75	1569.54
453.123	1586.26
453.497	1555.52
453.871	1633.04
454.244	1642.3
454.618	1636.43
454.992	1673.49
455.365	1649.31
455.739	1667.39
456.112	1676.42
456.486	1708.06
456.859	1726.82
457.232	1741.51
457.606	1774.05
457.979	1746.93
458.352	1778.12
458.725	1826.7
459.099	1794.84
459.472	1871.67
459.845	1846.82
460.218	1831.45
460.591	1842.07
460.964	1866.25
461.337	1922.75
461.71	1939.24
462.083	1951.22
462.456	1926.14
462.829	1913.03
463.201	2008.62
463.574	1999.58
463.947	1997.77
464.32	2056.98
464.692	2024.66
465.065	2070.54
465.438	2084.32
465.81	2085.23
466.183	2117.54
466.555	2160.25
466.928	2144.66
467.3	2188.73
467.672	2192.8
468.045	2247.71
468.417	2256.52
468.789	2254.49
469.161	2260.59
469.534	2308.05
469.906	2346.92
470.278	2327.48
470.65	2374.26
471.022	2411.55
471.394	2460.81
471.766	2442.51
472.138	2435.73
472.51	2491.09
472.882	2560.47
473.253	2545.78
473.625	2565.44
473.997	2644.76
474.369	2630.3
474.74	2640.24
475.112	2681.14
475.484	2729.5
475.855	2733.35
476.227	2788.03
476.598	2839.11
476.97	2858.77
477.341	2877.75
477.713	2931.31
478.084	2943.74
478.455	2978.31
478.827	3046.78
479.198	3101.25
479.569	3085.88
479.94	3147.35
480.311	3186.89
480.682	3225.54
481.053	3272.54
481.424	3310.28
481.795	3334.23
482.166	3358.19
482.537	3405.87
482.908	3475.7
483.279	3470.73
483.65	3523.61
484.021	3586.66
484.391	3623.49
484.762	3647.9
485.133	3699.87
485.503	3651.06
485.874	3750.27
486.244	3751.17
486.615	3842.24
486.985	3883.82
487.356	3905.07
487.726	3932.86
488.097	4008.11
488.467	4001.79
488.837	4028.68
489.207	4082.01
489.578	4175.57
489.948	4155
490.318	4210.14
490.688	4215.12
491.058	4245.17
491.428	4306.64
491.798	4351.16
492.168	4393.19
492.538	4403.36
492.908	4471.15
493.278	4509.8
493.648	4516.35
494.017	4531.94
494.387	4599.29
494.757	4654.2
495.126	4624.14
495.496	4687.87
495.866	4726.29
496.235	4750.47
496.605	4750.92
496.974	4756.8
497.344	4797.7
497.713	4801.31
498.082	4844.25
498.452	4921.54
498.821	4872.27
499.19	4890.8
499.559	4921.54
499.928	4959.73
500.298	4976.68
500.667	5011.25
501.036	4992.04
501.405	5025.72
501.774	5023
502.143	5051.25
502.512	5078.6
502.88	5118.37
503.249	5117.01
503.618	5174.41
503.987	5172.83
504.356	5186.84
504.724	5161.53
505.093	5192.26
505.462	5230.68
505.83	5224.35
506.199	5289.44
506.567	5315.88
506.936	5315.88
507.304	5361.07
507.672	5330.34
508.041	5390.23
508.409	5402.2
508.777	5387.51
509.145	5461.18
509.514	5420.96
509.882	5462.31
510.25	5474.97
510.618	5518.81
510.986	5528.3
511.354	5499.6
511.722	5565.36
512.09	5605.81
512.458	5556.55
512.826	5621.63
513.193	5667.96
513.561	5636.32
513.929	5653.04
514.297	5684.23
514.664	5712.93
515.032	5717.45
515.4	5735.98
515.767	5755.64
516.135	5762.19
516.502	5723.1
516.869	5824.11
517.237	5856.88
517.604	5772.59
517.972	5846.26
518.339	5839.03
518.706	5802.42
519.073	5860.04
519.44	5901.4
519.808	5945.47
520.175	5819.14
520.542	5959.48
520.909	5964.22
521.276	5977.33
521.643	5999.48
522.009	6036.08
522.376	6053.03
522.743	6098.91
523.11	6127.83
523.477	6175.74
523.843	6161.28
524.21	6218.45
524.577	6212.35
524.943	6221.39
525.31	6247.15
525.676	6296.42
526.043	6326.02
526.409	6348.84
526.776	6398.79
527.142	6394.94
527.508	6410.99
527.874	6439.24
528.241	6495.28
528.607	6450.99
528.973	6530.08
529.339	6510.87
529.705	6601.95
530.071	6559.69
530.437	6624.09
530.803	6632.9
531.169	6621.61
531.535	6606.92
531.901	6653.24
532.267	6667.93
532.632	6739.57
532.998	6705.67
533.364	6790.41
533.73	6782.05
534.095	6774.6
534.461	6826.8
534.826	6860.47
535.192	6897.53
535.557	6892.56
535.923	6921.48
536.288	6937.08
536.653	6864.54
537.019	6854.82
537.384	6916.97
537.749	6973.23
538.114	6906.12
538.479	6940.02
538.845	6982.05
539.21	6970.52
539.575	7028.37
539.94	7013.91
540.305	7072.89
540.67	7062.95
541.034	7085.32
541.399	7033.35
541.764	7109.28
542.129	7142.95
542.494	7157.41
542.858	7123.97
543.223	7103.4
543.587	7252.32
543.952	7182.04
544.316	7196.28
544.681	7245.77
545.045	7210.29
545.41	7311.98
545.774	7237.41
546.138	7304.3
546.503	7302.72
546.867	7331.42
547.231	7345.43
547.595	7344.52
547.959	7283.96
548.324	7349.04
548.688	7355.37
549.052	7365.09
549.416	7387.01
549.779	7323.73
550.143	7425.43
550.507	7400.57
550.871	7420.91
551.235	7425.43
551.599	7492.54
551.962	7479.21
552.326	7513.56
552.689	7555.59
553.053	7522.15
553.417	7480.34
553.78	7590.85
554.143	7588.36
554.507	7589.49
554.87	7629.94
555.234	7706.77
555.597	7586.78
555.96	7642.6
556.323	7687.34
556.686	7652.99
557.05	7712.88
557.413	7794
557.776	7755.59
558.139	7772.99
558.502	7784.06
558.865	7784.06
559.228	7859.09
559.59	7842.59
559.953	7872.65
560.316	7902.93
560.679	7908.13
561.041	7962.14
561.404	7955.58
561.767	8086.88
562.129	8006.65
562.492	8006.2
562.854	8055.01
563.217	8031.29
563.579	8141.57
563.941	8146.09
564.304	8143.83
564.666	8148.12
565.028	8177.04
565.39	8259.08
565.753	8339.07
566.115	8345.4
566.477	8348.57
566.839	8303.82
567.201	8402.12
567.563	8467.21
567.925	8499.52
568.287	8433.08
568.648	8444.83
569.01	8509.92
569.372	8543.14
569.734	8516.92
570.095	8599.18
570.457	8655.45
570.819	8669.24
571.18	8641.67
571.542	8717.14
571.903	8747.43
572.265	8745.84
572.626	8799.4
572.987	8787.65
573.349	8865.16
573.71	8850.47
574.071	8965.27
574.432	9003.46
574.794	8985.84
575.155	8989.68
575.516	9014.54
575.877	9084.82
576.238	9078.72
576.599	9174.98
576.96	9231.71
577.32	9241.88
577.681	9330.01
578.042	9305.6
578.403	9332.27
578.763	9315.32
579.124	9406.17
579.485	9499.5
579.845	9540.85
580.206	9500.4
580.566	9563
580.927	9570.23
581.287	9661.98
581.648	9742.88
582.008	9793.5
582.368	9770.9
582.728	9836.66
583.089	9857.68
583.449	9981.29
583.809	10041.63
584.169	10058.35
584.529	10116.2
584.889	10232.36
585.249	10242.3
585.609	10219.25
585.969	10341.06
586.329	10399.59
586.688	10539.92
587.048	10501.5
587.408	10536.08
587.768	10649.52
588.127	10653.36
588.487	10740.59
588.846	10888.61
589.206	10797.99
589.565	10979.01
589.925	11069.4
590.284	11148.94
590.643	11220.58
591.003	11217.19
591.362	11384.19
591.721	11403.63
592.08	11442.27
592.44	11616.5
592.799	11614.92
593.158	11622.6
593.517	11744.18
593.876	11810.85
594.235	11887
594.593	12049.03
594.952	12003.61
595.311	12057.85
595.67	12111.86
596.029	12246.32
596.387	12281.34
596.746	12350.27
597.104	12309.14
597.463	12417.84
597.822	12539.64
598.18	12464.39
598.538	12554.78
598.897	12728.11
599.255	12713.87
599.613	12876.36
599.972	12830.26
600.33	12946.86
600.688	12945.28
601.046	13072.51
601.404	13113.86
601.762	13132.39
602.12	13242.9
602.478	13230.02
602.836	13290.58
603.194	13344.14
603.552	13374.87
603.91	13397.92
604.268	13497.58
604.625	13501.2
604.983	13579.61
605.341	13640.18
605.698	13671.36
606.056	13796.78
606.413	13716.11
606.771	13897.35
607.128	13845.82
607.485	13784.58
607.843	13890.57
608.2	13999.72
608.557	14022.31
608.914	14018.47
609.272	14094.18
609.629	14225.93
609.986	14229.09
610.343	14201.97
610.7	14234.96
611.057	14251.24
611.414	14367.16
611.771	14348.63
612.127	14413.27
612.484	14456.2
612.841	14547.27
613.198	14425.92
613.554	14481.51
613.911	14618.01
614.267	14667.95
614.624	14630.89
614.98	14609.87
615.337	14748.17
615.693	14683.31
616.05	14717.44
616.406	14884.89
616.762	14719.02
617.118	14743.88
617.475	14877.89
617.831	14855.51
618.187	14871.56
618.543	14877.21
618.899	14997.43
619.255	15015.28
619.611	15029.75
619.967	15016.64
620.323	15113.59
620.678	14983.19
621.034	15013.7
621.39	15047.6
621.746	15066.81
622.101	15203.3
622.457	15084.89
622.812	15126.24
623.168	15216.41
623.523	15177.76
623.879	15216.63
624.234	15113.81
624.589	15215.73
624.945	15190.19
625.3	15245.33
625.655	15227.93
626.01	15239.01
626.365	15199.69
626.72	15147.48
627.075	15241.94
627.43	15187.03
627.785	15184.77
628.14	15228.16
628.495	15253.69
628.85	15195.17
629.205	15148.84
629.559	15190.87
629.914	15196.07
630.269	15239.46
630.623	15139.57
630.978	15113.13
631.332	15177.99
631.687	15218.89
632.041	15194.49
632.396	15158.78
632.75	15157.2
633.104	15223.87
633.459	15084.66
633.813	15140.7
634.167	15103.19
634.521	15094.6
634.875	15069.52
635.229	15113.59
635.583	15054.15
635.937	15098.9
636.291	15088.5
636.645	15131.66
636.999	15003.53
637.352	15102.74
637.706	14944.55
638.06	14925.79
638.413	15010.76
638.767	14932.57
639.121	14959.47
639.474	14884.21
639.828	14852.35
640.181	14949.75
640.534	14965.11
640.888	14912.46
641.241	14840.15
641.594	14834.5
641.947	14887.6
642.301	14863.2
642.654	14876.08
643.007	14806.7
643.36	14842.18
643.713	14714.95
644.066	14816.42
644.419	14746.82
644.771	14597.44
645.124	14615.75
645.477	14491.23
645.83	14424.79
646.182	14321.52
646.535	14290.78
646.888	14447.61
647.24	14288.75
647.593	14356.32
647.945	14323.78
648.298	14320.39
648.65	14277.45
649.002	14177.79
649.355	14428.41
649.707	14317.67
650.059	14412.14
650.411	14565.8
650.763	14504.79
651.115	14641.06
651.467	14652.81
651.819	14703.43
652.171	14658
652.523	14570.78
652.875	14562.64
653.227	14622.07
653.578	14638.57
653.93	14640.38
654.282	14536.65
654.633	14664.56
654.985	14613.94
655.337	14634.5
655.688	14682.86
656.039	14752.92
656.391	14625.24
656.742	14658
657.094	14639.93
657.445	14696.87
657.796	14574.62
658.147	14710.88
658.498	14613.71
658.849	14663.65
659.2	14629.76
659.551	14634.73
659.902	14725.12
660.253	14720.15
660.604	14643.32
660.955	14672.69
661.306	14717.66
661.656	14706.82
662.007	14683.77
662.358	14699.81
662.708	14681.73
663.059	14724.22
663.409	14591.34
663.76	14811.45
664.11	14772.13
664.461	14676.99
664.811	14701.85
665.161	14730.54
665.511	14763.54
665.862	14758.79
666.212	14776.42
666.562	14781.84
666.912	14792.46
667.262	14712.01
667.612	14738
667.962	14841.05
668.312	14770.54
668.662	14747.04
669.011	14745.46
669.361	14702.07
669.711	14675.86
670.06	14681.28
670.41	14693.94
670.76	14687.61
671.109	14748.4
671.459	14694.16
671.808	14769.64
672.157	14659.59
672.507	14602.64
672.856	14616.42
673.205	14633.82
673.554	14682.86
673.904	14577.78
674.253	14716.99
674.602	14787.94
674.951	14327.84
675.3	14386.83
675.649	14506.37
675.998	14547.05
676.346	14512.92
676.695	14606.71
677.044	14475.64
677.393	14484.22
677.741	14506.14
678.09	14496.2
678.438	14474.96
678.787	14441.29
679.135	14459.82
679.484	14274.96
679.832	14438.12
680.181	14340.05
680.529	14344.79
680.877	14267.05
681.225	14254.17
681.573	14333.72
681.922	14314.96
682.27	14170.11
682.618	14279.26
682.966	14117.68
683.314	14188.86
683.661	14137.34
684.009	14101.18
684.357	14025.7
684.705	14014.86
685.053	13993.39
685.4	14048.98
685.748	14009.21
686.095	13907.06
686.443	13869.1
686.79	13870.91
687.138	13865.03
687.485	13812.83
687.832	13831.36
688.18	13843.34
688.527	13734.41
688.874	13710.23
689.221	13686.05
689.568	13603.12
689.915	13553.85
690.262	13560.41
690.609	13477.7
690.956	13447.41
691.303	13491.48
691.65	13364.25
691.997	13386.63
692.344	13195.44
692.69	13217.82
693.037	13287.42
693.383	13156.35
693.73	13159.74
694.077	13096.92
694.423	13064.37
694.769	13092.4
695.116	13023.02
695.462	13083.58
695.808	12835.23
696.155	12910.93
696.501	12857.37
696.847	12743.93
697.193	12717.94
697.539	12733.08
697.885	12712.29
698.231	12613.99
698.577	12544.39
698.923	12492.86
699.269	12502.58
699.614	12396.14
699.96	12391.85
700.306	12332.64
700.651	12360.44
700.997	12291.29
701.342	12247.45
701.688	12226.2
702.033	12186.43
702.379	12089.94
702.724	12107.79
703.069	12192.31
703.415	11943.05
703.76	11901.47
704.105	11903.5
704.45	11965.19
704.795	11805.65
705.14	11781.24
705.485	11874.35
705.83	11691.3
706.175	11725.88
706.52	11667.12
706.865	11658.54
707.209	11634.36
707.554	11582.15
707.899	11559.33
708.243	11487.47
708.588	11441.14
708.932	11409.95
709.277	11378.54
709.621	11414.7
709.966	11286.57
710.31	11262.39
710.654	11185.55
710.998	11203.18
711.342	11218.77
711.687	11247.47
712.031	11152.11
712.375	11104.2
712.719	11106.69
713.063	11058.1
713.407	11120.92
713.75	11095.84
714.094	11015.39
714.438	10937.65
714.782	11020.36
715.125	10959.12
715.469	10997.76
715.812	10870.08
716.156	10920.25
716.499	10858.1
716.843	10913.02
717.186	10835.96
717.53	10903.53
717.873	10881.83
718.216	10841.61
718.559	10851.32
718.902	10705.34
719.246	10702.4
719.589	10673.48
719.932	10646.13
720.275	10721.61
720.617	10697.43
720.96	10607.04
721.303	10646.36
721.646	10701.72
721.989	10604.55
722.331	10617.43
722.674	10567.49
723.016	10596.64
723.359	10574.27
723.701	10611.11
724.044	10599.35
724.386	10456.53
724.729	10568.39
725.071	10459.92
725.413	10477.32
725.755	10474.84
726.097	10481.17
726.439	10322.98
726.782	10427.16
727.124	10446.36
727.465	10412.24
727.807	10445.91
728.149	10359.36
728.491	10419.25
728.833	10456.31
729.175	10367.72
729.516	10373.15
729.858	10321.85
730.199	10366.59
730.541	10302.64
730.882	10332.02
731.224	10344.22
731.565	10338.57
731.906	10332.02
732.248	10375.86
732.589	10256.54
732.93	10290.21
733.271	10302.41
733.612	10355.29
733.953	10277.33
734.294	10337.89
734.635	10272.13
734.976	10347.84
735.317	10285.46
735.658	10313.49
735.999	10327.95
736.339	10351.23
736.68	10301.73
737.021	10381.05
737.361	10319.81
737.702	10351
738.042	10309.64
738.383	10331.11
738.723	10429.64
739.063	10331.11
739.404	10414.5
739.744	10427.16
740.084	10336.54
740.424	10400.26
740.764	10414.27
741.104	10462.63
741.444	10415.63
741.784	10356.87
742.124	10526.59
742.464	10525.68
742.804	10504.44
743.143	10452.69
743.483	10457.44
743.823	10463.09
744.162	10512.12
744.502	10544.44
744.841	10517.77
745.181	10659.92
745.52	10696.53
745.86	10743.98
746.199	10740.37
746.538	10781.27
746.877	10886.58
747.216	10824.21
747.556	10908.5
747.895	10970.19
748.234	10987.37
748.573	10983.98
748.911	11056.29
749.25	11193.24
749.589	11245.44
749.928	11208.38
750.267	11435.72
750.605	11453.79
750.944	11436.85
751.283	11528.37
751.621	11649.5
751.96	11635.49
752.298	11838.64
752.636	11919.09
752.975	11961.35
753.313	11999.77
753.651	12267.56
753.989	12322.02
754.327	12447.67
754.666	12474.33
755.004	12676.81
755.342	12743.03
755.679	12886.75
756.017	12917.49
756.355	13181.66
756.693	13160.87
757.031	13441.54
757.368	13472.72
757.706	13604.7
758.044	13688.09
758.381	13942.32
758.719	14004.46
759.056	14145.93
759.394	14249.2
759.731	14414.17
