Data from hue_80_FLMS001491_73.txt Node
Date: Mon Feb 06 15:23:31 GMT 2017
User: dcchb
Spectrometer: FLMS00149
Trigger mode: 0
Integration Time (sec): 2.000000E-2
Scans to average: 10
Electric dark correction enabled: true
Nonlinearity correction enabled: false
Boxcar width: 0
XAxis mode: Wavelengths
Number of Pixels in Spectrum: 2048
>>>>>Begin Spectral Data<<<<<
341.393	0.2
341.776	0.2
342.16	0.2
342.543	-61.27
342.927	-53.59
343.31	-62.4
343.693	-67.6
344.077	-81.38
344.46	-42.29
344.843	-45.22
345.226	-44.55
345.61	-24.89
345.993	-19.69
346.376	-2.29
346.759	5.4
347.142	7.88
347.525	39.74
347.908	49.46
348.291	75.45
348.674	93.3
349.057	119.06
349.44	117.71
349.823	152.28
350.206	169.46
350.588	176.92
350.971	210.81
351.354	230.02
351.737	226.86
352.119	255.11
352.502	243.58
352.884	267.08
353.267	280.19
353.65	279.74
354.032	279.29
354.414	318.16
354.797	271.6
355.179	314.77
355.562	312.96
355.944	337.82
356.326	337.59
356.709	333.07
357.091	326.29
357.473	336.46
357.855	335.33
358.238	342.11
358.62	333.52
359.002	329.68
359.384	344.37
359.766	332.84
360.148	328.55
360.53	312.51
360.912	344.6
361.294	335.56
361.676	336.23
362.057	305.73
362.439	326.52
362.821	331.04
363.203	316.57
363.584	322.22
363.966	317.25
364.348	310.02
364.729	325.84
365.111	315.44
365.493	308.21
365.874	310.02
366.256	328.32
366.637	301.66
367.019	304.14
367.4	305.05
367.781	305.27
368.163	326.74
368.544	312.73
368.925	310.92
369.306	298.95
369.688	318.16
370.069	298.27
370.45	312.51
370.831	317.03
371.212	318.61
371.593	293.52
371.974	309.57
372.355	316.35
372.736	330.81
373.117	313.86
373.498	305.73
373.879	305.73
374.26	325.16
374.641	323.58
375.021	312.28
375.402	311.15
375.783	313.18
376.163	330.58
376.544	326.06
376.925	305.27
377.305	321.32
377.686	323.58
378.066	317.93
378.447	312.05
378.827	328.78
379.208	321.32
379.588	318.83
379.968	321.55
380.349	345.73
380.729	340.98
381.109	339.4
381.489	334.43
381.87	340.75
382.25	319.96
382.63	344.14
383.01	342.11
383.39	337.59
383.77	355.44
384.15	342.79
384.53	338.95
384.91	334.65
385.29	342.56
385.67	345.27
386.049	318.61
386.429	351.83
386.809	348.89
387.189	347.99
387.568	348.44
387.948	351.83
388.328	344.14
388.707	361.77
389.087	369.45
389.466	347.08
389.846	359.96
390.225	366.97
390.605	356.8
390.984	353.41
391.363	371.26
391.743	354.09
392.122	340.98
392.501	378.72
392.881	387.08
393.26	373.07
393.639	361.09
394.018	369.91
394.397	374.65
394.776	389.57
395.155	349.57
395.534	380.75
395.913	371.49
396.292	353.86
396.671	380.07
397.05	373.75
397.429	374.88
397.808	376.01
398.186	379.85
398.565	361.09
398.944	379.17
399.323	381.88
399.701	399.51
400.08	388.89
400.458	386.85
400.837	403.12
401.215	418.27
401.594	391.6
401.972	380.3
402.351	389.79
402.729	405.38
403.107	406.06
403.486	388.44
403.864	415.33
404.242	417.36
404.62	414.42
404.999	392.73
405.377	406.51
405.755	417.59
406.133	433.18
406.511	425.27
406.889	410.81
407.267	427.31
407.645	447.42
408.023	422.79
408.401	425.27
408.779	416.46
409.156	427.76
409.534	432.73
409.912	432.05
410.29	436.57
410.667	448.1
411.045	456.46
411.422	451.71
411.8	439.96
412.178	436.8
412.555	474.31
412.933	463.24
413.31	457.59
413.687	467.98
414.065	466.17
414.442	459.17
414.819	472.73
415.197	486.06
415.574	505.95
415.951	487.87
416.328	502.11
416.705	505.72
417.082	496.68
417.46	501.43
417.837	504.82
418.214	486.29
418.591	484.48
418.967	505.95
419.344	493.74
419.721	498.49
420.098	510.92
420.475	515.21
420.852	525.38
421.228	516.12
421.605	511.82
421.982	540.3
422.358	536
422.735	536.45
423.111	518.38
423.488	533.07
423.864	521.99
424.241	533.29
424.617	527.42
424.994	569
425.37	556.34
425.746	545.49
426.123	548.43
426.499	551.6
426.875	542.33
427.251	592.05
427.627	566.28
428.003	586.85
428.379	582.78
428.756	574.87
429.132	576.23
429.507	605.15
429.883	582.1
430.259	609.45
430.635	625.72
431.011	612.84
431.387	622.78
431.763	617.81
432.138	634.76
432.514	615.77
432.89	630.46
433.265	638.37
433.641	646.96
434.016	668.2
434.392	657.58
434.767	648.99
435.143	654.19
435.518	697.35
435.894	700.07
436.269	676.11
436.644	694.64
437.02	709.78
437.395	700.07
437.77	697.81
438.145	712.04
438.52	719.95
438.895	720.4
439.271	741.42
439.646	723.57
440.021	757.47
440.395	720.86
440.77	719.95
441.145	745.94
441.52	771.7
441.895	772.61
442.27	755.21
442.645	767.41
443.019	774.19
443.394	777.13
443.769	798.37
444.143	775.77
444.518	796.79
444.892	795.21
445.267	786.84
445.641	798.37
446.016	791.59
446.39	804.24
446.764	800.63
447.139	824.58
447.513	815.09
447.887	825.94
448.262	820.97
448.636	845.15
449.01	844.92
449.384	824.81
449.758	851.93
450.132	871.81
450.506	862.32
450.88	872.72
451.254	861.87
451.628	886.28
452.002	891.7
452.376	894.41
452.75	897.12
453.123	896.45
453.497	901.19
453.871	931.02
454.244	951.13
454.618	956.33
454.992	928.08
455.365	960.62
455.739	990.91
456.112	984.58
456.486	953.84
456.859	995.65
457.232	1001.3
457.606	1019.61
457.979	1031.13
458.352	1045.82
458.725	1053.28
459.099	1046.95
459.472	1049.66
459.845	1094.86
460.218	1107.06
460.591	1099.38
460.964	1107.97
461.337	1138.47
461.71	1135.08
462.083	1168.98
462.456	1162.65
462.829	1185.7
463.201	1185.93
463.574	1207.4
463.947	1224.8
464.32	1269.32
464.692	1262.09
465.065	1274.51
465.438	1289.2
465.81	1307.06
466.183	1357.22
466.555	1346.38
466.928	1364.46
467.3	1375.98
467.672	1411.91
468.045	1441.52
468.417	1428.86
468.789	1444.23
469.161	1477.22
469.534	1523.55
469.906	1537.78
470.278	1553.15
470.65	1591.79
471.022	1626.82
471.394	1641.51
471.766	1662.53
472.138	1688.51
472.51	1718.34
472.882	1777.78
473.253	1795.86
473.625	1864.56
473.997	1879.7
474.369	1915.18
474.74	1973.25
475.112	1995.17
475.484	2048.73
475.855	2105
476.227	2135.06
476.598	2220.25
476.97	2255.73
477.341	2286.24
477.713	2415.28
478.084	2431.32
478.455	2499.57
478.827	2559.23
479.198	2613.46
479.569	2667.02
479.94	2785.44
480.311	2816.17
480.682	2920.35
481.053	3019.33
481.424	3101.81
481.795	3168.7
482.166	3257.74
482.537	3331.64
482.908	3426.32
483.279	3537.05
483.65	3668.58
484.021	3757.16
484.391	3813.2
484.762	3930.72
485.133	4023.82
485.503	4152.18
485.874	4270.14
486.244	4345.62
486.615	4501.77
486.985	4624.48
487.356	4751.26
487.726	4856.34
488.097	5033.51
488.467	5163.68
488.837	5235.09
489.207	5385.14
489.578	5511.47
489.948	5641.41
490.318	5803.66
490.688	5858.8
491.058	5989.19
491.428	6216.98
491.798	6354.61
492.168	6517.99
492.538	6547.82
492.908	6732.68
493.278	6862.84
493.648	6997.53
494.017	7199.56
494.387	7270.06
494.757	7526.55
495.126	7621.24
495.496	7785.98
495.866	7777.85
496.235	7980.55
496.605	8114.11
496.974	8216.03
497.344	8454.66
497.713	8525.85
498.082	8618.28
498.452	8807.65
498.821	8875.67
499.19	9014.42
499.559	9177.58
499.928	9295.77
500.298	9436.33
500.667	9623
501.036	9669.77
501.405	9805.14
501.774	9821.86
502.143	9989.54
502.512	9969.65
502.88	10175.07
503.249	10298.23
503.618	10366.7
503.987	10471.79
504.356	10607.38
504.724	10684.21
505.093	10795.17
505.462	10839.23
505.83	11006.91
506.199	11147.02
506.567	11295.27
506.936	11341.37
507.304	11549.95
507.672	11610.97
508.041	11624.52
508.409	11773.22
508.777	11851.86
509.145	12035.36
509.514	12068.13
509.882	12143.16
510.25	12241.91
510.618	12288.69
510.986	12309.7
511.354	12563.94
511.722	12600.32
512.09	12830.82
512.458	12736.13
512.826	12824.04
513.193	13032.4
513.561	12932.29
513.929	13104.03
514.297	13243.01
514.664	13253.63
515.032	13294.76
515.4	13393.07
515.767	13543.57
516.135	13577.47
516.502	13523.91
516.869	13741.31
517.237	13826.27
517.604	13758.71
517.972	13916.89
518.339	14030.56
518.706	13932.94
519.073	14118.47
519.44	14231.91
519.808	14341.74
520.175	14232.59
520.542	14530.89
520.909	14484.34
521.276	14473.49
521.643	14636.2
522.009	14644.11
522.376	14687.72
522.743	14784.89
523.11	14952.12
523.477	15055.62
523.843	15089.29
524.21	15131.33
524.577	15201.83
524.943	15324.77
525.31	15396.63
525.676	15449.51
526.043	15504.65
526.409	15590.3
526.776	15589.62
527.142	15671.65
527.508	15637.98
527.874	15831.42
528.241	15817.86
528.607	15821.48
528.973	15967.01
529.339	15902.15
529.705	16021.47
530.071	16145.08
530.437	16143.5
530.803	16157.06
531.169	16224.63
531.535	16134.01
531.901	16201.13
532.267	16337.17
532.632	16315.02
532.998	16379.88
533.364	16364.51
533.73	16429.14
534.095	16400.67
534.461	16437.05
534.826	16535.36
535.192	16520.22
535.557	16519.76
535.923	16519.99
536.288	16524.73
536.653	16628.91
537.019	16442.25
537.384	16579.87
537.749	16537.39
538.114	16533.1
538.479	16629.82
538.845	16670.95
539.21	16517.28
539.575	16621.68
539.94	16648.12
540.305	16578.74
540.67	16516.15
541.034	16657.16
541.399	16657.16
541.764	16642.25
542.129	16557.95
542.494	16569.93
542.858	16602.25
543.223	16644.51
543.587	16660.1
543.952	16524.51
544.316	16573.32
544.681	16531.51
545.045	16572.87
545.41	16599.54
545.774	16660.78
546.138	16526.77
546.503	16518.86
546.867	16534.68
547.231	16555.24
547.595	16496.49
547.959	16586.65
548.324	16503.27
548.688	16482.25
549.052	16588.69
549.416	16534.23
549.779	16483.38
550.143	16427.56
550.507	16536.26
550.871	16559.54
551.235	16498.07
551.599	16612.87
551.962	16501.01
552.326	16505.75
552.689	16644.51
553.053	16510.95
553.417	16557.05
553.78	16642.92
554.143	16598.18
554.507	16558.18
554.87	16556.6
555.234	16656.03
555.597	16538.75
555.96	16507.79
556.323	16529.93
556.686	16592.08
557.05	16579.42
557.413	16629.59
557.776	16610.16
558.139	16753.88
558.502	16689.25
558.865	16663.94
559.228	16818.74
559.59	16689.7
559.953	16737.16
560.316	16869.36
560.679	16817.38
561.041	16833.65
561.404	16891.73
561.767	16984.84
562.129	16850.38
562.492	17035
562.854	16965.18
563.217	16922.69
563.579	16921.79
563.941	17061.44
564.304	17131.5
564.666	17079.07
565.028	17219.86
565.39	17184.15
565.753	17244.04
566.115	17234.55
566.477	17285.17
566.839	17262.12
567.201	17426.41
567.563	17439.74
567.925	17428.89
568.287	17482.68
568.648	17465.28
569.01	17483.35
569.372	17578.27
569.734	17504.6
570.095	17701.43
570.457	17686.06
570.819	17678.15
571.18	17621.43
571.542	17672.28
571.903	17761.54
572.265	17770.13
572.626	17861.87
572.987	17816
573.349	17891.48
573.71	17912.5
574.071	17923.12
574.432	17960.18
574.794	18055.32
575.155	17949.78
575.516	17985.71
575.877	17987.52
576.238	17992.27
576.599	18038.82
576.96	18018.03
577.32	18088.54
577.681	18081.08
578.042	18111.59
578.403	18091.7
578.763	18101.87
579.124	18119.95
579.485	18257.57
579.845	18234.97
580.206	18158.82
580.566	18103.45
580.927	18233.16
581.287	18188.87
581.648	18140.74
582.008	18227.52
582.368	18175.09
582.728	18234.75
583.089	18157.91
583.449	18242.2
583.809	18215.76
584.169	18254.18
584.529	18094.41
584.889	18342.54
585.249	18169.66
585.609	18130.12
585.969	18199.95
586.329	18088.76
586.688	18152.04
587.048	18093.96
587.408	18059.84
587.768	18009.89
588.127	18119.5
588.487	18086.5
588.846	18152.49
589.206	17919.5
589.565	18070.46
589.925	18122.43
590.284	17992.27
590.643	18067.52
591.003	18036.79
591.362	18122.89
591.721	18046.28
592.08	17997.01
592.44	18091.02
592.799	18015.32
593.158	17976.22
593.517	17948.65
593.876	18056.9
594.235	17986.62
594.593	17945.26
594.952	18019.38
595.311	17936.45
595.67	17982.32
596.029	18079.95
596.387	18086.05
596.746	18201.08
597.104	17917.69
597.463	18028.42
597.822	18081.76
598.18	18036.79
598.538	17972.38
598.897	18077.69
599.255	17851.93
599.613	18119.95
599.972	17998.37
600.33	18112.04
600.688	18046.05
601.046	18050.34
601.404	18041.31
601.762	18034.07
602.12	18147.52
602.478	18097.57
602.836	18170.12
603.194	18030.01
603.552	18028.65
603.91	17957.69
604.268	18035.43
604.625	18041.76
604.983	18085.6
605.341	17989.56
605.698	18083.34
606.056	18214.18
606.413	18055.32
606.771	18148.42
607.128	18255.99
607.485	18029.33
607.843	18106.16
608.2	18153.62
608.557	18233.16
608.914	18119.04
609.272	18267.97
609.629	18300.06
609.986	18300.28
610.343	18171.7
610.7	18375.76
611.057	18397.45
611.414	18291.47
611.771	18243.79
612.127	18453.5
612.484	18338.25
612.841	18502.31
613.198	18387.74
613.554	18375.31
613.911	18464.12
614.267	18503.44
614.624	18434.06
614.98	18475.87
615.337	18662.08
615.693	18467.73
616.05	18494.4
616.406	18622.53
616.762	18581.63
617.118	18565.59
617.475	18500.95
617.831	18626.15
618.187	18571.01
618.543	18628.63
618.899	18782.08
619.255	18793.38
619.611	18633.38
619.967	18777.11
620.323	18780.95
620.678	18713.38
621.034	18664.34
621.39	18695.3
621.746	18630.89
622.101	18902.75
622.457	18693.49
622.812	18832.24
623.168	18914.95
623.523	18770.55
623.879	18827.27
624.234	18694.17
624.589	18765.35
624.945	18780.49
625.3	18759.48
625.655	18762.42
626.01	18806.93
626.365	18774.17
626.72	18679.03
627.075	18764.45
627.43	18763.32
627.785	18727.84
628.14	18731.68
628.495	18857.1
628.85	18805.8
629.205	18680.16
629.559	18709.99
629.914	18738.46
630.269	18796.99
630.623	18667.05
630.978	18630.67
631.332	18771.91
631.687	18774.85
632.041	18617.79
632.396	18616.43
632.75	18704.56
633.104	18664.34
633.459	18584.79
633.813	18575.3
634.167	18538.69
634.521	18581.63
634.875	18555.19
635.229	18566.94
635.583	18423.22
635.937	18484.46
636.291	18355.2
636.645	18460.5
636.999	18340.96
637.352	18370.11
637.706	18387.51
638.06	18381.41
638.413	18374.4
638.767	18263.45
639.121	18422.99
639.474	18270.23
639.828	18258.47
640.181	18323.78
640.534	18342.09
640.888	18234.29
641.241	18103.22
641.594	18223
641.947	18190
642.301	18208.98
642.654	18274.75
643.007	18169.44
643.36	18106.61
643.713	18079.5
644.066	18098.48
644.419	18040.18
644.771	17932.16
645.124	17747.98
645.477	17773.06
645.83	17605.84
646.182	17630.69
646.535	17630.24
646.888	17623.24
647.24	17541.66
647.593	17553.18
647.945	17509.57
648.298	17438.84
648.65	17450.81
649.002	17392.28
649.355	17423.69
649.707	17440.19
650.059	17489.91
650.411	17714.31
650.763	17749.11
651.115	18023.9
651.467	17725.83
651.819	17927.86
652.171	17866.39
652.523	17920.63
652.875	17797.02
653.227	17726.29
653.578	17967.18
653.93	17813.74
654.282	17855.55
654.633	17753.18
654.985	17824.36
655.337	17874.3
655.688	17869.78
656.039	17932.16
656.391	17796.11
656.742	17853.97
657.094	17834.08
657.445	17819.62
657.796	17832.5
658.147	17807.19
658.498	17846.73
658.849	17863.46
659.2	17891.48
659.551	17897.81
659.902	17924.47
660.253	17834.76
660.604	17938.03
660.955	17776
661.306	17773.74
661.656	17813.51
662.007	17860.07
662.358	17934.87
662.708	17898.26
663.059	17855.77
663.409	17819.39
663.76	17925.83
664.11	17946.39
664.461	17987.07
664.811	17892.61
665.161	17907.52
665.511	17878.37
665.862	17934.87
666.212	17976.22
666.562	17931.7
666.912	17878.82
667.262	17927.86
667.612	17897.58
667.962	17949.33
668.312	17813.51
668.662	17989.1
669.011	17980.74
669.361	17911.37
669.711	17877.69
670.06	17775.78
670.41	17816.9
670.76	17818.26
671.109	17812.38
671.459	17793.63
671.808	17844.93
672.157	17811.71
672.507	17749.11
672.856	17712.73
673.205	17773.97
673.554	17914.98
673.904	17731.26
674.253	17722.67
674.602	17738.49
674.951	17490.81
675.3	17406.07
675.649	17705.04
675.998	17643.12
676.346	17620.75
676.695	17717.47
677.044	17573.75
677.393	17543.47
677.741	17592.73
678.09	17513.86
678.438	17635.21
678.787	17553.18
679.135	17591.83
679.484	17379.63
679.832	17535.78
680.181	17443.58
680.529	17497.82
680.877	17373.07
681.225	17389.12
681.573	17502.56
681.922	17350.48
682.27	17263.7
682.618	17334.88
682.966	17261.44
683.314	17256.24
683.661	17192.97
684.009	17114.78
684.357	17079.75
684.705	17034.1
685.053	17046.98
685.4	17041.56
685.748	16893.99
686.095	16843.14
686.443	16791.85
686.79	16843.82
687.138	16815.35
687.485	16890.38
687.832	16730.61
688.18	16707.78
688.527	16615.35
688.874	16646.77
689.221	16611.96
689.568	16521.35
689.915	16574
690.262	16576.94
690.609	16465.3
690.956	16396.38
691.303	16334.68
691.65	16246.32
691.997	16255.36
692.344	16169.94
692.69	16052.21
693.037	16097.18
693.383	15962.26
693.73	16007.46
694.077	15928.59
694.423	15941.93
694.769	15813.34
695.116	15753
695.462	15728.37
695.808	15737.19
696.155	15761.37
696.501	15608.15
696.847	15649.05
697.193	15453.35
697.539	15472.79
697.885	15319.79
698.231	15390.98
698.577	15301.94
698.923	15282.96
699.269	15178.33
699.614	15034.38
699.96	15078.9
700.306	15073.02
700.651	14970.2
700.997	14898.56
701.342	14859.47
701.688	14834.61
702.033	14718.91
702.379	14792.35
702.724	14771.56
703.069	14721.84
703.415	14560.49
703.76	14501.29
704.105	14539.48
704.45	14501.51
704.795	14332.7
705.14	14323.21
705.485	14317.34
705.83	14247.96
706.175	14300.84
706.52	14209.32
706.865	14135.65
707.209	14097.45
707.554	14102.65
707.899	14142.2
708.243	14083.9
708.588	13975.88
708.932	13917.8
709.277	13869.66
709.621	13888.42
709.966	13816.56
710.31	13885.71
710.654	13685.04
710.998	13749.89
711.342	13714.64
711.687	13649.78
712.031	13610.01
712.375	13443.46
712.719	13477.13
713.063	13514.19
713.407	13533.63
713.75	13519.16
714.094	13443.46
714.438	13326.18
714.782	13425.83
715.125	13278.49
715.469	13322.11
715.812	13284.37
716.156	13200.53
716.499	13231.26
716.843	13184.48
717.186	13158.04
717.53	13222.45
717.873	13228.55
718.216	13208.89
718.559	13067.2
718.902	13055
719.246	13089.57
719.589	12982.23
719.932	12976.58
720.275	12916.02
720.617	12906.07
720.96	12875.57
721.303	12866.75
721.646	12908.11
721.989	12784.95
722.331	12862.91
722.674	12871.27
723.016	12785.85
723.359	12793.99
723.701	12829.46
724.044	12710.37
724.386	12688.23
724.729	12724.83
725.071	12731.39
725.413	12719.19
725.755	12676.25
726.097	12708.34
726.439	12622.24
726.782	12618.17
727.124	12741.11
727.465	12620.66
727.807	12641.67
728.149	12578.62
728.491	12630.6
728.833	12652.97
729.175	12550.15
729.516	12513.54
729.858	12544.73
730.199	12588.57
730.541	12484.84
730.882	12422.7
731.224	12576.36
731.565	12452.3
731.906	12542.69
732.248	12531.62
732.589	12525.74
732.93	12426.76
733.271	12442.13
733.612	12523.71
733.953	12580.88
734.294	12483.26
734.635	12518.96
734.976	12512.19
735.317	12445.97
735.658	12499.08
735.999	12458.63
736.339	12464.95
736.68	12563.48
737.021	12478.06
737.361	12384.73
737.702	12613.2
738.042	12485.07
738.383	12521.45
738.723	12541.79
739.063	12473.99
739.404	12537.04
739.744	12559.87
740.084	12499.53
740.424	12522.58
740.764	12442.81
741.104	12574.56
741.444	12492.52
741.784	12396.71
742.124	12577.27
742.464	12578.85
742.804	12578.17
743.143	12516.48
743.483	12648.23
743.823	12600.09
744.162	12669.47
744.502	12697.72
744.841	12722.8
745.181	12803.48
745.52	12744.5
745.86	12818.17
746.199	12786.75
746.538	12904.49
746.877	13036.92
747.216	13034.43
747.556	13031.95
747.895	13081.44
748.234	13010.48
748.573	13086.86
748.911	13205.05
749.25	13281.2
749.589	13222.9
749.928	13397.36
750.267	13487.98
750.605	13470.35
750.944	13489.79
751.283	13616.79
751.621	13707.63
751.96	13662.44
752.298	13858.59
752.636	13913.28
752.975	13924.13
753.313	13977.68
753.651	14172.48
753.989	14228.98
754.327	14312.14
754.666	14348.3
755.004	14521.85
755.342	14631.9
755.679	14643.43
756.017	14802.29
756.355	14927.94
756.693	14988.73
