Data from hue_310_FLMS001491_95.txt Node
Date: Mon Feb 06 15:50:29 GMT 2017
User: dcchb
Spectrometer: FLMS00149
Trigger mode: 0
Integration Time (sec): 2.000000E-2
Scans to average: 10
Electric dark correction enabled: true
Nonlinearity correction enabled: false
Boxcar width: 0
XAxis mode: Wavelengths
Number of Pixels in Spectrum: 2048
>>>>>Begin Spectral Data<<<<<
341.393	-6.27
341.776	-6.27
342.16	-6.27
342.543	-57.34
342.927	-65.25
343.31	-65.48
343.693	-57.57
344.077	-57.57
344.46	-49.89
344.843	-70.68
345.226	-49.66
345.61	-31.58
345.993	-19.15
346.376	-6.72
346.759	0.28
347.142	21.52
347.525	40.96
347.908	51.13
348.291	95.65
348.674	88.87
349.057	109.88
349.44	118.02
349.823	145.59
350.206	155.76
350.588	186.94
350.971	226.94
351.354	228.98
351.737	235.3
352.119	249.32
352.502	260.39
352.884	262.87
353.267	282.53
353.65	291.35
354.032	302.2
354.414	284.79
354.797	304.23
355.179	314.4
355.562	323.21
355.944	317.56
356.326	332.93
356.709	335.41
357.091	321.86
357.473	335.87
357.855	318.92
358.238	325.25
358.62	327.96
359.002	332.03
359.384	333.16
359.766	335.41
360.148	321.4
360.53	338.8
360.912	325.7
361.294	337.67
361.676	328.86
362.057	322.53
362.439	328.18
362.821	348.52
363.203	323.89
363.584	312.82
363.966	324.12
364.348	318.92
364.729	311.91
365.111	295.19
365.493	312.59
365.874	324.79
366.256	324.34
366.637	304
367.019	289.09
367.4	307.39
367.781	336.09
368.163	332.03
368.544	318.92
368.925	299.03
369.306	300.84
369.688	300.61
370.069	292.48
370.45	296.55
370.831	296.55
371.212	298.13
371.593	315.53
371.974	298.81
372.355	314.62
372.736	298.81
373.117	326.83
373.498	301.97
373.879	311.46
374.26	321.18
374.641	315.3
375.021	294.29
375.402	321.4
375.783	321.18
376.163	323.66
376.544	306.49
376.925	316.66
377.305	328.18
377.686	318.24
378.066	346.94
378.447	332.48
378.827	320.27
379.208	352.14
379.588	349.65
379.968	326.38
380.349	335.41
380.729	317.56
381.109	308.3
381.489	307.85
381.87	325.47
382.25	336.77
382.63	317.56
383.01	333.83
383.39	341.29
383.77	337
384.15	360.27
384.53	337.67
384.91	311.91
385.29	346.71
385.67	338.58
386.049	342.65
386.429	342.19
386.809	332.48
387.189	355.98
387.568	347.84
387.948	339.93
388.328	343.32
388.707	363.89
389.087	347.62
389.466	353.04
389.846	385.13
390.225	356.43
390.605	369.31
390.984	366.37
391.363	350.56
391.743	353.95
392.122	376.54
392.501	385.36
392.881	372.93
393.26	368.63
393.639	344.45
394.018	368.41
394.397	389.2
394.776	381.97
395.155	369.54
395.534	376.32
395.913	351.01
396.292	378.13
396.671	387.39
397.05	415.19
397.429	392.81
397.808	386.26
398.186	386.04
398.565	396.66
398.944	370.22
399.323	407.5
399.701	397.79
400.08	391.46
400.458	400.72
400.837	421.29
401.215	397.33
401.594	412.93
401.972	407.5
402.351	405.47
402.729	408.41
403.107	419.93
403.486	430.55
403.864	437.79
404.242	434.17
404.62	425.36
404.999	412.93
405.377	434.4
405.755	428.75
406.133	449.08
406.511	477.56
406.889	440.95
407.267	465.35
407.645	462.64
408.023	472.59
408.401	482.3
408.779	482.76
409.156	470.1
409.534	499.48
409.912	498.57
410.29	503.32
410.667	499.03
411.045	505.35
411.422	498.8
411.8	536.77
412.178	544.22
412.555	549.87
412.933	541.74
413.31	520.72
413.687	563.43
414.065	546.71
414.442	567.27
414.819	589.65
415.197	566.82
415.574	588.06
415.951	616.99
416.328	584.9
416.705	609.53
417.082	597.78
417.46	610.89
417.837	640.94
418.214	636.42
418.591	659.7
418.967	663.54
419.344	668.97
419.721	666.25
420.098	660.6
420.475	673.94
420.852	689.3
421.228	730.88
421.605	719.13
421.982	738.57
422.358	735.4
422.735	730.88
423.111	732.24
423.488	748.74
423.864	758.45
424.241	756.87
424.617	794.16
424.994	781.73
425.37	748.74
425.746	779.47
426.123	794.39
426.499	826.02
426.875	824.89
427.251	820.37
427.627	834.38
428.003	859.02
428.379	870.32
428.756	878.68
429.132	898.56
429.507	905.12
429.883	893.59
430.259	936.98
430.635	895.4
431.011	934.27
431.387	940.14
431.763	957.55
432.138	959.13
432.514	957.09
432.89	994.61
433.265	996.41
433.641	994.38
434.016	1030.76
434.392	1019.69
434.767	1053.14
435.143	1075.96
435.518	1059.24
435.894	1073.7
436.269	1069.18
436.644	1093.14
437.02	1113.25
437.395	1107.6
437.77	1115.06
438.145	1118.22
438.52	1133.59
438.895	1166.81
439.271	1157.99
439.646	1205.9
440.021	1214.71
440.395	1195.05
440.77	1186.24
441.145	1217.65
441.52	1210.19
441.895	1181.72
442.27	1259.23
442.645	1212.45
443.019	1234.83
443.394	1252
443.769	1269.85
444.143	1225.56
444.518	1291.77
444.892	1266.92
445.267	1266.24
445.641	1257.88
446.016	1245.45
446.39	1315.73
446.764	1263.53
447.139	1295.16
447.513	1294.03
447.887	1292.68
448.262	1324.32
448.636	1288.61
449.01	1321.38
449.384	1322.73
449.758	1337.65
450.132	1343.3
450.506	1331.09
450.88	1355.5
451.254	1329.06
451.628	1386.23
452.002	1380.81
452.376	1382.39
452.75	1379.91
453.123	1366.12
453.497	1410.64
453.871	1403.41
454.244	1404.09
454.618	1439.34
454.992	1428.04
455.365	1445.44
455.739	1491.99
456.112	1451.09
456.486	1484.99
456.859	1513.24
457.232	1524.31
457.606	1503.97
457.979	1505.78
458.352	1532.9
458.725	1528.38
459.099	1556.85
459.472	1569.96
459.845	1594.59
460.218	1577.87
460.591	1608.6
460.964	1611.31
461.337	1650.86
461.71	1633.69
462.083	1664.65
462.456	1621.71
462.829	1671.2
463.201	1681.14
463.574	1682.05
463.947	1682.05
464.32	1698.99
464.692	1734.02
465.065	1741.93
465.438	1740.58
465.81	1760.46
466.183	1777.86
466.555	1825.55
466.928	1843.17
467.3	1838.2
467.672	1837.75
468.045	1874.58
468.417	1814.02
468.789	1867.35
469.161	1915.49
469.534	1946.9
469.906	1919.78
470.278	1925.88
470.65	1958.65
471.022	1995.48
471.394	2012.88
471.766	2035.03
472.138	2044.75
472.51	2073
472.882	2077.29
473.253	2087.91
473.625	2107.12
473.997	2147.12
474.369	2155.71
474.74	2188.93
475.112	2164.97
475.484	2244.74
475.855	2244.07
476.227	2268.7
476.598	2292.2
476.97	2357.73
477.341	2342.37
477.713	2384.63
478.084	2359.77
478.455	2439.31
478.827	2457.84
479.198	2490.16
479.569	2463.49
479.94	2560.44
480.311	2574
480.682	2596.6
481.053	2636.15
481.424	2646.99
481.795	2674.56
482.166	2694.9
482.537	2701.91
482.908	2746.2
483.279	2786.2
483.65	2776.03
484.021	2861.45
484.391	2872.98
484.762	2864.61
485.133	2901.9
485.503	2917.49
485.874	2974.22
486.244	2985.06
486.615	3058.28
486.985	3072.97
487.356	3106.19
487.726	3105.29
488.097	3206.3
488.467	3154.1
488.837	3214.21
489.207	3273.42
489.578	3286.52
489.948	3326.3
490.318	3320.65
490.688	3343.92
491.058	3382.79
491.428	3409.68
491.798	3432.73
492.168	3477.03
492.538	3478.38
492.908	3524.03
493.278	3545.05
493.648	3563.58
494.017	3599.74
494.387	3587.31
494.757	3661.66
495.126	3687.87
495.496	3638.38
495.866	3661.43
496.235	3670.02
496.605	3723.8
496.974	3768.54
497.344	3782.33
497.713	3805.61
498.082	3816
498.452	3854.64
498.821	3825.94
499.19	3865.72
499.559	3882.44
499.928	3915.21
500.298	3904.36
500.667	3988.2
501.036	3947.52
501.405	3958.14
501.774	3999.73
502.143	4011.02
502.512	4006.5
502.88	4041.98
503.249	4037.92
503.618	4049.22
503.987	4073.4
504.356	4088.31
504.724	4059.61
505.093	4083.56
505.462	4086.05
505.83	4114.3
506.199	4174.41
506.567	4171.25
506.936	4140.96
507.304	4196.1
507.672	4213.05
508.041	4242.43
508.409	4260.51
508.777	4266.61
509.145	4298.93
509.514	4305.93
509.882	4300.28
510.25	4335.99
510.618	4330.79
510.986	4308.42
511.354	4339.15
511.722	4392.94
512.09	4394.74
512.458	4393.84
512.826	4381.86
513.193	4415.99
513.561	4438.36
513.929	4432.03
514.297	4463.67
514.664	4545.7
515.032	4496.66
515.4	4508.41
515.767	4513.16
516.135	4528.52
516.502	4474.29
516.869	4541.18
517.237	4574.85
517.604	4520.39
517.972	4592.25
518.339	4612.36
518.706	4567.17
519.073	4615.98
519.44	4674.28
519.808	4646.94
520.175	4631.8
520.542	4709.54
520.909	4700.72
521.276	4700.05
521.643	4730.55
522.009	4759.71
522.376	4782.08
522.743	4769.42
523.11	4797.22
523.477	4814.85
523.843	4857.78
524.21	4880.15
524.577	4914.5
524.943	4899.81
525.31	4917.22
525.676	4954.05
526.043	5027.72
526.409	5012.35
526.776	5083.99
527.142	5047.83
527.508	5158.34
527.874	5097.1
528.241	5166.93
528.607	5195.85
528.973	5199.02
529.339	5187.72
529.705	5202.41
530.071	5314.04
530.437	5275.17
530.803	5327.37
531.169	5326.47
531.535	5321.72
531.901	5333.02
532.267	5392.68
532.632	5390.88
532.998	5415.96
533.364	5417.32
533.73	5494.38
534.095	5508.61
534.461	5513.36
534.826	5514.71
535.192	5581.6
535.557	5604.43
535.923	5541.61
536.288	5612.79
536.653	5670.87
537.019	5699.12
537.384	5644.65
537.749	5699.12
538.114	5723.07
538.479	5735.27
538.845	5784.99
539.21	5744.31
539.575	5758.1
539.94	5796.74
540.305	5814.82
540.67	5849.39
541.034	5902.95
541.399	5895.72
541.764	5945.66
542.129	5989.05
542.494	5940.01
542.858	6035.6
543.223	6038.09
543.587	6071.99
543.952	6027.69
544.316	6108.37
544.681	6099.78
545.045	6203.96
545.41	6151.08
545.774	6227.92
546.138	6238.99
546.503	6236.5
546.867	6234.02
547.231	6312.66
547.595	6316.95
547.959	6338.87
548.324	6327.57
548.688	6411.64
549.052	6364.18
549.416	6402.15
549.779	6414.35
550.143	6416.38
550.507	6477.63
550.871	6535.93
551.235	6567.34
551.599	6566.66
551.962	6570.96
552.326	6602.59
552.689	6581.35
553.053	6602.37
553.417	6636.94
553.78	6721.46
554.143	6739.54
554.507	6672.88
554.87	6745.42
555.234	6792.19
555.597	6785.87
555.96	6835.13
556.323	6790.84
556.686	6860.67
557.05	6855.02
557.413	6860.89
557.776	6888.01
558.139	6917.16
558.502	6923.26
558.865	6960.78
559.228	6944.51
559.59	7019.98
559.953	6998.52
560.316	7075.58
560.679	7099.3
561.041	7107.89
561.404	7098.63
561.767	7170.94
562.129	7174.78
562.492	7165.74
562.854	7256.36
563.217	7252.52
563.579	7236.93
563.941	7229.92
564.304	7302.92
564.666	7387.66
565.028	7305.63
565.39	7345.4
565.753	7349.24
566.115	7393.99
566.477	7417.71
566.839	7457.04
567.201	7514.66
567.563	7456.13
567.925	7552.17
568.287	7566.41
568.648	7642.12
569.01	7633.3
569.372	7675.79
569.734	7717.14
570.095	7638.73
570.457	7826.52
570.819	7789.68
571.18	7778.84
571.542	7806.63
571.903	7961.2
572.265	7908.78
572.626	7990.13
572.987	8077.81
573.349	8086.62
573.71	8103.8
574.071	8182.21
574.432	8296.79
574.794	8283
575.155	8288.2
575.516	8378.14
575.877	8434.86
576.238	8492.71
576.599	8605.25
576.96	8658.59
577.32	8676.44
577.681	8797.57
578.042	8849.54
578.403	8911.23
578.763	9023.32
579.124	9080.04
579.485	9256.76
579.845	9339.25
580.206	9446.36
580.566	9510.31
580.927	9706.02
581.287	9761.38
581.648	9954.82
582.008	10050.41
582.368	10190.97
582.728	10257.64
583.089	10526.56
583.449	10685.43
583.809	10867.57
584.169	11078.86
584.529	11230.72
584.889	11507.1
585.249	11576.02
585.609	11835
585.969	12116.57
586.329	12275.67
586.688	12506.17
587.048	12646.05
587.408	12946.83
587.768	13181.63
588.127	13389.31
588.487	13664.78
588.846	13944.77
589.206	14097.31
589.565	14383.18
589.925	14721.93
590.284	14972.54
590.643	15276.04
591.003	15568.69
591.362	15863.59
591.721	16181.1
592.08	16351.72
592.44	16713.52
592.799	17007.07
593.158	17236.21
593.517	17545.81
593.876	17911.22
594.235	18170.43
594.593	18552.34
594.952	18813.8
595.311	19111.42
595.67	19333.56
596.029	19831.63
596.387	20090.15
596.746	20500.99
597.104	20547.99
597.463	20959.73
597.822	21370.12
598.18	21488.08
598.538	21872.25
598.897	22295.74
599.255	22373.03
599.613	22982.73
599.972	23137.75
600.33	23599.66
600.688	23717.17
601.046	24172.08
601.404	24531.16
601.762	24759.41
602.12	25093.63
602.478	25259.05
602.836	25639.16
603.194	25795.54
603.552	26255.41
603.91	26268.74
604.268	26703.31
604.625	26993.7
604.983	27266.68
605.341	27343.97
605.698	27753
606.056	28058.53
606.413	28216.26
606.771	28536.26
607.128	28811.95
607.485	28966.98
607.843	29286.07
608.2	29553.18
608.557	29888.99
608.914	29964.69
609.272	30293.95
609.629	30625.24
609.986	30942.52
610.343	31010.99
610.7	31309.29
611.057	31464.99
611.414	31579.11
611.771	31934.58
612.127	32108.36
612.484	32322.6
612.841	32509.94
613.198	32608.24
613.554	32761.23
613.911	33124.16
614.267	33156.25
614.624	33392.62
614.98	33674.65
615.337	33866.28
615.693	33986.06
616.05	34130.68
616.406	34402.32
616.762	34502.88
617.118	34558.7
617.475	34762.53
617.831	35019.93
618.187	35103.54
618.543	35249.07
618.899	35560.7
619.255	35614.94
619.611	35638.67
619.967	35847.93
620.323	36050.18
620.678	35998.21
621.034	36194.36
621.39	36211.31
621.746	36183.96
622.101	36759.99
622.457	36616.49
622.812	36785.53
623.168	36936.49
623.523	37141.23
623.879	37290.38
624.234	37126.31
624.589	37165.41
624.945	37252.86
625.3	37492.86
625.655	37704.38
626.01	37805.84
626.365	37752.06
626.72	37859.17
627.075	37947.31
627.43	37858.95
627.785	37768.78
628.14	38071.82
628.495	38207.64
628.85	38218.03
629.205	38052.16
629.559	38280.63
629.914	38160.64
630.269	38324.7
630.623	38226.4
630.978	38186.4
631.332	38478.14
631.687	38527.41
632.041	38484.02
632.396	38499.16
632.75	38386.39
633.104	38659.38
633.459	38357.69
633.813	38468.88
634.167	38508.2
634.521	38523.56
634.875	38567.18
635.229	38536.67
635.583	38435.2
635.937	38395.21
636.291	38437.69
636.645	38655.76
636.999	38535.31
637.352	38582.32
637.706	38413.96
638.06	38506.16
638.413	38514.75
638.767	38405.83
639.121	38571.92
639.474	38424.36
639.828	38486.95
640.181	38473.85
640.534	38513.39
640.888	38409.44
641.241	38263.46
641.594	38349.56
641.947	38545.71
642.301	38483.56
642.654	38425.03
643.007	38469.1
643.36	38235.21
643.713	38421.42
644.066	38430.23
644.419	38125.16
644.771	38099.39
645.124	37672.74
645.477	37626.19
645.83	37512.97
646.182	37338.51
646.535	37185.52
646.888	37310.94
647.24	37102.81
647.593	37261.22
647.945	37338.28
648.298	37079.31
648.65	37155.01
649.002	37036.6
649.355	37113.88
649.707	37060.1
650.059	37333.76
650.411	37740.08
650.763	37739.86
651.115	38147.98
651.467	37990.47
651.819	38009.45
652.171	37870.02
652.523	37864.6
652.875	37803.81
653.227	37859.85
653.578	38074.31
653.93	37954.09
654.282	37761.78
654.633	37606.3
654.985	37747.99
655.337	37877.25
655.688	37787.76
656.039	38019.85
656.391	37644.72
656.742	37719.52
657.094	37700.08
657.445	37884.71
657.796	37710.48
658.147	37581.67
658.498	37784.37
658.849	37709.12
659.2	37631.16
659.551	37539.63
659.902	37721.1
660.253	37644.49
660.604	37740.08
660.955	37533.31
661.306	37734.66
661.656	37583.93
662.007	37686.3
662.358	37747.54
662.708	37578.73
663.059	37526.98
663.409	37311.39
663.76	37707.31
664.11	37680.65
664.461	37681.78
664.811	37621.89
665.161	37640.2
665.511	37596.36
665.862	37621.21
666.212	37630.71
666.562	37667.31
666.912	37590.71
667.262	37489.92
667.612	37505.29
667.962	37491.27
668.312	37468.22
668.662	37594.77
669.011	37365.63
669.361	37399.98
669.711	37462.8
670.06	37354.78
670.41	37353.88
670.76	37316.36
671.109	37468.45
671.459	37385.06
671.808	37291.73
672.157	37310.94
672.507	37202.24
672.856	37188.46
673.205	37206.76
673.554	37408.56
673.904	37198.17
674.253	37445.4
674.602	37344.39
674.951	36826.43
675.3	36540.79
675.649	37137.16
675.998	37106.88
676.346	37192.75
676.695	37228
677.044	37045.41
677.393	37198.17
677.741	37081.12
678.09	36962.7
678.438	36992.98
678.787	37117.95
679.135	37018.29
679.484	36884.28
679.832	36971.06
680.181	36698.53
680.529	36850.84
680.877	36726.55
681.225	36796.6
681.573	36912.31
681.922	36734.46
682.27	36530.62
682.618	36591.41
682.966	36498.31
683.314	36538.08
683.661	36425.09
684.009	36243.85
684.357	36208.82
684.705	36156.39
685.053	36318.2
685.4	36197.52
685.748	36009.96
686.095	36094.47
686.443	35916.17
686.79	35762.28
687.138	35960.92
687.485	35873.01
687.832	35641.83
688.18	35732.9
688.527	35654.71
688.874	35538.11
689.221	35550.76
689.568	35305.12
689.915	35336.75
690.262	35336.53
690.609	35232.35
690.956	35056.99
691.303	35064.9
691.65	35008.85
691.997	34982.41
692.344	34734.74
692.69	34737
693.037	34702.42
693.383	34513.95
693.73	34640.95
694.077	34375.88
694.423	34332.26
694.769	34309.44
695.116	34248.87
695.462	34232.6
695.808	34102.44
696.155	34149.67
696.501	33864.7
696.847	33870.8
697.193	33646.86
697.539	33683.01
697.885	33427.43
698.231	33475.33
698.577	33426.07
698.923	33411.61
699.269	33187.21
699.614	33084.38
699.96	33087.77
700.306	33082.8
700.651	32939.53
700.997	32862.7
701.342	32745.64
701.688	32664.28
702.033	32651.4
702.379	32594.68
702.724	32472.42
703.069	32535.02
703.415	32085.54
703.76	32119.66
704.105	32165.99
704.45	32010.29
704.795	31999.44
705.14	31987.01
705.485	31850.52
705.83	31664.99
706.175	31812.78
706.52	31676.51
706.865	31501.83
707.209	31612.33
707.554	31424.09
707.899	31420.7
708.243	31284.88
708.588	31160.37
708.932	31034.27
709.277	31041.95
709.621	30897.55
709.966	30806.48
710.31	30893.48
710.654	30669.31
710.998	30752.92
711.342	30726.25
711.687	30659.36
712.031	30509.31
712.375	30460.72
712.719	30396.55
713.063	30440.61
713.407	30452.59
713.75	30312.71
714.094	30247.4
714.438	30028.65
714.782	30046.5
715.125	30131.47
715.469	30043.79
715.812	29845.83
716.156	29651.93
716.499	29740.74
716.843	29801.53
717.186	29699.84
717.53	29862.77
717.873	29705.72
718.216	29586.62
718.559	29486.51
718.902	29318.16
719.246	29436.12
719.589	29279.74
719.932	29157.48
720.275	29209.46
720.617	29117.03
720.96	29095.34
721.303	29119.52
721.646	28979.86
721.989	28820.09
722.331	28925.85
722.674	28847.89
723.016	28862.35
723.359	28905.06
723.701	28837.72
724.044	28723.14
724.386	28616.25
724.729	28768.57
725.071	28515.01
725.413	28505.07
725.755	28515.69
726.097	28503.94
726.439	28270.73
726.782	28273.66
727.124	28351.18
727.465	28239.99
727.807	28296.04
728.149	28169.71
728.491	28090.39
728.833	28229.37
729.175	28057.4
729.516	27882.26
729.858	27959.77
730.199	27904.41
730.541	27798.42
730.882	27811.75
731.224	27951.64
731.565	27722.27
731.906	27734.92
732.248	27788.25
732.589	27589.16
732.93	27527.92
733.271	27499.67
733.612	27612.21
733.953	27586.45
734.294	27440.46
734.635	27404.53
734.976	27424.87
735.317	27181.04
735.658	27215.39
735.999	27174.48
736.339	27224.43
736.68	27253.35
737.021	27289.06
737.361	26950.53
737.702	27227.14
738.042	26968.61
738.383	27052.68
738.723	27007.93
739.063	27001.61
739.404	26932.23
739.744	26811.33
740.084	26650.43
740.424	26637.55
740.764	26551.45
741.104	26804.78
741.444	26602.07
741.784	26513.71
742.124	26612.92
742.464	26523.88
742.804	26484.78
743.143	26389.19
743.483	26374.96
743.823	26251.12
744.162	26312.13
744.502	26360.27
744.841	26041.41
745.181	26317.1
745.52	26075.3
745.86	26172.93
746.199	26053.16
746.538	26095.19
746.877	26102.2
747.216	26041.41
747.556	25842.09
747.895	25869.66
748.234	25706.05
748.573	25723
748.911	25773.16
749.25	25668.31
749.589	25680.96
749.928	25588.99
750.267	25584.47
750.605	25460.18
750.944	25520.06
751.283	25359.39
751.621	25464.02
751.96	25232.16
752.298	25361.65
752.636	25396.45
752.975	25108.32
753.313	25156.46
753.651	25131.6
753.989	24976.12
754.327	25001.66
754.666	24897.93
755.004	24890.7
755.342	24968.67
755.679	24916.01
756.017	24720.08
756.355	24769.8
756.693	24655
757.031	24643.93
757.368	24501.79
757.706	24433.99
758.044	24387.44
758.381	24393.31
758.719	24315.35
759.056	24350.83
759.394	24183.38
759.731	24126.43
