Data from hue_170_FLMS001491_00080.txt Node
Date: Tue Feb 07 16:49:11 GMT 2017
User: dcchb
Spectrometer: FLMS00149
Trigger mode: 0
Integration Time (sec): 2.000000E-2
Scans to average: 10
Electric dark correction enabled: true
Nonlinearity correction enabled: false
Boxcar width: 0
XAxis mode: Wavelengths
Number of Pixels in Spectrum: 2048
>>>>>Begin Spectral Data<<<<<
341.393	-22.94
341.776	-22.94
342.16	-22.94
342.543	-62.03
342.927	-53.44
343.31	-63.16
343.693	-80.34
344.077	-60.9
344.46	-74.91
344.843	-47.34
345.226	-35.82
345.61	-24.29
345.993	-43.05
346.376	17.06
346.759	16.38
347.142	13.67
347.525	41.69
347.908	52.32
348.291	85.31
348.674	97.51
349.057	105.87
349.44	133.67
349.823	148.81
350.206	179.32
350.588	173.67
350.971	231.75
351.354	226.1
351.737	238.3
352.119	237.62
352.502	271.52
352.884	254.12
353.267	260.45
353.65	282.37
354.032	297.05
354.414	303.16
354.797	316.04
355.179	331.4
355.562	317.17
355.944	320.33
356.326	323.04
356.709	323.04
357.091	319.43
357.473	334.34
357.855	329.14
358.238	339.77
358.62	348.8
359.002	331.18
359.384	361.01
359.766	347.45
360.148	350.84
360.53	326.43
360.912	335.7
361.294	327.34
361.676	318.97
362.057	325.98
362.439	333.21
362.821	328.92
363.203	326.21
363.584	312.87
363.966	320.56
364.348	314
364.729	313.55
365.111	348.58
365.493	306.09
365.874	305.19
366.256	314.46
366.637	315.58
367.019	315.13
367.4	305.42
367.781	316.04
368.163	328.24
368.544	303.61
368.925	305.87
369.306	317.84
369.688	318.75
370.069	311.29
370.45	286.89
370.831	307.45
371.212	307.45
371.593	287.79
371.974	296.15
372.355	318.52
372.736	311.97
373.117	310.84
373.498	292.99
373.879	319.88
374.26	309.94
374.641	305.42
375.021	325.53
375.402	297.05
375.783	335.47
376.163	307
376.544	335.47
376.925	294.34
377.305	310.39
377.686	310.61
378.066	306.32
378.447	318.75
378.827	333.89
379.208	317.84
379.588	346.09
379.968	335.02
380.349	332.31
380.729	319.88
381.109	326.66
381.489	337.51
381.87	340.67
382.25	323.04
382.63	333.66
383.01	334.79
383.39	316.71
383.77	336.6
384.15	316.26
384.53	336.83
384.91	339.99
385.29	341.35
385.67	371.4
386.049	358.07
386.429	335.25
386.809	355.13
387.189	338.86
387.568	339.31
387.948	332.08
388.328	369.14
388.707	330.5
389.087	357.62
389.466	353.78
389.846	340.67
390.225	347.67
390.605	358.07
390.984	357.39
391.363	349.93
391.743	364.4
392.122	358.3
392.501	375.7
392.881	369.14
393.26	365.53
393.639	372.31
394.018	369.59
394.397	371.63
394.776	375.02
395.155	355.36
395.534	375.47
395.913	378.86
396.292	368.01
396.671	377.05
397.05	377.73
397.429	372.76
397.808	376.15
398.186	385.41
398.565	390.16
398.944	392.19
399.323	409.59
399.701	395.13
400.08	390.61
400.458	386.54
400.837	404.62
401.215	395.81
401.594	421.8
401.972	397.16
402.351	396.94
402.729	389.03
403.107	409.14
403.486	426.99
403.864	417.96
404.242	394.45
404.62	420.44
404.999	409.82
405.377	413.89
405.755	438.75
406.133	425.86
406.511	430.38
406.889	400.33
407.267	432.87
407.645	417.5
408.023	433.55
408.401	431.97
408.779	439.42
409.156	447.11
409.534	442.81
409.912	448.91
410.29	448.69
410.667	461.34
411.045	444.17
411.422	446.88
411.8	481.68
412.178	469.25
412.555	473.55
412.933	499.76
413.31	507.22
413.687	484.62
414.065	487.56
414.442	504.28
414.819	516.48
415.197	532.08
415.574	532.3
415.951	525.07
416.328	542.7
416.705	529.82
417.082	558.52
417.46	552.41
417.837	563.71
418.214	548.35
418.591	538.63
418.967	536.14
419.344	565.75
419.721	568.69
420.098	565.07
420.475	575.69
420.852	576.37
421.228	583.6
421.605	591.28
421.982	605.52
422.358	614.33
422.735	607.78
423.111	624.96
423.488	622.24
423.864	642.81
424.241	645.07
424.617	666.54
424.994	652.53
425.37	630.6
425.746	667.44
426.123	654.56
426.499	653.43
426.875	677.38
427.251	684.39
427.627	709.92
428.003	702.24
428.379	721.9
428.756	703.37
429.132	708.34
429.507	732.75
429.883	742.47
430.259	756.03
430.635	752.64
431.011	746.99
431.387	756.25
431.763	784.95
432.138	756.48
432.514	786.31
432.89	768.91
433.265	811.62
433.641	786.98
434.016	828.11
434.392	850.94
434.767	865.4
435.143	866.98
435.518	848.45
435.894	888.23
436.269	881.9
436.644	885.51
437.02	903.82
437.395	924.61
437.77	904.04
438.145	925.06
438.52	935.46
438.895	950.14
439.271	950.6
439.646	972.52
440.021	1001.89
440.395	1017.94
440.77	995.57
441.145	991.5
441.52	1022.46
441.895	1042.12
442.27	1042.35
442.645	1040.99
443.019	1040.76
443.394	1064.49
443.769	1074.66
444.143	1065.17
444.518	1101.55
444.892	1099.29
445.267	1102.23
445.641	1101.78
446.016	1103.81
446.39	1118.28
446.764	1127.77
447.139	1166.18
447.513	1148.78
447.887	1158.95
448.262	1132.51
448.636	1176.58
449.01	1186.07
449.384	1177.48
449.758	1210.93
450.132	1223.58
450.506	1230.59
450.88	1252.51
451.254	1246.18
451.628	1224.94
452.002	1282.11
452.376	1271.49
452.75	1294.09
453.123	1304.71
453.497	1332.06
453.871	1325.95
454.244	1356.91
454.618	1353.07
454.992	1369.34
455.365	1372.28
455.739	1418.61
456.112	1442.79
456.486	1414.99
456.859	1450.24
457.232	1478.94
457.606	1470.13
457.979	1497.47
458.352	1552.16
458.725	1567.76
459.099	1531.37
459.472	1576.12
459.845	1608.43
460.218	1619.28
460.591	1650.69
460.964	1652.95
461.337	1692.72
461.71	1720.29
462.083	1731.37
462.456	1772.5
462.829	1733.17
463.201	1764.59
463.574	1774.98
463.947	1832.83
464.32	1894.07
464.692	1844.81
465.065	1893.85
465.438	1932.72
465.81	1960.74
466.183	1989.44
466.555	2080.51
466.928	2024.47
467.3	2013.62
467.672	2066.95
468.045	2152.37
468.417	2155.31
468.789	2207.06
469.161	2218.13
469.534	2267.85
469.906	2312.37
470.278	2333.84
470.65	2412.48
471.022	2412.03
471.394	2473.49
471.766	2516.88
472.138	2556.66
472.51	2642.98
472.882	2658.8
473.253	2718.69
473.625	2762.3
473.997	2807.5
474.369	2852.69
474.74	2900.38
475.112	2932.47
475.484	3020.82
475.855	3100.14
476.227	3128.62
476.598	3258.11
476.97	3285.45
477.341	3376.07
477.713	3460.81
478.084	3508.27
478.455	3653.8
478.827	3665.55
479.198	3795.49
479.569	3817.87
479.94	3957.98
480.311	4023.96
480.682	4148.7
481.053	4196.16
481.424	4351.41
481.795	4424.86
482.166	4529.26
482.537	4574.23
482.908	4689.93
483.279	4801.12
483.65	4901.23
484.021	5040.88
484.391	5108.23
484.762	5257.38
485.133	5310.26
485.503	5404.04
485.874	5582.57
486.244	5648.33
486.615	5783.24
486.985	5834.54
487.356	6059.84
487.726	6106.17
488.097	6291.02
488.467	6324.24
488.837	6526.95
489.207	6621.41
489.578	6760.84
489.948	6848.29
490.318	7017.78
490.688	7046.26
491.058	7195.63
491.428	7370.09
491.798	7428.39
492.168	7647.6
492.538	7635.84
492.908	7813.69
493.278	8011.65
493.648	7942.28
494.017	8091.88
494.387	8297.3
494.757	8396.73
495.126	8508.59
495.496	8521.24
495.866	8562.83
496.235	8728.02
496.605	8789.03
496.974	8916.94
497.344	9041.23
497.713	9130.27
498.082	9195.35
498.452	9286.2
498.821	9398.06
499.19	9405.74
499.559	9554.44
499.928	9643.02
500.298	9657.71
500.667	9819.97
501.036	9740.2
501.405	9899.29
501.774	9963.69
502.143	10007.76
502.512	10086.18
502.88	10149.22
503.249	10154.87
503.618	10271.26
503.987	10317.36
504.356	10388.31
504.724	10455.21
505.093	10490.91
505.462	10525.94
505.83	10596.9
506.199	10643.9
506.567	10779.49
506.936	10789.66
507.304	10927.06
507.672	10836.21
508.041	10885.25
508.409	10977.68
508.777	11037.79
509.145	11089.09
509.514	11174.28
509.882	11175.86
510.25	11222.87
510.618	11274.62
510.986	11203.21
511.354	11337.44
511.722	11411.11
512.09	11478.68
512.458	11389.42
512.826	11491.34
513.193	11482.75
513.561	11510.09
513.929	11565.68
514.297	11741.5
514.664	11756.64
515.032	11621.73
515.4	11727.94
515.767	11757.32
516.135	11877.54
516.502	11703.31
516.869	11937.43
517.237	11928.39
517.604	11867.82
517.972	11900.59
518.339	11883.64
518.706	11945.11
519.073	11972.91
519.44	12021.27
519.808	12031.44
520.175	11977.88
520.542	12170.64
520.909	12085.9
521.276	12091.55
521.643	12136.29
522.009	12261.26
522.376	12196.63
522.743	12258.1
523.11	12276.4
523.477	12291.32
523.843	12340.81
524.21	12367.7
524.577	12424.87
524.943	12415.83
525.31	12386.91
525.676	12478.88
526.043	12548.26
526.409	12452.67
526.776	12545.77
527.142	12478.43
527.508	12533.79
527.874	12542.16
528.241	12514.59
528.607	12525.66
528.973	12522.5
529.339	12564.98
529.705	12540.35
530.071	12616.28
530.437	12684.75
530.803	12649.95
531.169	12617.86
531.535	12544.64
531.901	12572.89
532.267	12542.16
532.632	12502.16
532.998	12546.68
533.364	12534.25
533.73	12557.3
534.095	12487.02
534.461	12450.63
534.826	12501.93
535.192	12386.45
535.557	12445.21
535.923	12317.98
536.288	12332.9
536.653	12305.33
537.019	12222.84
537.384	12272.11
537.749	12179.45
538.114	12207.02
538.479	12130.87
538.845	12115.73
539.21	12023.53
539.575	12063.52
539.94	12003.64
540.305	12012.23
540.67	11899.01
541.034	11909.4
541.399	11860.82
541.764	11827.15
542.129	11849.74
542.494	11706.92
542.858	11739.69
543.223	11670.09
543.587	11692.46
543.952	11661.73
544.316	11572.01
544.681	11513.71
545.045	11552.13
545.41	11557.55
545.774	11504.67
546.138	11431.22
546.503	11367.72
546.867	11325.01
547.231	11402.3
547.595	11268.07
547.959	11271.68
548.324	11214.73
548.688	11165.02
549.052	11187.84
549.416	11088.63
549.779	11029.88
550.143	10966.6
550.507	10932.48
550.871	10977.23
551.235	10867.85
551.599	10901.97
551.962	10933.84
552.326	10802.09
552.689	10875.08
553.053	10759.38
553.417	10771.36
553.78	10861.3
554.143	10681.19
554.507	10652.04
554.87	10693.39
555.234	10713.5
555.597	10595.77
555.96	10610
556.323	10614.07
556.686	10574.75
557.05	10591.7
557.413	10558.48
557.776	10466.73
558.139	10515.32
558.502	10444.36
558.865	10474.64
559.228	10517.12
559.59	10430.35
559.953	10425.15
560.316	10499.95
560.679	10461.53
561.041	10365.04
561.404	10477.13
561.767	10495.43
562.129	10414.75
562.492	10459.95
562.854	10396.45
563.217	10366.17
563.579	10407.3
563.941	10353.97
564.304	10461.76
564.666	10419.5
565.028	10425.38
565.39	10373.63
565.753	10454.98
566.115	10472.15
566.477	10479.61
566.839	10471.93
567.201	10444.13
567.563	10500.63
567.925	10499.05
568.287	10482.55
568.648	10542.21
569.01	10443.23
569.372	10447.52
569.734	10501.53
570.095	10477.13
570.457	10521.87
570.819	10518.71
571.18	10489.1
571.542	10537.01
571.903	10553.51
572.265	10520.29
572.626	10526.84
572.987	10505.15
573.349	10554.86
573.71	10540.63
574.071	10500.4
574.432	10506.28
574.794	10633.73
575.155	10578.37
575.516	10557.35
575.877	10534.07
576.238	10574.3
576.599	10521.87
576.96	10631.47
577.32	10620.17
577.681	10526.39
578.042	10502.44
578.403	10551.47
578.763	10629.89
579.124	10574.07
579.485	10619.27
579.845	10558.93
580.206	10539.04
580.566	10533.85
580.927	10594.18
581.287	10560.06
581.648	10603.45
582.008	10619.27
582.368	10531.59
582.728	10539.5
583.089	10518.03
583.449	10514.64
583.809	10494.07
584.169	10515.09
584.529	10492.27
584.889	10503.57
585.249	10525.26
585.609	10395.32
585.969	10467.86
586.329	10519.16
586.688	10485.26
587.048	10405.49
587.408	10466.73
587.768	10451.36
588.127	10431.25
588.487	10389.9
588.846	10460.85
589.206	10395.55
589.565	10348.32
589.925	10420.86
590.284	10389.44
590.643	10304.25
591.003	10369.11
591.362	10410.46
591.721	10328.65
592.08	10368.43
592.44	10285.72
592.799	10391.25
593.158	10298.83
593.517	10350.35
593.876	10324.81
594.235	10286.62
594.593	10286.4
594.952	10288.2
595.311	10227.19
595.67	10278.71
596.029	10396.68
596.387	10243.46
596.746	10285.04
597.104	10276.45
597.463	10267.41
597.822	10243.23
598.18	10257.7
598.538	10235.1
598.897	10267.19
599.255	10213.86
599.613	10330.69
599.972	10246.4
600.33	10328.43
600.688	10190.81
601.046	10277.36
601.404	10290.01
601.762	10234.87
602.12	10241.65
602.478	10227.41
602.836	10222.67
603.194	10248.66
603.552	10165.27
603.91	10158.94
604.268	10191.94
604.625	10214.08
604.983	10185.61
605.341	10199.62
605.698	10225.15
606.056	10178.15
606.413	10164.14
606.771	10232.16
607.128	10260.63
607.485	10170.92
607.843	10176.57
608.2	10196.23
608.557	10275.78
608.914	10224.7
609.272	10231.71
609.629	10268.09
609.986	10255.66
610.343	10259.05
610.7	10299.5
611.057	10269.9
611.414	10325.04
611.771	10333.85
612.127	10324.59
612.484	10307.19
612.841	10333.4
613.198	10310.8
613.554	10287.07
613.911	10334.53
614.267	10335.43
614.624	10249.56
614.98	10349.9
615.337	10362.33
615.693	10372.72
616.05	10325.04
616.406	10388.54
616.762	10305.6
617.118	10374.3
617.475	10388.99
617.831	10414.98
618.187	10457.01
618.543	10436.22
618.899	10549.67
619.255	10431.03
619.611	10412.04
619.967	10479.39
620.323	10483.68
620.678	10389.44
621.034	10445.71
621.39	10413.17
621.746	10399.16
622.101	10479.61
622.457	10435.54
622.812	10487.97
623.168	10458.37
623.523	10467.41
623.879	10497.92
624.234	10487.97
624.589	10471.93
624.945	10463.57
625.3	10506.96
625.655	10471.7
626.01	10402.1
626.365	10490.46
626.72	10436.9
627.075	10442.55
627.43	10483.68
627.785	10374.76
628.14	10441.65
628.495	10366.85
628.85	10452.95
629.205	10395.77
629.559	10461.98
629.914	10357.81
630.269	10344.93
630.623	10357.58
630.978	10395.77
631.332	10354.87
631.687	10385.38
632.041	10356.68
632.396	10352.84
632.75	10281.88
633.104	10307.19
633.459	10308.32
633.813	10280.07
634.167	10256.79
634.521	10254.31
634.875	10236.91
635.229	10214.08
635.583	10241.88
635.937	10224.93
636.291	10243.69
636.645	10209.11
636.999	10214.76
637.352	10148.32
637.706	10108.1
638.06	10188.55
638.413	10155.78
638.767	10195.55
639.121	10186.06
639.474	10116.68
639.828	10169.11
640.181	10121.65
640.534	10077.59
640.888	10047.98
641.241	10043.01
641.594	10054.09
641.947	10066.97
642.301	10043.01
642.654	10109.45
643.007	10021.77
643.36	10001.88
643.713	9963.47
644.066	10028.55
644.419	10003.69
644.771	9903.81
645.124	9879.18
645.477	9798.05
645.83	9745.39
646.182	9753.75
646.535	9693.19
646.888	9788.56
647.24	9666.98
647.593	9773.64
647.945	9695.9
648.298	9681.89
648.65	9632.4
649.002	9673.08
649.355	9727.31
649.707	9683.47
650.059	9664.04
650.411	9827.43
650.763	9824.94
651.115	9944.26
651.467	9873.3
651.819	9896.35
652.171	9962.34
652.523	9952.39
652.875	9879.4
653.227	9822.23
653.578	9953.07
653.93	9935.44
654.282	9867.42
654.633	9846.86
654.985	9867.88
655.337	9869.23
655.688	9871.04
656.039	9974.09
656.391	9855.9
656.742	9864.03
657.094	9821.1
657.445	9879.63
657.796	9980.87
658.147	9933.64
658.498	9925.73
658.849	9915.78
659.2	9923.24
659.551	9842.11
659.902	9979.06
660.253	9838.5
660.604	9992.39
660.955	9884.6
661.306	9964.37
661.656	9929.8
662.007	9979.06
662.358	9926.63
662.708	10016.8
663.059	10033.75
663.409	9961.66
663.76	10021.09
664.11	10010.92
664.461	9997.36
664.811	10044.82
665.161	9997.82
665.511	9945.84
665.862	10008.44
666.212	10012.96
666.562	10020.64
666.912	9986.74
667.262	9974.99
667.612	9969.57
667.962	10005.05
668.312	10025.84
668.662	10092.95
669.011	9976.57
669.361	9971.6
669.711	9998.49
670.06	9931.83
670.41	9936.35
670.76	9945.61
671.109	10036.23
671.459	9987.42
671.808	9936.35
672.157	9977.7
672.507	9857.71
672.856	9812.28
673.205	9919.4
673.554	9980.19
673.904	9899.29
674.253	9900.19
674.602	9910.81
674.951	9720.08
675.3	9698.84
675.649	9901.1
675.998	9864.49
676.346	9887.31
676.695	9843.47
677.044	9788.78
677.393	9824.04
677.741	9797.82
678.09	9712.4
678.438	9782.45
678.787	9763.47
679.135	9706.07
679.484	9742.46
679.832	9733.42
680.181	9662.68
680.529	9711.72
680.877	9683.93
681.225	9625.62
681.573	9732.06
681.922	9649.35
682.27	9634.44
682.618	9530.94
682.966	9609.58
683.314	9568
683.661	9539.52
684.009	9544.72
684.357	9494.33
684.705	9448.23
685.053	9552.4
685.4	9410.49
685.748	9452.07
686.095	9405.52
686.443	9388.34
686.79	9354.44
687.138	9417.94
687.485	9314.9
687.832	9324.16
688.18	9325.52
688.527	9266.54
688.874	9231.06
689.221	9257.27
689.568	9205.97
689.915	9222.24
690.262	9140.21
690.609	9065.19
690.956	9058.86
691.303	9076.48
691.65	9008.01
691.997	9035.81
692.344	8946.32
692.69	8939.09
693.037	8948.35
693.383	8872.87
693.73	8916.49
694.077	8885.3
694.423	8794.01
694.769	8820.45
695.116	8757.17
695.462	8754.69
695.808	8713.33
696.155	8762.82
696.501	8665.65
696.847	8608.25
697.193	8563.5
697.539	8636.5
697.885	8526.89
698.231	8465.65
698.577	8460.68
698.923	8442.83
699.269	8377.07
699.614	8366.45
699.96	8339.78
700.306	8322.83
700.651	8261.36
700.997	8247.35
701.342	8261.59
701.688	8280.8
702.033	8178.66
702.379	8080.58
702.724	8138.43
703.069	8099.34
703.415	8046.46
703.76	8010.07
704.105	8017.08
704.45	7997.42
704.795	7980.47
705.14	7907.48
705.485	7918.1
705.83	7897.53
706.175	7895.5
706.52	7839
706.865	7846.69
707.209	7755.16
707.554	7742.73
707.899	7782.51
708.243	7724.43
708.588	7727.14
708.932	7643.98
709.277	7594.04
709.621	7644.21
709.966	7562.17
710.31	7579.57
710.654	7535.96
710.998	7544.1
711.342	7547.49
711.687	7535.73
712.031	7480.37
712.375	7445.57
712.719	7490.76
713.063	7422.97
713.407	7499.8
713.75	7364.67
714.094	7363.54
714.438	7339.36
714.782	7320.82
715.125	7303.42
715.469	7341.39
715.812	7284.89
716.156	7257.55
716.499	7298.68
716.843	7242.18
717.186	7208.74
717.53	7313.37
717.873	7230.21
718.216	7177.55
718.559	7155.63
718.902	7153.82
719.246	7121.06
719.589	7145.24
719.932	7122.86
720.275	7149.98
720.617	7123.09
720.96	7139.36
721.303	7109.98
721.646	7102.98
721.989	7071.57
722.331	7087.84
722.674	7099.14
723.016	7095.75
723.359	7083.54
723.701	7083.54
724.044	7043.77
724.386	7025.69
724.729	7042.19
725.071	7087.61
725.413	7071.79
725.755	7031.34
726.097	6996.09
726.439	7005.13
726.782	6980.27
727.124	7035.86
727.465	7004.45
727.807	7046.71
728.149	6955.41
728.491	6923.09
728.833	6992.25
729.175	6947.5
729.516	6961.29
729.858	6995.64
730.199	6986.37
730.541	6962.87
730.882	6968.29
731.224	6995.41
731.565	6944.11
731.906	6954.05
732.248	7005.8
732.589	7007.84
732.93	6919.25
733.271	6993.83
733.612	6961.06
733.953	7013.49
734.294	6970.33
734.635	6929.65
734.976	7059.59
735.317	6931.91
735.658	7000.61
735.999	7028.63
736.339	7001.28
736.68	7001.74
737.021	6973.71
737.361	6947.5
737.702	7058.91
738.042	6989.99
738.383	7046.03
738.723	6999.7
739.063	7088.97
739.404	7031.11
739.744	7091
740.084	7094.62
740.424	7103.2
740.764	7126.03
741.104	7119.25
741.444	7067.72
741.784	7151.11
742.124	7148.63
742.464	7194.95
742.804	7196.76
743.143	7213.48
743.483	7226.82
743.823	7152.24
744.162	7275.18
744.502	7301.39
744.841	7279.92
745.181	7394.04
745.52	7403.31
745.86	7367.15
746.199	7465.68
746.538	7445.34
746.877	7527.15
747.216	7514.94
747.556	7569.86
747.895	7681.49
748.234	7753.81
748.573	7702.28
748.911	7747.03
749.25	7861.83
749.589	7939.79
749.928	7939.57
750.267	8095.72
750.605	8098.66
750.944	8132.1
751.283	8241.48
751.621	8404.64
751.96	8351.53
752.298	8466.11
752.636	8596.95
752.975	8642.82
753.313	8734.8
753.651	8865.19
753.989	8912.42
754.327	9010.95
754.666	9151.96
755.004	9331.62
755.342	9390.37
755.679	9498.85
756.017	9594.89
756.355	9866.07
756.693	9869.23
757.031	10118.94
757.368	10185.16
757.706	10355.77
758.044	10443
758.381	10620.4
758.719	10821.3
759.056	10936.77
759.394	11051.8
759.731	11177.67
760.068	11354.62
760.405	11555.29
760.743	11637.55
761.08	11892.46
761.417	11953.02
