Data from hue_28_FLMS001491_00056.txt Node
Date: Tue Feb 07 17:17:28 GMT 2017
User: dcchb
Spectrometer: FLMS00149
Trigger mode: 0
Integration Time (sec): 2.000000E-2
Scans to average: 10
Electric dark correction enabled: true
Nonlinearity correction enabled: false
Boxcar width: 0
XAxis mode: Wavelengths
Number of Pixels in Spectrum: 2048
>>>>>Begin Spectral Data<<<<<
341.393	0.96
341.776	0.96
342.16	0.96
342.543	-69.32
342.927	-55.99
343.31	-69.77
343.693	-52.82
344.077	-91.01
344.46	-65.93
344.843	-38.36
345.226	-16.89
345.61	-12.82
345.993	-37.23
346.376	-11.92
346.759	-1.75
347.142	26.5
347.525	42.54
347.908	48.42
348.291	67.17
348.674	97.23
349.057	116.66
349.44	142.43
349.823	152.82
350.206	176.32
350.588	186.27
350.971	205.02
351.354	237.11
351.737	242.99
352.119	268.75
352.502	273.72
352.884	291.35
353.267	282.99
353.65	302.87
354.032	304
354.414	325.25
354.797	315.53
355.179	322.53
355.562	333.61
355.944	319.37
356.326	338.13
356.709	366.6
357.091	343.55
357.473	363.89
357.855	345.13
358.238	337.22
358.62	354.85
359.002	353.95
359.384	344.23
359.766	364.57
360.148	345.58
360.53	344.91
360.912	326.38
361.294	359.37
361.676	334.28
362.057	328.41
362.439	329.09
362.821	327.96
363.203	343.55
363.584	343.1
363.966	322.53
364.348	334.28
364.729	332.93
365.111	335.41
365.493	305.81
365.874	312.36
366.256	325.7
366.637	332.7
367.019	338.58
367.4	328.41
367.781	327.96
368.163	311.69
368.544	317.11
368.925	312.59
369.306	327.51
369.688	328.86
370.069	333.83
370.45	313.49
370.831	288.86
371.212	315.98
371.593	329.77
371.974	293.83
372.355	331.8
372.736	311.69
373.117	312.14
373.498	340.61
373.879	318.24
374.26	328.86
374.641	327.51
375.021	326.6
375.402	313.72
375.783	320.5
376.163	332.03
376.544	339.71
376.925	342.65
377.305	333.16
377.686	350.78
378.066	333.61
378.447	355.3
378.827	320.05
379.208	311.69
379.588	344.68
379.968	349.88
380.349	352.59
380.729	332.7
381.109	331.8
381.489	342.87
381.87	312.59
382.25	345.13
382.63	345.81
383.01	345.81
383.39	360.5
383.77	357.79
384.15	344.23
384.53	353.04
384.91	351.46
385.29	351.69
385.67	337.45
386.049	364.57
386.429	351.69
386.809	366.15
387.189	353.49
387.568	346.04
387.948	337
388.328	328.64
388.707	354.62
389.087	355.08
389.466	364.34
389.846	368.63
390.225	362.31
390.605	387.16
390.984	373.61
391.363	384.45
391.743	401.4
392.122	375.87
392.501	367.73
392.881	393.04
393.26	397.79
393.639	381.29
394.018	372.7
394.397	387.39
394.776	385.13
395.155	387.16
395.534	383.55
395.913	393.94
396.292	388.07
396.671	393.72
397.05	385.13
397.429	385.13
397.808	386.49
398.186	404.11
398.565	414.06
398.944	387.16
399.323	410.89
399.701	405.47
400.08	387.62
400.458	403.21
400.837	419.03
401.215	411.57
401.594	406.6
401.972	421.74
402.351	409.99
402.729	422.64
403.107	415.64
403.486	441.63
403.864	415.64
404.242	404.34
404.62	414.96
404.999	416.99
405.377	424.23
405.755	421.51
406.133	432.59
406.511	430.78
406.889	419.93
407.267	429.65
407.645	433.49
408.023	438.46
408.401	463.32
408.779	445.24
409.156	461.06
409.534	432.59
409.912	463.1
410.29	446.15
410.667	481.63
411.045	460.38
411.422	442.3
411.8	443.89
412.178	456.77
412.555	461.06
412.933	469.2
413.31	484.56
413.687	461.51
414.065	467.16
414.442	487.5
414.819	485.69
415.197	483.43
415.574	523.21
415.951	494.96
416.328	478.24
416.705	506.94
417.082	521.17
417.46	499.03
417.837	513.94
418.214	501.51
418.591	490.89
418.967	503.32
419.344	518.91
419.721	530.44
420.098	501.96
420.475	504
420.852	503.32
421.228	541.96
421.605	528.63
421.982	527.5
422.358	539.48
422.735	545.8
423.111	525.47
423.488	536.09
423.864	532.47
424.241	531.79
424.617	543.55
424.994	544.22
425.37	551.45
425.746	559.14
426.123	573.83
426.499	567.95
426.875	566.82
427.251	548.52
427.627	603.66
428.003	592.81
428.379	596.65
428.756	574.5
429.132	592.58
429.507	584.22
429.883	614.5
430.259	625.8
430.635	599.14
431.011	620.15
431.387	604.56
431.763	619.02
432.138	614.96
432.514	605.69
432.89	656.99
433.265	634.16
433.641	662.41
434.016	642.07
434.392	677.33
434.767	648.85
435.143	669.42
435.518	697.44
435.894	706.93
436.269	675.97
436.644	680.04
437.02	685.91
437.395	681.85
437.77	699.93
438.145	690.43
438.52	702.64
438.895	732.24
439.271	718.46
439.646	718.23
440.021	734.95
440.395	738.34
440.77	716.2
441.145	734.05
441.52	754.61
441.895	746.48
442.27	750.77
442.645	763.2
443.019	775.63
443.394	745.12
443.769	760.04
444.143	768.17
444.518	769.98
444.892	771.79
445.267	753.71
445.641	807.72
446.016	779.7
446.39	778.34
446.764	793.26
447.139	774.95
447.513	807.72
447.887	812.46
448.262	806.36
448.636	800.04
449.01	793.93
449.384	836.64
449.758	815.4
450.132	816.31
450.506	833.48
450.88	831.67
451.254	833.25
451.628	864.44
452.002	862.41
452.376	863.08
452.75	886.36
453.123	859.69
453.497	877.77
453.871	885.68
454.244	901.95
454.618	882.07
454.992	938.79
455.365	937.21
455.739	930.65
456.112	935.85
456.486	945.34
456.859	944.21
457.232	981.27
457.606	970.88
457.979	983.08
458.352	985.12
458.725	983.99
459.099	1016.53
459.472	1038.9
459.845	1036.64
460.218	1026.47
460.591	1059.01
460.964	1049.29
461.337	1045.9
461.71	1120.25
462.083	1081.38
462.456	1102.63
462.829	1124.77
463.201	1107.15
463.574	1125.9
463.947	1137.88
464.32	1148.73
464.692	1150.31
465.065	1167.48
465.438	1187.6
465.81	1225.11
466.183	1235.28
466.555	1263.98
466.928	1249.74
467.3	1252
467.672	1262.4
468.045	1293.81
468.417	1294.94
468.789	1314.15
469.161	1314.37
469.534	1350.53
469.906	1346.24
470.278	1388.49
470.65	1398.21
471.022	1383.52
471.394	1460.81
471.766	1477.31
472.138	1497.87
472.51	1530.41
472.882	1552.56
473.253	1531.99
473.625	1591.43
473.997	1637.3
474.369	1645.21
474.74	1640.69
475.112	1704.19
475.484	1748.71
475.855	1770.63
476.227	1777.86
476.598	1826.45
476.97	1852.44
477.341	1846.11
477.713	1910.97
478.084	1959.33
478.455	2002.26
478.827	2011.53
479.198	2070.28
479.569	2116.16
479.94	2153.67
480.311	2230.96
480.682	2242.71
481.053	2322.03
481.424	2336.49
481.795	2390.5
482.166	2422.82
482.537	2454
482.908	2574.9
483.279	2558.18
483.65	2613.32
484.021	2696.26
484.391	2740.32
484.762	2734.45
485.133	2788.23
485.503	2847.89
485.874	2927.89
486.244	2963.82
486.615	3008.56
486.985	3066.42
487.356	3151.84
487.726	3185.51
488.097	3260.76
488.467	3300.53
488.837	3404.71
489.207	3419.85
489.578	3503.92
489.948	3538.04
490.318	3585.95
490.688	3633.86
491.058	3723.35
491.428	3780.07
491.798	3825.27
492.168	3921.99
492.538	4000.4
492.908	3942.55
493.278	3991.59
493.648	4087.63
494.017	4200.62
494.387	4213.96
494.757	4290.79
495.126	4299.38
495.496	4307.74
495.866	4396.55
496.235	4436.55
496.605	4504.34
496.974	4547.73
497.344	4602.87
497.713	4584.79
498.082	4633.16
498.452	4716.99
498.821	4716.99
499.19	4769.2
499.559	4841.74
499.928	4873.83
500.298	4862.98
500.667	4956.08
501.036	4990.43
501.405	5044.9
501.774	5029.08
502.143	5058.91
502.512	5115.85
502.88	5167.6
503.249	5206.47
503.618	5207.38
503.987	5246.92
504.356	5302.29
504.724	5353.59
505.093	5342.06
505.462	5354.94
505.83	5415.96
506.199	5424.09
506.567	5524.66
506.936	5492.57
507.304	5568.72
507.672	5554.71
508.041	5578.21
508.409	5676.52
508.777	5674.03
509.145	5717.42
509.514	5695.05
509.882	5783.18
510.25	5811.2
510.618	5792.45
510.986	5792.67
511.354	5863.63
511.722	5960.35
512.09	5929.62
512.458	5996.73
512.826	5930.97
513.193	5970.29
513.561	6029.5
513.929	6035.6
514.297	6140.69
514.664	6144.3
515.032	6183.17
515.4	6205.09
515.767	6205.77
516.135	6263.62
516.502	6217.97
516.869	6329.83
517.237	6310.4
517.604	6299.55
517.972	6374.8
518.339	6414.58
518.706	6399.66
519.073	6412.54
519.44	6454.58
519.808	6526.66
520.175	6480.34
520.542	6549.26
520.909	6609.15
521.276	6584.29
521.643	6639.2
522.009	6662.71
522.376	6732.99
522.743	6737.96
523.11	6789.71
523.477	6838.07
523.843	6811.18
524.21	6976.6
524.577	6926.2
524.943	6917.61
525.31	6989.03
525.676	7017.05
526.043	7095.69
526.409	7079.87
526.776	7124.61
527.142	7215.46
527.508	7196.03
527.874	7262.24
528.241	7315.57
528.607	7384.5
528.973	7404.83
529.339	7347.66
529.705	7440.76
530.071	7506.98
530.437	7502.23
530.803	7542.68
531.169	7542.01
531.535	7615
531.901	7590.82
532.267	7610.03
532.632	7708.33
532.998	7694.09
533.364	7775.45
533.73	7792.39
534.095	7887.76
534.461	7904.93
534.826	7884.14
535.192	7978.6
535.557	8017.92
535.923	8083.69
536.288	8048.43
536.653	8103.8
537.019	8070.58
537.384	8108.32
537.749	8210.24
538.114	8189.22
538.479	8224.47
538.845	8268.54
539.21	8301.08
539.575	8343.57
539.94	8350.8
540.305	8353.51
540.67	8443
541.034	8406.39
541.399	8470.34
541.764	8473.05
542.129	8488.65
542.494	8530.68
542.858	8624.01
543.223	8681.86
543.587	8677.79
543.952	8721.41
544.316	8742.65
544.681	8776.77
545.045	8799.83
545.41	8802.31
545.774	8902.65
546.138	8894.06
546.503	8968.41
546.867	8956.21
547.231	9074.39
547.595	9079.82
547.959	9167.73
548.324	9132.02
548.688	9153.71
549.052	9165.01
549.416	9231.68
549.779	9223.09
550.143	9278
550.507	9369.08
550.871	9363.43
551.235	9346.03
551.599	9414.72
551.962	9435.97
552.326	9426.02
552.689	9514.83
553.053	9469.86
553.417	9516.64
553.78	9629.41
554.143	9561.61
554.507	9624.44
554.87	9614.04
555.234	9809.06
555.597	9739.24
555.96	9747.6
556.323	9821.49
556.686	9824.66
557.05	9848.84
557.413	9901.04
557.776	9919.57
558.139	9954.15
558.502	10006.57
558.865	9955.73
559.228	10019.91
559.59	10120.02
559.953	10108.49
560.316	10199.11
560.679	10203.86
561.041	10173.8
561.404	10304.64
561.767	10334.02
562.129	10251.54
562.492	10442.04
562.854	10367.24
563.217	10388.26
563.579	10432.78
563.941	10541.02
564.304	10542.83
564.666	10576.95
565.028	10560.23
565.39	10663.28
565.753	10688.59
566.115	10775.82
566.477	10810.39
566.839	10817.4
567.201	10837.96
567.563	10878.41
567.925	10964.74
568.287	10958.64
568.648	11037.73
569.01	11031.86
569.372	11092.87
569.734	11058.3
570.095	11235.02
570.457	11166.77
570.819	11194.11
571.18	11360.44
571.542	11425.07
571.903	11431.85
572.265	11489.02
572.626	11578.06
572.987	11584.16
573.349	11608.56
573.71	11702.8
574.071	11753.42
574.432	11836.81
574.794	11904.38
575.155	12010.36
575.516	12026.63
575.877	12119.06
576.238	12212.16
576.599	12344.82
576.96	12343.01
577.32	12376.23
577.681	12590.23
578.042	12654.41
578.403	12860.96
578.763	12917.46
579.124	12971.24
579.485	13255.53
579.845	13293.27
580.206	13428.18
580.566	13547.5
580.927	13723.09
581.287	13957.88
581.648	14001.5
582.008	14193.36
582.368	14307.02
582.728	14639.67
583.089	14725.32
583.449	14855.26
583.809	15069.94
584.169	15359.88
584.529	15450.95
584.889	15842.58
585.249	16051.16
585.609	16113.98
585.969	16559.62
586.329	16685.95
586.688	16908.54
587.048	17203.67
587.408	17377.68
587.768	17718.23
588.127	17939.92
588.487	18206.13
588.846	18617.87
589.206	18788.26
589.565	19063.28
589.925	19482.71
590.284	19801.8
590.643	20062.35
591.003	20475.9
591.362	20838.83
591.721	20997.47
592.08	21321.08
592.44	21552.94
592.799	21959.48
593.158	22354.04
593.517	22618.22
593.876	23056.4
594.235	23300.46
594.593	23580
594.952	23943.38
595.311	24327.78
595.67	24752.17
596.029	25089.11
596.387	25545.15
596.746	25920.05
597.104	25978.58
597.463	26362.98
597.822	26879.58
598.18	27040.48
598.538	27372.67
598.897	27791.64
599.255	27941.69
599.613	28745.52
599.972	28765.85
600.33	29129.23
600.688	29307.53
601.046	29815.09
601.404	30157
601.762	30362.2
602.12	30839.92
602.478	31056.42
602.836	31435.39
603.194	31517.42
603.552	31901.82
603.91	32050.29
604.268	32516.04
604.625	32728.69
604.983	33055.46
605.341	33189.92
605.698	33856.79
606.056	34028.31
606.413	34114.87
606.771	34771.57
607.128	34790.55
607.485	34902.42
607.843	35287.04
608.2	35580.82
608.557	35942.39
608.914	35980.81
609.272	36422.15
609.629	36772.2
609.986	36956.6
610.343	36988.91
610.7	37510.71
611.057	37562.01
611.414	37839.29
611.771	38084.7
612.127	38446.28
612.484	38557.91
612.841	38822.99
613.198	39044.45
613.554	39126.26
613.911	39479.47
614.267	39672.91
614.624	39733.7
614.98	39825.22
615.337	40346.34
615.693	40354.93
616.05	40489.16
616.406	40811.64
616.762	40783.16
617.118	40895.48
617.475	41118.98
617.831	41462.02
618.187	41584.95
618.543	41838.05
618.899	42062
619.255	42062
619.611	42166.18
619.967	42349.9
620.323	42469.45
620.678	42490.92
621.034	42551.93
621.39	42532.5
621.746	42832.15
622.101	43280.05
622.457	42958.93
622.812	43236.43
623.168	43472.36
623.523	43429.2
623.879	43654.5
624.234	43450.89
624.589	43617.67
624.945	43892.69
625.3	43863.76
625.655	43948.73
626.01	44085.9
626.365	44209.97
626.72	44082.29
627.075	44174.94
627.43	44202.28
627.785	44265.56
628.14	44396.86
628.495	44430.75
628.85	44382.17
629.205	44447.02
629.559	44726.11
629.914	44585.55
630.269	44648.15
630.623	44666.23
630.978	44642.27
631.332	44860.57
631.687	44868.03
632.041	44823.51
632.396	44852.66
632.75	44818.31
633.104	44967.69
633.459	44784.19
633.813	44882.72
634.167	44803.85
634.521	44971.3
634.875	45025.77
635.229	45012.21
635.583	44883.17
635.937	44907.8
636.291	44784.19
636.645	44901.93
636.999	44849.5
637.352	44880.46
637.706	44717.98
638.06	44902.83
638.413	44743.06
638.767	44763.85
639.121	44954.35
639.474	44833.91
639.828	44813.79
640.181	44841.14
640.534	44898.76
640.888	44706.23
641.241	44594.36
641.594	44715.04
641.947	44846.11
642.301	44715.26
642.654	44870.52
643.007	44809.27
643.36	44771.31
643.713	44801.14
644.066	44831.19
644.419	44525.21
644.771	44267.82
645.124	44010.2
645.477	43991.67
645.83	43653.6
646.182	43608.4
646.535	43525.47
646.888	43617.44
647.24	43256.77
647.593	43573.37
647.945	43378.12
648.298	43502.87
648.65	43269.43
649.002	43271.69
649.355	43312.14
649.707	43354.17
650.059	43605.46
650.411	43831.67
650.763	44089.52
651.115	44394.82
651.467	44453.8
651.819	44332.68
652.171	44182.62
652.523	44059.01
652.875	44183.08
653.227	44095.39
653.578	44266.92
653.93	44193.24
654.282	44066.02
654.633	43908.96
654.985	44120.93
655.337	44054.04
655.688	44028.5
656.039	44298.78
656.391	43904.66
656.742	43977.43
657.094	43979.01
657.445	44134.26
657.796	43974.27
658.147	44016.75
658.498	43905.79
658.849	43987.83
659.2	43859.92
659.551	43893.59
659.902	44061.04
660.253	43951.67
660.604	44048.62
660.955	43774.72
661.306	43934.72
661.656	43851.33
662.007	43939.24
662.358	43957.32
662.708	43948.73
663.059	43857.21
663.409	43714.84
663.76	44026.24
664.11	43805.68
664.461	43941.05
664.811	43850.43
665.161	43833.03
665.511	43683.43
665.862	43872.58
666.212	43885.23
666.562	43923.87
666.912	43778.79
667.262	43721.39
667.612	43894.04
667.962	43825.34
668.312	43678.46
668.662	44076.41
669.011	43704.9
669.361	43567.05
669.711	43704.67
670.06	43744.89
670.41	43605.01
670.76	43516.43
671.109	43884.33
671.459	43588.74
671.808	43653.15
672.157	43688.17
672.507	43317.79
672.856	43327.05
673.205	43363.89
673.554	43645.46
673.904	43398.01
674.253	43696.53
674.602	43525.92
674.951	42934.75
675.3	42832.38
675.649	43304.23
675.998	43334.96
676.346	43326.6
676.695	43404.34
677.044	43224
677.393	43348.75
677.741	43330.67
678.09	43172.71
678.438	43108.3
678.787	43264.23
679.135	43238.69
679.484	42901.75
679.832	43050.68
680.181	42871.92
680.529	42899.49
680.877	42890.91
681.225	42904.24
681.573	43100.84
681.922	42884.8
682.27	42646.39
682.618	42638.03
682.966	42671.48
683.314	42734.07
683.661	42474.19
684.009	42416.79
684.357	42353.07
684.705	42236.91
685.053	42363.24
685.4	42233.07
685.748	42073.3
686.095	42059.52
686.443	41871.5
686.79	41850.71
687.138	42035.11
687.485	41983.81
687.832	41778.62
688.18	41792.86
688.527	41596.48
688.874	41622.24
689.221	41525.97
689.568	41309.03
689.915	41252.08
690.262	41275.81
690.609	41224.28
690.956	41099.54
691.303	41023.84
691.65	40858.87
691.997	40820.68
692.344	40716.73
692.69	40630.63
693.037	40658.2
693.383	40418.43
693.73	40582.49
694.077	40246.23
694.423	40297.08
694.769	40085.33
695.116	39960.36
695.462	39901.61
695.808	39955.62
696.155	39978.67
696.501	39666.36
696.847	39551.33
697.193	39340.04
697.539	39561.5
697.885	39172.13
698.231	39200.61
698.577	39073.15
698.923	39034.28
699.269	38912.71
699.614	38733.05
699.96	38611.24
700.306	38727.63
700.651	38534.41
700.997	38474.07
701.342	38353.62
701.688	38340.52
702.033	38154.31
702.379	38264.81
702.724	38077.47
703.069	38156.79
703.415	37798.38
703.76	37848.33
704.105	37741.66
704.45	37740.31
704.795	37560.2
705.14	37353.65
705.485	37237.5
705.83	37221.45
706.175	37163.15
706.52	37104.17
706.865	36990.72
707.209	36952.53
707.554	36796.38
707.899	36994.56
708.243	36628.47
708.588	36644.29
708.932	36457.18
709.277	36502.15
709.621	36396.61
709.966	36184.19
710.31	36260.35
710.654	35950.07
710.998	36023.52
711.342	36020.35
711.687	35910.75
712.031	35845.67
712.375	35713.69
712.719	35643.64
713.063	35634.15
713.407	35794.14
713.75	35617.43
714.094	35589.18
714.438	35346.25
714.782	35354.61
715.125	35149.41
715.469	35178.11
715.812	35067.61
716.156	34958.46
716.499	34985.35
716.843	34895.64
717.186	34676.21
717.53	34962.3
717.873	34933.83
718.216	34735.87
718.559	34519.6
718.902	34385.59
719.246	34509.43
719.589	34330.68
719.932	34201.42
720.275	34257.69
720.617	34182.21
720.96	34203.9
721.303	34117.13
721.646	34112.38
721.989	34028.54
722.331	34017.92
722.674	33822.44
723.016	34003.23
723.359	33872.61
723.701	33948.32
724.044	33693.86
724.386	33473.3
724.729	33685.72
725.071	33540.42
725.413	33532.51
725.755	33341.55
726.097	33366.18
726.439	33283.25
726.782	33261.1
727.124	33413.87
727.465	33128.45
727.807	33169.35
728.149	33064.72
728.491	32886.65
728.833	33049.58
729.175	32842.36
729.516	32893.2
729.858	32832.87
730.199	32826.54
730.541	32784.73
730.882	32722.13
731.224	32756.48
731.565	32553.55
731.906	32532.76
732.248	32569.14
732.589	32383.61
732.93	32284.41
733.271	32359.21
733.612	32308.13
733.953	32389.49
734.294	32230.17
734.635	32110.17
734.976	32299.09
735.317	32123.96
735.658	32035.6
735.999	32031.76
736.339	32020.46
736.68	32147.91
737.021	31797.41
737.361	31736.4
737.702	31909.27
738.042	31803.97
738.383	31788.6
738.723	31794.02
739.063	31594.93
739.404	31643.07
739.744	31603.97
740.084	31490.75
740.424	31495.05
740.764	31465.22
741.104	31520.13
741.444	31397.87
741.784	31334.15
742.124	31216.86
742.464	31215.05
742.804	31111.55
743.143	31103.42
743.483	31117.66
743.823	30972.8
744.162	30932.8
744.502	31033.14
744.841	30809.87
745.181	30881.05
745.52	30800.38
745.86	30840.6
746.199	30786.14
746.538	30661.62
746.877	30700.72
747.216	30685.58
747.556	30686.03
747.895	30677.44
748.234	30547.95
748.573	30491.91
748.911	30503.66
749.25	30506.37
749.589	30272.71
749.928	30324.46
750.267	30408.97
750.605	30153.84
750.944	30175.76
751.283	30045.37
751.621	30186.16
751.96	29887.18
752.298	29943.45
752.636	29925.82
752.975	29742.55
753.313	29701.42
753.651	29841.98
753.989	29769.22
754.327	29570.58
754.666	29400.19
755.004	29453.75
755.342	29599.5
755.679	29397.02
756.017	29217.14
756.355	29350.02
756.693	29167.2
757.031	29211.94
757.368	29058.95
757.706	29080.65
758.044	28930.37
758.381	28959.3
758.719	28926.98
759.056	28827.1
759.394	28799.53
759.731	28500.78
