Data from hue_28_FLMS001491_00025.txt Node
Date: Tue Feb 07 17:17:03 GMT 2017
User: dcchb
Spectrometer: FLMS00149
Trigger mode: 0
Integration Time (sec): 2.000000E-2
Scans to average: 10
Electric dark correction enabled: true
Nonlinearity correction enabled: false
Boxcar width: 0
XAxis mode: Wavelengths
Number of Pixels in Spectrum: 2048
>>>>>Begin Spectral Data<<<<<
341.393	-34.53
341.776	-34.53
342.16	-34.53
342.543	-70.01
342.927	-70.24
343.31	-64.36
343.693	-69.11
344.077	-62.78
344.46	-61.65
344.843	-41.76
345.226	-42.44
345.61	-49.22
345.993	-28.21
346.376	-7.64
346.759	-1.31
347.142	8.63
347.525	44.56
347.908	64.22
348.291	97.21
348.674	96.09
349.057	117.78
349.44	113.03
349.823	137.21
350.206	173.37
350.588	195.97
350.971	199.36
351.354	225.35
351.737	227.16
352.119	247.95
352.502	253.14
352.884	294.95
353.267	301.5
353.65	276.87
354.032	295.63
354.414	315.74
354.797	303.54
355.179	316.19
355.562	330.88
355.944	325.46
356.326	329.75
356.709	329.3
357.091	320.26
357.473	337.21
357.855	325.68
358.238	337.43
358.62	341.95
359.002	358.45
359.384	333.14
359.766	349.64
360.148	371.78
360.53	321.84
360.912	347.6
361.294	337.89
361.676	325.91
362.057	339.92
362.439	341.28
362.821	307.83
363.203	338.34
363.584	329.53
363.966	332.24
364.348	347.15
364.729	338.79
365.111	307.83
365.493	329.07
365.874	311.45
366.256	312.58
366.637	322.52
367.019	323.2
367.4	334.95
367.781	290.66
368.163	322.07
368.544	308.73
368.925	309.41
369.306	334.5
369.688	322.52
370.069	321.16
370.45	311.22
370.831	305.12
371.212	327.49
371.593	316.42
371.974	301.73
372.355	310.32
372.736	305.12
373.117	328.17
373.498	322.97
373.879	315.74
374.26	318.68
374.641	325.46
375.021	325.01
375.402	321.62
375.783	345.34
376.163	337.21
376.544	325.01
376.925	329.3
377.305	322.29
377.686	317.77
378.066	329.53
378.447	348.28
378.827	345.34
379.208	339.02
379.588	338.79
379.968	329.53
380.349	356.64
380.729	336.08
381.109	331.11
381.489	352.58
381.87	318.9
382.25	349.41
382.63	342.86
383.01	350.77
383.39	319.58
383.77	359.35
384.15	355.06
384.53	353.25
384.91	353.48
385.29	371.56
385.67	361.84
386.049	356.87
386.429	355.74
386.809	381.5
387.189	355.06
387.568	346.02
387.948	371.33
388.328	370.43
388.707	369.52
389.087	365.91
389.466	365.68
389.846	360.03
390.225	378.11
390.605	367.49
390.984	386.92
391.363	392.8
391.743	374.5
392.122	374.27
392.501	369.75
392.881	395.96
393.26	379.02
393.639	367.04
394.018	372.69
394.397	378.34
394.776	374.5
395.155	388.28
395.534	384.89
395.913	388.28
396.292	384.21
396.671	383.54
397.05	398
397.429	410.2
397.808	403.65
398.186	390.31
398.565	408.39
398.944	399.35
399.323	393.25
399.701	411.33
400.08	390.99
400.458	410.2
400.837	415.62
401.215	423.08
401.594	427.6
401.972	410.65
402.351	411.33
402.729	410.43
403.107	430.77
403.486	431.67
403.864	437.54
404.242	434.38
404.62	443.65
404.999	422.4
405.377	419.92
405.755	439.8
406.133	436.19
406.511	431.9
406.889	434.61
407.267	448.39
407.645	423.53
408.023	446.13
408.401	442.52
408.779	455.62
409.156	459.24
409.534	458.11
409.912	449.3
410.29	447.26
410.667	477.54
411.045	467.6
411.422	444.32
411.8	466.24
412.178	497.43
412.555	465.34
412.933	494.04
413.31	470.54
413.687	489.75
414.065	485.91
414.442	508.5
414.819	503.53
415.197	518.45
415.574	525
415.951	511.67
416.328	508.5
416.705	513.7
417.082	523.64
417.46	516.41
417.837	532.91
418.214	529.07
418.591	526.58
418.967	556.19
419.344	524.77
419.721	533.36
420.098	535.4
420.475	556.64
420.852	539.69
421.228	564.55
421.605	554.6
421.982	566.13
422.358	564.32
422.735	575.17
423.111	582.17
423.488	568.39
423.864	598.9
424.241	589.63
424.617	585.11
424.994	607.26
425.37	581.27
425.746	573.13
426.123	606.58
426.499	597.31
426.875	627.37
427.251	618.33
427.627	636.41
428.003	615.85
428.379	637.54
428.756	632.79
429.132	640.25
429.507	635.05
429.883	637.31
430.259	672.12
430.635	649.06
431.011	670.31
431.387	675.73
431.763	673.7
432.138	660.82
432.514	674.83
432.89	694.04
433.265	694.26
433.641	710.98
434.016	713.24
434.392	715.05
434.767	707.82
435.143	742.85
435.518	738.33
435.894	748.5
436.269	714.6
436.644	762.51
437.02	773.13
437.395	761.38
437.77	766.12
438.145	783.07
438.52	781.94
438.895	768.16
439.271	776.29
439.646	797.54
440.021	816.74
440.395	793.92
440.77	822.39
441.145	820.13
441.52	817.42
441.895	826.01
442.27	815.84
442.645	815.61
443.019	841.38
443.394	825.33
443.769	844.31
444.143	858.1
444.518	861.94
444.892	866.91
445.267	857.42
445.641	887.25
446.016	876.18
446.39	903.3
446.764	863.75
447.139	878.66
447.513	892.9
447.887	926.57
448.262	903.52
448.636	916.4
449.01	926.8
449.384	934.71
449.758	957.53
450.132	915.95
450.506	925.22
450.88	972.45
451.254	958.89
451.628	956.18
452.002	961.37
452.376	973.35
452.75	983.29
453.123	974.25
453.497	993.46
453.871	1023.97
454.244	1024.65
454.618	1016.06
454.992	1028.49
455.365	1047.7
455.739	1062.84
456.112	1063.74
456.486	1068.26
456.859	1121.14
457.232	1124.53
457.606	1098.54
457.979	1106.23
458.352	1152.78
458.725	1165.44
459.099	1155.49
459.472	1184.42
459.845	1174.25
460.218	1190.52
460.591	1209.73
460.964	1220.58
461.337	1243.85
461.71	1256.51
462.083	1259.44
462.456	1283.62
462.829	1291.53
463.201	1305.09
463.574	1270.74
463.947	1302.61
464.32	1345.77
464.692	1341.93
465.065	1353.91
465.438	1398.88
465.81	1406.79
466.183	1421.25
466.555	1439.55
466.928	1452.43
467.3	1460.57
467.672	1504.86
468.045	1500.12
468.417	1502.38
468.789	1527.46
469.161	1509.61
469.534	1583.96
469.906	1601.81
470.278	1610.17
470.65	1642.26
471.022	1670.51
471.394	1696.95
471.766	1712.54
472.138	1726.55
472.51	1791.86
472.882	1788.47
473.253	1821.46
473.625	1845.42
473.997	1878.86
474.369	1903.5
474.74	1892.65
475.112	1960.44
475.484	1997.05
475.855	2048.35
476.227	2041.12
476.598	2158.18
476.97	2142.13
477.341	2174.67
477.713	2203.37
478.084	2253.99
478.455	2309.59
478.827	2341.45
479.198	2447.21
479.569	2423.71
479.94	2493.99
480.311	2541.67
480.682	2609.92
481.053	2681.33
481.424	2716.58
481.795	2757.48
482.166	2766.3
482.537	2842.91
482.908	2902.56
483.279	2949.12
483.65	2974.65
484.021	3081.54
484.391	3095.55
484.762	3190.47
485.133	3157.02
485.503	3252.39
485.874	3330.8
486.244	3377.13
486.615	3434.08
486.985	3484.7
487.356	3547.97
487.726	3615.77
488.097	3689.44
488.467	3715.88
488.837	3785.48
489.207	3867.96
489.578	3896.21
489.948	3935.76
490.318	4073.38
490.688	4062.31
491.058	4162.42
491.428	4217.78
491.798	4251.23
492.168	4350.44
492.538	4396.54
492.908	4469.98
493.278	4509.53
493.648	4525.8
494.017	4592.46
494.387	4698
494.757	4727.38
495.126	4775.51
495.496	4778.9
495.866	4841.27
496.235	4851.67
496.605	4900.25
496.974	4996.07
497.344	4991.32
497.713	5093.92
498.082	5087.37
498.452	5149.29
498.821	5170.98
499.19	5218.44
499.559	5291.2
499.928	5314.48
500.298	5364.2
500.667	5408.71
501.036	5395.38
501.405	5455.49
501.774	5538.2
502.143	5552.66
502.512	5594.7
502.88	5590.63
503.249	5684.64
503.618	5660.23
503.987	5718.08
504.356	5730.51
504.724	5777.97
505.093	5804.64
505.462	5842.83
505.83	5892.32
506.199	5941.36
506.567	5978.64
506.936	6034.23
507.304	6029.94
507.672	6056.61
508.041	6121.01
508.409	6187.45
508.777	6199.43
509.145	6218.86
509.514	6223.83
509.882	6299.09
510.25	6314.23
510.618	6298.86
510.986	6332.76
511.354	6453.88
511.722	6445.75
512.09	6494.11
512.458	6477.16
512.826	6571.17
513.193	6596.03
513.561	6571.62
513.929	6620.66
514.297	6638.51
514.664	6743.82
515.032	6700.21
515.4	6677.61
515.767	6793.08
516.135	6846.19
516.502	6844.16
516.869	6875.57
517.237	6918.73
517.604	6876.25
517.972	7002.34
518.339	6968.22
518.706	7037.82
519.073	7028.56
519.44	7031.04
519.808	7218.16
520.175	7151.27
520.542	7188.55
520.909	7258.16
521.276	7263.58
521.643	7315.78
522.009	7346.29
522.376	7378.15
522.743	7383.13
523.11	7554.42
523.477	7533.4
523.843	7569.33
524.21	7581.09
524.577	7687.52
524.943	7728.65
525.31	7712.38
525.676	7785.37
526.043	7836.67
526.409	7852.04
526.776	7952.38
527.142	8015.88
527.508	7999.61
527.874	8050.23
528.241	8093.39
528.607	8106.95
528.973	8195.99
529.339	8166.16
529.705	8196.89
530.071	8273.95
530.437	8380.84
530.803	8423.55
531.169	8478.01
531.535	8422.42
531.901	8522.08
532.267	8481.4
532.632	8561.85
532.998	8642.98
533.364	8668.74
533.73	8699.02
534.095	8732.69
534.461	8754.84
534.826	8830.09
535.192	8862.63
535.557	8885.68
535.923	8887.49
536.288	8997.77
536.653	8960.71
537.019	9002.74
537.384	8998.45
537.749	9030.99
538.114	9065.57
538.479	9222.17
538.845	9237.77
539.21	9189.86
539.575	9232.12
539.94	9233.47
540.305	9331.77
540.67	9325.9
541.034	9384.65
541.399	9493.13
541.764	9425.33
542.129	9486.35
542.494	9508.04
542.858	9591.43
543.223	9551.43
543.587	9608.38
543.952	9684.53
544.316	9725.66
544.681	9690.86
545.045	9732.44
545.41	9792.78
545.774	9856.96
546.138	9853.57
546.503	9863.96
546.867	9862.83
547.231	10005.88
547.595	10053.79
547.959	10058.99
548.324	10113.9
548.688	10093.34
549.052	10111.41
549.416	10117.52
549.779	10178.98
550.143	10113.9
550.507	10272.09
550.871	10317.51
551.235	10274.8
551.599	10333.56
551.962	10432.54
552.326	10501.01
552.689	10507.34
553.053	10484.06
553.417	10533.1
553.78	10684.96
554.143	10577.17
554.507	10657.84
554.87	10702.36
555.234	10838.4
555.597	10793.66
555.96	10796.37
556.323	10829.36
556.686	10791.62
557.05	10975.35
557.413	10903.94
557.776	10935.8
558.139	11024.39
558.502	11027.32
558.865	10998.62
559.228	11146.19
559.59	11212.18
559.953	11121.56
560.316	11236.81
560.679	11215.11
561.041	11366.75
561.404	11393.42
561.767	11342.34
562.129	11414.21
562.492	11550.25
562.854	11503.92
563.217	11535.33
563.579	11622.34
563.941	11708.44
564.304	11658.27
564.666	11726.29
565.028	11740.98
565.39	11804.7
565.753	11793.86
566.115	11863.69
566.477	11941.2
566.839	11900.52
567.201	12024.58
567.563	12066.84
567.925	12193.39
568.287	12075.21
568.648	12164.69
569.01	12255.09
569.372	12379.83
569.734	12325.14
570.095	12413.05
570.457	12480.39
570.819	12429.09
571.18	12532.37
571.542	12582.31
571.903	12609.88
572.265	12591.12
572.626	12752.02
572.987	12684.68
573.349	12883.55
573.71	12888.74
574.071	13051.45
574.432	13140.71
574.794	13154.72
575.155	13243.76
575.516	13194.05
575.877	13354.95
576.238	13382.52
576.599	13527.37
576.96	13566.69
577.32	13641.04
577.681	13835.84
578.042	13897.98
578.403	13978.43
578.763	14070.86
579.124	14145.89
579.485	14282.15
579.845	14461.36
580.206	14439.21
580.566	14669.49
580.927	14775.25
581.287	14936.37
581.648	15040.1
582.008	15212.75
582.368	15292.07
582.728	15446.87
583.089	15677.37
583.449	15799.63
583.809	16010.24
584.169	16266.06
584.529	16305.6
584.889	16621.98
585.249	16885.25
585.609	16948.75
585.969	17340.83
586.329	17482.52
586.688	17776.52
587.048	17850.87
587.408	18067.59
587.768	18375.83
588.127	18539.89
588.487	18794.35
588.846	19184.62
589.206	19264.85
589.565	19610.15
589.925	19965.39
590.284	20143.47
590.643	20455.78
591.003	20734.64
591.362	21102.99
591.721	21288.97
592.08	21600.38
592.44	21922.63
592.799	22278.33
593.158	22442.62
593.517	22702.5
593.876	23136.16
594.235	23339.54
594.593	23594
594.952	23934.78
595.311	24189.69
595.67	24592.62
596.029	25043
596.387	25260.17
596.746	25548.3
597.104	25744.22
597.463	26063.76
597.822	26414.72
598.18	26721.37
598.538	26905.78
598.897	27374.92
599.255	27438.19
599.613	28178.74
599.972	28151.17
600.33	28536.69
600.688	28818.04
601.046	29129.22
601.404	29497.12
601.762	29692.59
602.12	30058.46
602.478	30284.9
602.836	30647.6
603.194	30752.91
603.552	31116.51
603.91	31242.84
604.268	31619.1
604.625	31672.43
604.983	32160.1
605.341	32305.41
605.698	32577.94
606.056	32943.13
606.413	33250.47
606.771	33450.46
607.128	33671.7
607.485	33842.32
607.843	34104
608.2	34430.32
608.557	34799.13
608.914	34813.36
609.272	35253.58
609.629	35384.2
609.986	35840.68
610.343	35710.06
610.7	36124.97
611.057	36258.52
611.414	36341.91
611.771	36738.29
612.127	36983.48
612.484	36968.79
612.841	37381.21
613.198	37473.86
613.554	37609.45
613.911	38027.97
614.267	38105.48
614.624	38219.15
614.98	38683.09
615.337	38682.42
615.693	38979.58
616.05	39033.14
616.406	39246.24
616.762	39312.46
617.118	39488.72
617.475	39582.73
617.831	39893.91
618.187	39977.07
618.543	40291.64
618.899	40373.22
619.255	40517.62
619.611	40453.89
619.967	40687.56
620.323	40879.65
620.678	40811.62
621.034	40923.94
621.39	40948.12
621.746	40988.57
622.101	41667.65
622.457	41281.44
622.812	41463.36
623.168	41645.05
623.523	41823.58
623.879	41999.84
624.234	41910.35
624.589	41948.77
624.945	42113.51
625.3	42273.73
625.655	42315.31
626.01	42413.84
626.365	42440.06
626.72	42498.36
627.075	42486.83
627.43	42598.47
627.785	42561.18
628.14	42633.72
628.495	42709.88
628.85	42659.03
629.205	42702.2
629.559	42988.29
629.914	42804.79
630.269	43064.22
630.623	42883.43
630.978	42930.66
631.332	43130.21
631.687	43338.79
632.041	42920.27
632.396	43145.8
632.75	43013.6
633.104	43256.98
633.459	43158
633.813	43127.95
634.167	43049.98
634.521	43310.32
634.875	43320.03
635.229	43156.87
635.583	43077.1
635.937	43111.45
636.291	43004.56
636.645	43179.02
636.999	43099.93
637.352	43069.42
637.706	42964.79
638.06	43156.2
638.413	43172.01
638.767	43024.9
639.121	43149.87
639.474	42911.91
639.828	43070.32
640.181	43089.53
640.534	43152.35
640.888	42941.96
641.241	42866.94
641.594	43045.01
641.947	42963.21
642.301	42932.47
642.654	42945.58
643.007	42980.16
643.36	42929.31
643.713	42938.57
644.066	43091.11
644.419	42879.82
644.771	42613.16
645.124	42250.23
645.477	42245.03
645.83	41930.24
646.182	41771.83
646.535	41659.29
646.888	41786.74
647.24	41426.3
647.593	41806.85
647.945	41706.52
648.298	41537.71
648.65	41557.14
649.002	41519.4
649.355	41563.7
649.707	41516.01
650.059	41756.46
650.411	42284.81
650.763	42193.74
651.115	42686.15
651.467	42476.67
651.819	42515.08
652.171	42445.93
652.523	42459.72
652.875	42348.31
653.227	42220.85
653.578	42603.44
653.93	42405.71
654.282	42347.18
654.633	42087.07
654.985	42175.2
655.337	42313.05
655.688	42232.6
656.039	42413.39
656.391	42208.65
656.742	42200.29
657.094	42380.4
657.445	42342.21
657.796	42262.43
658.147	42286.84
658.498	42172.04
658.849	42215.66
659.2	42165.71
659.551	42127.07
659.902	42271.02
660.253	42312.15
660.604	42208.42
660.955	41929.56
661.306	42080.97
661.656	42093.17
662.007	42101.53
662.358	42123.68
662.708	42217.01
663.059	42015.21
663.409	41974.76
663.76	42053.85
664.11	42035.77
664.461	42282.77
664.811	42212.49
665.161	42180.63
665.511	42038.71
665.862	42075.55
666.212	42117.35
666.562	42232.15
666.912	42048.43
667.262	41835.33
667.612	41978.15
667.962	41964.36
668.312	41981.99
668.662	42211.36
669.011	41931.14
669.361	42099.95
669.711	41923.91
670.06	42021.08
670.41	41872.16
670.76	41870.35
671.109	42015.66
671.459	41812.05
671.808	41722.34
672.157	41971.82
672.507	41677.82
672.856	41598.04
673.205	41640.3
673.554	41854.54
673.904	41699.51
674.253	41939.96
674.602	41834.65
674.951	41136.81
675.3	41003.94
675.649	41624.94
675.998	41602.11
676.346	41605.95
676.695	41615.67
677.044	41379.52
677.393	41588.33
677.741	41508.78
678.09	41412.51
678.438	41466.52
678.787	41484.38
679.135	41586.97
679.484	41253.65
679.832	41401.21
680.181	41186.53
680.529	41277.38
680.877	41113.09
681.225	41162.58
681.573	41434.89
681.922	41036.93
682.27	40979.53
682.618	40973.2
682.966	40881.91
683.314	41028.34
683.661	40877.16
684.009	40755.35
684.357	40623.61
684.705	40675.58
685.053	40649.14
685.4	40572.53
685.748	40342.71
686.095	40436.95
686.443	40189.04
686.79	40181.36
687.138	40302.03
687.485	40149.72
687.832	40128.93
688.18	40080.34
688.527	39886.45
688.874	39940.01
689.221	39847.13
689.568	39719.68
689.915	39654.82
690.262	39634.71
690.609	39412.11
690.956	39479.46
691.303	39363.53
691.65	39028.39
691.997	39056.64
692.344	39039.69
692.69	38928.96
693.037	38987.27
693.383	38707.27
693.73	38808.06
694.077	38706.82
694.423	38530.78
694.769	38493.49
695.116	38401.52
695.462	38339.6
695.808	38248.53
696.155	38269.32
696.501	38022.77
696.847	38020.06
697.193	37760.63
697.539	37939.61
697.885	37569.9
698.231	37473.41
698.577	37533.29
698.923	37270.7
699.269	37250.36
699.614	37127.65
699.96	37151.61
700.306	37030.71
700.651	36975.34
700.997	36819.87
701.342	36821.22
701.688	36803.14
702.033	36553.66
702.379	36661
702.724	36441.12
703.069	36566.09
703.415	36101.92
703.76	36282.93
704.105	36133.1
704.45	36197.96
704.795	35809.72
705.14	35831.64
705.485	35721.81
705.83	35574.7
706.175	35621.48
706.52	35489.96
706.865	35358.21
707.209	35475.72
707.554	35249.74
707.899	35323.63
708.243	35161.38
708.588	35086.35
708.932	34869.63
709.277	34868.5
709.621	34968.84
709.966	34686.59
710.31	34612.24
710.654	34421.74
710.998	34631.22
711.342	34520.49
711.687	34354.17
712.031	34234.62
712.375	34082.99
712.719	34148.52
713.063	34146.49
713.407	34139.03
713.75	34011.58
714.094	34035.98
714.438	33852.49
714.782	33940.39
715.125	33654.3
715.469	33807.52
715.812	33565.26
716.156	33450.46
716.499	33484.36
716.843	33469.22
717.186	33357.13
717.53	33385.15
717.873	33414.98
718.216	33457.69
718.559	33156.68
718.902	32987.88
719.246	32992.17
719.589	33003.02
719.932	32763.25
720.275	32858.61
720.617	32707.66
720.96	32703.14
721.303	32793.08
721.646	32769.35
721.989	32423.82
722.331	32611.61
722.674	32441.22
723.016	32437.16
723.359	32438.29
723.701	32416.59
724.044	32258.86
724.386	32135.69
724.729	32176.82
725.071	32081.01
725.413	32092.53
725.755	32110.38
726.097	31997.39
726.439	31901.35
726.782	31878.75
727.124	31918.98
727.465	31679.89
727.807	31806.21
728.149	31672.88
728.491	31581.36
728.833	31594.01
729.175	31446.9
729.516	31453
729.858	31518.31
730.199	31365.77
730.541	31287.36
730.882	31386.79
731.224	31436.5
731.565	31241.25
731.906	31197.41
732.248	31267.92
732.589	31019.79
732.93	31040.13
733.271	31027.25
733.612	30992
733.953	31064.31
734.294	30908.61
734.635	30822.28
734.976	30829.29
735.317	30622.51
735.658	30688.05
735.999	30674.26
736.339	30687.15
736.68	30704.09
737.021	30566.24
737.361	30293.94
737.702	30511.78
738.042	30636.07
738.383	30460.48
738.723	30328.28
739.063	30418
739.404	30322.18
739.744	30231.34
740.084	30178.91
740.424	30205.12
740.764	30138.46
741.104	30253.71
741.444	30055.3
741.784	29903.89
742.124	30085.13
742.464	29995.86
742.804	29925.81
743.143	29803.78
743.483	29754.06
743.823	29638.81
744.162	29650.79
744.502	29723.33
744.841	29568.3
745.181	29654.86
745.52	29545.93
745.86	29466.84
746.199	29472.94
746.538	29397.69
746.877	29473.39
747.216	29417.12
747.556	29232.49
747.895	29389.33
748.234	29299.16
748.573	29227.75
748.911	29129.22
749.25	29166.06
749.589	29030.47
749.928	29131.93
750.267	29144.13
750.605	28992.27
750.944	28872.28
751.283	28863.69
751.621	29003.12
751.96	28777.36
752.298	28802.67
752.636	28800.42
752.975	28690.36
753.313	28566.52
753.651	28662.34
753.989	28471.84
754.327	28523.59
754.666	28367.66
755.004	28296.7
755.342	28419.41
755.679	28300.54
756.017	28112.75
756.355	28290.82
756.693	28126.76
757.031	28166.08
757.368	27925.41
757.706	27890.83
758.044	27953.21
758.381	27916.14
