Data from hue_28_FLMS001491_00036.txt Node
Date: Tue Feb 07 17:17:12 GMT 2017
User: dcchb
Spectrometer: FLMS00149
Trigger mode: 0
Integration Time (sec): 2.000000E-2
Scans to average: 10
Electric dark correction enabled: true
Nonlinearity correction enabled: false
Boxcar width: 0
XAxis mode: Wavelengths
Number of Pixels in Spectrum: 2048
>>>>>Begin Spectral Data<<<<<
341.393	2.99
341.776	2.99
342.16	2.99
342.543	-72.26
342.927	-59.83
343.31	-53.05
343.693	-75.2
344.077	-59.83
344.46	-42.2
344.843	-49.43
345.226	-54.63
345.61	-40.17
345.993	-16.44
346.376	-6.95
346.759	8.64
347.142	23.78
347.525	38.02
347.908	69.21
348.291	78.47
348.674	78.47
349.057	101.3
349.44	123.22
349.823	132.93
350.206	151.46
350.588	185.14
350.971	203.89
351.354	236.43
351.737	246.83
352.119	254.06
352.502	268.3
352.884	271.01
353.267	278.69
353.65	293.38
354.032	294.74
354.414	289.09
354.797	312.82
355.179	327.96
355.562	300.84
355.944	344
356.326	338.8
356.709	353.72
357.091	326.83
357.473	336.09
357.855	349.65
358.238	316.43
358.62	372.7
359.002	325.25
359.384	341.06
359.766	342.87
360.148	336.32
360.53	347.84
360.912	344.91
361.294	318.69
361.676	321.4
362.057	318.69
362.439	336.32
362.821	323.44
363.203	303.1
363.584	323.21
363.966	326.15
364.348	335.19
364.729	313.04
365.111	318.92
365.493	310.78
365.874	328.41
366.256	344.23
366.637	323.44
367.019	303.1
367.4	319.82
367.781	318.24
368.163	323.44
368.544	322.76
368.925	317.11
369.306	313.72
369.688	308.97
370.069	311.01
370.45	313.04
370.831	319.37
371.212	310.1
371.593	320.5
371.974	319.82
372.355	297.22
372.736	314.4
373.117	343.1
373.498	314.85
373.879	304.46
374.26	304.91
374.641	325.25
375.021	326.6
375.402	318.47
375.783	329.31
376.163	330.9
376.544	318.01
376.925	307.85
377.305	299.71
377.686	328.18
378.066	317.34
378.447	315.53
378.827	322.31
379.208	331.12
379.588	308.52
379.968	334.51
380.349	319.82
380.729	333.61
381.109	345.36
381.489	329.99
381.87	327.96
382.25	337.45
382.63	329.54
383.01	329.77
383.39	340.61
383.77	349.2
384.15	331.12
384.53	359.82
384.91	346.04
385.29	345.36
385.67	357.79
386.049	341.29
386.429	353.27
386.809	348.3
387.189	335.64
387.568	351.69
387.948	359.37
388.328	339.71
388.707	349.65
389.087	352.59
389.466	344.68
389.846	366.6
390.225	362.08
390.605	367.96
390.984	348.3
391.363	345.13
391.743	379.48
392.122	366.15
392.501	381.29
392.881	376.54
393.26	365.02
393.639	359.82
394.018	369.31
394.397	382.87
394.776	350.78
395.155	359.6
395.534	367.96
395.913	373.38
396.292	372.48
396.671	407.05
397.05	386.94
397.429	394.4
397.808	381.29
398.186	400.05
398.565	393.49
398.944	378.8
399.323	386.04
399.701	399.14
400.08	379.71
400.458	409.99
400.837	409.31
401.215	403.21
401.594	407.28
401.972	395.07
402.351	389.88
402.729	409.09
403.107	403.89
403.486	424.9
403.864	401.63
404.242	377.67
404.62	409.99
404.999	414.51
405.377	387.16
405.755	419.03
406.133	415.19
406.511	437.79
406.889	420.61
407.267	425.36
407.645	413.83
408.023	440.27
408.401	431.46
408.779	427.84
409.156	419.48
409.534	440.04
409.912	436.88
410.29	461.97
410.667	426.26
411.045	440.5
411.422	450.21
411.8	440.72
412.178	449.31
412.555	432.81
412.933	463.55
413.31	454.73
413.687	475.75
414.065	458.12
414.442	472.36
414.819	477.11
415.197	467.39
415.574	479.14
415.951	487.5
416.328	495.86
416.705	483.21
417.082	485.69
417.46	470.78
417.837	506.03
418.214	527.73
418.591	475.3
418.967	512.59
419.344	487.05
419.721	504.22
420.098	511
420.475	518.46
420.852	513.04
421.228	524.34
421.605	531.34
421.982	530.89
422.358	532.25
422.735	518.69
423.111	512.36
423.488	514.39
423.864	549.87
424.241	540.83
424.617	535.86
424.994	561.17
425.37	529.08
425.746	546.48
426.123	561.85
426.499	541.29
426.875	568.86
427.251	543.77
427.627	561.62
428.003	594.62
428.379	575.86
428.756	559.59
429.132	580.83
429.507	598.91
429.883	610.66
430.259	582.19
430.635	597.55
431.011	597.33
431.387	606.82
431.763	612.02
432.138	626.25
432.514	618.12
432.89	626.03
433.265	621.74
433.641	622.64
434.016	662.64
434.392	653.15
434.767	662.86
435.143	649.08
435.518	686.37
435.894	675.52
436.269	682.75
436.644	696.76
437.02	689.3
437.395	690.21
437.77	700.38
438.145	708.06
438.52	703.99
438.895	715.29
439.271	695.63
439.646	728.62
440.021	730.21
440.395	743.31
440.77	722.07
441.145	729.3
441.52	732.01
441.895	750.55
442.27	753.71
442.645	752.13
443.019	763.2
443.394	738.34
443.769	747.16
444.143	765.91
444.518	776.53
444.892	760.94
445.267	749.87
445.641	772.92
446.016	793.93
446.39	792.35
446.764	788.28
447.139	780.83
447.513	782.41
447.887	785.12
448.262	781.28
448.636	799.58
449.01	824.44
449.384	791.22
449.758	817.89
450.132	838.68
450.506	859.47
450.88	848.85
451.254	848.17
451.628	854.95
452.002	881.62
452.376	846.81
452.75	847.94
453.123	871.45
453.497	894.04
453.871	883.42
454.244	897.43
454.618	898.34
454.992	927.72
455.365	915.96
455.739	915.51
456.112	976.53
456.486	942.63
456.859	982.4
457.232	964.78
457.606	965.68
457.979	949.18
458.352	1023.76
458.725	990.99
459.099	1003.87
459.472	1008.62
459.845	1016.75
460.218	1059.92
460.591	1070.99
460.964	1046.81
461.337	1079.8
461.71	1098.78
462.083	1102.4
462.456	1119.12
462.829	1104.21
463.201	1132.46
463.574	1131.55
463.947	1154.6
464.32	1166.81
464.692	1175.84
465.065	1188.05
465.438	1201.61
465.81	1216.97
466.183	1186.92
466.555	1244.77
466.928	1231.89
467.3	1238.67
467.672	1266.46
468.045	1286.58
468.417	1318.21
468.789	1314.15
469.161	1313.47
469.534	1334.03
469.906	1383.52
470.278	1370.64
470.65	1387.82
471.022	1422.62
471.394	1442.28
471.766	1457.19
472.138	1477.53
472.51	1512.11
472.882	1546.46
473.253	1542.84
473.625	1572.22
473.997	1602.5
474.369	1618.09
474.74	1617.64
475.112	1668.94
475.484	1667.36
475.855	1743.06
476.227	1762.95
476.598	1821.7
476.97	1804.75
477.341	1833.68
477.713	1897.18
478.084	1895.6
478.455	1954.36
478.827	1974.92
479.198	2053.79
479.569	2040.68
479.94	2114.35
480.311	2138.31
480.682	2188.47
481.053	2231.41
481.424	2283.84
481.795	2305.31
482.166	2320.67
482.537	2381.46
482.908	2419.88
483.279	2478.41
483.65	2547.11
484.021	2621.91
484.391	2628.91
484.762	2649.48
485.133	2683.83
485.503	2754.33
485.874	2764.96
486.244	2832.75
486.615	2901.45
486.985	2986.87
487.356	3025.74
487.726	3029.36
488.097	3111.84
488.467	3160.43
488.837	3237.71
489.207	3300.08
489.578	3319.07
489.948	3411.49
490.318	3466.18
490.688	3440.64
491.058	3527.2
491.428	3536.91
491.798	3639.28
492.168	3732.16
492.538	3712.28
492.908	3798.37
493.278	3833.4
493.648	3876.56
494.017	3926.28
494.387	3974.19
494.757	4040.18
495.126	4058.48
495.496	4094.19
495.866	4124.92
496.235	4193.84
496.605	4247.85
496.974	4293.5
497.344	4320.39
497.713	4328.3
498.082	4400.39
498.452	4481.29
498.821	4467.06
499.19	4481.52
499.559	4540.5
499.928	4563.1
500.298	4627.73
500.667	4658.24
501.036	4687.16
501.405	4700.27
501.774	4741.63
502.143	4781.63
502.512	4845.58
502.88	4853.49
503.249	4819.36
503.618	4901.17
503.987	4912.92
504.356	4920.61
504.724	4934.84
505.093	5045.57
505.462	5030.21
505.83	5099.36
506.199	5115.4
506.567	5146.36
506.936	5196.53
507.304	5210.31
507.672	5237.66
508.041	5270.88
508.409	5263.65
508.777	5322.85
509.145	5351.33
509.514	5373.02
509.882	5399.69
510.25	5367.37
510.618	5469.29
510.986	5502.28
511.354	5547.03
511.722	5627.71
512.09	5569.63
512.458	5583.41
512.826	5596.29
513.193	5642.39
513.561	5641.94
513.929	5702.28
514.297	5758.1
514.664	5788.6
515.032	5772.79
515.4	5817.08
515.767	5881.71
516.135	5872.9
516.502	5851.43
516.869	5939.79
517.237	5990.63
517.604	5869.05
517.972	5967.58
518.339	6036.06
518.706	6091.42
519.073	6078.77
519.44	6046.45
519.808	6107.01
520.175	6067.02
520.542	6107.01
520.909	6246.67
521.276	6209.84
521.643	6259.33
522.009	6281.02
522.376	6344.97
522.743	6303.62
523.11	6383.39
523.477	6455.93
523.843	6492.32
524.21	6447.34
524.577	6570.05
524.943	6576.61
525.31	6586.1
525.676	6617.96
526.043	6637.17
526.409	6640.33
526.776	6759.43
527.142	6784.28
527.508	6798.3
527.874	6817.05
528.241	6876.94
528.607	6928.46
528.973	6963.72
529.339	6963.26
529.705	7015.69
530.071	7078.97
530.437	7162.13
530.803	7189.25
531.169	7181.34
531.535	7193.54
531.901	7240.09
532.267	7247.78
532.632	7288
532.998	7375.68
533.364	7382.24
533.73	7375
534.095	7507.43
534.461	7486.64
534.826	7531.84
535.192	7572.74
535.557	7600.76
535.923	7593.53
536.288	7573.42
536.653	7673.75
537.019	7659.52
537.384	7710.81
537.749	7742.45
538.114	7750.14
538.479	7737.93
538.845	7807.53
539.21	7830.81
539.575	7873.3
539.94	7886.85
540.305	7964.82
540.67	7922.79
541.034	7962.11
541.399	8019.73
541.764	8056.34
542.129	8141.76
542.494	8083.23
542.858	8180.86
543.223	8206.85
543.587	8242.1
543.952	8233.51
544.316	8290.91
544.681	8319.84
545.045	8322.32
545.41	8413.62
545.774	8428.54
546.138	8391.25
546.503	8476.9
546.867	8472.38
547.231	8530.45
547.595	8613.62
547.959	8610
548.324	8633.5
548.688	8630.79
549.052	8711.24
549.416	8732.48
549.779	8712.14
550.143	8716.66
550.507	8854.51
550.871	8826.04
551.235	8828.52
551.599	8954.85
551.962	8915.98
552.326	8992.59
552.689	9012.47
553.053	8965.7
553.417	9012.25
553.78	9118.91
554.143	9063.32
554.507	9111.91
554.87	9104.68
555.234	9245.69
555.597	9142.87
555.96	9287.95
556.323	9256.54
556.686	9312.58
557.05	9289.08
557.413	9305.35
557.776	9396.65
558.139	9443.2
558.502	9417.89
558.865	9497.43
559.228	9473.25
559.59	9539.01
559.953	9566.58
560.316	9670.08
560.679	9673.02
561.041	9690.88
561.404	9726.81
561.767	9822.17
562.129	9779.91
562.492	9874.15
562.854	9821.27
563.217	9852
563.579	9946.01
563.941	9981.26
564.304	9948.04
564.666	10076.63
565.028	10049.51
565.39	9981.49
565.753	10102.62
566.115	10222.84
566.477	10223.74
566.839	10275.72
567.201	10270.52
567.563	10333.57
567.925	10376.51
568.287	10415.15
568.648	10288.15
569.01	10368.37
569.372	10537.18
569.734	10533.79
570.095	10639.55
570.457	10671.19
570.819	10726.78
571.18	10768.59
571.542	10815.37
571.903	10846.1
572.265	10899.66
572.626	11008.35
572.987	11003.38
573.349	10962.25
573.71	11073.21
574.071	11173.55
574.432	11219.42
574.794	11269.59
575.155	11355.24
575.516	11421.9
575.877	11456.25
576.238	11547.1
576.599	11586.19
576.96	11622.12
577.32	11727.43
577.681	11828.45
578.042	11960.19
578.403	12041.32
578.763	12177.14
579.124	12220.75
579.485	12341.65
579.845	12522.89
580.206	12538.26
580.566	12682.43
580.927	12840.17
581.287	12966.95
581.648	13062.76
582.008	13277.45
582.368	13403.32
582.728	13470.89
583.089	13652.8
583.449	13831.33
583.809	14004.43
584.169	14106.8
584.529	14295.27
584.889	14592.44
585.249	14662.95
585.609	14876.73
585.969	15203.95
586.329	15339.77
586.688	15663.83
587.048	15759.64
587.408	15991.05
587.768	16224.94
588.127	16500.87
588.487	16649.79
588.846	17049.33
589.206	17117.35
589.565	17375.87
589.925	17804.79
590.284	18080.03
590.643	18212.68
591.003	18603.86
591.362	18900.12
591.721	19052.66
592.08	19414.24
592.44	19788.01
592.799	19976.71
593.158	20186.19
593.517	20453.3
593.876	20753.18
594.235	20996.57
594.593	21316.56
594.952	21769.88
595.311	22041.74
595.67	22261.17
596.029	22737.31
596.387	23079.22
596.746	23398.99
597.104	23471.76
597.463	23785.65
597.822	24182.47
598.18	24399.64
598.538	24566.19
598.897	25086.18
599.255	25232.39
599.613	25784.69
599.972	25897
600.33	26279.14
600.688	26408.4
601.046	26828.05
601.404	27229.85
601.762	27414.25
602.12	27854.47
602.478	28033.9
602.836	28272.76
603.194	28510.49
603.552	28754.33
603.91	28911.84
604.268	29319.06
604.625	29445.16
604.983	29938.48
605.341	29952.94
605.698	30439.93
606.056	30746.59
606.413	30937.77
606.771	31210.99
607.128	31370.98
607.485	31616.17
607.843	31880.57
608.2	32177.06
608.557	32335.25
608.914	32615.47
609.272	32899.53
609.629	33109.24
609.986	33423.13
610.343	33478.72
610.7	33939.5
611.057	34089.1
611.414	34200.51
611.771	34485.7
612.127	34729.31
612.484	34828.97
612.841	35103.77
613.198	35221.73
613.554	35360.26
613.911	35691.55
614.267	35850.64
614.624	36018.77
614.98	36308.71
615.337	36482.04
615.693	36587.12
616.05	36634.12
616.406	37078.63
616.762	36980.55
617.118	37172.41
617.475	37319.75
617.831	37583.02
618.187	37750.02
618.543	37797.25
618.899	38202.89
619.255	38214.42
619.611	38295.09
619.967	38479.04
620.323	38586.16
620.678	38660.28
621.034	38651.24
621.39	38702.77
621.746	38732.15
622.101	39415.07
622.457	38960.61
622.812	39207.61
623.168	39351.11
623.523	39477.89
623.879	39858.22
624.234	39349.76
624.589	39778.9
624.945	39915.62
625.3	39948.84
625.655	39943.19
626.01	40100.47
626.365	40179.79
626.72	40228.15
627.075	40205.1
627.43	40364.19
627.785	40351.76
628.14	40443.74
628.495	40384.76
628.85	40510.86
629.205	40368.94
629.559	40635.15
629.914	40599.44
630.269	40723.96
630.623	40632.89
630.978	40602.83
631.332	40796.27
631.687	40826.55
632.041	40811.41
632.396	40992.2
632.75	40789.72
633.104	40935.48
633.459	40797.63
633.813	40889.6
634.167	40975.48
634.521	40902.03
634.875	40940
635.229	41036.04
635.583	40826.55
635.937	40964.63
636.291	40909.26
636.645	40989.49
636.999	40820.23
637.352	41093.89
637.706	40716.95
638.06	41086.43
638.413	40811.41
638.767	40761.02
639.121	41005.31
639.474	40841.92
639.828	40826.1
640.181	40772.77
640.534	40949.94
640.888	40799.89
641.241	40744.3
641.594	40702.04
641.947	40870.85
642.301	40807.35
642.654	40757.4
643.007	40686.67
643.36	40732.77
643.713	40668.37
644.066	40911.98
644.419	40596.05
644.771	40441.93
645.124	39992.23
645.477	40072
645.83	39756.53
646.182	39636.3
646.535	39579.58
646.888	39665
647.24	39561.05
647.593	39671.56
647.945	39675.4
648.298	39455.52
648.65	39414.39
649.002	39448.74
649.355	39619.81
649.707	39515.18
650.059	39624.78
650.411	40055.95
650.763	40055.95
651.115	40577.29
651.467	40283.52
651.819	40432.89
652.171	40295.49
652.523	40275.38
652.875	40346.34
653.227	40150.41
653.578	40492.55
653.93	40314.48
654.282	40214.14
654.633	40027.48
654.985	40210.52
655.337	40160.36
655.688	40228.83
656.039	40328.04
656.391	40114.48
656.742	40168.04
657.094	40100.7
657.445	40234.7
657.796	40162.16
658.147	40077.42
658.498	40059.12
658.849	40032.45
659.2	40094.82
659.551	39901.61
659.902	40067.7
660.253	40013.24
660.604	40018.89
660.955	40092.34
661.306	40041.94
661.656	39900.02
662.007	40062.51
662.358	40081.94
662.708	40052.56
663.059	39902.51
663.409	39722.85
663.76	40065.22
664.11	40068.61
664.461	40055.95
664.811	40027.7
665.161	39962.17
665.511	39782.74
665.862	39931.66
666.212	40080.81
666.562	40127.14
666.912	39961.49
667.262	39913.13
667.612	39785
667.962	39894.6
668.312	39770.76
668.662	40091.21
669.011	39907.71
669.361	39866.35
669.711	39827.03
670.06	39952
670.41	39760.82
670.76	39804.43
671.109	39787.94
671.459	39770.08
671.808	39687.6
672.157	39723.53
672.507	39575.29
672.856	39617.55
673.205	39713.36
673.554	39829.97
673.904	39679.47
674.253	39846.92
674.602	39726.24
674.951	39119.71
675.3	38951.12
675.649	39620.03
675.998	39546.81
676.346	39579.58
676.695	39554.5
677.044	39351.79
677.393	39569.19
677.741	39563.54
678.09	39481.05
678.438	39399.47
678.787	39512.92
679.135	39473.82
679.484	39004.23
679.832	39274.96
680.181	39107.05
680.529	39243.54
680.877	39023.21
681.225	38982.53
681.573	39295.52
681.922	38989.31
682.27	38964
682.618	38926.94
682.966	38746.83
683.314	38795.19
683.661	38717.91
684.009	38536.9
684.357	38522.21
684.705	38526.05
685.053	38535.77
685.4	38376.22
685.748	38299.84
686.095	38232.27
686.443	38172.39
686.79	38202.22
687.138	38252.61
687.485	38177.13
687.832	38028.44
688.18	38027.53
688.527	37876.35
688.874	37902.34
689.221	37700.08
689.568	37693.75
689.915	37530.14
690.262	37600.42
690.609	37421.45
690.956	37413.76
691.303	37354.1
691.65	37199.08
691.997	37126.09
692.344	36937.84
692.69	36990.27
693.037	37016.71
693.383	36653.56
693.73	36889.48
694.077	36576.04
694.423	36615.36
694.769	36579.21
695.116	36418.08
695.462	36291.08
695.808	36329.72
696.155	36285.66
696.501	36005.21
696.847	36102.16
697.193	35726.35
697.539	35942.16
697.885	35707.14
698.231	35555.28
698.577	35604.54
698.923	35634.15
699.269	35359.35
699.614	35200.03
699.96	35092.69
700.306	35096.31
700.651	34989.19
700.997	34878.46
701.342	35059.7
701.688	34724.34
702.033	34631.01
702.379	34771.57
702.724	34510.79
703.069	34527.51
703.415	34146.28
703.76	34243.45
704.105	34373.39
704.45	34273.96
704.795	33952.61
705.14	33965.27
705.485	33964.59
705.83	33734.76
706.175	33750.36
706.52	33792.61
706.865	33704.93
707.209	33562.79
707.554	33507.2
707.899	33513.98
708.243	33263.81
708.588	33487.76
708.932	33166.42
709.277	33001
709.621	32953.77
709.966	32765.75
710.31	33036.48
710.654	32725.3
710.998	32665.41
711.342	32789.7
711.687	32636.26
712.031	32439.43
712.375	32391.52
712.719	32493.44
713.063	32340.45
713.407	32473.55
713.75	32236.5
714.094	32307.91
714.438	32062.72
714.782	32205.99
715.125	32023.62
715.469	32002.38
715.812	31696.85
716.156	31669.05
716.499	31596.29
716.843	31751.09
717.186	31528.27
717.53	31733.01
717.873	31646.23
718.216	31593.8
718.559	31495.5
718.902	31222.96
719.246	31410.08
719.589	31250.08
719.932	31156.07
720.275	31183.64
720.617	31139.8
720.96	31061.39
721.303	31024.78
721.646	30924.67
721.989	30838.34
722.331	30901.84
722.674	30888.96
723.016	30967.83
723.359	30701.62
723.701	30883.31
724.044	30599.48
724.386	30495.75
724.729	30629.31
725.071	30486.49
725.413	30457.33
725.755	30432.02
726.097	30272.25
726.439	30265.93
726.782	30262.76
727.124	30352.93
727.465	29987.29
727.807	30194.29
728.149	30054.18
728.491	29988.87
728.833	29987.52
729.175	29891.02
729.516	30016.44
729.858	29834.07
730.199	29840.4
730.541	29709.56
730.882	29754.08
731.224	29768.31
731.565	29750.01
731.906	29640.41
732.248	29618.03
732.589	29632.5
732.93	29440.86
733.271	29380.53
733.612	29391.6
733.953	29434.76
734.294	29331.26
734.635	29162.23
734.976	29242.23
735.317	29038.39
735.658	29131.72
735.999	29089.91
736.339	28981.44
736.68	29147.99
737.021	28992.97
737.361	28825.97
737.702	29000.2
738.042	28841.11
738.383	28745.74
738.723	28812.86
739.063	28603.15
739.404	28873.42
739.744	28672.3
740.084	28532.41
740.424	28520.44
740.764	28540.77
741.104	28650.38
741.444	28557.95
741.784	28535.13
742.124	28393.89
742.464	28406.32
742.804	28377.39
743.143	28264.17
743.483	28284.74
743.823	28182.14
744.162	28029.83
744.502	28202.25
744.841	28053.78
745.181	28178.07
745.52	27979.66
745.86	28075.25
746.199	28016.49
746.538	27815.82
746.877	27956.84
747.216	27874.8
747.556	27882.26
747.895	27873.9
748.234	27809.72
748.573	27785.31
748.911	27728.37
749.25	27733.11
749.589	27479.11
749.928	27598.88
750.267	27554.36
750.605	27411.54
750.944	27367.25
751.283	27338.77
751.621	27479.56
751.96	27215.61
752.298	27233.01
752.636	27154.82
752.975	27127.48
753.313	26983.75
753.651	27322.28
753.989	27002.28
754.327	27027.37
754.666	26856.3
755.004	26898.11
755.342	26827.37
755.679	26827.6
756.017	26723.87
756.355	26760.71
756.693	26618.11
757.031	26726.13
757.368	26520.49
757.706	26450.89
758.044	26346.93
758.381	26497.44
758.719	26283.43
759.056	26363.66
759.394	26181.51
759.731	26084.12
760.068	26008.86
