Data from hue_10_FLMS001491_82.txt Node
Date: Mon Feb 06 15:32:41 GMT 2017
User: dcchb
Spectrometer: FLMS00149
Trigger mode: 0
Integration Time (sec): 2.000000E-2
Scans to average: 10
Electric dark correction enabled: true
Nonlinearity correction enabled: false
Boxcar width: 0
XAxis mode: Wavelengths
Number of Pixels in Spectrum: 2048
>>>>>Begin Spectral Data<<<<<
341.393	-12.64
341.776	-12.64
342.16	-12.64
342.543	-59.19
342.927	-50.15
343.31	-65.75
343.693	-63.71
344.077	-80.21
344.46	-54.67
344.843	-56.03
345.226	-56.48
345.61	-31.17
345.993	-10.61
346.376	-10.61
346.759	11.09
347.142	40.69
347.525	32.1
347.908	53.12
348.291	80.24
348.674	107.36
349.057	104.64
349.44	140.8
349.823	144.64
350.206	164.3
350.588	184.87
350.971	225.32
351.354	242.95
351.737	240.91
352.119	245.66
352.502	264.41
352.884	282.04
353.267	245.21
353.65	305.54
354.032	303.51
354.414	296.96
354.797	309.16
355.179	294.7
355.562	319.1
355.944	309.61
356.326	339.21
356.709	332.66
357.091	335.82
357.473	362.26
357.855	342.83
358.238	367.01
358.62	326.11
359.002	354.36
359.384	364.3
359.766	327.46
360.148	338.31
360.53	341.47
360.912	342.6
361.294	327.01
361.676	361.36
362.057	338.76
362.439	320.46
362.821	356.16
363.203	333.34
363.584	356.16
363.966	307.12
364.348	308.03
364.729	319.55
365.111	335.15
365.493	324.3
365.874	324.3
366.256	334.92
366.637	297.18
367.019	324.75
367.4	308.71
367.781	314.81
368.163	301.7
368.544	334.02
368.925	312.77
369.306	334.02
369.688	325.2
370.069	303.96
370.45	307.8
370.831	312.32
371.212	351.19
371.593	326.11
371.974	314.36
372.355	326.33
372.736	337.41
373.117	325.66
373.498	329.27
373.879	315.71
374.26	303.28
374.641	318.2
375.021	313
375.402	303.96
375.783	321.59
376.163	297.63
376.544	317.52
376.925	317.52
377.305	332.66
377.686	300.57
378.066	331.3
378.447	314.58
378.827	311.19
379.208	346.22
379.588	348.93
379.968	323.62
380.349	346.67
380.729	322.49
381.109	338.31
381.489	322.94
381.87	329.5
382.25	332.89
382.63	351.64
383.01	348.48
383.39	337.86
383.77	362.49
384.15	350.74
384.53	364.07
384.91	345.54
385.29	349.61
385.67	341.7
386.049	358.87
386.429	338.08
386.809	346.9
387.189	355.26
387.568	351.87
387.948	366.78
388.328	361.59
388.707	364.98
389.087	362.49
389.466	355.26
389.846	350.74
390.225	372.43
390.605	360.91
390.984	357.07
391.363	369.95
391.743	354.58
392.122	369.95
392.501	399.78
392.881	372.21
393.26	377.86
393.639	384.64
394.018	370.17
394.397	379.67
394.776	367.01
395.155	380.12
395.534	375.82
395.913	383.28
396.292	376.73
396.671	377.18
397.05	375.82
397.429	381.02
397.808	378.08
398.186	395.94
398.565	380.34
398.944	382.83
399.323	374.02
399.701	388.7
400.08	392.55
400.458	391.87
400.837	404.3
401.215	363.62
401.594	397.29
401.972	389.16
402.351	404.98
402.729	396.61
403.107	382.6
403.486	395.71
403.864	396.39
404.242	415.6
404.62	405.88
404.999	407.46
405.377	398.65
405.755	409.95
406.133	409.72
406.511	433
406.889	405.88
407.267	417.63
407.645	411.75
408.023	424.41
408.401	415.37
408.779	417.63
409.156	440.68
409.534	444.52
409.912	458.99
410.29	444.3
410.667	437.97
411.045	427.12
411.422	438.87
411.8	432.55
412.178	453.79
412.555	464.86
412.933	449.27
413.31	477.74
413.687	470.51
414.065	454.92
414.442	455.82
414.819	473.45
415.197	487.01
415.574	475.48
415.951	475.26
416.328	469.38
416.705	482.04
417.082	476.61
417.46	491.07
417.837	492.66
418.214	474.13
418.591	488.36
418.967	503.96
419.344	490.4
419.721	491.98
420.098	501.02
420.475	494.24
420.852	515.25
421.228	521.36
421.605	502.37
421.982	524.75
422.358	517.97
422.735	526.55
423.111	498.53
423.488	521.36
423.864	524.75
424.241	529.94
424.617	538.98
424.994	547.34
425.37	536.27
425.746	537.18
426.123	540.56
426.499	547.34
426.875	559.77
427.251	574.24
427.627	574.24
428.003	581.92
428.379	577.17
428.756	578.08
429.132	564.97
429.507	581.02
429.883	573.78
430.259	583.28
430.635	560.9
431.011	584.41
431.387	583.73
431.763	624.63
432.138	620.34
432.514	622.82
432.89	608.59
433.265	626.66
433.641	634.35
434.016	642.94
434.392	638.87
434.767	630.96
435.143	642.94
435.518	657.62
435.894	656.72
436.269	658.3
436.644	668.02
437.02	666.66
437.395	685.65
437.77	691.97
438.145	685.65
438.52	691.07
438.895	710.96
439.271	688.81
439.646	710.73
440.021	716.15
440.395	706.44
440.77	707.34
441.145	699.2
441.52	726.55
441.895	706.44
442.27	715.25
442.645	704.85
443.019	723.61
443.394	734.68
443.769	730.84
444.143	731.07
444.518	733.78
444.892	741.92
445.267	776.26
445.641	740.79
446.016	772.2
446.39	755.02
446.764	743.72
447.139	762.71
447.513	764.06
447.887	780.11
448.262	802.25
448.636	781.24
449.01	785.08
449.384	767
449.758	759.77
450.132	812.42
450.506	796.38
450.88	813.33
451.254	824.17
451.628	821.91
452.002	840.22
452.376	832.53
452.75	830.95
453.123	826.21
453.497	836.83
453.871	860.56
454.244	841.35
454.618	848.58
454.992	873.21
455.365	913.21
455.739	896.94
456.112	911.63
456.486	880.89
456.859	892.87
457.232	901.01
457.606	921.35
457.979	955.92
458.352	957.28
458.725	942.59
459.099	945.07
459.472	958.86
459.845	998.86
460.218	988.01
460.591	990.72
460.964	987.33
461.337	1015.81
461.71	1053.09
462.083	1051.74
462.456	1050.38
462.829	1013.55
463.201	1040.21
463.574	1061.91
463.947	1076.82
464.32	1075.01
464.692	1099.19
465.065	1111.17
465.438	1126.76
465.81	1132.64
466.183	1150.27
466.555	1135.35
466.928	1141.91
467.3	1149.14
467.672	1167.89
468.045	1211.28
468.417	1209.25
468.789	1221.68
469.161	1253.31
469.534	1263.26
469.906	1282.47
470.278	1324.73
470.65	1325.63
471.022	1323.82
471.394	1357.72
471.766	1370.83
472.138	1366.53
472.51	1405.85
472.882	1401.11
473.253	1455.57
473.625	1451.28
473.997	1481.33
474.369	1496.02
474.74	1548.67
475.112	1519.07
475.484	1593.64
475.855	1606.53
476.227	1602.23
476.598	1653.08
476.97	1655.79
477.341	1681.55
477.713	1725.62
478.084	1734.21
478.455	1792.28
478.827	1820.31
479.198	1850.36
479.569	1840.64
479.94	1914.31
480.311	1951.6
480.682	1991.83
481.053	2005.61
481.424	2073.86
481.795	2059.62
482.166	2106.17
482.537	2146.85
482.908	2191.14
483.279	2235.44
483.65	2246.96
484.021	2330.12
484.391	2356.79
484.762	2362.44
485.133	2400.63
485.503	2469.1
485.874	2517.46
486.244	2516.11
486.615	2580.96
486.985	2619.15
487.356	2659.61
487.726	2679.04
488.097	2732.82
488.467	2748.19
488.837	2798.58
489.207	2879.26
489.578	2909.77
489.948	2935.3
490.318	2993.83
490.688	3010.1
491.058	3034.74
491.428	3112.47
491.798	3131.23
492.168	3204.9
492.538	3185.47
492.908	3303.43
493.278	3291
493.648	3322.86
494.017	3381.39
494.387	3387.04
494.757	3396.99
495.126	3454.61
495.496	3498.68
495.866	3524.67
496.235	3561.05
496.605	3570.77
496.974	3623.42
497.344	3670.2
497.713	3714.72
498.082	3725.57
498.452	3755.85
498.821	3794.49
499.19	3744.77
499.559	3820.03
499.928	3831.55
500.298	3874.71
500.667	3893.25
501.036	3869.97
501.405	3920.81
501.774	3962.62
502.143	3973.24
502.512	3995.39
502.88	4036.29
503.249	4065.67
503.618	4036.29
503.987	4101.6
504.356	4154.03
504.724	4175.72
505.093	4155.39
505.462	4157.64
505.83	4247.59
506.199	4224.31
506.567	4288.26
506.936	4259.34
507.304	4324.42
507.672	4333.69
508.041	4338.66
508.409	4400.35
508.777	4425.89
509.145	4438.09
509.514	4438.09
509.882	4517.86
510.25	4431.54
510.618	4444.42
510.986	4500.01
511.354	4514.7
511.722	4567.13
512.09	4616.84
512.458	4591.98
512.826	4641.7
513.193	4650.51
513.561	4650.97
513.929	4672.21
514.297	4702.26
514.664	4773.45
515.032	4716.95
515.4	4753.79
515.767	4759.21
516.135	4791.75
516.502	4773.45
516.869	4818.64
517.237	4841.69
517.604	4784.97
517.972	4883.05
518.339	4898.42
518.706	4945.65
519.073	4876.27
519.44	4945.19
519.808	4979.77
520.175	4958.98
520.542	4995.36
520.909	5050.95
521.276	5017.28
521.643	5106.77
522.009	5126.21
522.376	5086.89
522.743	5162.59
523.11	5190.16
523.477	5146.77
523.843	5217.5
524.21	5264.06
524.577	5240.1
524.943	5382.02
525.31	5340.44
525.676	5359.42
526.043	5383.83
526.409	5411.85
526.776	5460.21
527.142	5473.99
527.508	5520.77
527.874	5578.17
528.241	5535.46
528.607	5557.61
528.973	5637.38
529.339	5622.69
529.705	5668.11
530.071	5711.95
530.437	5698.17
530.803	5731.39
531.169	5803.25
531.535	5792.4
531.901	5807.77
532.267	5850.71
532.632	5826.3
532.998	5858.62
533.364	5895.68
533.73	5874.89
534.095	5962.57
534.461	5994.21
534.826	5969.8
535.192	6034.21
535.557	6078.72
535.923	6091.38
536.288	6059.74
536.653	6086.18
537.019	6135.22
537.384	6158.27
537.749	6166.18
538.114	6198.95
538.479	6226.97
538.845	6281.2
539.21	6257.7
539.575	6276.01
539.94	6325.05
540.305	6339.96
540.67	6352.62
541.034	6497.92
541.399	6403.01
541.764	6450.47
542.129	6529.33
542.494	6467.41
542.858	6561.42
543.223	6534.53
543.587	6568.2
543.952	6588.09
544.316	6642.1
544.681	6693.62
545.045	6746.73
545.41	6673.51
545.774	6759.38
546.138	6754.86
546.503	6777.01
546.867	6813.85
547.231	6879.16
547.595	6872.15
547.959	6930.68
548.324	6883.22
548.688	6893.84
549.052	6911.47
549.416	6982.43
549.779	7031.24
550.143	6977.01
550.507	7041.18
550.871	7119.83
551.235	7068.3
551.599	7133.16
551.962	7123.22
552.326	7201.41
552.689	7254.06
553.053	7209.54
553.417	7197.11
553.78	7277.11
554.143	7323.89
554.507	7330.22
554.87	7320.95
555.234	7384.45
555.597	7356.2
555.96	7438.46
556.323	7496.09
556.686	7442.76
557.05	7539.7
557.413	7511.23
557.776	7480.72
558.139	7544.45
558.502	7588.29
558.865	7633.94
559.228	7637.1
559.59	7669.87
559.953	7731.79
560.316	7766.59
560.679	7728.62
561.041	7789.41
561.404	7825.8
561.767	7881.61
562.129	7808.85
562.492	7850.2
562.854	7916.42
563.217	7942.63
563.579	7981.27
563.941	8023.08
564.304	8009.07
564.666	8025.57
565.028	8118.9
565.39	8064.89
565.753	8154.15
566.115	8131.33
566.477	8216.3
566.839	8185.79
567.201	8267.14
567.563	8249.29
567.925	8327.93
568.287	8340.59
568.648	8294.26
569.01	8431.88
569.372	8482.28
569.734	8413.8
570.095	8461.03
570.457	8552.78
570.819	8516.17
571.18	8538.32
571.542	8663.06
571.903	8664.87
572.265	8698.77
572.626	8765.66
572.987	8842.95
573.349	8847.24
573.71	8934.47
574.071	8969.27
574.432	8997.07
574.794	9059.44
575.155	9111.64
575.516	9125.88
575.877	9249.04
576.238	9235.03
576.599	9311.41
576.96	9395.25
577.32	9482.7
577.681	9574.45
578.042	9642.25
578.403	9787.55
578.763	9827.55
579.124	9932.63
579.485	10012.18
579.845	10121.56
580.206	10224.6
580.566	10300.53
580.927	10489.91
581.287	10571.04
581.648	10700.75
582.008	10849.9
582.368	10928.09
582.728	11118.82
583.089	11228.87
583.449	11340.05
583.809	11530.56
584.169	11777.11
584.529	11813.49
584.889	12079.24
585.249	12269.3
585.609	12313.59
585.969	12671.77
586.329	12869.73
586.688	13074.7
587.048	13242.15
587.408	13471.52
587.768	13704.51
588.127	13879.2
588.487	14054.11
588.846	14445.06
589.206	14600.31
589.565	14808.66
589.925	15160.75
590.284	15386.05
590.643	15732.26
591.003	16056.99
591.362	16262.64
591.721	16518.68
592.08	16759.57
592.44	17032.33
592.799	17426.67
593.158	17571.3
593.517	17928.13
593.876	18248.35
594.235	18532.41
594.593	18802.46
594.952	19249
595.311	19362.67
595.67	19689.44
596.029	20149.09
596.387	20546.59
596.746	20828.84
597.104	20949.07
597.463	21279.91
597.822	21644.64
598.18	21915.82
598.538	22210.05
598.897	22701.11
599.255	22837.38
599.613	23423.35
599.972	23603.91
600.33	24007.74
600.688	24143.79
601.046	24460.61
601.404	24921.62
601.762	25078
602.12	25502.62
602.478	25740.35
602.836	25926.79
603.194	26158.2
603.552	26458.08
603.91	26745.53
604.268	27245.4
604.625	27331.95
604.983	27695.33
605.341	27823.01
605.698	28164.92
606.056	28521.98
606.413	28718.13
606.771	29015.3
607.128	29388.39
607.485	29342.52
607.843	29825.67
608.2	30131.65
608.557	30331.19
608.914	30575.48
609.272	30829.71
609.629	31137.5
609.986	31377.72
610.343	31360.55
610.7	31978.61
611.057	31987.87
611.414	32175.67
611.771	32397.35
612.127	32742.2
612.484	32889.09
612.841	33117.79
613.198	33318.23
613.554	33481.39
613.911	33781.5
614.267	33873.47
614.624	33940.82
614.98	34244.31
615.337	34529.73
615.693	34629.39
616.05	34645.43
616.406	35142.59
616.762	35051.07
617.118	35331.06
617.475	35373.32
617.831	35625.52
618.187	35786.64
618.543	36072.96
618.899	36306.63
619.255	36348.44
619.611	36457.36
619.967	36721.08
620.323	36822.55
620.678	36783.45
621.034	36771.48
621.39	36924.69
621.746	37004.69
622.101	37516.77
622.457	37373.04
622.812	37595.64
623.168	37564.45
623.523	37838.57
623.879	38005.34
624.234	37941.84
624.589	38055.28
624.945	38177.77
625.3	38222.74
625.655	38330.98
626.01	38477.87
626.365	38468.83
626.72	38640.58
627.075	38539.34
627.43	38626.8
627.785	38557.87
628.14	38712.89
628.495	38987.01
628.85	38846.45
629.205	38778.43
629.559	38960.8
629.914	39055.94
630.269	39074.92
630.623	39118.99
630.978	39074.69
631.332	39299.55
631.687	39342.71
632.041	39117.4
632.396	39188.59
632.75	39118.08
633.104	39374.8
633.459	39278.76
633.813	39228.59
634.167	39223.84
634.521	39278.3
634.875	39451.41
635.229	39364.85
635.583	39292.31
635.937	39219.1
636.291	39193.79
636.645	39273.11
636.999	39220.45
637.352	39325.31
637.706	39209.38
638.06	39392.65
638.413	39380.9
638.767	39093.22
639.121	39359.66
639.474	39113.34
639.828	39193.56
640.181	39156.05
640.534	39214.12
640.888	39118.99
641.241	39047.12
641.594	39069.27
641.947	39190.62
642.301	39114.69
642.654	39225.42
643.007	39203.28
643.36	39044.64
643.713	39110.62
644.066	39366.66
644.419	38877.18
644.771	38747.7
645.124	38482.84
645.477	38311.55
645.83	38119.46
646.182	38133.02
646.535	38030.88
646.888	38020.94
647.24	37931.45
647.593	38118.11
647.945	38001.27
648.298	37948.62
648.65	37929.19
649.002	37734.39
649.355	37876.53
649.707	37667.72
650.059	38001.73
650.411	38383.19
650.763	38505.44
651.115	38771.2
651.467	38879.67
651.819	38784.08
652.171	38498.89
652.523	38673.12
652.875	38651.65
653.227	38389.97
653.578	38672.22
653.93	38569.62
654.282	38518.1
654.633	38398.78
654.985	38431.77
655.337	38448.49
655.688	38506.57
656.039	38566.91
656.391	38250.53
656.742	38348.84
657.094	38287.82
657.445	38403.52
657.796	38383.64
658.147	38219.8
658.498	38366.46
658.849	38451.43
659.2	38301.38
659.551	38217.31
659.902	38464.54
660.253	38201.72
660.604	38380.7
660.955	38179.58
661.306	38383.41
661.656	38141.84
662.007	38334.83
662.358	38384.32
662.708	38277.2
663.059	38138.9
663.409	37957.89
663.76	38212.57
664.11	38265.45
664.461	38206.24
664.811	38274.71
665.161	38090.76
665.511	38058
665.862	38175.73
666.212	38314.26
666.562	38341.83
666.912	38265.22
667.262	38094.15
667.612	38066.13
667.962	38133.25
668.312	38152.23
668.662	38254.38
669.011	38095.51
669.361	38140.03
669.711	38029.3
670.06	37948.62
670.41	37840.38
670.76	38046.92
671.109	38091.22
671.459	38090.99
671.808	37737.1
672.157	38016.64
672.507	37723.77
672.856	37726.03
673.205	37850.09
673.554	37792.69
673.904	37789.3
674.253	37869.07
674.602	37807.61
674.951	37329.88
675.3	37091.24
675.649	37582.98
675.998	37753.15
676.346	37643.77
676.695	37741.85
677.044	37569.42
677.393	37647.16
677.741	37615.52
678.09	37669.76
678.438	37577.56
678.787	37517.67
679.135	37524.45
679.484	37222.09
679.832	37463.21
680.181	37246.49
680.529	37373.49
680.877	37324.68
681.225	37286.27
681.573	37374.17
681.922	37144.57
682.27	37055.09
682.618	37247.4
682.966	37048.76
683.314	37026.61
683.661	37082.43
684.009	36776
684.357	36766.51
684.705	36688.31
685.053	36580.75
685.4	36725.38
685.748	36516.79
686.095	36416.91
686.443	36262.11
686.79	36268.44
687.138	36483.57
687.485	36289.23
687.832	36154.32
688.18	36275.44
688.527	35985.51
688.874	35973.98
689.221	35973.76
689.568	35716.14
689.915	35761.79
690.262	35834.55
690.609	35537.84
690.956	35587.1
691.303	35508.01
691.65	35307.11
691.997	35265.08
692.344	35155.02
692.69	35200.67
693.037	35246.77
693.383	34863.73
693.73	35152.08
694.077	34853.11
694.423	34776.05
694.769	34723.17
695.116	34651.08
695.462	34638.65
695.808	34514.81
696.155	34552.55
696.501	34341.94
696.847	34235.95
697.193	33968.16
697.539	34085.45
697.885	33979.01
698.231	33761.84
698.577	33720.26
698.923	33787.15
699.269	33673.7
699.614	33514.16
699.96	33383.77
700.306	33453.15
700.651	33373.15
700.997	33290.44
701.342	33161.63
701.688	32979.71
702.033	32863.1
702.379	32896.1
702.724	32740.17
703.069	32894.29
703.415	32483.45
703.76	32621.3
704.105	32588.99
704.45	32494.3
704.795	32283.23
705.14	32228.77
705.485	32160.52
705.83	32080.98
706.175	32139.06
706.52	32006.86
706.865	31866.97
707.209	31822.68
707.554	31734.32
707.899	31874.66
708.243	31565.51
708.588	31550.37
708.932	31432.18
709.277	31343.82
709.621	31322.58
709.966	31183.37
710.31	31209.81
710.654	30991.52
710.998	31026.32
711.342	30972.08
711.687	30960.1
712.031	30812.99
712.375	30682.82
712.719	30721.24
713.063	30692.99
713.407	30850.73
713.75	30534.35
714.094	30523.28
714.438	30448.93
714.782	30512.43
715.125	30299.1
715.469	30399.89
715.812	30173.01
716.156	30027.02
716.499	30083.52
716.843	30028.6
717.186	29824.99
717.53	30122.61
717.873	30077.87
718.216	30017.76
718.559	29756.97
718.902	29585
719.246	29761.49
719.589	29509.52
719.932	29454.83
720.275	29535.06
720.617	29440.6
720.96	29416.19
721.303	29414.83
721.646	29413.93
721.989	29180.49
722.331	29253.03
722.674	29251.9
723.016	29051.91
723.359	29001.96
723.701	29028.18
724.044	28828.41
724.386	28636.1
724.729	28911.57
725.071	28757.22
725.413	28750.22
725.755	28718.81
726.097	28593.84
726.439	28453.05
726.782	28535.54
727.124	28669.99
727.465	28527.85
727.807	28437.91
728.149	28303.9
728.491	28319.72
728.833	28408.98
729.175	28258.93
729.516	28216.67
729.858	28100.74
730.199	28105.49
730.541	28057.58
730.882	28019.16
731.224	28145.04
731.565	27804.03
731.906	27920.64
732.248	27967.87
732.589	27815.33
732.93	27602.45
733.271	27766.06
733.612	27645.84
733.953	27712.73
734.294	27574.43
734.635	27521.55
734.976	27641.77
735.317	27559.29
735.658	27370.37
735.999	27536.01
736.339	27327.88
736.68	27542.79
737.021	27349.58
737.361	27142.13
737.702	27343.48
738.042	27261.9
738.383	27242.69
738.723	27279.75
739.063	27235.68
739.404	27189.13
739.744	27018.74
740.084	26875.01
740.424	27053.54
740.764	26978.74
741.104	27007.89
741.444	26905.3
741.784	26816.71
742.124	26828.91
742.464	26771.51
742.804	26628.92
743.143	26623.95
743.483	26665.3
743.823	26604.29
744.162	26501.01
744.502	26603.16
744.841	26592.99
745.181	26557.28
745.52	26432.99
745.86	26566.1
746.199	26475.93
746.538	26334.91
746.877	26441.35
747.216	26402.94
747.556	26235.48
747.895	26280.23
748.234	26193.68
748.573	26204.75
748.911	26015.83
749.25	26049.5
749.589	25958.43
749.928	26023.06
750.267	25993.91
750.605	25871.88
750.944	25824.65
751.283	25789.62
751.621	25806.12
751.96	25702.39
752.298	25680.92
752.636	25765.21
752.975	25466.46
753.313	25515.28
753.651	25471.66
753.989	25520.47
754.327	25317.09
754.666	25199.8
755.004	25318.9
755.342	25348.95
755.679	25256.07
756.017	25033.71
756.355	25176.98
756.693	25049.07
757.031	24963.2
757.368	24840.72
757.706	24846.14
758.044	24866.7
758.381	24858.8
758.719	24693.83
759.056	24666.94
759.394	24592.36
759.731	24489.31
760.068	24547.17
760.405	24412.71
760.743	24347.4
