Data from hue_180_FLMS001491_00067.txt Node
Date: Tue Feb 07 16:47:19 GMT 2017
User: dcchb
Spectrometer: FLMS00149
Trigger mode: 0
Integration Time (sec): 2.000000E-2
Scans to average: 10
Electric dark correction enabled: true
Nonlinearity correction enabled: false
Boxcar width: 0
XAxis mode: Wavelengths
Number of Pixels in Spectrum: 2048
>>>>>Begin Spectral Data<<<<<
341.393	-3.49
341.776	-3.49
342.16	-3.49
342.543	-49.82
342.927	-69.02
343.31	-71.96
343.693	-70.38
344.077	-58.85
344.46	-64.05
344.843	-57.05
345.226	-40.55
345.61	-29.02
345.993	-20.89
346.376	6.23
346.759	10.75
347.142	19.34
347.525	33.35
347.908	59.56
348.291	62.5
348.674	85.55
349.057	135.49
349.44	116.73
349.823	135.72
350.206	156.06
350.588	186.11
350.971	221.14
351.354	212.78
351.737	226.34
352.119	249.61
352.502	253.23
352.884	258.65
353.267	274.02
353.65	263.62
354.032	317.41
354.414	304.07
354.797	294.36
355.179	311.76
355.562	319.44
355.944	319.89
356.326	319.44
356.709	332.32
357.091	328.25
357.473	335.26
357.855	323.51
358.238	333.45
358.62	349.5
359.002	331.42
359.384	333.45
359.766	358.99
360.148	328.93
360.53	355.6
360.912	322.38
361.294	342.72
361.676	330.29
362.057	336.16
362.439	327.58
362.821	309.72
363.203	336.16
363.584	324.19
363.966	309.95
364.348	308.37
364.729	321.25
365.111	319.21
365.493	311.98
365.874	316.73
366.256	313.79
366.637	323.73
367.019	313.34
367.4	300.23
367.781	313.11
368.163	293.68
368.544	319.21
368.925	322.15
369.306	315.37
369.688	323.73
370.069	303.17
370.45	306.56
370.831	336.84
371.212	308.82
371.593	309.05
371.974	301.59
372.355	300.23
372.736	295.71
373.117	316.5
373.498	322.38
373.879	318.99
374.26	317.63
374.641	316.73
375.021	300.01
375.402	329.16
375.783	326.67
376.163	307.46
376.544	316.95
376.925	340.23
377.305	336.62
377.686	323.96
378.066	308.14
378.447	327.12
378.827	323.28
379.208	323.51
379.588	321.47
379.968	310.63
380.349	321.7
380.729	334.36
381.109	322.83
381.489	330.74
381.87	317.63
382.25	317.41
382.63	340.91
383.01	328.25
383.39	346.11
383.77	358.54
384.15	322.6
384.53	338.65
384.91	339.33
385.29	347.46
385.67	332.32
386.049	351.76
386.429	346.11
386.809	337.97
387.189	351.76
387.568	322.15
387.948	344.07
388.328	351.53
388.707	354.69
389.087	341.36
389.466	337.97
389.846	348.82
390.225	361.02
390.605	365.54
390.984	357.63
391.363	364.86
391.743	368.93
392.122	369.16
392.501	371.64
392.881	373.9
393.26	359.89
393.639	370.51
394.018	391.76
394.397	381.13
394.776	381.81
395.155	378.42
395.534	381.36
395.913	373.22
396.292	372.09
396.671	375.26
397.05	383.62
397.429	400.79
397.808	400.34
398.186	387.69
398.565	385.65
398.944	393.11
399.323	395.6
399.701	412.32
400.08	396.5
400.458	409.16
400.837	388.59
401.215	394.92
401.594	405.54
401.972	408.25
402.351	403.28
402.729	417.52
403.107	420.23
403.486	442.15
403.864	452.09
404.242	430.17
404.62	435.14
404.999	411.87
405.377	436.95
405.755	428.14
406.133	438.99
406.511	422.94
406.889	441.25
407.267	447.8
407.645	432.21
408.023	454.13
408.401	457.06
408.779	457.74
409.156	470.62
409.534	476.95
409.912	488.93
410.29	515.82
410.667	529.38
411.045	516.72
411.422	500
411.8	533.67
412.178	559.66
412.555	525.09
412.933	556.5
413.31	542.71
413.687	567.57
414.065	573.22
414.442	565.31
414.819	579.32
415.197	578.87
415.574	587.23
415.951	590.85
416.328	585.42
416.705	593.11
417.082	620.22
417.46	613.44
417.837	629.49
418.214	608.7
418.591	639.43
418.967	646.66
419.344	649.15
419.721	655.7
420.098	679.88
420.475	671.07
420.852	669.04
421.228	681.24
421.605	702.48
421.982	733.89
422.358	732.09
422.735	742.03
423.111	737.06
423.488	764.85
423.864	765.76
424.241	758.98
424.617	801.01
424.994	792.2
425.37	796.26
425.746	827
426.123	814.57
426.499	850.73
426.875	835.36
427.251	861.8
427.627	890.5
428.003	876.71
428.379	868.8
428.756	885.08
429.132	911.74
429.507	924.62
429.883	922.59
430.259	928.46
430.635	930.72
431.011	959.2
431.387	986.54
431.763	994.45
432.138	958.75
432.514	1003.94
432.89	1032.64
433.265	1059.99
433.641	1022.02
434.016	1084.84
434.392	1087.56
434.767	1108.8
435.143	1116.48
435.518	1134.11
435.894	1139.31
436.269	1186.99
436.644	1194.22
437.02	1183.15
437.395	1212.75
437.77	1238.96
438.145	1253.65
438.52	1275.8
438.895	1289.58
439.271	1274.44
439.646	1322.58
440.021	1337.72
440.395	1334.1
440.77	1353.31
441.145	1407.1
441.52	1418.17
441.895	1401.45
442.27	1450.48
442.645	1446.19
443.019	1462.01
443.394	1486.87
443.769	1504.04
444.143	1486.64
444.518	1532.52
444.892	1522.57
445.267	1545.62
445.641	1551.95
446.016	1532.06
446.39	1582.23
446.764	1573.42
447.139	1589.01
447.513	1602.57
447.887	1620.42
448.262	1600.99
448.636	1628.33
449.01	1661.33
449.384	1673.76
449.758	1666.3
450.132	1718.95
450.506	1708.33
450.88	1729.12
451.254	1730.93
451.628	1780.42
452.002	1806.41
452.376	1798.95
452.75	1792.4
453.123	1818.61
453.497	1852.73
453.871	1867.42
454.244	1906.29
454.618	1916.69
454.992	1950.81
455.365	1944.71
455.739	1987.65
456.112	2000.75
456.486	2033.52
456.859	2069
457.232	2089.11
457.606	2069
457.979	2118.26
458.352	2188.54
458.725	2151.48
459.099	2208.66
459.472	2203.46
459.845	2294.3
460.218	2289.56
460.591	2313.74
460.964	2281.65
461.337	2370.91
461.71	2408.43
462.083	2448.65
462.456	2474.86
462.829	2458.37
463.201	2485.49
463.574	2525.94
463.947	2565.26
464.32	2585.37
464.692	2630.57
465.065	2650.68
465.438	2739.94
465.81	2752.6
466.183	2795.76
466.555	2840.5
466.928	2863.33
467.3	2867.17
467.672	2935.42
468.045	2995.53
468.417	3016.32
468.789	3047.5
469.161	3117.11
469.534	3117.56
469.906	3218.57
470.278	3195.98
470.65	3268.52
471.022	3354.16
471.394	3368.17
471.766	3449.75
472.138	3467.61
472.51	3568.17
472.882	3631.67
473.253	3643.65
473.625	3743.08
473.997	3826.24
474.369	3850.65
474.74	3904.21
475.112	3965.45
475.484	4024.2
475.855	4146.23
476.227	4159.57
476.598	4283.18
476.97	4353.68
477.341	4432.78
477.713	4526.34
478.084	4497.18
478.455	4672.55
478.827	4727.01
479.198	4849.94
479.569	4872.09
479.94	5032.09
480.311	5048.81
480.682	5199.09
481.053	5321.57
481.424	5436.37
481.795	5462.81
482.166	5554.78
482.537	5690.15
482.908	5818.73
483.279	5836.58
483.65	5971.27
484.021	6112.51
484.391	6199.74
484.762	6249.23
485.133	6346.4
485.503	6450.13
485.874	6629.78
486.244	6639.05
486.615	6798.59
486.985	6899.15
487.356	7044.91
487.726	7098.25
488.097	7245.81
488.467	7245.81
488.837	7463.89
489.207	7603.09
489.578	7743.65
489.948	7807.83
490.318	7891.22
490.688	7940.26
491.058	8062.74
491.428	8198.33
491.798	8212.57
492.168	8379.34
492.538	8460.02
492.908	8558.32
493.278	8624.53
493.648	8689.84
494.017	8832.66
494.387	8929.16
494.757	8907.24
495.126	9019.78
495.496	9107.01
495.866	9223.16
496.235	9277.4
496.605	9308.36
496.974	9402.14
497.344	9514.45
497.713	9577.73
498.082	9540.44
498.452	9681.23
498.821	9695.92
499.19	9696.37
499.559	9884.61
499.928	9938.4
500.298	9914.89
500.667	10034.89
501.036	9971.16
501.405	10144.95
501.774	10069.47
502.143	10212.97
502.512	10183.14
502.88	10313.75
503.249	10301.55
503.618	10396.24
503.987	10322.34
504.356	10500.42
504.724	10471.72
505.093	10418.16
505.462	10528.21
505.83	10593.52
506.199	10574.99
506.567	10714.65
506.936	10769.56
507.304	10846.17
507.672	10762.1
508.041	10855.43
508.409	10940.4
508.777	10986.5
509.145	11001.87
509.514	10939.27
509.882	11000.52
510.25	11083
510.618	11026.28
510.986	11012.27
511.354	11164.35
511.722	11194.86
512.09	11342.88
512.458	11209.1
512.826	11224.01
513.193	11304.91
513.561	11241.87
513.929	11360.73
514.297	11451.8
514.664	11428.98
515.032	11415.87
515.4	11464.01
515.767	11410.67
516.135	11525.02
516.502	11407.28
516.869	11513.5
517.237	11634.85
517.604	11481.41
517.972	11586.94
518.339	11647.73
518.706	11607.05
519.073	11578.35
519.44	11619.93
519.808	11651.57
520.175	11636.88
520.542	11760.5
520.909	11721.4
521.276	11696.32
521.643	11760.72
522.009	11722.76
522.376	11798.01
522.743	11789.87
523.11	11870.78
523.477	11864.9
523.843	11840.72
524.21	12007.04
524.577	12021.96
524.943	11937.44
525.31	11931.79
525.676	11969.3
526.043	11942.41
526.409	12057.21
526.776	12087.27
527.142	12019.47
527.508	12042.3
527.874	12060.37
528.241	12053.6
528.607	12021.28
528.973	12098.79
529.339	11918.01
529.705	12047.27
530.071	12080.04
530.437	12023.54
530.803	12036.42
531.169	12071.67
531.535	11933.15
531.901	11987.16
532.267	11926.14
532.632	11870.1
532.998	11773.15
533.364	11877.33
533.73	11877.33
534.095	11871.23
534.461	11888.18
534.826	11803.88
535.192	11800.49
535.557	11813.38
535.923	11747.61
536.288	11786.94
536.653	11615.64
537.019	11609.09
537.384	11628.97
537.749	11588.52
538.114	11571.35
538.479	11458.36
538.845	11495.19
539.21	11415.42
539.575	11424.23
539.94	11380.84
540.305	11405.7
540.67	11353.05
541.034	11296.1
541.399	11273.28
541.764	11231.7
542.129	11132.26
542.494	11135.88
542.858	11121.19
543.223	11044.81
543.587	11052.49
543.952	10962.55
544.316	10907.64
544.681	10963.91
545.045	10862.21
545.41	10862.67
545.774	10767.08
546.138	10808.88
546.503	10776.34
546.867	10676.46
547.231	10669
547.595	10574.76
547.959	10585.39
548.324	10492.51
548.688	10473.52
549.052	10505.61
549.416	10440.3
549.779	10436.46
550.143	10351.04
550.507	10412.28
550.871	10319.86
551.235	10273.3
551.599	10244.38
551.962	10248.22
552.326	10114.66
552.689	10146.98
553.053	10057.04
553.417	10029.69
553.78	10090.71
554.143	9991.05
554.507	9997.83
554.87	9913.09
555.234	9971.84
555.597	9915.12
555.96	9930.26
556.323	9858.85
556.686	9853.65
557.05	9878.29
557.413	9822.69
557.776	9824.73
558.139	9784.5
558.502	9752.41
558.865	9729.81
559.228	9719.87
559.59	9815.01
559.953	9744.5
560.316	9785.86
560.679	9691.62
561.041	9736.59
561.404	9674.22
561.767	9715.58
562.129	9648.91
562.492	9691.62
562.854	9611.85
563.217	9574.56
563.579	9616.82
563.941	9640.33
564.304	9652.98
564.666	9661.57
565.028	9624.96
565.39	9613.66
565.753	9722.58
566.115	9662.25
566.477	9672.19
566.839	9663.83
567.201	9709.48
567.563	9669.48
567.925	9711.06
568.287	9681.91
568.648	9705.41
569.01	9647.78
569.372	9746.54
569.734	9662.92
570.095	9694.56
570.457	9687.1
570.819	9680.78
571.18	9705.63
571.542	9754.45
571.903	9662.02
572.265	9697.5
572.626	9681.45
572.987	9724.84
573.349	9690.49
573.71	9753.32
574.071	9697.5
574.432	9725.07
574.794	9786.31
575.155	9749.93
575.516	9690.04
575.877	9691.62
576.238	9726.2
576.599	9796.48
576.96	9699.99
577.32	9758.29
577.681	9805.74
578.042	9756.71
578.403	9720.55
578.763	9730.04
579.124	9791.96
579.485	9771.4
579.845	9843.03
580.206	9726.2
580.566	9775.24
580.927	9702.24
581.287	9797.84
581.648	9669.7
582.008	9759.42
582.368	9734.11
582.728	9727.55
583.089	9690.95
583.449	9676.26
583.809	9681.23
584.169	9722.81
584.529	9676.26
584.889	9746.76
585.249	9631.29
585.609	9588.12
585.969	9696.6
586.329	9563.27
586.688	9642.81
587.048	9562.14
587.408	9593.1
587.768	9603.26
588.127	9601.68
588.487	9598.97
588.846	9557.84
589.206	9546.09
589.565	9521.68
589.925	9571.85
590.284	9539.54
590.643	9462.25
591.003	9542.93
591.362	9556.26
591.721	9475.58
592.08	9499.09
592.44	9475.81
592.799	9546.77
593.158	9485.08
593.517	9416.15
593.876	9458.64
594.235	9484.17
594.593	9459.09
594.952	9460.22
595.311	9455.02
595.67	9394.23
596.029	9463.38
596.387	9432.87
596.746	9475.13
597.104	9375.93
597.463	9427.45
597.822	9427
598.18	9428.58
598.538	9364.85
598.897	9475.81
599.255	9309.49
599.613	9425.42
599.972	9436.49
600.33	9423.38
600.688	9317.85
601.046	9351.97
601.404	9432.87
601.762	9368.69
602.12	9393.55
602.478	9361.01
602.836	9395.59
603.194	9300.22
603.552	9314.23
603.91	9323.95
604.268	9309.94
604.625	9319.88
604.983	9361.69
605.341	9289.6
605.698	9320.11
606.056	9343.61
606.413	9331.41
606.771	9384.51
607.128	9354.01
607.485	9330.73
607.843	9350.62
608.2	9386.32
608.557	9295.93
608.914	9365.53
609.272	9407.11
609.629	9350.84
609.986	9399.88
610.343	9351.97
610.7	9434
611.057	9389.26
611.414	9403.72
611.771	9391.52
612.127	9409.6
612.484	9445.3
612.841	9453.44
613.198	9439.2
613.554	9443.04
613.911	9432.87
614.267	9472.42
614.624	9412.76
614.98	9451.4
615.337	9494.57
615.693	9494.79
616.05	9452.99
616.406	9529.14
616.762	9532.31
617.118	9501.57
617.475	9457.51
617.831	9553.55
618.187	9455.92
618.543	9484.4
618.899	9554.23
619.255	9541.12
619.611	9543.6
619.967	9536.37
620.323	9620.89
620.678	9532.31
621.034	9525.3
621.39	9577.05
621.746	9516.26
622.101	9607.11
622.457	9575.69
622.812	9583.38
623.168	9569.82
623.523	9591.29
623.879	9641.46
624.234	9590.38
624.589	9549.03
624.945	9530.27
625.3	9522.59
625.655	9554.45
626.01	9568.92
626.365	9604.85
626.72	9500.44
627.075	9527.56
627.43	9546.77
627.785	9491.4
628.14	9476.04
628.495	9525.53
628.85	9543.83
629.205	9466.32
629.559	9557.39
629.914	9488.47
630.269	9502.93
630.623	9437.17
630.978	9401.46
631.332	9493.66
631.687	9442.14
632.041	9479.65
632.396	9434.91
632.75	9383.16
633.104	9470.84
633.459	9396.26
633.813	9342.25
634.167	9324.85
634.521	9273.56
634.875	9330.5
635.229	9307
635.583	9312.2
635.937	9255.7
636.291	9257.06
636.645	9283.72
636.999	9292.09
637.352	9322.82
637.706	9227.46
638.06	9246.21
638.413	9261.13
638.767	9198.53
639.121	9160.11
639.474	9158.53
639.828	9166.67
640.181	9168.47
640.534	9197.17
640.888	9133.45
641.241	9069.27
641.594	9153.33
641.947	9177.06
642.301	9139.77
642.654	9163.5
643.007	9140.68
643.36	9100.45
643.713	9175.93
644.066	9109.94
644.419	9085.76
644.771	9011.42
645.124	8910.18
645.477	8921.47
645.83	8872.66
646.182	8878.99
646.535	8865.2
646.888	8848.71
647.24	8843.51
647.593	8772.33
647.945	8839.22
648.298	8833.79
648.65	8733.46
649.002	8711.31
649.355	8764.87
649.707	8826.56
650.059	8847.13
650.411	8925.09
650.763	8916.95
651.115	9020.23
651.467	9033.56
651.819	9016.61
652.171	8996.05
652.523	8915.82
652.875	8961.93
653.227	8932.32
653.578	8976.39
653.93	8972.32
654.282	8929.16
654.633	8936.16
654.985	8938.2
655.337	8908.37
655.688	8957.86
656.039	9014.13
656.391	8982.72
656.742	8965.99
657.094	8974.81
657.445	8998.99
657.796	8976.61
658.147	8990.17
658.498	8959.21
658.849	9005.77
659.2	8983.62
659.551	8977.07
659.902	9014.58
660.253	8954.02
660.604	9041.47
660.955	9013.9
661.306	9061.36
661.656	9004.86
662.007	9019.78
662.358	9024.75
662.708	9035.82
663.059	9013.45
663.409	8981.81
663.76	9099.77
664.11	9001.02
664.461	9019.32
664.811	9031.53
665.161	9065.88
665.511	9026.78
665.862	9098.42
666.212	9076.27
666.562	9008.7
666.912	9084.63
667.262	9019.55
667.612	9008.7
667.962	9065.2
668.312	9066.1
668.662	9109.94
669.011	8976.16
669.361	8990.4
669.711	9032.43
670.06	9016.16
670.41	9031.3
670.76	9025.65
671.109	9013.45
671.459	9029.04
671.808	8981.13
672.157	9007.12
672.507	9038.76
672.856	8995.14
673.205	8958.99
673.554	9061.36
673.904	8952.89
674.253	8979.55
674.602	9024.97
674.951	8883.06
675.3	8841.7
675.649	8916.73
675.998	8981.81
676.346	8928.03
676.695	8932.1
677.044	8836.96
677.393	8913.79
677.741	8918.76
678.09	8823.85
678.438	8825.43
678.787	8806.9
679.135	8858.43
679.484	8744.76
679.832	8828.6
680.181	8766.45
680.529	8729.16
680.877	8691.42
681.225	8746.79
681.573	8742.04
681.922	8690.07
682.27	8717.19
682.618	8679.67
682.966	8622.5
683.314	8701.82
683.661	8660.69
684.009	8589.05
684.357	8629.73
684.705	8540.92
685.053	8590.64
685.4	8607.81
685.748	8515.38
686.095	8533.24
686.443	8389.51
686.79	8395.39
687.138	8441.04
687.485	8453.92
687.832	8422.05
688.18	8450.53
688.527	8364.2
688.874	8393.13
689.221	8371.88
689.568	8272.68
689.915	8307.25
690.262	8296.18
690.609	8206.01
690.956	8250.53
691.303	8203.53
691.65	8164.21
691.997	8150.87
692.344	8080.59
692.69	8060.93
693.037	8038.33
693.383	7997.2
693.73	8020.93
694.077	7903.42
694.423	7946.58
694.769	7934.61
695.116	7908.62
695.462	7866.36
695.808	7846.47
696.155	7808.28
696.501	7809.41
696.847	7727.16
697.193	7689.42
697.539	7687.38
697.885	7639.25
698.231	7536.65
698.577	7616.65
698.923	7586.14
699.269	7591.34
699.614	7470.21
699.96	7484
700.306	7458.46
700.651	7436.09
700.997	7406.49
701.342	7374.4
701.688	7378.01
702.033	7312.7
702.379	7361.97
702.724	7256.43
703.069	7307.51
703.415	7213.27
703.76	7188.41
704.105	7208.75
704.45	7167.62
704.795	7172.14
705.14	7093.5
705.485	7091.92
705.83	7042.43
706.175	7042.65
706.52	7038.13
706.865	7023.45
707.209	7003.11
707.554	6995.42
707.899	6934.86
708.243	6889.89
708.588	6903.9
708.932	6890.57
709.277	6894.86
709.621	6887.63
709.966	6824.35
710.31	6794.3
710.654	6806.28
710.998	6764.47
711.342	6791.81
711.687	6741.64
712.031	6714.75
712.375	6715.2
712.719	6740.51
713.063	6738.03
713.407	6673.17
713.75	6598.37
714.094	6638.37
714.438	6593.17
714.782	6608.31
715.125	6546.4
715.469	6564.25
715.812	6543.23
716.156	6517.92
716.499	6552.05
716.843	6575.55
717.186	6512.72
717.53	6522.44
717.873	6495.78
718.216	6510.01
718.559	6476.34
718.902	6475.89
719.246	6504.59
719.589	6451.26
719.932	6423.46
720.275	6458.71
720.617	6418.04
720.96	6445.38
721.303	6429.34
721.646	6403.57
721.989	6365.84
722.331	6360.41
722.674	6385.04
723.016	6378.49
723.359	6318.38
723.701	6401.54
724.044	6363.12
724.386	6347.98
724.729	6365.16
725.071	6398.15
725.413	6327.19
725.755	6334.65
726.097	6293.07
726.439	6289.91
726.782	6268.66
727.124	6272.5
727.465	6236.12
727.807	6304.14
728.149	6355.21
728.491	6251.26
728.833	6256.46
729.175	6264.14
729.516	6287.19
729.858	6275.67
730.199	6272.73
730.541	6237.48
730.882	6239.74
731.224	6285.61
731.565	6280.41
731.906	6252.17
732.248	6211.94
732.589	6230.92
732.93	6233.41
733.271	6290.58
733.612	6226.4
733.953	6307.31
734.294	6291.26
734.635	6247.19
734.976	6274.09
735.317	6266.18
735.658	6278.15
735.999	6273.41
736.339	6263.47
736.68	6293.29
737.021	6248.1
737.361	6277.93
737.702	6380.75
738.042	6282.22
738.383	6276.57
738.723	6347.08
739.063	6291.26
739.404	6357.47
739.744	6411.48
740.084	6316.35
740.424	6370.58
740.764	6378.94
741.104	6407.87
741.444	6345.72
741.784	6394.54
742.124	6446.29
742.464	6413.52
742.804	6473.63
743.143	6459.17
743.483	6481.31
743.823	6508.2
744.162	6465.49
744.502	6553.4
744.841	6550.24
745.181	6638.14
745.52	6625.04
745.86	6686.73
746.199	6698.71
746.538	6704.36
746.877	6752.27
747.216	6845.14
747.556	6851.47
747.895	6947.52
748.234	6918.14
748.573	6949.1
748.911	7022.99
749.25	7084.69
749.589	7135.08
749.928	7147.28
750.267	7260.28
750.605	7315.64
750.944	7338.92
751.283	7436.32
751.621	7588.85
751.96	7566.03
752.298	7696.42
752.636	7760.15
752.975	7839.47
753.313	7912.01
753.651	8091.44
753.989	8160.82
754.327	8244.2
754.666	8328.72
755.004	8428.83
755.342	8597.19
755.679	8666.11
756.017	8749.05
756.355	8949.72
756.693	9025.88
757.031	9228.81
757.368	9318.53
757.706	9484.62
758.044	9535.24
758.381	9770.49
758.719	9847.1
759.056	10085.74
759.394	10166.64
759.731	10332.06
760.068	10543.8
760.405	10657.25
760.743	10797.36
761.08	11020.18
761.417	11140.4
761.754	11157.12
762.091	11398.47
762.428	11561.63
762.765	11769.54
763.102	11920.72
763.438	12024.67
763.775	12197.55
764.112	12428.5
764.449	12511.89
764.785	12656.74
765.122	12807.25
765.458	12939.67
765.795	13147.58
766.131	13285.88
766.467	13440.45
