Data from hue_320_FLMS001491_16.txt Node
Date: Mon Feb 06 15:46:47 GMT 2017
User: dcchb
Spectrometer: FLMS00149
Trigger mode: 0
Integration Time (sec): 2.000000E-2
Scans to average: 10
Electric dark correction enabled: true
Nonlinearity correction enabled: false
Boxcar width: 0
XAxis mode: Wavelengths
Number of Pixels in Spectrum: 2048
>>>>>Begin Spectral Data<<<<<
341.393	-26.91
341.776	-26.91
342.16	-26.91
342.543	-56.51
342.927	-80.46
343.31	-74.14
343.693	-61.26
344.077	-52.44
344.46	-71.42
344.843	-53.35
345.226	-37.53
345.61	-51.31
345.993	-6.12
346.376	-2.27
346.759	-2.27
347.142	23.49
347.525	35.24
347.908	60.1
348.291	84.05
348.674	91.96
349.057	117.27
349.44	114.56
349.823	168.34
350.206	169.7
350.588	188.91
350.971	217.38
351.354	237.27
351.737	224.84
352.119	238.17
352.502	244.73
352.884	252.86
353.267	275.23
353.65	278.17
354.032	289.24
354.414	304.16
354.797	312.97
355.179	321.33
355.562	310.49
355.944	325.18
356.326	338.28
356.709	340.99
357.091	315.91
357.473	329.47
357.855	332.18
358.238	344.61
358.62	351.84
359.002	355.68
359.384	327.66
359.766	344.38
360.148	336.25
360.53	346.87
360.912	325.85
361.294	318.4
361.676	316.14
362.057	320.2
362.439	333.99
362.821	329.24
363.203	349.58
363.584	320.2
363.966	318.4
364.348	293.54
364.729	321.33
365.111	312.29
365.493	324.5
365.874	302.35
366.256	329.92
366.637	298.74
367.019	318.17
367.4	311.16
367.781	301.9
368.163	309.13
368.544	319.3
368.925	297.83
369.306	326.53
369.688	296.93
370.069	303.03
370.45	308.23
370.831	309.58
371.212	326.53
371.593	305.29
371.974	319.53
372.355	324.72
372.736	318.85
373.117	313.2
373.498	290.15
373.879	322.24
374.26	305.74
374.641	304.38
375.021	316.14
375.402	313.42
375.783	299.19
376.163	322.46
376.544	316.14
376.925	314.78
377.305	314.33
377.686	329.02
378.066	329.92
378.447	303.25
378.827	336.25
379.208	296.7
379.588	294.89
379.968	315.46
380.349	339.19
380.729	326.53
381.109	328.79
381.489	328.79
381.87	331.73
382.25	323.14
382.63	344.38
383.01	326.3
383.39	350.71
383.77	331.05
384.15	352.97
384.53	341.45
384.91	336.47
385.29	336.25
385.67	333.76
386.049	351.16
386.429	339.41
386.809	340.32
387.189	350.94
387.568	344.84
387.948	339.41
388.328	340.54
388.707	343.25
389.087	327.43
389.466	349.81
389.846	347.32
390.225	348.45
390.605	353.42
390.984	364.27
391.363	360.43
391.743	369.47
392.122	368.34
392.501	359.98
392.881	365.17
393.26	360.88
393.639	371.28
394.018	372.18
394.397	356.13
394.776	367.21
395.155	371.95
395.534	383.25
395.913	381.67
396.292	394.33
396.671	392.07
397.05	375.57
397.429	383.25
397.808	394.55
398.186	398.85
398.565	380.54
398.944	402.46
399.323	398.17
399.701	382.8
400.08	386.87
400.458	386.19
400.837	389.35
401.215	415.79
401.594	397.26
401.972	404.27
402.351	404.95
402.729	376.93
403.107	409.69
403.486	425.29
403.864	426.42
404.242	429.13
404.62	424.38
404.999	438.84
405.377	432.52
405.755	416.7
406.133	423.03
406.511	435.23
406.889	454.89
407.267	445.17
407.645	453.31
408.023	441.33
408.401	462.8
408.779	467.77
409.156	471.39
409.534	458.05
409.912	458.73
410.29	478.39
410.667	476.13
411.045	497.83
411.422	499.18
411.8	501.89
412.178	517.94
412.555	508.22
412.933	505.06
413.31	513.87
413.687	520.65
414.065	524.49
414.442	513.64
414.819	535.79
415.197	545.96
415.574	566.98
415.951	558.84
416.328	581.44
416.705	582.34
417.082	591.83
417.46	598.84
417.837	611.04
418.214	605.85
418.591	616.92
418.967	616.69
419.344	625.51
419.721	632.51
420.098	631.61
420.475	653.98
420.852	660.08
421.228	662.34
421.605	651.49
421.982	659.86
422.358	670.93
422.735	697.37
423.111	677.48
423.488	691.04
423.864	677.26
424.241	694.43
424.617	703.24
424.994	718.39
425.37	698.5
425.746	719.51
426.123	747.54
426.499	728.78
426.875	748.67
427.251	753.41
427.627	771.49
428.003	777.37
428.379	781.66
428.756	796.58
429.132	798.83
429.507	813.75
429.883	807.2
430.259	824.82
430.635	825.05
431.011	828.44
431.387	832.73
431.763	837.93
432.138	859.62
432.514	861.43
432.89	873.86
433.265	901.43
433.641	911.83
434.016	910.92
434.392	942.79
434.767	945.72
435.143	934.2
435.518	929
435.894	952.28
436.269	963.12
436.644	975.78
437.02	997.47
437.395	973.07
437.77	1004.93
438.145	980.75
438.52	1020.98
438.895	1041.54
439.271	1047.42
439.646	1035.89
440.021	1078.83
440.395	1079.51
440.77	1057.13
441.145	1064.36
441.52	1076.57
441.895	1099.17
442.27	1108.43
442.645	1110.92
443.019	1112.05
443.394	1100.97
443.769	1111.82
444.143	1092.84
444.518	1137.36
444.892	1113.18
445.267	1130.13
445.641	1096.68
446.016	1103.23
446.39	1119.28
446.764	1138.71
447.139	1140.07
447.513	1166.96
447.887	1150.01
448.262	1169.67
448.636	1176.68
449.01	1167.64
449.384	1198.82
449.758	1203.57
450.132	1206.51
450.506	1187.3
450.88	1208.32
451.254	1200.86
451.628	1210.8
452.002	1213.29
452.376	1221.65
452.75	1204.47
453.123	1258.48
453.497	1263.23
453.871	1263
454.244	1296
454.618	1271.59
454.992	1286.51
455.365	1299.84
455.739	1322.89
456.112	1336.67
456.486	1317.47
456.859	1316.56
457.232	1357.01
457.606	1371.7
457.979	1348.2
458.352	1373.74
458.725	1385.26
459.099	1392.94
459.472	1406.95
459.845	1423.9
460.218	1398.14
460.591	1438.37
460.964	1442.89
461.337	1488.08
461.71	1503
462.083	1515.88
462.456	1484.47
462.829	1481.08
463.201	1538.25
463.574	1513.62
463.947	1559.27
464.32	1555.43
464.692	1583.9
465.065	1584.8
465.438	1588.87
465.81	1604.24
466.183	1628.19
466.555	1628.64
466.928	1667.51
467.3	1633.62
467.672	1686.72
468.045	1722.43
468.417	1688.98
468.789	1719.71
469.161	1734.86
469.534	1752.48
469.906	1757.91
470.278	1778.47
470.65	1792.71
471.022	1820.95
471.394	1846.27
471.766	1856.66
472.138	1894.4
472.51	1904.79
472.882	1930.33
473.253	1953.38
473.625	1959.93
473.997	1980.72
474.369	2005.58
474.74	1990.22
475.112	2015.98
475.484	2035.41
475.855	2098.91
476.227	2056.43
476.598	2131
476.97	2143.88
477.341	2205.58
477.713	2214.62
478.084	2223.2
478.455	2278.8
478.827	2277.67
479.198	2346.59
479.569	2369.42
479.94	2386.36
480.311	2409.87
480.682	2440.6
481.053	2481.05
481.424	2541.39
481.795	2498.23
482.166	2538.22
482.537	2551.78
482.908	2617.09
483.279	2615.28
483.65	2653.25
484.021	2691.89
484.391	2740.25
484.762	2754.72
485.133	2757.43
485.503	2790.65
485.874	2834.49
486.244	2811.66
486.615	2894.15
486.985	2953.58
487.356	2913.13
487.726	2972.11
488.097	3041.26
488.467	3034.71
488.837	3094.14
489.207	3095.95
489.578	3146.8
489.948	3144.31
490.318	3202.16
490.688	3263.4
491.058	3220.92
491.428	3231.09
491.798	3292.55
492.168	3367.13
492.538	3348.15
492.908	3400.12
493.278	3457.75
493.648	3424.98
494.017	3445.32
494.387	3490.74
494.757	3495.26
495.126	3570.97
495.496	3537.97
495.866	3590.85
496.235	3567.58
496.605	3606.44
496.974	3630.4
497.344	3661.58
497.713	3670.17
498.082	3703.62
498.452	3735.25
498.821	3703.62
499.19	3752.66
499.559	3801.69
499.928	3826.33
500.298	3829.04
500.667	3868.13
501.036	3811.64
501.405	3849.83
501.774	3874.46
502.143	3912.88
502.512	3871.3
502.88	3914.91
503.249	3929.6
503.618	3970.5
503.987	3970.5
504.356	3994.91
504.724	3994.01
505.093	4027
505.462	3990.62
505.83	4027.22
506.199	4059.77
506.567	4078.3
506.936	4084.17
507.304	4108.35
507.672	4111.74
508.041	4144.06
508.409	4159.65
508.777	4189.03
509.145	4163.94
509.514	4212.98
509.882	4184.96
510.25	4189.03
510.618	4268.35
510.986	4222.25
511.354	4289.82
511.722	4318.06
512.09	4334.11
512.458	4327.1
512.826	4353.54
513.193	4345.86
513.561	4322.58
513.929	4341.57
514.297	4386.31
514.664	4438.97
515.032	4395.12
515.4	4399.87
515.767	4442.13
516.135	4473.09
516.502	4420.21
516.869	4490.49
517.237	4533.88
517.604	4444.39
517.972	4528.91
518.339	4521
518.706	4546.76
519.073	4549.92
519.44	4518.96
519.808	4620.66
520.175	4596.02
520.542	4605.97
520.909	4676.47
521.276	4613.42
521.643	4649.58
522.009	4636.25
522.376	4688.22
522.743	4757.37
523.11	4780.43
523.477	4779.3
523.843	4777.94
524.21	4828.79
524.577	4867.88
524.943	4856.13
525.31	4860.88
525.676	4950.36
526.043	4891.38
526.409	4984.26
526.776	4992.4
527.142	5020.42
527.508	5000.08
527.874	5039.4
528.241	5086.63
528.607	5101.77
528.973	5123.02
529.339	5156.91
529.705	5179.96
530.071	5222.67
530.437	5240.07
530.803	5226.06
531.169	5300.41
531.535	5252.28
531.901	5315.55
532.267	5309.9
532.632	5309
532.998	5329.34
533.364	5398.94
533.73	5407.75
534.095	5418.83
534.461	5475.77
534.826	5506.06
535.192	5525.72
535.557	5533.17
535.923	5504.25
536.288	5519.84
536.653	5564.36
537.019	5534.08
537.384	5625.6
537.749	5632.15
538.114	5663.11
538.479	5629.44
538.845	5708.99
539.21	5690.01
539.575	5736.11
539.94	5754.18
540.305	5795.77
540.67	5823.56
541.034	5843.9
541.399	5909.21
541.764	5853.39
542.129	5886.61
542.494	5928.64
542.858	5950.11
543.223	5949.21
543.587	6024.01
543.952	5983.78
544.316	6077.79
544.681	6055.65
545.045	6092.71
545.41	6126.15
545.774	6170.9
546.138	6159.37
546.503	6132.71
546.867	6221.52
547.231	6237.56
547.595	6291.12
547.959	6302.42
548.324	6329.99
548.688	6303.55
549.052	6345.58
549.416	6378.8
549.779	6352.59
550.143	6408.86
550.507	6394.17
550.871	6426.26
551.235	6417.9
551.599	6476.88
551.962	6490.66
552.326	6539.02
552.689	6537.44
553.053	6538.8
553.417	6591.68
553.78	6658.57
554.143	6577.44
554.507	6693.14
554.87	6669.42
555.234	6742.18
555.597	6729.75
555.96	6745.8
556.323	6775.4
556.686	6737.44
557.05	6816.08
557.413	6802.74
557.776	6815.63
558.139	6833.48
558.502	6865.12
558.865	6870.09
559.228	6908.96
559.59	6917.09
559.953	6938.11
560.316	7017.88
560.679	6999.8
561.041	7047.03
561.404	7104.43
561.767	7157.99
562.129	7021.27
562.492	7154.6
562.854	7183.75
563.217	7136.07
563.579	7174.26
563.941	7263.3
564.304	7258.55
564.666	7343.75
565.028	7267.14
565.39	7323.64
565.753	7372.67
566.115	7394.59
566.477	7432.78
566.839	7387.36
567.201	7485.21
567.563	7456.74
567.925	7499.9
568.287	7543.97
568.648	7498.77
569.01	7568.37
569.372	7611.09
569.734	7618.09
570.095	7656.51
570.457	7687.69
570.819	7677.3
571.18	7737.41
571.542	7836.16
571.903	7855.82
572.265	7872.55
572.626	7951.64
572.987	8008.81
573.349	8066.44
573.71	8094.46
574.071	8079.55
574.432	8135.82
574.794	8195.02
575.155	8242.48
575.516	8279.77
575.877	8366.09
576.238	8483.15
576.599	8525.19
576.96	8611.28
577.32	8652.87
577.681	8738.97
578.042	8811.28
578.403	8907.77
578.763	8955
579.124	9058.96
579.485	9095.79
579.845	9274.54
580.206	9354.09
580.566	9514.76
580.927	9621.88
581.287	9769.9
581.648	9847.18
582.008	9954.07
582.368	10088.76
582.728	10293.95
583.089	10428.19
583.449	10571.46
583.809	10752.7
584.169	10951.11
584.529	11025.01
584.889	11332.57
585.249	11470.87
585.609	11723.29
585.969	11949.95
586.329	12023.85
586.688	12332.54
587.048	12601.91
587.408	12844.62
587.768	13070.15
588.127	13285.29
588.487	13452.51
588.846	13757.36
589.206	13976.34
589.565	14244.58
589.925	14535.87
590.284	14673.5
590.643	15105.13
591.003	15374.27
591.362	15690.19
591.721	15892.22
592.08	16188.71
592.44	16511.64
592.799	16690.39
593.158	17060.55
593.517	17351.62
593.876	17639.52
594.235	17997.7
594.593	18351.82
594.952	18643.56
595.311	18813.73
595.67	19127.84
596.029	19505.69
596.387	19889.86
596.746	20145.44
597.104	20255.05
597.463	20578.88
597.822	21079.66
598.18	21126.66
598.538	21512.87
598.897	21966.64
599.255	22057.71
599.613	22662.89
599.972	22852.49
600.33	23132.94
600.688	23350.56
601.046	23689.08
601.404	24113.7
601.762	24432.11
602.12	24751.88
602.478	24983.51
602.836	25232.77
603.194	25390.5
603.552	25601.8
603.91	25848.35
604.268	26326.3
604.625	26420.53
604.983	26791.82
605.341	26990.01
605.698	27380.73
606.056	27711.8
606.413	27769.65
606.771	28161.96
607.128	28408.5
607.485	28564.66
607.843	28770.98
608.2	29198.54
608.557	29390.85
608.914	29494.13
609.272	29810.95
609.629	30113.77
609.986	30380.66
610.343	30346.31
610.7	30824.49
611.057	31047.98
611.414	31168.21
611.771	31406.39
612.127	31595.54
612.484	31819.71
612.841	32047.05
613.198	32187.16
613.554	32392.81
613.911	32718.22
614.267	32790.76
614.624	32905.34
614.98	33165.67
615.337	33376.96
615.693	33447.69
616.05	33546
616.406	33909.83
616.762	33965.42
617.118	33978.08
617.475	34218.75
617.831	34388.23
618.187	34573.09
618.543	34648.11
618.899	35007.88
619.255	35013.75
619.611	35288.1
619.967	35420.98
620.323	35660.07
620.678	35580.07
621.034	35554.98
621.39	35735.32
621.746	35787.29
622.101	36325.36
622.457	36130.79
622.812	36234.29
623.168	36583.66
623.523	36592.7
623.879	36748.85
624.234	36618.46
624.589	36850.09
624.945	36770.32
625.3	37012.35
625.655	36991.56
626.01	37123.08
626.365	37323.98
626.72	37251.21
627.075	37342.96
627.43	37408.95
627.785	37266.58
628.14	37495.27
628.495	37467.7
628.85	37546.12
629.205	37531.2
629.559	37703.85
629.914	37658.2
630.269	37700.01
630.623	37734.36
630.978	37761.7
631.332	37829.27
631.687	38011.64
632.041	37799.44
632.396	37968.71
632.75	37917.63
633.104	38063.62
633.459	37888.48
633.813	37964.19
634.167	37884.19
634.521	37878.76
634.875	38213.22
635.229	38131.19
635.583	37989.72
635.937	38011.87
636.291	37920.57
636.645	38056.39
636.999	38120.11
637.352	38089.38
637.706	37987.01
638.06	38149.49
638.413	38009.38
638.767	37965.77
639.121	38220.68
639.474	37870.18
639.828	38000.79
640.181	38069.04
640.534	38063.84
640.888	37920.8
641.241	37787.47
641.594	37950.85
641.947	38122.15
642.301	37914.92
642.654	38026.33
643.007	37934.36
643.36	37909.05
643.713	37907.24
644.066	38164.63
644.419	37914.02
644.771	37647.36
645.124	37233.81
645.477	37332.34
645.83	37083.98
646.182	37004.89
646.535	36860.26
646.888	37016.41
647.24	36790.2
647.593	37036.3
647.945	36821.62
648.298	36785.91
648.65	36712.01
649.002	36684.9
649.355	36785.69
649.707	36723.54
650.059	36907.72
650.411	37355.61
650.763	37371.66
651.115	37824.3
651.467	37655.94
651.819	37505.44
652.171	37631.31
652.523	37499.34
652.875	37471.54
653.227	37259.8
653.578	37519.9
653.93	37560.58
654.282	37391.55
654.633	37364.88
654.985	37373.24
655.337	37345.9
655.688	37405.78
656.039	37512.22
656.391	37144.77
656.742	37245.56
657.094	37264.99
657.445	37400.58
657.796	37373.24
658.147	37229.97
658.498	37279.23
658.849	37359.23
659.2	37241.94
659.551	37253.02
659.902	37438.78
660.253	37222.06
660.604	37229.06
660.955	37095.73
661.306	37272.68
661.656	37205.56
662.007	37254.6
662.358	37118.78
662.708	37227.48
663.059	37287.82
663.409	36958.11
663.76	37193.58
664.11	37186.13
664.461	37119.91
664.811	37139.57
665.161	37228.16
665.511	37077.43
665.862	37045.79
666.212	37234.71
666.562	37201.95
666.912	36954.95
667.262	37008.5
667.612	37107.94
667.962	37177.99
668.312	37064.55
668.662	37192.91
669.011	37114.72
669.361	37125.11
669.711	37039.01
670.06	36969.86
670.41	37010.09
670.76	36906.13
671.109	37056.64
671.459	36998.56
671.808	36918.11
672.157	36963.31
672.507	36719.02
672.856	36808.74
673.205	36896.42
673.554	36988.84
673.904	36936.42
674.253	37010.54
674.602	36854.84
674.951	36284.23
675.3	36212.59
675.649	36791.79
675.998	36727.38
676.346	36767.61
676.695	36895.96
677.044	36509.53
677.393	36670.21
677.741	36639.02
678.09	36644.45
678.438	36567.39
678.787	36709.3
679.135	36580.27
679.484	36525.13
679.832	36475.86
680.181	36314.96
680.529	36373.04
680.877	36275.87
681.225	36307.96
681.573	36487.61
681.922	36242.65
682.27	36176.21
682.618	36163.78
682.966	36088.08
683.314	36292.36
683.661	36013.95
684.009	35890.34
684.357	35894.18
684.705	35823.45
685.053	35752.72
685.4	35706.17
685.748	35503.69
686.095	35537.13
686.443	35477.47
686.79	35416.23
687.138	35530.35
687.485	35406.06
687.832	35365.61
688.18	35372.16
688.527	35122.23
688.874	35182.34
689.221	35133.07
689.568	35082.45
689.915	34890.37
690.262	34940.99
690.609	34876.58
690.956	34697.15
691.303	34721.33
691.65	34625.97
691.997	34626.65
692.344	34389.14
692.69	34376.48
693.037	34419.65
693.383	33982.37
693.73	34058.98
694.077	33990.73
694.423	34029.83
694.769	33920.68
695.116	33896.72
695.462	33721.81
695.808	33665.77
696.155	33763.84
696.501	33390.29
696.847	33482.27
697.193	33284.31
697.539	33444.76
697.885	33143.75
698.231	32909.4
698.577	33003.41
698.923	32797.99
699.269	32685.68
699.614	32686.81
699.96	32670.54
700.306	32682.74
700.651	32716.19
700.997	32442.3
701.342	32366.14
701.688	32358.68
702.033	32300.83
702.379	32226.26
702.724	32157.56
703.069	32223.32
703.415	31853.84
703.76	31842.54
704.105	31826.49
704.45	31817.68
704.795	31604.8
705.14	31541.76
705.485	31537.46
705.83	31395.77
706.175	31475.77
706.52	31258.15
706.865	31306.06
707.209	31262.44
707.554	31131.6
707.899	31162.56
708.243	30842.79
708.588	30869.46
708.932	30751.27
709.277	30651.61
709.621	30680.08
709.966	30612.06
710.31	30543.14
710.654	30310.6
710.998	30405.74
711.342	30396.25
711.687	30312.18
712.031	30098.86
712.375	30069.03
712.719	30056.82
713.063	30074.45
713.407	30098.18
713.75	29955.13
714.094	29886.43
714.438	29803.5
714.782	29813.21
715.125	29748.13
715.469	29756.04
715.812	29530.51
716.156	29422.26
716.499	29521.7
716.843	29630.62
717.186	29297.07
717.53	29416.84
717.873	29412.32
718.216	29295.49
718.559	29215.49
718.902	29043.06
719.246	29076.74
719.589	29014.14
719.932	28825.22
720.275	28865.89
720.617	28836.52
720.96	28791.55
721.303	28833.8
721.646	28943.18
721.989	28560.82
722.331	28667.48
722.674	28577.99
723.016	28577.09
723.359	28572.34
723.701	28460.03
724.044	28359.92
724.386	28264.55
724.729	28382.29
725.071	28314.95
725.413	28243.99
725.755	28248.28
726.097	28107.72
726.439	27888.29
726.782	28019.81
727.124	28117.66
727.465	27860.72
727.807	27964.45
728.149	27878.8
728.491	27817.11
728.833	27827.73
729.175	27821.4
729.516	27611.46
729.858	27636.1
730.199	27665.02
730.541	27586.83
730.882	27429.77
731.224	27539.83
731.565	27328.08
731.906	27350.91
732.248	27448.08
732.589	27277.46
732.93	27131.02
733.271	27209.21
733.612	27282.43
733.953	27243.79
734.294	27048.77
734.635	27031.37
734.976	27108.2
735.317	26952.95
735.658	26935.32
735.999	26991.37
736.339	27046.96
736.68	26936.45
737.021	26908.43
737.361	26697.81
737.702	26855.1
738.042	26675.89
738.383	26621.21
738.723	26667.53
739.063	26561.1
739.404	26670.02
739.744	26503.02
740.084	26386.86
740.424	26456.24
740.764	26411.04
741.104	26491.27
741.444	26381.21
741.784	26230.93
742.124	26319.75
742.464	26210.14
742.804	26251.27
743.143	26180.99
743.483	26211.73
743.823	26009.47
744.162	26103.25
744.502	26060.32
744.841	25840.66
745.181	26049.24
745.52	25952.3
745.86	25861
746.199	25809.25
746.538	25797.5
746.877	25810.15
747.216	25782.58
747.556	25724.06
747.895	25760.89
748.234	25463.72
748.573	25548.01
748.911	25534
749.25	25527.45
749.589	25462.37
749.928	25417.62
750.267	25283.61
750.605	25347.79
750.944	25274.8
751.283	25245.2
751.621	25302.15
751.96	25159.32
752.298	25080.91
752.636	25149.61
752.975	24897.64
753.313	24859.22
753.651	24809.95
753.989	24882.5
754.327	24763.63
754.666	24629.17
755.004	24653.8
755.342	24646.8
755.679	24510.98
756.017	24429.63
756.355	24578.1
756.693	24407.71
757.031	24384.88
757.368	24246.13
757.706	24238.9
758.044	24164.77
758.381	24130.2
758.719	24053.82
759.056	24089.97
759.394	24007.94
759.731	23847.04
760.068	23799.13
