Data from hue_130_FLMS001491_00062.txt Node
Date: Tue Feb 07 16:57:55 GMT 2017
User: dcchb
Spectrometer: FLMS00149
Trigger mode: 0
Integration Time (sec): 2.000000E-2
Scans to average: 10
Electric dark correction enabled: true
Nonlinearity correction enabled: false
Boxcar width: 0
XAxis mode: Wavelengths
Number of Pixels in Spectrum: 2048
>>>>>Begin Spectral Data<<<<<
341.393	4.31
341.776	4.31
342.16	4.31
342.543	-56.71
342.927	-75.92
343.31	-73.2
343.693	-63.49
344.077	-76.59
344.46	-53.09
344.843	-53.09
345.226	-29.82
345.61	-34.56
345.993	-0.66
346.376	-26.2
346.759	17.87
347.142	14.93
347.525	45.21
347.908	57.87
348.291	84.76
348.674	79.11
349.057	110.97
349.44	128.37
349.823	141.25
350.206	164.3
350.588	196.17
350.971	204.3
351.354	202.04
351.737	235.26
352.119	242.72
352.502	263.74
352.884	264.64
353.267	278.42
353.65	311.64
354.032	286.11
354.414	297.41
354.797	304.64
355.179	308.25
355.562	322.04
355.944	329.95
356.326	346.9
356.709	326.11
357.091	348.93
357.473	326.56
357.855	332.43
358.238	333.79
358.62	336.73
359.002	328.14
359.384	342.83
359.766	326.11
360.148	374.02
360.53	348.48
360.912	336.05
361.294	322.27
361.676	344.41
362.057	328.14
362.439	310.74
362.821	318.2
363.203	298.99
363.584	336.28
363.966	346.45
364.348	348.48
364.729	341.47
365.111	315.03
365.493	311.42
365.874	319.1
366.256	335.37
366.637	328.37
367.019	307.58
367.4	317.52
367.781	325.88
368.163	314.81
368.544	329.72
368.925	299.89
369.306	314.58
369.688	308.48
370.069	329.05
370.45	305.77
370.831	288.59
371.212	312.77
371.593	315.71
371.974	299.44
372.355	321.14
372.736	326.11
373.117	317.52
373.498	332.43
373.879	310.06
374.26	303.06
374.641	321.36
375.021	294.47
375.402	322.49
375.783	327.01
376.163	343.73
376.544	338.99
376.925	330.4
377.305	327.92
377.686	336.05
378.066	338.99
378.447	321.14
378.827	349.16
379.208	324.53
379.588	348.03
379.968	342.6
380.349	332.66
380.729	332.89
381.109	330.85
381.489	359.33
381.87	344.41
382.25	328.82
382.63	331.76
383.01	353.23
383.39	350.51
383.77	345.77
384.15	344.64
384.53	350.29
384.91	346.45
385.29	342.83
385.67	369.72
386.049	393.9
386.429	361.13
386.809	370.63
387.189	392.32
387.568	360.23
387.948	363.17
388.328	361.81
388.707	356.16
389.087	358.65
389.466	382.83
389.846	372.43
390.225	387.12
390.605	360
390.984	367.46
391.363	383.05
391.743	370.17
392.122	369.27
392.501	394.13
392.881	362.26
393.26	373.11
393.639	379.21
394.018	375.15
394.397	381.02
394.776	397.97
395.155	397.29
395.534	390.29
395.913	381.92
396.292	380.34
396.671	399.33
397.05	413.11
397.429	413.56
397.808	407.91
398.186	399.1
398.565	402.72
398.944	414.69
399.323	406.78
399.701	410.4
400.08	423.28
400.458	414.01
400.837	411.98
401.215	423.73
401.594	399.78
401.972	429.38
402.351	402.94
402.729	417.86
403.107	433.68
403.486	434.8
403.864	444.07
404.242	416.5
404.62	430.51
404.999	444.75
405.377	451.53
405.755	463.05
406.133	440.68
406.511	464.18
406.889	458.76
407.267	451.53
407.645	473.22
408.023	462.83
408.401	470.96
408.779	483.17
409.156	449.04
409.534	447.01
409.912	460.79
410.29	469.83
410.667	485.88
411.045	495.37
411.422	467.57
411.8	484.75
412.178	484.07
412.555	499.44
412.933	494.24
413.31	506.44
413.687	483.84
414.065	510.74
414.442	508.93
414.819	526.1
415.197	512.32
415.574	536.05
415.951	511.19
416.328	518.87
416.705	515.25
417.082	530.62
417.46	522.71
417.837	524.29
418.214	516.84
418.591	541.02
418.967	535.59
419.344	549.38
419.721	557.29
420.098	553.45
420.475	570.39
420.852	565.65
421.228	588.47
421.605	580.11
421.982	587.34
422.358	557.51
422.735	585.99
423.111	576.95
423.488	584.63
423.864	606.1
424.241	598.42
424.617	593.22
424.994	600.68
425.37	599.32
425.746	620.79
426.123	612.88
426.499	639.32
426.875	631.64
427.251	639.55
427.627	629.6
428.003	662.6
428.379	656.04
428.756	680
429.132	654.23
429.507	674.12
429.883	647
430.259	672.54
430.635	689.04
431.011	693.33
431.387	695.59
431.763	689.26
432.138	712.54
432.514	729.71
432.89	710.5
433.265	719.09
433.641	736.72
434.016	730.39
434.392	742.14
434.767	747.34
435.143	769.26
435.518	758.41
435.894	744.63
436.269	778.07
436.644	792.99
437.02	800.22
437.395	815.13
437.77	829.82
438.145	804.06
438.52	824.17
438.895	814.46
439.271	812.42
439.646	852.42
440.021	850.84
440.395	849.03
440.77	821.01
441.145	864.17
441.52	881.57
441.895	879.31
442.27	869.6
442.645	865.98
443.019	910.5
443.394	890.39
443.769	896.26
444.143	889.48
444.518	888.8
444.892	902.36
445.267	909.82
445.641	936.94
446.016	953.89
446.39	941.23
446.764	945.98
447.139	942.36
447.513	975.13
447.887	962.47
448.262	954.79
448.636	960.89
449.01	979.2
449.384	973.77
449.758	979.88
450.132	1010.61
450.506	987.11
450.88	996.82
451.254	1006.09
451.628	1018.74
452.002	1029.59
452.376	1007.22
452.75	1038.4
453.123	1048.35
453.497	1074.34
453.871	1069.59
454.244	1090.61
454.618	1131.06
454.992	1130.38
455.365	1131.96
455.739	1132.64
456.112	1153.66
456.486	1162.7
456.859	1167.67
457.232	1177.38
457.606	1200.89
457.979	1203.6
458.352	1235.46
458.725	1235.91
459.099	1254.9
459.472	1284.95
459.845	1296.7
460.218	1305.06
460.591	1308.68
460.964	1329.92
461.337	1355.23
461.71	1381.45
462.083	1378.96
462.456	1417.15
462.829	1399.98
463.201	1425.29
463.574	1446.53
463.947	1437.94
464.32	1489.01
464.692	1520.43
465.065	1535.12
465.438	1537.37
465.81	1579.86
466.183	1614.66
466.555	1609.69
466.928	1637.71
467.3	1640.42
467.672	1660.76
468.045	1713.19
468.417	1716.58
468.789	1759.29
469.161	1789.57
469.534	1800.64
469.906	1856.24
470.278	1867.31
470.65	1908.66
471.022	1947.53
471.394	2003.8
471.766	1994.09
472.138	2056.01
472.51	2101.65
472.882	2095.1
473.253	2172.61
473.625	2205.61
473.997	2265.94
474.369	2288.32
474.74	2338.48
475.112	2416.67
475.484	2465.94
475.855	2550.46
476.227	2564.47
476.598	2643.79
476.97	2689.21
477.341	2751.58
477.713	2833.84
478.084	2887.4
478.455	2979.82
478.827	3054.85
479.198	3145.24
479.569	3197.67
479.94	3329.19
480.311	3356.31
480.682	3444.22
481.053	3574.84
481.424	3687.15
481.795	3740.48
482.166	3839.46
482.537	3913.13
482.908	4013.92
483.279	4120.36
483.65	4258.89
484.021	4439.67
484.391	4459.11
484.762	4597.18
485.133	4685.54
485.503	4791.75
485.874	4989.49
486.244	5043.72
486.615	5207.11
486.985	5308.35
487.356	5500.66
487.726	5636.02
488.097	5702.92
488.467	5829.92
488.837	5997.37
489.207	6172.28
489.578	6276.46
489.948	6396
490.318	6582.21
490.688	6711.7
491.058	6820.63
491.428	6926.16
491.798	7095.87
492.168	7357.11
492.538	7441.85
492.908	7575.63
493.278	7744.44
493.648	7809.98
494.017	8030.54
494.387	8174.49
494.757	8284.09
495.126	8420.36
495.496	8482.95
495.866	8666.45
496.235	8848.6
496.605	8903.06
496.974	9031.87
497.344	9123.62
497.713	9296.94
498.082	9398.64
498.452	9586.65
498.821	9688.8
499.19	9747.78
499.559	9872.3
499.928	9991.62
500.298	10067.55
500.667	10251.04
501.036	10322.23
501.405	10416.46
501.774	10537.36
502.143	10626.85
502.512	10730.81
502.88	10811.48
503.249	10858.26
503.618	10938.71
503.987	11027.07
504.356	11098.25
504.724	11251.92
505.093	11285.37
505.462	11371.69
505.83	11415.53
506.199	11628.41
506.567	11776.65
506.936	11730.78
507.304	11891.9
507.672	11991.56
508.041	11931
508.409	12189.75
508.777	12281.73
509.145	12250.77
509.514	12229.3
509.882	12383.19
510.25	12435.39
510.618	12476.3
510.986	12492.57
511.354	12678.55
511.722	12813.24
512.09	12823.63
512.458	12831.77
512.826	12983.63
513.193	12953.12
513.561	12977.3
513.929	13126
514.297	13183.4
514.664	13220.01
515.032	13237.41
515.4	13309.95
515.767	13382.49
516.135	13345.2
516.502	13321.25
516.869	13542.26
517.237	13555.14
517.604	13475.14
517.972	13604.4
518.339	13660.45
518.706	13561.92
519.073	13667
519.44	13738.86
519.808	13841.23
520.175	13847.56
520.542	13910.61
520.909	14051.62
521.276	14017.05
521.643	14147.89
522.009	14080.55
522.376	14055.46
522.743	14184.05
523.11	14259.3
523.477	14374.33
523.843	14362.35
524.21	14344.27
524.577	14511.72
524.943	14511.5
525.31	14498.39
525.676	14597.37
526.043	14671.04
526.409	14601.21
526.776	14760.76
527.142	14705.39
527.508	14681.44
527.874	14806.86
528.241	14751.04
528.607	14827.19
528.973	14857.7
529.339	14744.49
529.705	14895.89
530.071	14896.35
530.437	14934.76
530.803	14885.5
531.169	14925.95
531.535	14855.44
531.901	14894.31
532.267	14949.23
532.632	14909
532.998	14950.58
533.364	14889.11
533.73	14878.94
534.095	14986.74
534.461	15011.82
534.826	14957.13
535.192	15011.14
535.557	14979.73
535.923	14923.92
536.288	14921.2
536.653	14928.21
537.019	14886.63
537.384	14815.67
537.749	14903.13
538.114	14758.27
538.479	14803.24
538.845	14781.55
539.21	14731.15
539.575	14713.07
539.94	14714.43
540.305	14735.67
540.67	14610.93
541.034	14761.43
541.399	14652.74
541.764	14523.7
542.129	14511.27
542.494	14534.55
542.858	14523.93
543.223	14467.88
543.587	14500.88
543.952	14387.66
544.316	14458.84
544.681	14415.45
545.045	14384.95
545.41	14340.2
545.774	14297.27
546.138	14260.43
546.503	14303.14
546.867	14290.26
547.231	14327.77
547.595	14220.43
547.959	14158.96
548.324	14093.65
548.688	14094.11
549.052	14135.24
549.416	14031.96
549.779	14102.24
550.143	13986.31
550.507	13995.35
550.871	14047.78
551.235	13909.25
551.599	13972.75
551.962	13923.94
552.326	13919.2
552.689	13893.43
553.053	13786.77
553.417	13824.96
553.78	13855.24
554.143	13763.49
554.507	13787.22
554.87	13785.19
555.234	13897.05
555.597	13786.32
555.96	13762.59
556.323	13824.28
556.686	13693.44
557.05	13745.87
557.413	13764.85
557.776	13759.2
558.139	13843.94
558.502	13760.56
558.865	13776.6
559.228	13848.92
559.59	13825.64
559.953	13777.28
560.316	13912.87
560.679	13820.89
561.041	13785.19
561.404	13933.43
561.767	13812.76
562.129	13754
562.492	13931.63
562.854	13809.37
563.217	13810.5
563.579	13901.57
563.941	13872.64
564.304	13838.29
564.666	13878.75
565.028	13911.06
565.39	13994.9
565.753	14012.53
566.115	13972.98
566.477	13943.38
566.839	13969.59
567.201	14019.08
567.563	14029.93
567.925	14113.32
568.287	14067.21
568.648	14022.02
569.01	14120.55
569.372	14222.24
569.734	14099.08
570.095	14154.67
570.457	14198.96
570.819	14201.45
571.18	14246.42
571.542	14245.74
571.903	14193.54
572.265	14248.91
572.626	14356.92
572.987	14318.73
573.349	14409.35
573.71	14373.87
574.071	14373.42
574.432	14373.87
574.794	14478.28
575.155	14431.27
575.516	14349.69
575.877	14392.4
576.238	14443.7
576.599	14411.16
576.96	14340.43
577.32	14411.39
577.681	14518.73
578.042	14484.38
578.403	14518.28
578.763	14437.37
579.124	14509.46
579.485	14494.32
579.845	14491.61
580.206	14511.95
580.566	14472.85
580.927	14585.85
581.287	14476.47
581.648	14431.5
582.008	14556.47
582.368	14474.89
582.728	14598.05
583.089	14480.99
583.449	14445.51
583.809	14534.77
584.169	14583.81
584.529	14485.06
584.889	14577.71
585.249	14418.39
585.609	14468.79
585.969	14489.8
586.329	14426.08
586.688	14418.62
587.048	14441.44
587.408	14359.41
587.768	14344.95
588.127	14371.39
588.487	14282.8
588.846	14394.44
589.206	14344.27
589.565	14332.07
589.925	14420.88
590.284	14387.66
590.643	14299.98
591.003	14285.29
591.362	14347.66
591.721	14272.63
592.08	14271.96
592.44	14269.7
592.799	14332.29
593.158	14284.84
593.517	14309.69
593.876	14263.82
594.235	14258.17
594.593	14204.84
594.952	14339.07
595.311	14229.92
595.67	14228.34
596.029	14237.83
596.387	14301.78
596.746	14250.26
597.104	14226.08
597.463	14220.66
597.822	14233.54
598.18	14171.84
598.538	14224.27
598.897	14330.94
599.255	14165.29
599.613	14339.75
599.972	14209.13
600.33	14212.75
600.688	14213.88
601.046	14266.08
601.404	14325.74
601.762	14219.53
602.12	14344.95
602.478	14309.69
602.836	14322.12
603.194	14280.99
603.552	14215.23
603.91	14178.17
604.268	14279.86
604.625	14239.87
604.983	14300.2
605.341	14219.98
605.698	14265.4
606.056	14374.78
606.413	14295.23
606.771	14280.54
607.128	14322.58
607.485	14213.65
607.843	14305.4
608.2	14373.87
608.557	14391.73
608.914	14382.91
609.272	14368.9
609.629	14414.78
609.986	14438.28
610.343	14382.23
610.7	14416.81
611.057	14395.34
611.414	14396.92
611.771	14443.7
612.127	14504.72
612.484	14487.09
612.841	14577.71
613.198	14492.97
613.554	14474.89
613.911	14527.99
614.267	14532.29
614.624	14455
614.98	14467.2
615.337	14580.2
615.693	14637.37
616.05	14616.8
616.406	14636.47
616.762	14594.21
617.118	14483.7
617.475	14599.86
617.831	14703.58
618.187	14683.7
618.543	14651.15
618.899	14763.92
619.255	14773.64
619.611	14652.96
619.967	14782.45
620.323	14710.36
620.678	14631.27
621.034	14636.92
621.39	14616.58
621.746	14631.49
622.101	14798.27
622.457	14699.74
622.812	14695.9
623.168	14788.78
623.523	14660.19
623.879	14790.13
624.234	14639.4
624.589	14735.67
624.945	14696.8
625.3	14663.13
625.655	14746.29
626.01	14785.84
626.365	14745.62
626.72	14640.31
627.075	14759.4
627.43	14706.97
627.785	14684.83
628.14	14662.68
628.495	14693.87
628.85	14718.72
629.205	14685.5
629.559	14770.93
629.914	14660.42
630.269	14576.81
630.623	14617.26
630.978	14572.29
631.332	14585.17
631.687	14684.6
632.041	14558.95
632.396	14536.13
632.75	14538.16
633.104	14534.55
633.459	14446.41
633.813	14491.38
634.167	14500.65
634.521	14465.85
634.875	14426.53
635.229	14448.67
635.583	14390.82
635.937	14388.79
636.291	14426.3
636.645	14392.86
636.999	14376.81
637.352	14418.84
637.706	14303.82
638.06	14331.16
638.413	14314.21
638.767	14281.67
639.121	14316.7
639.474	14217.04
639.828	14218.62
640.181	14206.87
640.534	14193.99
640.888	14154.22
641.241	14144.95
641.594	14163.48
641.947	14209.81
642.301	14143.82
642.654	14196.48
643.007	14172.3
643.36	14117.16
643.713	14138.17
644.066	14125.52
644.419	14045.52
644.771	13887.33
645.124	13787.9
645.477	13868.12
645.83	13730.27
646.182	13669.49
646.535	13644.4
646.888	13669.26
647.24	13671.52
647.593	13705.64
647.945	13526.44
648.298	13512.88
648.65	13559.21
649.002	13517.85
649.355	13596.27
649.707	13579.77
650.059	13697.51
650.411	13756.49
650.763	13847.33
651.115	13898.86
651.467	13901.12
651.819	13878.29
652.171	13856.6
652.523	13837.39
652.875	13820.22
653.227	13774.34
653.578	13933.43
653.93	13876.26
654.282	13816.15
654.633	13765.08
654.985	13912.19
655.337	13901.8
655.688	13869.93
656.039	13930.95
656.391	13834.68
656.742	13912.87
657.094	13864.28
657.445	13934.34
657.796	13905.41
658.147	13841.23
658.498	13922.81
658.849	13871.06
659.2	13889.82
659.551	13896.37
659.902	13874.23
660.253	13969.82
660.604	13931.63
660.955	13912.42
661.306	13836.71
661.656	13863.15
662.007	13864.73
662.358	13930.27
662.708	13941.57
663.059	13841.23
663.409	13774.57
663.76	13959.2
664.11	13855.7
664.461	13973.43
664.811	13948.35
665.161	13866.99
665.511	13871.51
665.862	13946.77
666.212	13881.46
666.562	13963.04
666.912	13914.9
667.262	13815.02
667.612	13920.1
667.962	13896.15
668.312	13965.75
668.662	14000.78
669.011	13897.28
669.361	13909.93
669.711	13915.35
670.06	13872.19
670.41	13807.33
670.76	13882.59
671.109	13904.96
671.459	13964.84
671.808	13792.19
672.157	13841.91
672.507	13768.69
672.856	13734.79
673.205	13827.22
673.554	13863.38
673.904	13867.67
674.253	13831.29
674.602	13804.17
674.951	13565.76
675.3	13490.73
675.649	13700.67
675.998	13779.76
676.346	13804.17
676.695	13799.65
677.044	13634.23
677.393	13713.1
677.741	13731.4
678.09	13638.98
678.438	13687.11
678.787	13629.71
679.135	13578.19
679.484	13573.89
679.832	13557.85
680.181	13557.17
680.529	13534.57
680.877	13431.75
681.225	13487.34
681.573	13550.84
681.922	13411.64
682.27	13293.68
682.618	13414.8
682.966	13272.21
683.314	13341.13
683.661	13280.34
684.009	13236.5
684.357	13236.73
684.705	13229.95
685.053	13323.28
685.4	13222.72
685.748	13118.99
686.095	13099.56
686.443	13049.16
686.79	13096.84
687.138	13029.5
687.485	13102.95
687.832	12932.33
688.18	12922.16
688.527	12865.21
688.874	12867.25
689.221	12851.2
689.568	12836.51
689.915	12798.1
690.262	12697.53
690.609	12744.31
690.956	12679.45
691.303	12613.69
691.65	12604.88
691.997	12568.72
692.344	12473.58
692.69	12499.12
693.037	12509.52
693.383	12427.48
693.73	12424.09
694.077	12336.41
694.423	12269.07
694.769	12293.93
695.116	12214.83
695.462	12248.28
695.808	12133.25
696.155	12227.04
696.501	12051.22
696.847	12082.41
697.193	11942.07
697.539	11978.46
697.885	11860.95
698.231	11865.92
698.577	11878.35
698.923	11815.52
699.269	11786.14
699.614	11745.24
699.96	11663.89
700.306	11649.88
700.651	11565.81
700.997	11484.46
701.342	11553.61
701.688	11537.34
702.033	11439.94
702.379	11408.08
702.724	11369.21
703.069	11376.89
703.415	11285.37
703.76	11277.46
704.105	11259.38
704.45	11207.63
704.795	11235.2
705.14	11105.26
705.485	11173.51
705.83	11027.75
706.175	11091.47
706.52	11006.96
706.865	10983
707.209	10872.72
707.554	10978.93
707.899	10887.19
708.243	10839.96
708.588	10863.01
708.932	10743.23
709.277	10832.27
709.621	10790.46
709.966	10684.03
710.31	10735.1
710.654	10649.45
710.998	10623.24
711.342	10609.45
711.687	10584.59
712.031	10520.42
712.375	10588.44
712.719	10472.51
713.063	10489
713.407	10515.44
713.75	10521.55
714.094	10476.8
714.438	10377.14
714.782	10420.98
715.125	10267.31
715.469	10404.26
715.812	10347.99
716.156	10341.21
716.499	10344.83
716.843	10247.88
717.186	10175.79
717.53	10258.28
717.873	10278.61
718.216	10228.45
718.559	10196.58
718.902	10154.78
719.246	10137.83
719.589	10169.46
719.932	10076.81
720.275	10115.91
720.617	10068.22
720.96	9995.01
721.303	10103.93
721.646	10091.5
721.989	10018.28
722.331	10100.31
722.674	9989.13
723.016	10002.46
723.359	9987.77
723.701	9986.42
724.044	9899.19
724.386	9835.46
724.729	9924.72
725.071	9894.22
725.413	9885.4
725.755	9906.42
726.097	9809.25
726.439	9883.6
726.782	9801.56
727.124	9832.52
727.465	9853.09
727.807	9765.86
728.149	9812.64
728.491	9779.64
728.833	9775.8
729.175	9778.06
729.516	9787.1
729.858	9773.77
730.199	9761.79
730.541	9721.79
730.882	9758.85
731.224	9746.2
731.565	9744.62
731.906	9818.96
732.248	9727.89
732.589	9738.52
732.93	9646.99
733.271	9732.41
733.612	9663.49
733.953	9764.73
734.294	9734
734.635	9691.28
734.976	9711.17
735.317	9687.89
735.658	9684.73
735.999	9749.14
736.339	9687.89
736.68	9724.28
737.021	9665.52
737.361	9672.3
737.702	9734
738.042	9801.11
738.383	9704.62
738.723	9712.98
739.063	9747.78
739.404	9803.15
739.744	9753.66
740.084	9738.29
740.424	9735.58
740.764	9771.51
741.104	9796.82
741.444	9824.16
741.784	9684.51
742.124	9787.55
742.464	9812.86
742.804	9887.66
743.143	9832.3
743.483	9897.61
743.823	9844.73
744.162	9884.73
744.502	10023.25
744.841	9887.44
745.181	10091.27
745.52	9985.29
745.86	10145.96
746.199	10093.53
746.538	10181.89
746.877	10205.85
747.216	10206.3
747.556	10218.05
747.895	10293.3
748.234	10304.15
748.573	10419.85
748.911	10418.27
749.25	10514.31
749.589	10580.75
749.928	10670.47
750.267	10714.99
750.605	10769.9
750.944	10855.1
751.283	10892.84
751.621	10956.56
751.96	11000.4
752.298	11167.4
752.636	11256.22
752.975	11299.6
753.313	11421.63
753.651	11542.76
753.989	11601.97
754.327	11680.38
754.666	11754.96
755.004	11932.81
755.342	12143.2
755.679	12212.8
756.017	12303.19
756.355	12460.48
756.693	12522.17
757.031	12695.27
757.368	12868.38
757.706	12973.23
758.044	13083.74
