Data from hue_20_FLMS001491_72.txt Node
Date: Mon Feb 06 15:34:37 GMT 2017
User: dcchb
Spectrometer: FLMS00149
Trigger mode: 0
Integration Time (sec): 2.000000E-2
Scans to average: 10
Electric dark correction enabled: true
Nonlinearity correction enabled: false
Boxcar width: 0
XAxis mode: Wavelengths
Number of Pixels in Spectrum: 2048
>>>>>Begin Spectral Data<<<<<
341.393	-2.23
341.776	-2.23
342.16	-2.23
342.543	-59.41
342.927	-63.02
343.31	-79.07
343.693	-84.94
344.077	-62.34
344.46	-70.48
344.843	-32.97
345.226	-38.16
345.61	-34.55
345.993	-23.93
346.376	0.93
346.759	11.55
347.142	22.85
347.525	40.25
347.908	67.82
348.291	94.94
348.674	77.09
349.057	110.99
349.44	117.99
349.823	122.06
350.206	138.33
350.588	187.14
350.971	224.43
351.354	221.27
351.737	240.93
352.119	233.47
352.502	278.66
352.884	263.98
353.267	305.56
353.65	300.81
354.032	309.85
354.414	297.87
354.797	315.27
355.179	321.38
355.562	322.51
355.944	312.34
356.326	320.7
356.709	350.98
357.091	338.78
357.473	345.1
357.855	367.93
358.238	340.13
358.62	348.27
359.002	346.23
359.384	332.9
359.766	339.68
360.148	360.7
360.53	347.14
360.912	343.52
361.294	342.62
361.676	332.9
362.057	335.84
362.439	342.84
362.821	335.84
363.203	342.17
363.584	341.04
363.966	314.37
364.348	304.43
364.729	315.27
365.111	338.55
365.493	322.96
365.874	321.38
366.256	304.43
366.637	295.16
367.019	320.47
367.4	318.21
367.781	302.85
368.163	320.47
368.544	321.83
368.925	302.17
369.306	335.61
369.688	305.1
370.069	329.74
370.45	320.47
370.831	306.23
371.212	315.27
371.593	333.13
371.974	325.44
372.355	303.07
372.736	318.44
373.117	326.35
373.498	314.37
373.879	327.25
374.26	329.29
374.641	329.74
375.021	312.11
375.402	346.23
375.783	322.96
376.163	341.26
376.544	322.28
376.925	337.19
377.305	339.68
377.686	337.87
378.066	333.58
378.447	321.83
378.827	340.13
379.208	334.26
379.588	332.67
379.968	338.1
380.349	356.4
380.729	327.25
381.109	349.17
381.489	347.59
381.87	359.34
382.25	353.24
382.63	352.79
383.01	371.54
383.39	329.74
383.77	355.5
384.15	359.34
384.53	372.67
384.91	333.13
385.29	355.05
385.67	375.39
386.049	367.25
386.429	375.16
386.809	372.22
387.189	361.6
387.568	351.88
387.948	362.5
388.328	352.79
388.707	376.97
389.087	372
389.466	372.22
389.846	379.91
390.225	367.48
390.605	388.27
390.984	392.11
391.363	362.05
391.743	372
392.122	377.87
392.501	390.53
392.881	403.63
393.26	370.41
393.639	389.85
394.018	415.84
394.397	368.61
394.776	379.45
395.155	382.39
395.534	389.4
395.913	358.66
396.292	402.96
396.671	398.44
397.05	403.86
397.429	397.76
397.808	396.4
398.186	388.04
398.565	389.17
398.944	402.05
399.323	418.55
399.701	417.64
400.08	405.44
400.458	416.51
400.837	414.93
401.215	428.94
401.594	406.57
401.972	429.62
402.351	420.81
402.729	409.96
403.107	403.63
403.486	423.97
403.864	423.97
404.242	430.75
404.62	435.5
404.999	426.23
405.377	423.07
405.755	425.1
406.133	453.12
406.511	453.8
406.889	445.67
407.267	453.58
407.645	450.86
408.023	461.49
408.401	473.01
408.779	466.68
409.156	461.49
409.534	483.63
409.912	463.29
410.29	487.02
410.667	465.55
411.045	475.27
411.422	467.59
411.8	466
412.178	471.43
412.555	515.27
412.933	490.18
413.31	494.03
413.687	502.61
414.065	501.71
414.442	500.13
414.819	500.81
415.197	504.2
415.574	512.11
415.951	512.33
416.328	527.02
416.705	530.18
417.082	532.9
417.46	528.83
417.837	517.3
418.214	545.32
418.591	543.52
418.967	535.16
419.344	530.86
419.721	546
420.098	540.58
420.475	546.23
420.852	565.21
421.228	557.53
421.605	565.89
421.982	567.24
422.358	567.47
422.735	575.61
423.111	580.35
423.488	573.35
423.864	588.26
424.241	595.04
424.617	581.48
424.994	597.53
425.37	581.48
425.746	575.83
426.123	625.32
426.499	600.46
426.875	610.86
427.251	598.2
427.627	607.47
428.003	636.17
428.379	635.49
428.756	639.11
429.132	637.07
429.507	639.33
429.883	637.98
430.259	666.45
430.635	660.35
431.011	663.74
431.387	672.55
431.763	674.36
432.138	675.72
432.514	707.58
432.89	685.66
433.265	697.19
433.641	723.63
434.016	694.47
434.392	701.7
434.767	729.5
435.143	743.29
435.518	732.66
435.894	738.31
436.269	760.23
436.644	753.68
437.02	746.22
437.395	755.26
437.77	786.67
438.145	764.53
438.52	768.82
438.895	769.95
439.271	792.78
439.646	826.9
440.021	821.7
440.395	782.15
440.77	816.5
441.145	795.49
441.52	822.83
441.895	830.51
442.27	805.66
442.645	826.67
443.019	847.01
443.394	862.38
443.769	854.47
444.143	854.02
444.518	861.25
444.892	869.84
445.267	864.41
445.641	869.16
446.016	856.05
446.39	884.75
446.764	886.78
447.139	896.28
447.513	915.94
447.887	886.11
448.262	913.22
448.636	918.65
449.01	894.02
449.384	920.68
449.758	919.33
450.132	940.57
450.506	921.81
450.88	944.41
451.254	985.99
451.628	957.52
452.002	950.74
452.376	964.75
452.75	971.98
453.123	978.53
453.497	989.83
453.871	968.82
454.244	1019.89
454.618	1030.51
454.992	1010.62
455.365	1025.99
455.739	1047.23
456.112	1042.94
456.486	1087.68
456.859	1055.82
457.232	1082.26
457.606	1099.89
457.979	1125.2
458.352	1139.43
458.725	1147.34
459.099	1131.98
459.472	1148.7
459.845	1186.89
460.218	1195.48
460.591	1205.87
460.964	1198.64
461.337	1208.36
461.71	1211.07
462.083	1269.6
462.456	1265.31
462.829	1253.78
463.201	1274.8
463.574	1274.35
463.947	1284.06
464.32	1327.68
464.692	1344.4
465.065	1344.17
465.438	1371.29
465.81	1365.87
466.183	1428.92
466.555	1433.44
466.928	1408.8
467.3	1443.15
467.672	1446.09
468.045	1478.63
468.417	1485.41
468.789	1489.03
469.161	1506.88
469.534	1552.76
469.906	1590.72
470.278	1600.44
470.65	1592.75
471.022	1621.45
471.394	1675.69
471.766	1643.83
472.138	1701.68
472.51	1744.62
472.882	1750.94
473.253	1773.99
473.625	1804.05
473.997	1817.16
474.369	1857.83
474.74	1853.31
475.112	1900.54
475.484	1926.53
475.855	1943.93
476.227	2003.82
476.598	2016.02
476.97	2055.12
477.341	2109.13
477.713	2163.59
478.084	2175.79
478.455	2218.28
478.827	2246.97
479.198	2333.98
479.569	2322
479.94	2380.98
480.311	2405.16
480.682	2442.68
481.053	2500.3
481.424	2564.03
481.795	2604.48
482.166	2634.76
482.537	2687.19
482.908	2717.24
483.279	2771.25
483.65	2777.81
484.021	2877.47
484.391	2923.12
484.762	2945.94
485.133	2983.45
485.503	3001.53
485.874	3103.9
486.244	3145.26
486.615	3195.65
486.985	3242.65
487.356	3283.56
487.726	3347.51
488.097	3408.98
488.467	3451.91
488.837	3491.46
489.207	3546.6
489.578	3590.67
489.948	3575.08
490.318	3688.74
490.688	3720.83
491.058	3777.33
491.428	3827.27
491.798	3876.76
492.168	3980.26
492.538	3934.84
492.908	4056.42
493.278	4077.44
493.648	4113.59
494.017	4165.12
494.387	4217.32
494.757	4285.79
495.126	4299.58
495.496	4316.75
495.866	4312.68
496.235	4464.09
496.605	4486.92
496.974	4440.82
497.344	4547.48
497.713	4582.05
498.082	4587.03
498.452	4666.8
498.821	4667.93
499.19	4727.81
499.559	4785.67
499.928	4781.82
500.298	4838.32
500.667	4873.12
501.036	4859.79
501.405	4882.61
501.774	4901.37
502.143	4925.77
502.512	4991.76
502.88	5020.91
503.249	5047.35
503.618	5083.28
503.987	5104.75
504.356	5160.12
504.724	5179.33
505.093	5215.03
505.462	5245.77
505.83	5271.08
506.199	5294.13
506.567	5363.05
506.936	5341.36
507.304	5412.54
507.672	5447.57
508.041	5476.95
508.409	5501.58
508.777	5509.71
509.145	5585.64
509.514	5495.48
509.882	5570.73
510.25	5584.97
510.618	5620.45
510.986	5617.73
511.354	5725.53
511.722	5740.22
512.09	5789.93
512.458	5794.9
512.826	5873.55
513.193	5884.17
513.561	5888.91
513.929	5950.61
514.297	5937.5
514.664	6006.42
515.032	5994.22
515.4	6037.84
515.767	6058.63
516.135	6104.73
516.502	6087.1
516.869	6149.25
517.237	6176.36
517.604	6156.48
517.972	6203.71
518.339	6200.32
518.706	6229.24
519.073	6275.57
519.44	6291.39
519.808	6405.74
520.175	6346.53
520.542	6405.51
520.909	6491.61
521.276	6453.42
521.643	6534.09
522.009	6482.8
522.376	6575.67
522.743	6602.79
523.11	6626.97
523.477	6741.09
523.843	6714.65
524.21	6822.22
524.577	6827.87
524.943	6842.11
525.31	6824.93
525.676	6940.18
526.043	6995.32
526.409	6981.99
526.776	7047.53
527.142	7066.06
527.508	7152.16
527.874	7185.15
528.241	7230.12
528.607	7249.33
528.973	7313.73
529.339	7336.11
529.705	7361.87
530.071	7457.23
530.437	7416.56
530.803	7478.25
531.169	7535.65
531.535	7554.18
531.901	7576.55
532.267	7556.44
532.632	7611.58
532.998	7686.61
533.364	7697.9
533.73	7830.1
534.095	7851.12
534.461	7834.17
534.826	7878.47
535.192	7902.42
535.557	7972.93
535.923	7915.07
536.288	8019.7
536.653	8072.13
537.019	8094.96
537.384	8112.13
537.749	8176.54
538.114	8160.04
538.479	8182.41
538.845	8204.78
539.21	8212.92
539.575	8218.8
539.94	8316.42
540.305	8394.84
540.67	8327.49
541.034	8400.03
541.399	8422.86
541.764	8421.28
542.129	8438.68
542.494	8495.4
542.858	8612.23
543.223	8641.38
543.587	8637.54
543.952	8654.26
544.316	8649.52
544.681	8707.37
545.045	8748.27
545.41	8803.64
545.774	8851.32
546.138	8894.71
546.503	8836.18
546.867	8936.06
547.231	9038.89
547.595	8988.04
547.959	9080.92
548.324	9129.05
548.688	9034.59
549.052	9099.9
549.416	9108.94
549.779	9189.62
550.143	9202.27
550.507	9292.67
550.871	9234.81
551.235	9269.62
551.599	9349.16
551.962	9385.54
552.326	9429.38
552.689	9438.2
553.053	9450.18
553.417	9434.81
553.78	9573.79
554.143	9573.56
554.507	9594.35
554.87	9582.83
555.234	9700.56
555.597	9623.73
555.96	9641.58
556.323	9762.71
556.686	9752.54
557.05	9898.98
557.413	9869.83
557.776	9853.78
558.139	9950.73
558.502	9976.04
558.865	9986.66
559.228	10011.52
559.59	10080.22
559.953	10147.33
560.316	10202.47
560.679	10182.81
561.041	10200.44
561.404	10277.72
561.767	10361.34
562.129	10313.88
562.492	10426.42
562.854	10483.82
563.217	10401.56
563.579	10449.02
563.941	10574.21
564.304	10599.3
564.666	10673.19
565.028	10614.66
565.39	10632.07
565.753	10679.52
566.115	10776.92
566.477	10815.56
566.839	10885.62
567.201	10905.28
567.563	10959.97
567.925	11003.81
568.287	10974.43
568.648	11047.87
569.01	11112.73
569.372	11096.91
569.734	11157.25
570.095	11298.71
570.457	11269.79
570.819	11323.12
571.18	11394.98
571.542	11421.65
571.903	11443.34
572.265	11469.33
572.626	11531.93
572.987	11609.44
573.349	11676.78
573.71	11764.69
574.071	11777.8
574.432	11883.11
574.794	11980.73
575.155	12005.59
575.516	11963.33
575.877	12098.02
576.238	12146.6
576.599	12258.91
576.96	12284.9
577.32	12326.03
577.681	12459.81
578.042	12590.66
578.403	12692.35
578.763	12726.02
579.124	12840.37
579.485	12952.46
579.845	13032
580.206	13092.34
580.566	13263.86
580.927	13396.51
581.287	13552.67
581.648	13632.66
582.008	13783.85
582.368	13951.98
582.728	14048.92
583.089	14181.35
583.449	14282.36
583.809	14472.64
584.169	14673.54
584.529	14829.92
584.889	15112.17
585.249	15141.78
585.609	15382.9
585.969	15679.39
586.329	15865.15
586.688	16065.14
587.048	16254.29
587.408	16381.74
587.768	16704.67
588.127	16919.13
588.487	17193.7
588.846	17547.82
589.206	17729.96
589.565	18027.12
589.925	18374.69
590.284	18586.88
590.643	18922.02
591.003	19184.83
591.362	19582.34
591.721	19838.38
592.08	20048.77
592.44	20393.39
592.799	20810.78
593.158	21034.5
593.517	21291.9
593.876	21583.64
594.235	22001.94
594.593	22352.21
594.952	22625.42
595.311	22969.82
595.67	23304.27
596.029	23771.15
596.387	24110.81
596.746	24433.51
597.104	24786.72
597.463	24997.79
597.822	25421.05
598.18	25701.05
598.538	26068.5
598.897	26567.24
599.255	26588.93
599.613	27383.49
599.972	27430.49
600.33	27976.92
600.688	28187.08
601.046	28529
601.404	29000.85
601.762	29187.96
602.12	29609.42
602.478	30004.21
602.836	30332.34
603.194	30475.84
603.552	30851.42
603.91	31118.31
604.268	31666.31
604.625	31734.11
604.983	32283.47
605.341	32426.97
605.698	32748.09
606.056	33054.07
606.413	33342.88
606.771	33707.16
607.128	34117.78
607.485	34299.01
607.843	34407.71
608.2	34814.93
608.557	35315.26
608.914	35334.92
609.272	35784.62
609.629	36126.31
609.986	36427.32
610.343	36551.84
610.7	36966.74
611.057	37102.78
611.414	37242.66
611.771	37489.66
612.127	38009.88
612.484	38148.18
612.841	38460.49
613.198	38545.91
613.554	38760.37
613.911	39204.42
614.267	39305.89
614.624	39360.8
614.98	39643.51
615.337	40098.18
615.693	40182.47
616.05	40282.58
616.406	40753.98
616.762	40708.79
617.118	40880.99
617.475	40979.06
617.831	41229.23
618.187	41449.56
618.543	41600.52
618.899	41880.28
619.255	42020.84
619.611	42176.09
619.967	42406.6
620.323	42479.14
620.678	42564.78
621.034	42546.25
621.39	42777.43
621.746	42713.48
622.101	43372.22
622.457	43157.54
622.812	43353.69
623.168	43528.83
623.523	43654.02
623.879	43901.25
624.234	43695.15
624.589	43954.35
624.945	43950.96
625.3	44023.73
625.655	44177.17
626.01	44148.02
626.365	44426.43
626.72	44315.02
627.075	44448.58
627.43	44623.71
627.785	44545.52
628.14	44760.89
628.495	44771.73
628.85	44761.79
629.205	44734.67
629.559	45131.95
629.914	45015.12
630.269	44985.51
630.623	45125.4
630.978	45007.43
631.332	45172.85
631.687	45252.4
632.041	45154.1
632.396	45232.51
632.75	45191.61
633.104	45333.53
633.459	45267.54
633.813	45285.17
634.167	45251.27
634.521	45262.57
634.875	45149.12
635.229	45329.68
635.583	45241.32
635.937	45295.11
636.291	45267.76
636.645	45269.57
636.999	45285.62
637.352	45397.25
637.706	45069.8
638.06	45343.02
638.413	45299.85
638.767	45261.66
639.121	45311.15
639.474	45033.87
639.828	45189.12
640.181	45252.17
640.534	45373.98
640.888	45104.38
641.241	45005.62
641.594	45107.09
641.947	45212.85
642.301	45090.37
642.654	45189.35
643.007	45228.9
643.36	45159.97
643.713	45102.57
644.066	45272.06
644.419	44954.1
644.771	44702.58
645.124	44327.22
645.477	44350.5
645.83	43970.4
646.182	43865.77
646.535	43863.06
646.888	43870.29
647.24	43829.61
647.593	43931.3
647.945	43879.78
648.298	43628.03
648.65	43719.33
649.002	43651.99
649.355	43779.44
649.707	43692.44
650.059	43977.4
650.411	44356.38
650.763	44342.14
651.115	44751.39
651.467	44631.17
651.819	44730.38
652.171	44739.42
652.523	44577.84
652.875	44630.04
653.227	44396.83
653.578	44647.89
653.93	44628.46
654.282	44509.37
654.633	44267.56
654.985	44465.75
655.337	44502.81
655.688	44378.07
656.039	44544.85
656.391	44289.94
656.742	44267.79
657.094	44347.34
657.445	44279.77
657.796	44318.41
658.147	44386.43
658.498	44242.25
658.849	44259.88
659.2	44314.34
659.551	44225.76
659.902	44324.96
660.253	44279.54
660.604	44458.52
660.955	44123.61
661.306	44321.12
661.656	44213.78
662.007	44158.42
662.358	44216.04
662.708	44138.08
663.059	44066.89
663.409	43914.58
663.76	44176.04
664.11	44149.83
664.461	44151.64
664.811	44297.62
665.161	44116.16
665.511	44056.27
665.862	44071.86
666.212	44293.55
666.562	44043.84
666.912	44092.2
667.262	44193.44
667.612	44118.19
667.962	44022.83
668.312	44071.64
668.662	44268.47
669.011	44145.76
669.361	44072.32
669.711	43953.22
670.06	43825.09
670.41	43842.27
670.76	43836.84
671.109	44070.28
671.459	43849.27
671.808	43973.34
672.157	43898.31
672.507	43733.57
672.856	43839.1
673.205	43746.22
673.554	43984.18
673.904	43784.41
674.253	43919.1
674.602	43767.47
674.951	43272.79
675.3	42965
675.649	43736.96
675.998	43615.83
676.346	43692.21
676.695	43766.56
677.044	43513.69
677.393	43515.04
677.741	43623.06
678.09	43566.79
678.438	43395.72
678.787	43506
679.135	43432.78
679.484	43106.69
679.832	43512.33
680.181	43155.05
680.529	43276.18
680.877	43184.2
681.225	43210.42
681.573	43383.29
681.922	43202.73
682.27	42993.02
682.618	42976.98
682.966	42806.59
683.314	42862.86
683.661	42809.75
684.009	42523.2
684.357	42583.09
684.705	42564.78
685.053	42527.72
685.4	42350.78
685.748	42344.45
686.095	42417.9
686.443	42208.64
686.79	42161.86
687.138	42158.69
687.485	42271.01
687.832	42028.98
688.18	41987.17
688.527	41829.89
688.874	41813.84
689.221	41660.4
689.568	41597.58
689.915	41577.69
690.262	41480.07
690.609	41490.69
690.956	41284.37
691.303	41139.74
691.65	41085.5
691.997	41074.65
692.344	40964.37
692.69	40844.15
693.037	40869.01
693.383	40449.36
693.73	40724.38
694.077	40377.05
694.423	40445.52
694.769	40289.36
695.116	40157.16
695.462	40232.19
695.808	39949.49
696.155	40240.78
696.501	39884.18
696.847	39928.02
697.193	39558.31
697.539	39644.86
697.885	39367.58
698.231	39331.65
698.577	39379.33
698.923	39312.44
699.269	39063.18
699.614	38961.26
699.96	38815.28
700.306	38935.95
700.651	38604.21
700.997	38667.71
701.342	38520.6
701.688	38462.97
702.033	38362.18
702.379	38289.42
702.724	38204
703.069	38310.89
703.415	37767.17
703.76	37902.76
704.105	37937.11
704.45	37851.91
704.795	37661.41
705.14	37571.7
705.485	37550.68
705.83	37279.27
706.175	37389.1
706.52	37231.59
706.865	37208.09
707.209	37058.94
707.554	36875.89
707.899	37120.18
708.243	36825.73
708.588	36736.01
708.932	36582.12
709.277	36561.55
709.621	36598.84
709.966	36318.85
710.31	36471.84
710.654	36119.98
710.998	36165.18
711.342	36187.33
711.687	35881.57
712.031	35884.51
712.375	35772.65
712.719	35837.05
713.063	35598.41
713.407	35826.2
713.75	35642.03
714.094	35619.88
714.438	35367.01
714.782	35475.03
715.125	35280.46
715.469	35296.5
715.812	35190.52
716.156	34967.92
716.499	35073.68
716.843	35068.26
717.186	34884.76
717.53	34955.72
717.873	34929.96
718.216	34831.88
718.559	34714.14
718.902	34544.43
719.246	34479.8
719.589	34399.12
719.932	34494.26
720.275	34439.12
720.617	34250.43
720.96	34313.48
721.303	34294.95
721.646	34107.83
721.989	34000.94
722.331	34092.01
722.674	34058.34
723.016	34139.7
723.359	33966.82
723.701	33904
724.044	33754.62
724.386	33539.26
724.729	33830.1
725.071	33646.6
725.413	33774.51
725.755	33515.53
726.097	33386.95
726.439	33232.6
726.782	33277.8
727.124	33477.11
727.465	33297.68
727.807	33252.04
728.149	33130.46
728.491	33141.3
728.833	33196.44
729.175	32986.05
729.516	32878.94
729.858	32882.78
730.199	32864.93
730.541	32699.28
730.882	32723.69
731.224	32812.5
731.565	32543.35
731.906	32645.05
732.248	32516.46
732.589	32350.82
732.93	32286.86
733.271	32305.62
733.612	32457.71
733.953	32311.95
734.294	32182.23
734.635	32117.83
734.976	32229.24
735.317	32032.63
735.658	32015.01
735.999	31958.51
736.339	31911.51
736.68	31946.98
737.021	31884.16
737.361	31706.31
737.702	31980.66
738.042	31851.17
738.383	31794.9
738.723	31800.77
739.063	31733.88
739.404	31681.91
739.744	31497.05
740.084	31513.32
740.424	31508.13
740.764	31437.62
741.104	31568.24
741.444	31286.66
741.784	31184.75
742.124	31294.12
742.464	31196.95
742.804	31047.8
743.143	31057.06
743.483	31165.76
743.823	30933
744.162	30958.99
744.502	30923.28
744.841	30904.53
745.181	31004.18
745.52	30796.05
745.86	30853
746.199	30698.43
746.538	30681.93
746.877	30686.68
747.216	30760.35
747.556	30562.84
747.895	30536.4
748.234	30474.93
748.573	30462.73
748.911	30439.91
749.25	30300.02
749.589	30184.32
749.928	30237.65
750.267	30260.48
750.605	30195.17
750.944	30084.21
751.283	30076.98
751.621	30117.2
751.96	29908.17
752.298	29981.16
752.636	29862.75
752.975	29864.33
753.313	29685.12
753.651	29837.21
753.989	29616.2
754.327	29570.32
754.666	29371.91
755.004	29496.43
755.342	29400.61
755.679	29391.12
756.017	29204.46
756.355	29422.76
756.693	29284.68
757.031	29187.06
757.368	29109.55
757.706	29086.95
758.044	28960.17
758.381	29051.69
758.719	28702.1
759.056	28788.2
759.394	28674.3
