Data from hue_260_FLMS001491_00027.txt Node
Date: Tue Feb 07 15:58:47 GMT 2017
User: dcchb
Spectrometer: FLMS00149
Trigger mode: 0
Integration Time (sec): 2.000000E-2
Scans to average: 10
Electric dark correction enabled: true
Nonlinearity correction enabled: false
Boxcar width: 0
XAxis mode: Wavelengths
Number of Pixels in Spectrum: 2048
>>>>>Begin Spectral Data<<<<<
341.393	-9.48
341.776	-9.48
342.16	-9.48
342.543	-58.74
342.927	-58.52
343.31	-63.26
343.693	-77.95
344.077	-58.52
344.46	-75.01
344.843	-40.89
345.226	-30.95
345.61	-14
345.993	-19.42
346.376	11.99
346.759	18.77
347.142	19.67
347.525	38.88
347.908	35.95
348.291	63.06
348.674	83.18
349.057	108.49
349.44	109.39
349.823	138.77
350.206	167.02
350.588	185.55
350.971	206.34
351.354	233.91
351.737	253.34
352.119	238.2
352.502	253.34
352.884	251.08
353.267	293.11
353.65	291.76
354.032	306.67
354.414	296.05
354.797	294.92
355.179	291.53
355.562	338.54
355.944	325.88
356.326	345.54
356.709	313
357.091	336.5
357.473	339.89
357.855	356.61
358.238	355.94
358.62	351.19
359.002	324.53
359.384	338.08
359.766	338.76
360.148	341.02
360.53	326.79
360.912	329.27
361.294	331.98
361.676	334.47
362.057	324.3
362.439	330.63
362.821	326.79
363.203	322.04
363.584	327.24
363.966	338.76
364.348	314.13
364.729	309.61
365.111	312.32
365.493	316.39
365.874	305.54
366.256	321.81
366.637	321.14
367.019	294.92
367.4	315.71
367.781	319.55
368.163	308.25
368.544	302.83
368.925	326.56
369.306	339.21
369.688	326.11
370.069	284.98
370.45	304.41
370.831	316.16
371.212	308.48
371.593	307.58
371.974	318.65
372.355	313.68
372.736	316.84
373.117	336.05
373.498	313.68
373.879	295.83
374.26	316.62
374.641	328.82
375.021	315.49
375.402	316.84
375.783	312.77
376.163	316.39
376.544	329.95
376.925	323.17
377.305	330.4
377.686	324.53
378.066	356.61
378.447	329.72
378.827	335.15
379.208	337.86
379.588	336.05
379.968	332.43
380.349	335.37
380.729	348.48
381.109	342.15
381.489	355.71
381.87	337.41
382.25	344.86
382.63	348.71
383.01	384.18
383.39	377.86
383.77	349.38
384.15	343.51
384.53	348.71
384.91	356.84
385.29	333.34
385.67	350.97
386.049	330.17
386.429	342.83
386.809	363.39
387.189	354.81
387.568	334.92
387.948	346.9
388.328	362.26
388.707	336.28
389.087	358.87
389.466	367.46
389.846	379.89
390.225	358.42
390.605	375.82
390.984	364.75
391.363	363.85
391.743	374.02
392.122	362.94
392.501	369.04
392.881	378.76
393.26	378.31
393.639	390.51
394.018	390.74
394.397	388.93
394.776	369.95
395.155	399.55
395.534	391.87
395.913	379.21
396.292	399.1
396.671	384.18
397.05	391.64
397.429	398.2
397.808	402.72
398.186	411.75
398.565	407.91
398.944	410.4
399.323	401.36
399.701	390.74
400.08	411.98
400.458	407.46
400.837	417.18
401.215	400.46
401.594	440
401.972	429.38
402.351	435.71
402.729	417.18
403.107	451.53
403.486	436.61
403.864	435.26
404.242	454.24
404.62	424.18
404.999	428.25
405.377	442.04
405.755	466.67
406.133	454.01
406.511	467.8
406.889	480
407.267	475.71
407.645	465.76
408.023	484.3
408.401	492.66
408.779	495.82
409.156	501.24
409.534	486.78
409.912	510.06
410.29	511.87
410.667	541.24
411.045	534.69
411.422	540.34
411.8	534.46
412.178	542.15
412.555	559.77
412.933	561.81
413.31	581.24
413.687	561.13
414.065	588.25
414.442	580.56
414.819	607.68
415.197	609.72
415.574	603.61
415.951	630.05
416.328	626.44
416.705	641.35
417.082	633.22
417.46	645.87
417.837	642.94
418.214	662.14
418.591	660.34
418.967	682.48
419.344	661.24
419.721	701.24
420.098	685.87
420.475	707.79
420.852	698.07
421.228	722.71
421.605	723.16
421.982	728.81
422.358	747.57
422.735	783.27
423.111	782.14
423.488	769.26
423.864	785.76
424.241	787.79
424.617	828.24
424.994	812.65
425.37	822.82
425.746	843.61
426.123	858.75
426.499	860.33
426.875	850.39
427.251	885.87
427.627	915.47
428.003	894.91
428.379	912.98
428.756	932.64
429.132	945.3
429.507	959.08
429.883	961.12
430.259	957.05
430.635	999.99
431.011	969.25
431.387	1004.51
431.763	1032.53
432.138	1063.49
432.514	1039.99
432.89	1043.15
433.265	1058.52
433.641	1099.19
434.016	1100.32
434.392	1129.25
434.767	1150.04
435.143	1150.94
435.518	1160.89
435.894	1179.42
436.269	1212.64
436.644	1219.64
437.02	1248.57
437.395	1275.46
437.77	1247.21
438.145	1285.18
438.52	1296.48
438.895	1296.7
439.271	1335.35
439.646	1357.49
440.021	1370.6
440.395	1389.36
440.77	1402.92
441.145	1406.53
441.52	1465.51
441.895	1437.04
442.27	1470.71
442.645	1472.07
443.019	1489.24
443.394	1504.83
443.769	1533.76
444.143	1505.29
444.518	1552.52
444.892	1525.17
445.267	1543.7
445.641	1554.55
446.016	1591.16
446.39	1598.39
446.764	1562.91
447.139	1606.75
447.513	1612.85
447.887	1635.45
448.262	1630.25
448.636	1625.28
449.01	1627.54
449.384	1644.72
449.758	1680.42
450.132	1720.65
450.506	1719.06
450.88	1715.68
451.254	1734.66
451.628	1758.61
452.002	1755.45
452.376	1795.67
452.75	1792.06
453.123	1812.17
453.497	1863.24
453.871	1827.31
454.244	1870.93
454.618	1879.06
454.992	1927.65
455.365	1892.39
455.739	1949.57
456.112	1996.8
456.486	1992.96
456.859	2007.64
457.232	2046.97
457.606	2021.43
457.979	2062.11
458.352	2082.45
458.725	2103.46
459.099	2109.11
459.472	2150.24
459.845	2154.99
460.218	2187.75
460.591	2216.68
460.964	2204.93
461.337	2272.95
461.71	2307.3
462.083	2328.31
462.456	2330.12
462.829	2335.09
463.201	2359.95
463.574	2385.94
463.947	2395.66
464.32	2459.38
464.692	2480.85
465.065	2516.56
465.438	2534.41
465.81	2545.26
466.183	2575.77
466.555	2630.45
466.928	2657.12
467.3	2623.45
467.672	2669.55
468.045	2731.92
468.417	2748.64
468.789	2724.24
469.161	2837
469.534	2827.96
469.906	2842.43
470.278	2914.51
470.65	2947.73
471.022	2972.59
471.394	3051.01
471.766	3048.97
472.138	3059.14
472.51	3138.69
472.882	3152.25
473.253	3205.81
473.625	3224.56
473.997	3314.28
474.369	3312.7
474.74	3318.34
475.112	3414.61
475.484	3452.13
475.855	3500.04
476.227	3522.18
476.598	3605.57
476.97	3644.89
477.341	3705.23
477.713	3756.3
478.084	3765.34
478.455	3850.76
478.827	3851.89
479.198	3967.59
479.569	3990.64
479.94	4072.9
480.311	4099.79
480.682	4150.64
481.053	4211.43
481.424	4304.99
481.795	4296.17
482.166	4369.62
482.537	4429.73
482.908	4510.63
483.279	4580.01
483.65	4616.39
484.021	4663.62
484.391	4745.88
484.762	4786.33
485.133	4820.23
485.503	4847.57
485.874	4938.64
486.244	4930.96
486.615	5060.45
486.985	5139.77
487.356	5219.76
487.726	5261.34
488.097	5367.78
488.467	5345.41
488.837	5431.96
489.207	5501.79
489.578	5534.56
489.948	5605.97
490.318	5646.65
490.688	5675.57
491.058	5730.48
491.428	5740.88
491.798	5873.08
492.168	5979.97
492.538	5945.39
492.908	6001.89
493.278	6083.47
493.648	6072.4
494.017	6103.58
494.387	6177.25
494.757	6221.09
495.126	6250.02
495.496	6303.8
495.866	6325.27
496.235	6404.82
496.605	6407.76
496.974	6429.68
497.344	6540.41
497.713	6501.09
498.082	6572.27
498.452	6618.6
498.821	6623.79
499.19	6648.43
499.559	6669.22
499.928	6729.55
500.298	6718.71
500.667	6795.32
501.036	6738.14
501.405	6803.68
501.774	6843.9
502.143	6903.11
502.512	6880.74
502.88	6953.73
503.249	6925.26
503.618	6981.3
503.987	7026.27
504.356	7027.63
504.724	7038.25
505.093	7083.44
505.462	7087.06
505.83	7222.42
506.199	7170.9
506.567	7137.23
506.936	7198.92
507.304	7292.48
507.672	7276.43
508.041	7370.44
508.409	7398.24
508.777	7340.61
509.145	7473.49
509.514	7414.28
509.882	7465.58
510.25	7464.45
510.618	7508.07
510.986	7489.76
511.354	7537.67
511.722	7582.19
512.09	7653.6
512.458	7576.76
512.826	7647.5
513.193	7614.73
513.561	7638.68
513.929	7688.4
514.297	7718.68
514.664	7785.8
515.032	7779.47
515.4	7810.66
515.767	7844.1
516.135	7880.48
516.502	7768.17
516.869	7843.2
517.237	7860.37
517.604	7804.55
517.972	7842.07
518.339	7904.21
518.706	7909.86
519.073	7917.09
519.44	7909.18
519.808	8029.41
520.175	7946.02
520.542	8064.89
520.909	8051.33
521.276	8041.16
521.643	8017.66
522.009	8099.24
522.376	8091.78
522.743	8126.81
523.11	8161.16
523.477	8243.41
523.843	8224.66
524.21	8322.06
524.577	8242.28
524.943	8269.85
525.31	8301.72
525.676	8347.37
526.043	8382.62
526.409	8412.22
526.776	8453.35
527.142	8367.93
527.508	8442.5
527.874	8476.18
528.241	8460.58
528.607	8487.47
528.973	8505.1
529.339	8425.1
529.705	8572.44
530.071	8577.64
530.437	8615.15
530.803	8636.17
531.169	8644.08
531.535	8545.33
531.901	8628.94
532.267	8644.08
532.632	8645.66
532.998	8613.35
533.364	8635.95
533.73	8609.05
534.095	8702.61
534.461	8627.13
534.826	8617.64
535.192	8643.4
535.557	8727.69
535.923	8714.81
536.288	8645.44
536.653	8677.75
537.019	8592.56
537.384	8656.06
537.749	8652.22
538.114	8641.14
538.479	8657.87
538.845	8651.31
539.21	8543.74
539.575	8706.68
539.94	8636.85
540.305	8652.22
540.67	8598.88
541.034	8684.98
541.399	8657.64
541.764	8597.08
542.129	8611.31
542.494	8633.46
542.858	8635.49
543.223	8594.36
543.587	8594.14
543.952	8619.67
544.316	8538.09
544.681	8589.62
545.045	8527.25
545.41	8643.4
545.774	8640.24
546.138	8556.63
546.503	8589.84
546.867	8522.95
547.231	8556.63
547.595	8590.75
547.959	8595.72
548.324	8513.46
548.688	8543.97
549.052	8520.02
549.416	8558.66
549.779	8524.76
550.143	8586.68
550.507	8586
550.871	8568.15
551.235	8529.06
551.599	8514.37
551.962	8534.25
552.326	8522.28
552.689	8510.3
553.053	8477.08
553.417	8483.63
553.78	8527.02
554.143	8574.03
554.507	8540.35
554.87	8571.09
555.234	8542.39
555.597	8496.74
555.96	8557.3
556.323	8555.72
556.686	8546.23
557.05	8549.39
557.413	8563.63
557.776	8531.32
558.139	8534.93
558.502	8574.7
558.865	8613.8
559.228	8604.99
559.59	8556.17
559.953	8612.44
560.316	8667.13
560.679	8574.03
561.041	8675.04
561.404	8670.07
561.767	8734.93
562.129	8638.43
562.492	8762.72
562.854	8711.65
563.217	8712.33
563.579	8672.78
563.941	8771.31
564.304	8793.46
564.666	8826.45
565.028	8844.53
565.39	8829.16
565.753	8842.49
566.115	8876.39
566.477	8844.98
566.839	8941.25
567.201	8950.06
567.563	9026.44
567.925	8973.56
568.287	9047.91
568.648	8989.16
569.01	9105.76
569.372	9053.79
569.734	9088.36
570.095	9105.09
570.457	9110.96
570.819	9216.04
571.18	9165.42
571.542	9205.87
571.903	9149.83
572.265	9206.55
572.626	9260.56
572.987	9262.37
573.349	9265.08
573.71	9295.59
574.071	9337.62
574.432	9349.15
574.794	9420.78
575.155	9414.68
575.516	9338.98
575.877	9405.42
576.238	9456.04
576.599	9451.07
576.96	9473.66
577.32	9499.65
577.681	9493.55
578.042	9509.82
578.403	9568.12
578.763	9591.17
579.124	9529.71
579.485	9580.1
579.845	9665.3
580.206	9617.16
580.566	9697.61
580.927	9666.43
581.287	9729.48
581.648	9716.82
582.008	9719.53
582.368	9732.87
582.728	9892.41
583.089	9799.98
583.449	9840.21
583.809	9806.08
584.169	9947.32
584.529	9847.66
584.889	9910.49
585.249	9861.9
585.609	9909.13
585.969	9954.78
586.329	9963.59
586.688	9961.11
587.048	9964.72
587.408	9989.81
587.768	9976.02
588.127	10052.18
588.487	10018.51
588.846	10053.54
589.206	10024.16
589.565	10011.05
589.925	10077.94
590.284	10046.76
590.643	10061.22
591.003	10151.84
591.362	10192.74
591.721	10177.6
592.08	10180.31
592.44	10207.66
592.799	10256.24
593.158	10210.59
593.517	10148.22
593.876	10281.55
594.235	10315.45
594.593	10244.04
594.952	10285.17
595.311	10268.44
595.67	10286.07
596.029	10325.17
596.387	10317.03
596.746	10374.88
597.104	10291.95
597.463	10348.22
597.822	10422.56
598.18	10319.06
598.538	10304.6
598.897	10409.68
599.255	10310.03
599.613	10454.88
599.972	10465.05
600.33	10456.46
600.688	10364.71
601.046	10432.06
601.404	10441.32
601.762	10373.3
602.12	10491.72
602.478	10501.21
602.836	10445.62
603.194	10403.13
603.552	10495.33
603.91	10451.26
604.268	10533.07
604.625	10457.59
604.983	10532.62
605.341	10494.43
605.698	10553.41
606.056	10509.79
606.413	10507.76
606.771	10622.56
607.128	10593.86
607.485	10530.81
607.843	10530.81
608.2	10604.26
608.557	10588.21
608.914	10605.16
609.272	10710.69
609.629	10632.28
609.986	10654.42
610.343	10636.57
610.7	10722.67
611.057	10682.45
611.414	10730.81
611.771	10682.67
612.127	10745.95
612.484	10721.54
612.841	10757.02
613.198	10702.56
613.554	10697.36
613.911	10759.51
614.267	10788.88
614.624	10755.21
614.98	10758.83
615.337	10903.46
615.693	10785.95
616.05	10821.2
616.406	10874.53
616.762	10842.67
617.118	10834.53
617.475	10818.71
617.831	10899.39
618.187	10912.5
618.543	10818.49
618.899	10941.42
619.255	10911.82
619.611	10815.1
619.967	10868.43
620.323	10979.16
620.678	10933.51
621.034	10885.83
621.39	10855.77
621.746	10899.61
622.101	10996.11
622.457	10961.76
622.812	10966.96
623.168	10988.2
623.523	10961.31
623.879	10947.75
624.234	10865.94
624.589	10898.71
624.945	10893.29
625.3	10949.78
625.655	10979.61
626.01	10926.28
626.365	10910.91
626.72	10890.35
627.075	10955.21
627.43	10913.63
627.785	10864.81
628.14	10844.7
628.495	10922.44
628.85	10889.22
629.205	10805.38
629.559	10872.27
629.914	10813.52
630.269	10877.92
630.623	10867.3
630.978	10802.89
631.332	10803.12
631.687	10825.04
632.041	10768.54
632.396	10803.8
632.75	10745.95
633.104	10787.98
633.459	10788.66
633.813	10716.34
634.167	10738.49
634.521	10679.06
634.875	10755.21
635.229	10677.47
635.583	10622.56
635.937	10674.99
636.291	10561.09
636.645	10663.01
636.999	10591.6
637.352	10637.7
637.706	10555.22
638.06	10646.97
638.413	10596.12
638.767	10555.22
639.121	10585.5
639.474	10582.79
639.828	10521.09
640.181	10533.52
640.534	10537.82
640.888	10467.31
641.241	10385.73
641.594	10469.8
641.947	10471.15
642.301	10423.24
642.654	10459.63
643.007	10413.07
643.36	10456.46
643.713	10379.4
644.066	10484.71
644.419	10334.21
644.771	10329.69
645.124	10178.28
645.477	10230.25
645.83	10153.87
646.182	10068.68
646.535	10055.57
646.888	10095.34
647.24	10055.79
647.593	10071.16
647.945	10040.2
648.298	10020.54
648.65	10006.76
649.002	9985.97
649.355	10063.03
649.707	10060.77
650.059	10042.46
650.411	10174.66
650.763	10229.35
651.115	10305.28
651.467	10310.25
651.819	10248.78
652.171	10249.69
652.523	10181.22
652.875	10291.49
653.227	10201.55
653.578	10187.99
653.93	10302.12
654.282	10220.31
654.633	10207.66
654.985	10260.99
655.337	10201.78
655.688	10249.46
656.039	10231.84
656.391	10178.28
656.742	10235
657.094	10241.33
657.445	10328.78
657.796	10284.72
658.147	10159.07
658.498	10251.72
658.849	10210.82
659.2	10236.81
659.551	10176.24
659.902	10241.33
660.253	10201.33
660.604	10235.68
660.955	10221.67
661.306	10197.94
661.656	10220.76
662.007	10237.94
662.358	10256.92
662.708	10284.26
663.059	10289.24
663.409	10232.97
663.76	10315.68
664.11	10229.58
664.461	10312.29
664.811	10316.35
665.161	10326.3
665.511	10234.55
665.862	10293.75
666.212	10270.93
666.562	10314.32
666.912	10285.17
667.262	10238.61
667.612	10326.97
667.962	10275.9
668.312	10184.61
668.662	10248.78
669.011	10283.13
669.361	10260.31
669.711	10193.42
670.06	10205.85
670.41	10217.6
670.76	10181.44
671.109	10273.87
671.459	10251.95
671.808	10162.23
672.157	10154.32
672.507	10149.35
672.856	10196.58
673.205	10211.5
673.554	10169.01
673.904	10141.22
674.253	10201.33
674.602	10166.75
674.951	10018.73
675.3	9914.56
675.649	10131.73
675.998	10122.69
676.346	10121.1
676.695	10165.4
677.044	10060.31
677.393	10107.77
677.741	10139.18
678.09	10001.56
678.438	10006.53
678.787	10016.02
679.135	9993.65
679.484	9955.01
679.832	9999.75
680.181	9891.51
680.529	10039.3
680.877	9933.76
681.225	9917.04
681.573	9965.85
681.922	9884.5
682.27	9892.41
682.618	9857.16
682.966	9846.08
683.314	9828.91
683.661	9828.23
684.009	9746.42
684.357	9762.47
684.705	9711.62
685.053	9700.1
685.4	9668.23
685.748	9631.17
686.095	9661.46
686.443	9557.28
686.79	9606.99
687.138	9656.94
687.485	9544.4
687.832	9598.63
688.18	9587.56
688.527	9474.34
688.874	9474.12
689.221	9465.98
689.568	9464.4
689.915	9450.61
690.262	9456.04
690.609	9369.03
690.956	9347.11
691.303	9332.42
691.65	9250.39
691.997	9191.86
692.344	9121.36
692.69	9123.84
693.037	9178.98
693.383	9066.67
693.73	9052.43
694.077	9018.53
694.423	9045.2
694.769	9032.32
695.116	9033.45
695.462	8988.7
695.808	8924.07
696.155	8901.7
696.501	8871.65
696.847	8886.33
697.193	8835.26
697.539	8786
697.885	8808.6
698.231	8668.94
698.577	8765.66
698.923	8742.84
699.269	8675.94
699.614	8555.72
699.96	8626
700.306	8566.34
700.651	8500.13
700.997	8507.59
701.342	8497.64
701.688	8450.64
702.033	8385.78
702.379	8422.84
702.724	8416.74
703.069	8409.06
703.415	8281.83
703.76	8313.02
704.105	8250.42
704.45	8268.72
704.795	8161.38
705.14	8148.5
705.485	8134.26
705.83	8087.71
706.175	8147.37
706.52	8080.71
706.865	8053.59
707.209	8043.64
707.554	8031.44
707.899	7996.64
708.243	7953.48
708.588	7952.57
708.932	7873.93
709.277	7877.32
709.621	7861.05
709.966	7831.67
710.31	7878.45
710.654	7781.96
710.998	7803.88
711.342	7858.79
711.687	7735.18
712.031	7727.95
712.375	7755.29
712.719	7728.62
713.063	7610.21
713.407	7646.14
713.75	7631.9
714.094	7663.09
714.438	7616.54
714.782	7618.8
715.125	7583.77
715.469	7601.4
715.812	7542.41
716.156	7495.86
716.499	7480.04
716.843	7546.48
717.186	7475.98
717.53	7489.08
717.873	7491.79
718.216	7446.37
718.559	7462.42
718.902	7408.18
719.246	7421.29
719.589	7325.25
719.932	7387.62
720.275	7376.09
720.617	7381.51
720.96	7358.92
721.303	7356.88
721.646	7332.48
721.989	7312.36
722.331	7294.06
722.674	7295.64
723.016	7340.39
723.359	7319.82
723.701	7339.93
724.044	7239.6
724.386	7274.17
724.729	7285.47
725.071	7243.44
725.413	7235.3
725.755	7235.98
726.097	7199.15
726.439	7128.19
726.782	7202.08
727.124	7220.62
727.465	7203.89
727.807	7223.1
728.149	7194.85
728.491	7175.87
728.833	7181.29
729.175	7139.71
729.516	7137.68
729.858	7155.76
730.199	7123.89
730.541	7133.16
730.882	7084.8
731.224	7177.9
731.565	7147.17
731.906	7120.96
732.248	7171.8
732.589	7113.05
732.93	7113.73
733.271	7140.62
733.612	7193.72
733.953	7109.66
734.294	7120.05
734.635	7125.25
734.976	7098.13
735.317	7020.39
735.658	7079.83
735.999	7146.72
736.339	7084.57
736.68	7114.63
737.021	7114.4
737.361	7102.65
737.702	7112.82
738.042	7151.24
738.383	7129.09
738.723	7081.86
739.063	7105.14
739.404	7120.5
739.744	7161.41
740.084	7180.84
740.424	7106.49
740.764	7140.84
741.104	7201.63
741.444	7145.81
741.784	7159.6
742.124	7181.75
742.464	7183.55
742.804	7183.55
743.143	7237.79
743.483	7256.32
743.823	7249.77
744.162	7197.79
744.502	7274.85
744.841	7285.92
745.181	7333.83
745.52	7351.23
745.86	7390.1
746.199	7383.32
746.538	7493.83
746.877	7461.29
747.216	7535.41
747.556	7498.57
747.895	7571.57
748.234	7573.6
748.573	7614.05
748.911	7659.25
749.25	7786.02
749.589	7761.39
749.928	7801.84
750.267	7974.27
750.605	7951.67
750.944	7972.46
751.283	8072.57
751.621	8082.06
751.96	8114.83
752.298	8298.33
752.636	8298.33
752.975	8308.27
753.313	8481.15
753.651	8562.5
753.989	8602.73
754.327	8724.76
754.666	8728.37
755.004	8923.17
755.342	8953.68
755.679	9067.35
756.017	9112.09
756.355	9248.81
756.693	9327
757.031	9442.7
757.368	9542.36
757.706	9637.27
758.044	9789.36
758.381	9892.18
758.719	9992.07
759.056	10191.84
759.394	10278.39
759.731	10290.82
760.068	10434.54
760.405	10573.52
760.743	10759.05
761.08	10851.25
761.417	10913.17
761.754	11025.49
762.091	11175.99
762.428	11284.01
762.765	11478.13
763.102	11640.16
763.438	11676.77
763.775	11847.61
