Data from hue_320_FLMS001491_19.txt Node
Date: Mon Feb 06 15:46:48 GMT 2017
User: dcchb
Spectrometer: FLMS00149
Trigger mode: 0
Integration Time (sec): 2.000000E-2
Scans to average: 10
Electric dark correction enabled: true
Nonlinearity correction enabled: false
Boxcar width: 0
XAxis mode: Wavelengths
Number of Pixels in Spectrum: 2048
>>>>>Begin Spectral Data<<<<<
341.393	-3.57
341.776	-3.57
342.16	-3.57
342.543	-50.13
342.927	-51.71
343.31	-49.67
343.693	-68.43
344.077	-81.76
344.46	-46.28
344.843	-57.13
345.226	-37.92
345.61	-42.44
345.993	-33.4
346.376	4.79
346.759	11.34
347.142	32.36
347.525	38.69
347.908	62.19
348.291	67.61
348.674	87.72
349.057	112.36
349.44	117.55
349.823	144.45
350.206	170.43
350.588	190.77
350.971	211.79
351.354	224.9
351.737	233.93
352.119	242.3
352.502	263.54
352.884	277.55
353.267	273.26
353.65	289.53
354.032	295.63
354.414	311.9
354.797	314.16
355.179	304.44
355.562	319.58
355.944	322.52
356.326	329.53
356.709	331.11
357.091	339.02
357.473	350.09
357.855	335.4
358.238	339.02
358.62	321.84
359.002	327.94
359.384	341.5
359.766	321.84
360.148	329.98
360.53	344.89
360.912	312.8
361.294	325.91
361.676	345.34
362.057	324.1
362.439	323.42
362.821	321.39
363.203	337.66
363.584	308.28
363.966	322.52
364.348	327.27
364.729	306.02
365.111	320.03
365.493	325.01
365.874	321.39
366.256	313.71
366.637	313.03
367.019	301.96
367.4	302.86
367.781	290.2
368.163	314.84
368.544	308.73
368.925	300.6
369.306	308.06
369.688	319.81
370.069	303.54
370.45	301.73
370.831	306.02
371.212	316.64
371.593	322.52
371.974	316.87
372.355	312.35
372.736	313.93
373.117	321.16
373.498	302.41
373.879	300.37
374.26	328.4
374.641	323.88
375.021	323.65
375.402	321.62
375.783	332.01
376.163	318.23
376.544	324.1
376.925	328.85
377.305	304.44
377.686	344.21
378.066	326.81
378.447	328.17
378.827	333.37
379.208	315.06
379.588	322.07
379.968	317.1
380.349	328.4
380.729	323.2
381.109	317.1
381.489	308.73
381.87	352.35
382.25	315.74
382.63	360.94
383.01	343.54
383.39	337.66
383.77	354.16
384.15	318.45
384.53	349.19
384.91	346.7
385.29	362.29
385.67	353.48
386.049	358.45
386.429	352.58
386.809	346.7
387.189	369.07
387.568	347.83
387.948	339.92
388.328	345.57
388.707	346.7
389.087	346.7
389.466	350.99
389.846	339.92
390.225	365.68
390.605	357.32
390.984	357.1
391.363	346.7
391.743	368.39
392.122	366.81
392.501	370.2
392.881	362.07
393.26	388.28
393.639	352.8
394.018	358
394.397	395.74
394.776	371.11
395.155	374.5
395.534	373.82
395.913	369.75
396.292	375.4
396.671	372.69
397.05	387.38
397.429	393.03
397.808	379.47
398.186	398.45
398.565	398.45
398.944	396.64
399.323	404.33
399.701	403.87
400.08	393.7
400.458	405.46
400.837	396.19
401.215	383.54
401.594	408.17
401.972	406.36
402.351	410.2
402.729	398.68
403.107	415.85
403.486	397.77
403.864	407.72
404.242	435.06
404.62	428.73
404.999	435.29
405.377	423.76
405.755	425.57
406.133	436.42
406.511	439.8
406.889	430.99
407.267	452.23
407.645	445.91
408.023	451.78
408.401	490.88
408.779	460.14
409.156	459.01
409.534	456.98
409.912	488.39
410.29	474.15
410.667	464.89
411.045	473.93
411.422	478
411.8	519.35
412.178	508.73
412.555	508.05
412.933	527.03
413.31	510.09
413.687	519.58
414.065	542.63
414.442	530.65
414.819	550.08
415.197	558.9
415.574	578.33
415.951	555.51
416.328	543.53
416.705	571.33
417.082	579.91
417.46	577.88
417.837	586.47
418.214	570.87
418.591	603.87
418.967	621.95
419.344	604.09
419.721	633.7
420.098	626.47
420.475	649.29
420.852	668.95
421.228	655.17
421.605	665.56
421.982	646.81
422.358	682.96
422.735	670.31
423.111	679.8
423.488	694.94
423.864	688.84
424.241	719.35
424.617	690.42
424.994	684.32
425.37	710.31
425.746	733.36
426.123	726.35
426.499	749.63
426.875	756.63
427.251	772
427.627	757.99
428.003	776.29
428.379	793.47
428.756	750.53
429.132	794.82
429.507	823.98
429.883	824.65
430.259	821.94
430.635	838.44
431.011	834.37
431.387	853.58
431.763	872.79
432.138	894.26
432.514	884.09
432.89	854.48
433.265	883.86
433.641	913.69
434.016	923.18
434.392	916.85
434.767	930.41
435.143	944.2
435.518	930.41
435.894	964.08
436.269	961.37
436.644	970.86
437.02	997.08
437.395	960.24
437.77	1022.84
438.145	999.56
438.52	1030.75
438.895	1036.17
439.271	1056.29
439.646	1027.13
440.021	1053.8
440.395	1054.03
440.77	1056.74
441.145	1039.56
441.52	1099
441.895	1052.67
442.27	1070.52
442.645	1091.31
443.019	1109.39
443.394	1112.33
443.769	1122.5
444.143	1091.09
444.518	1132.44
444.892	1122.27
445.267	1135.15
445.641	1148.03
446.016	1140.58
446.39	1153.01
446.764	1144.19
447.139	1124.53
447.513	1171.09
447.887	1155.04
448.262	1155.49
448.636	1147.36
449.01	1165.21
449.384	1181.03
449.758	1191.88
450.132	1177.64
450.506	1214.93
450.88	1204.76
451.254	1194.14
451.628	1210.86
452.002	1224.64
452.376	1223.96
452.75	1231.2
453.123	1251.08
453.497	1267.35
453.871	1267.81
454.244	1283.17
454.618	1263.74
454.992	1327.92
455.365	1310.74
455.739	1314.58
456.112	1330.85
456.486	1338.31
456.859	1326.11
457.232	1343.74
457.606	1317.07
457.979	1361.36
458.352	1401.14
458.725	1380.57
459.099	1392.1
459.472	1440
459.845	1432.55
460.218	1447.91
460.591	1443.39
460.964	1434.81
461.337	1477.07
461.71	1486.78
462.083	1471.42
462.456	1493.11
462.829	1517.06
463.201	1516.16
463.574	1549.15
463.947	1515.48
464.32	1566.1
464.692	1580.34
465.065	1589.15
465.438	1606.78
465.81	1628.25
466.183	1618.3
466.555	1668.47
466.928	1648.81
467.3	1635.48
467.672	1682.48
468.045	1695.14
468.417	1702.14
468.789	1708.47
469.161	1734.01
469.534	1740.11
469.906	1782.37
470.278	1770.17
470.65	1824.18
471.022	1812.65
471.394	1863.27
471.766	1859.2
472.138	1880.22
472.51	1905.08
472.882	1933.32
473.253	1936.94
473.625	1976.71
473.997	1984.4
474.369	1985.53
474.74	2007.22
475.112	2030.27
475.484	2053.55
475.855	2070.72
476.227	2075.47
476.598	2136.48
476.97	2133.77
477.341	2198.63
477.713	2207.22
478.084	2242.7
478.455	2264.62
478.827	2291.73
479.198	2340.55
479.569	2326.99
479.94	2371.51
480.311	2380.09
480.682	2427.55
481.053	2460.77
481.424	2512.07
481.795	2563.59
482.166	2543.48
482.537	2540.54
482.908	2616.02
483.279	2599.75
483.65	2663.48
484.021	2692.4
484.391	2738.28
484.762	2725.39
485.133	2779.63
485.503	2767.88
485.874	2834.77
486.244	2854.43
486.615	2897.37
486.985	2905.5
487.356	2934.65
487.726	2995.9
488.097	2988.44
488.467	3027.31
488.837	3065.27
489.207	3080.64
489.578	3164.93
489.948	3135.55
490.318	3192.95
490.688	3197.02
491.058	3261.2
491.428	3259.17
491.798	3295.1
492.168	3360.18
492.538	3354.53
492.908	3371.03
493.278	3438.37
493.648	3425.94
494.017	3451.03
494.387	3472.04
494.757	3503.23
495.126	3511.36
495.496	3561.53
495.866	3594.75
496.235	3630.23
496.605	3627.74
496.974	3599.5
497.344	3664.35
497.713	3691.7
498.082	3688.08
498.452	3722.88
498.821	3761.53
499.19	3711.36
499.559	3769.89
499.928	3797.23
500.298	3773.73
500.667	3841.52
501.036	3795.87
501.405	3842.43
501.774	3852.37
502.143	3898.47
502.512	3851.24
502.88	3924.23
503.249	3891.01
503.618	3949.09
503.987	3958.81
504.356	3977.56
504.724	3972.82
505.093	4017.56
505.462	4020.73
505.83	4018.47
506.199	4058.47
506.567	4104.34
506.936	4094.85
507.304	4083.55
507.672	4109.09
508.041	4135.3
508.409	4132.14
508.777	4166.26
509.145	4154.74
509.514	4200.38
509.882	4185.92
510.25	4194.06
510.618	4217.33
510.986	4272.25
511.354	4286.48
511.722	4296.88
512.09	4299.14
512.458	4290.55
512.826	4336.65
513.193	4368.97
513.561	4331.68
513.929	4397.89
514.297	4395.41
514.664	4400.6
515.032	4407.38
515.4	4420.27
515.767	4420.27
516.135	4474.95
516.502	4429.3
516.869	4485.8
517.237	4492.35
517.604	4452.58
517.972	4496.2
518.339	4522.64
518.706	4522.86
519.073	4522.18
519.44	4560.37
519.808	4583.2
520.175	4556.76
520.542	4609.41
520.909	4645.12
521.276	4603.31
521.643	4680.82
522.009	4674.72
522.376	4696.87
522.743	4723.99
523.11	4758.11
523.477	4784.78
523.843	4797.2
524.21	4849.18
524.577	4852.12
524.943	4801.05
525.31	4863.19
525.676	4897.09
526.043	4950.19
526.409	4961.49
526.776	4935.96
527.142	5018.22
527.508	5001.94
527.874	5015.05
528.241	5086.91
528.607	5106.35
528.973	5117.42
529.339	5078.55
529.705	5174.37
530.071	5233.35
530.437	5190.64
530.803	5257.76
531.169	5240.13
531.535	5276.74
531.901	5300.47
532.267	5288.49
532.632	5290.98
532.998	5321.03
533.364	5396.28
533.73	5375.72
534.095	5434.25
534.461	5486.45
534.826	5469.5
535.192	5482.38
535.557	5488.71
535.923	5519.67
536.288	5573.46
536.653	5561.7
537.019	5561.93
537.384	5608.93
537.749	5613.91
538.114	5669.05
538.479	5689.16
538.845	5703.85
539.21	5695.03
539.575	5749.04
539.94	5721.47
540.305	5782.26
540.67	5794.69
541.034	5827.23
541.399	5868.36
541.764	5828.59
542.129	5876.5
542.494	5874.24
542.858	5936.61
543.223	5958.76
543.587	6000.56
543.952	6013.67
544.316	6063.61
544.681	6064.52
545.045	6065.87
545.41	6124.18
545.774	6153.55
546.138	6131.63
546.503	6148.58
546.867	6187.68
547.231	6248.01
547.595	6251.63
547.959	6291.63
548.324	6277.17
548.688	6309.71
549.052	6336.82
549.416	6328.92
549.779	6350.38
550.143	6383.83
550.507	6436.26
550.871	6487.33
551.235	6433.55
551.599	6505.18
551.962	6510.15
552.326	6528.01
552.689	6539.98
553.053	6499.31
553.417	6490.49
553.78	6586.31
554.143	6617.72
554.507	6602.13
554.87	6626.31
555.234	6729.81
555.597	6682.58
555.96	6699.75
556.323	6790.82
556.686	6768.23
557.05	6758.51
557.413	6771.84
557.776	6792.86
558.139	6852.52
558.502	6895.68
558.865	6875.12
559.228	6879.64
559.59	6940.88
559.953	6951.72
560.316	7012.97
560.679	6941.55
561.041	7095.22
561.404	7046.86
561.767	7077.37
562.129	7080.76
562.492	7116.92
562.854	7111.27
563.217	7177.48
563.579	7170.25
563.941	7237.37
564.304	7242.11
564.666	7268.1
565.028	7275.56
565.39	7306.74
565.753	7386.97
566.115	7358.72
566.477	7410.69
566.839	7388.55
567.201	7423.8
567.563	7461.32
567.925	7553.29
568.287	7564.36
568.648	7555.1
569.01	7525.72
569.372	7625.83
569.734	7607.53
570.095	7694.08
570.457	7659.73
570.819	7730.69
571.18	7738.37
571.542	7798.48
571.903	7864.92
572.265	7870.34
572.626	7931.13
572.987	7974.97
573.349	7975.65
573.71	8073.73
574.071	8082.77
574.432	8163.22
574.794	8260.62
575.155	8277.56
575.516	8259.03
575.877	8350.11
576.238	8433.49
576.599	8504.23
576.96	8612.47
577.32	8605.69
577.681	8726.37
578.042	8822.86
578.403	8799.59
578.763	8942.63
579.124	9023.31
579.485	9201.38
579.845	9299.91
580.206	9320.7
580.566	9466.46
580.927	9600.69
581.287	9753.68
581.648	9822.61
582.008	9981.7
582.368	10101.7
582.728	10228.47
583.089	10405.87
583.449	10555.02
583.809	10677.5
584.169	10917.04
584.529	11067.32
584.889	11376.01
585.249	11483.36
585.609	11616.46
585.969	11920.18
586.329	12056.45
586.688	12280.4
587.048	12571.01
587.408	12794.96
587.768	13121.51
588.127	13225.68
588.487	13460.93
588.846	13720.36
589.206	13875.61
589.565	14232.21
589.925	14582.94
590.284	14709.03
590.643	15039.42
591.003	15342.46
591.362	15571.84
591.721	15873.98
592.08	16204.59
592.44	16505.82
592.799	16784.23
593.158	17045.24
593.517	17342.64
593.876	17674.38
594.235	17868.27
594.593	18331.54
594.952	18495.6
595.311	18809.27
595.67	19122.03
596.029	19581.45
596.387	19797.49
596.746	20035.45
597.104	20280.87
597.463	20662.1
597.822	21000.62
598.18	21070.9
598.538	21526.48
598.897	21883.76
599.255	21936.87
599.613	22641.71
599.972	22777.75
600.33	23185.42
600.688	23362.37
601.046	23680.1
601.404	24076.7
601.762	24289.12
602.12	24708.32
602.478	24938.37
602.836	25217.68
603.194	25373.16
603.552	25616.32
603.91	25875.52
604.268	26188.28
604.625	26455.17
604.983	26745.1
605.341	26904.42
605.698	27226.9
606.056	27592.76
606.413	27821.68
606.771	28019.87
607.128	28389.13
607.485	28431.39
607.843	28679.29
608.2	29042.89
608.557	29352.94
608.914	29419.38
609.272	29801.52
609.629	30069.76
609.986	30233.15
610.343	30402.86
610.7	30807.37
611.057	31027.25
611.414	31048.04
611.771	31299.11
612.127	31613.67
612.484	31737.29
612.841	32006.66
613.198	32003.72
613.554	32296.59
613.911	32613.42
614.267	32677.15
614.624	32858.84
614.98	33067.87
615.337	33336.34
615.693	33474.64
616.05	33587.41
616.406	33834.86
616.762	33927.74
617.118	34042.99
617.475	34172.03
617.831	34433.04
618.187	34575.4
618.543	34745.57
618.899	34903.76
619.255	35174.26
619.611	35145.11
619.967	35406.57
620.323	35579.9
620.678	35552.55
621.034	35581.71
621.39	35767.24
621.746	35650.63
622.101	36396.15
622.457	36083.39
622.812	36402.25
623.168	36426.66
623.523	36522.92
623.879	36679.3
624.234	36509.14
624.589	36757.04
624.945	36844.95
625.3	37076.36
625.655	37005.85
626.01	37006.3
626.365	37157.26
626.72	37130.82
627.075	37152.29
627.43	37272.06
627.785	37316.58
628.14	37428.21
628.495	37553.86
628.85	37391.15
629.205	37510.47
629.559	37843.79
629.914	37600.18
630.269	37775.32
630.623	37643.12
630.978	37664.14
631.332	37806.51
631.687	38005.14
632.041	37787.98
632.396	37985.71
632.75	37851.25
633.104	37962.21
633.459	37985.03
633.813	37931.02
634.167	37927.41
634.521	38005.37
634.875	38046.73
635.229	38048.08
635.583	37992.04
635.937	37927.18
636.291	38090.79
636.645	37989.33
636.999	37942.32
637.352	38122.43
637.706	37955.2
638.06	38054.86
638.413	37915.2
638.767	38034.3
639.121	38064.8
639.474	37818.03
639.828	37947.29
640.181	37987.29
640.534	37965.6
640.888	37958.82
641.241	37931.7
641.594	37902.32
641.947	38046.27
642.301	37934.19
642.654	37938.71
643.007	37901.19
643.36	37898.25
643.713	37837.69
644.066	38092.15
644.419	37870.46
644.771	37564.25
645.124	37218.72
645.477	37339.17
645.83	36982.8
646.182	36945.51
646.535	36773.09
646.888	36861.22
647.24	36718.4
647.593	36914.33
647.945	36851.95
648.298	36667.55
648.65	36655.35
649.002	36556.14
649.355	36847.21
649.707	36706.42
650.059	36859.19
650.411	37226.18
650.763	37172.62
651.115	37626.62
651.467	37507.76
651.819	37510.47
652.171	37543.01
652.523	37412.17
652.875	37432.73
653.227	37288.55
653.578	37627.98
653.93	37436.8
654.282	37289.91
654.633	37247.2
654.985	37322.9
655.337	37374.43
655.688	37350.02
656.039	37507.76
656.391	37234.54
656.742	37169.69
657.094	37242
657.445	37367.42
657.796	37160.65
658.147	37135.79
658.498	37088.78
658.849	37267.99
659.2	37156.35
659.551	37189.57
659.902	37258.95
660.253	37099.18
660.604	37353.41
660.955	37101.21
661.306	37214.43
661.656	37150.48
662.007	37127.43
662.358	37293.07
662.708	37163.13
663.059	36984.61
663.409	36945.51
663.76	37210.59
664.11	37083.36
664.461	37199.29
664.811	37109.35
665.161	37037.49
665.511	37126.52
665.862	37207.43
666.212	37074.77
666.562	37148.44
666.912	37124.49
667.262	37091.27
667.612	37035.23
667.962	36985.74
668.312	37075.68
668.662	37086.75
669.011	37133.76
669.361	36932.63
669.711	37056.02
670.06	36948.9
670.41	36804.72
670.76	36938.05
671.109	37039.75
671.459	37018.05
671.808	36770.6
672.157	37009.24
672.507	36695.8
672.856	36912.07
673.205	36679.08
673.554	37008.56
673.904	36792.75
674.253	36927.43
674.602	36813.54
674.951	36318.64
675.3	36122.03
675.649	36830.49
675.998	36670.72
676.346	36714.78
676.695	36873.65
677.044	36552.3
677.393	36686.31
677.741	36596.37
678.09	36431.4
678.438	36536.71
678.787	36597.27
679.135	36550.72
679.484	36242.71
679.832	36448.35
680.181	36293.55
680.529	36363.15
680.877	36283.83
681.225	36275.92
681.573	36447.22
681.922	36251.74
682.27	36098.98
682.618	36100.56
682.966	36023.28
683.314	36101.69
683.661	36044.97
684.009	35799.78
684.357	35797.52
684.705	35879.1
685.053	35747.13
685.4	35694.02
685.748	35568.82
686.095	35560.92
686.443	35439.34
686.79	35354.82
687.138	35512.33
687.485	35393.91
687.832	35273.01
688.18	35340.58
688.527	35093.13
688.874	35141.94
689.221	35031.66
689.568	34963.87
689.915	34923.42
690.262	35027.6
690.609	34741.73
690.956	34633.48
691.303	34664.67
691.65	34525.24
691.997	34604.1
692.344	34311.23
692.69	34334.51
693.037	34262.87
693.383	34031.24
693.73	34158.47
694.077	33906.95
694.423	33935.87
694.769	33830.11
695.116	33829.66
695.462	33614.3
695.808	33577.69
696.155	33612.27
696.501	33460.63
696.847	33373.63
697.193	33168.66
697.539	33393.06
697.885	33140.19
698.231	33021.1
698.577	33044.15
698.923	32995.56
699.269	32707.2
699.614	32725.74
699.96	32680.09
700.306	32657.04
700.651	32624.95
700.997	32407.33
701.342	32397.83
701.688	32381.56
702.033	32165.3
702.379	32265.41
702.724	32122.36
703.069	32239.19
703.415	31845.98
703.76	31747.68
704.105	31934.8
704.45	31836.95
704.795	31595.6
705.14	31568.48
705.485	31501.13
705.83	31276.06
706.175	31304.76
706.52	31404.64
706.865	31134.59
707.209	31086.23
707.554	31086
707.899	31159.68
708.243	30892.11
708.588	30872.9
708.932	30764.43
709.277	30602.63
709.621	30665.9
709.966	30523.31
710.31	30506.36
710.654	30228.4
710.998	30445.57
711.342	30299.58
711.687	30162.87
712.031	30112.02
712.375	30070.21
712.719	30008.74
713.063	29924.91
713.407	30159.02
713.75	29903.44
714.094	29871.35
714.438	29797.9
714.782	29706.38
715.125	29609.89
715.469	29680.62
715.812	29560.85
716.156	29320.85
716.499	29401.76
716.843	29564.91
717.186	29195.43
717.53	29348.42
717.873	29398.37
718.216	29348.2
718.559	29137.58
718.902	29018.04
719.246	29043.12
719.589	28946.4
719.932	28905.95
720.275	28860.07
720.617	28740.76
720.96	28758.61
721.303	28666.18
721.646	28775.33
721.989	28540.08
722.331	28626.86
722.674	28513.19
723.016	28516.81
723.359	28526.07
723.701	28566.97
724.044	28301.45
724.386	28178.96
724.729	28405.17
725.071	28225.97
725.413	28300.32
725.755	28286.08
726.097	28088.34
726.439	27894.45
726.782	27996.82
727.124	28089.02
727.465	27888.8
727.807	27803.38
728.149	27786.66
728.491	27723.83
728.833	27828.69
729.175	27591.63
729.516	27704.17
729.858	27609.94
730.199	27608.58
730.541	27510.73
730.882	27515.03
731.224	27546.66
731.565	27466.89
731.906	27305.31
732.248	27374.01
732.589	27238.42
732.93	27216.05
733.271	27160.91
733.612	27216.05
733.953	27185.09
734.294	27058.09
734.635	26968.37
734.976	27039.33
735.317	26861.93
735.658	26950.97
735.999	26788.26
736.339	26761.15
736.68	26928.6
737.021	26761.82
737.361	26712.79
737.702	26830.07
738.042	26636.4
738.383	26610.64
738.723	26653.58
739.063	26546.46
739.404	26615.61
739.744	26394.6
740.084	26336.07
740.424	26498.78
740.764	26319.8
741.104	26435.51
741.444	26338.33
741.784	26231.67
742.124	26188.51
742.464	26171.11
742.804	26144.67
743.143	26036.42
743.483	26042.75
743.823	25968.85
744.162	26004.33
744.502	26080.71
744.841	25917.33
745.181	25997.32
745.52	25875.52
745.86	25872.13
746.199	25855.18
746.538	25778.57
746.877	25785.81
747.216	25772.25
747.556	25734.96
747.895	25662.64
748.234	25478.69
748.573	25471.24
748.911	25474.4
749.25	25483.44
749.589	25368.41
749.928	25370
750.267	25415.87
750.605	25353.95
750.944	25197.35
751.283	25083
751.621	25149.89
751.96	25090.23
752.298	24949.22
752.636	25070.57
752.975	24904.47
753.313	24711.48
753.651	24851.82
753.989	24754.19
754.327	24760.75
754.666	24664.7
755.004	24646.63
755.342	24582.9
755.679	24540.87
756.017	24390.36
756.355	24442.34
756.693	24362.34
757.031	24349.68
757.368	24254.55
757.706	24230.37
758.044	24185.85
758.381	24148.79
758.719	24106.53
759.056	24007.09
759.394	23929.13
759.731	23720.77
760.068	23730.04
