Data from hue_10_FLMS001491_46.txt Node
Date: Mon Feb 06 15:31:58 GMT 2017
User: dcchb
Spectrometer: FLMS00149
Trigger mode: 0
Integration Time (sec): 2.000000E-2
Scans to average: 10
Electric dark correction enabled: true
Nonlinearity correction enabled: false
Boxcar width: 0
XAxis mode: Wavelengths
Number of Pixels in Spectrum: 2048
>>>>>Begin Spectral Data<<<<<
341.393	-19.7
341.776	-19.7
342.16	-19.7
342.543	-67.39
342.927	-71
343.31	-70.1
343.693	-71.9
344.077	-65.13
344.46	-44.79
344.843	-39.82
345.226	-41.85
345.61	-38.01
345.993	-16.77
346.376	-8.63
346.759	13.29
347.142	24.59
347.525	29.56
347.908	56
348.291	73.18
348.674	84.48
349.057	115.89
349.44	154.53
349.823	155.66
350.206	180.29
350.588	204.7
350.971	208.99
351.354	220.97
351.737	230.91
352.119	253.51
352.502	271.14
352.884	276.11
353.267	264.81
353.65	278.59
354.032	298.71
354.414	318.14
354.797	317.01
355.179	328.31
355.562	335.54
355.944	332.83
356.326	327.86
356.709	343.23
357.091	340.06
357.473	345.03
357.855	330.34
358.238	343.68
358.62	337.35
359.002	351.59
359.384	366.95
359.766	359.72
360.148	338.93
360.53	328.31
360.912	340.29
361.294	344.81
361.676	349.78
362.057	335.54
362.439	319.05
362.821	340.29
363.203	332.6
363.584	305.71
363.966	327.41
364.348	321.31
364.729	330.8
365.111	335.32
365.493	328.08
365.874	302.32
366.256	317.92
366.637	329.89
367.019	301.87
367.4	326.28
367.781	292.15
368.163	303.45
368.544	320.4
368.925	307.52
369.306	336.22
369.688	291.48
370.069	326.05
370.45	316.11
370.831	306.84
371.212	310.01
371.593	322.44
371.974	303.9
372.355	304.81
372.736	330.34
373.117	327.41
373.498	327.86
373.879	328.99
374.26	320.4
374.641	335.54
375.021	326.73
375.402	321.76
375.783	320.18
376.163	339.61
376.544	341.42
376.925	328.99
377.305	332.15
377.686	325.15
378.066	351.59
378.447	323.11
378.827	317.92
379.208	333.96
379.588	321.98
379.968	339.84
380.349	324.24
380.729	349.55
381.109	355.88
381.489	343
381.87	325.37
382.25	328.99
382.63	351.36
383.01	326.28
383.39	359.27
383.77	352.49
384.15	336.22
384.53	331.02
384.91	335.99
385.29	342.77
385.67	329.67
386.049	352.04
386.429	347.97
386.809	364.24
387.189	368.31
387.568	338.48
387.948	343.68
388.328	333.28
388.707	352.72
389.087	351.13
389.466	375.77
389.846	366.73
390.225	356.78
390.605	336.9
390.984	391.13
391.363	347.52
391.743	367.41
392.122	343.23
392.501	372.83
392.881	375.77
393.26	368.99
393.639	374.41
394.018	364.24
394.397	376.67
394.776	355.43
395.155	376.67
395.534	384.13
395.913	381.42
396.292	395.2
396.671	385.26
397.05	372.6
397.429	352.72
397.808	380.51
398.186	388.2
398.565	382.09
398.944	379.61
399.323	368.76
399.701	371.7
400.08	374.86
400.458	377.8
400.837	384.13
401.215	423.68
401.594	384.58
401.972	392.04
402.351	397.91
402.729	403.56
403.107	390.46
403.486	395.65
403.864	405.14
404.242	384.81
404.62	400.4
404.999	397.46
405.377	374.86
405.755	390.91
406.133	400.63
406.511	398.82
406.889	409.89
407.267	422.09
407.645	418.48
408.023	418.93
408.401	419.61
408.779	429.78
409.156	425.03
409.534	427.52
409.912	403.11
410.29	403.79
410.667	412.6
411.045	434.75
411.422	441.75
411.8	427.52
412.178	440.4
412.555	453.96
412.933	467.52
413.31	436.1
413.687	462.32
414.065	457.35
414.442	450.57
414.819	457.35
415.197	449.66
415.574	464.35
415.951	464.8
416.328	486.27
416.705	463
417.082	476.78
417.46	481.98
417.837	457.57
418.214	494.41
418.591	488.08
418.967	494.41
419.344	479.49
419.721	488.53
420.098	509.77
420.475	468.87
420.852	473.17
421.228	493.28
421.605	507.29
421.982	506.38
422.358	497.8
422.735	499.38
423.111	513.39
423.488	517.01
423.864	510.45
424.241	511.36
424.617	535.54
424.994	531.02
425.37	515.88
425.746	527.63
426.123	540.96
426.499	539.15
426.875	517.68
427.251	533.5
427.627	522.43
428.003	540.06
428.379	534.63
428.756	533.95
429.132	571.69
429.507	578.7
429.883	555.88
430.259	587.29
430.635	574.86
431.011	572.82
431.387	591.35
431.763	579.6
432.138	588.64
432.514	572.37
432.89	585.7
433.265	607.63
433.641	596.55
434.016	592.26
434.392	632.26
434.767	629.32
435.143	609.66
435.518	634.29
435.894	643.1
436.269	633.84
436.644	627.96
437.02	638.81
437.395	622.77
437.77	653.73
438.145	647.85
438.52	662.77
438.895	661.41
439.271	690.33
439.646	676.1
440.021	677.68
440.395	659.38
440.77	677.91
441.145	698.02
441.52	697.79
441.895	682.65
442.27	722.88
442.645	694.4
443.019	704.8
443.394	721.52
443.769	711.58
444.143	727.85
444.518	721.52
444.892	723.1
445.267	725.59
445.641	716.1
446.016	744.8
446.39	733.95
446.764	757.23
447.139	727.62
447.513	760.62
447.887	730.11
448.262	745.7
448.636	745.02
449.01	767.85
449.384	765.59
449.758	756.55
450.132	768.52
450.506	779.6
450.88	796.09
451.254	770.11
451.628	782.31
452.002	793.16
452.376	816.21
452.75	809.43
453.123	824.57
453.497	807.62
453.871	802.2
454.244	826.15
454.618	808.3
454.992	832.03
455.365	844.23
455.739	869.99
456.112	865.02
456.486	848.75
456.859	863.44
457.232	876.09
457.606	880.39
457.979	874.74
458.352	898.24
458.725	920.16
459.099	915.87
459.472	933.04
459.845	935.53
460.218	946.6
460.591	948.18
460.964	944.11
461.337	977.33
461.71	959.93
462.083	1001.06
462.456	977.33
462.829	983.21
463.201	992.93
463.574	1028.63
463.947	1025.69
464.32	1034.51
464.692	1044
465.065	1071.79
465.438	1057.78
465.81	1098.23
466.183	1103.66
466.555	1113.6
466.928	1117.67
467.3	1117.22
467.672	1142.98
468.045	1162.86
468.417	1165.12
468.789	1158.57
469.161	1195.86
469.534	1209.87
469.906	1197.21
470.278	1217.1
470.65	1251
471.022	1282.86
471.394	1288.51
471.766	1279.7
472.138	1324.67
472.51	1303.88
472.882	1338.68
473.253	1361.28
473.625	1380.03
473.997	1427.26
474.369	1403.54
474.74	1453.7
475.112	1464.78
475.484	1501.39
475.855	1523.99
476.227	1541.61
476.598	1573.7
476.97	1573.93
477.341	1632.01
477.713	1655.96
478.084	1662.06
478.455	1715.17
478.827	1748.16
479.198	1773.24
479.569	1797.88
479.94	1821.15
480.311	1838.33
480.682	1908.61
481.053	1960.36
481.424	1968.27
481.795	2044.42
482.166	2029.28
482.537	2056.63
482.908	2086.68
483.279	2134.14
483.65	2170.07
484.021	2222.5
484.391	2265.66
484.762	2286
485.133	2313.8
485.503	2349.27
485.874	2403.51
486.244	2450.97
486.615	2488.93
486.985	2516.5
487.356	2576.16
487.726	2600.12
488.097	2640.11
488.467	2687.34
488.837	2728.02
489.207	2774.12
489.578	2794.23
489.948	2829.49
490.318	2878.3
490.688	2894.57
491.058	3004.4
491.428	3007.34
491.798	3031.29
492.168	3078.97
492.538	3103.15
492.908	3157.61
493.278	3193.55
493.648	3184.05
494.017	3271.28
494.387	3312.19
494.757	3363.49
495.126	3386.99
495.496	3375.69
495.866	3458.85
496.235	3460.88
496.605	3522.58
496.974	3481.45
497.344	3546.31
497.713	3587.43
498.082	3576.59
498.452	3641.67
498.821	3644.16
499.19	3682.12
499.559	3704.94
499.928	3780.88
500.298	3772.97
500.667	3773.87
501.036	3775.45
501.405	3837.37
501.774	3827.65
502.143	3869.01
502.512	3920.98
502.88	3889.12
503.249	3930.25
503.618	3956.24
503.987	4043.24
504.356	3996.01
504.724	4045.05
505.093	4048.21
505.462	4032.85
505.83	4075.1
506.199	4174.09
506.567	4138.61
506.936	4152.39
507.304	4158.27
507.672	4205.95
508.041	4209.34
508.409	4204.14
508.777	4301.99
509.145	4302.67
509.514	4305.16
509.882	4313.97
510.25	4299.96
510.618	4338.83
510.986	4339.28
511.354	4390.12
511.722	4403.46
512.09	4489.78
512.458	4449.33
512.826	4425.38
513.193	4507.41
513.561	4506.73
513.929	4493.17
514.297	4507.18
514.664	4588.76
515.032	4591.48
515.4	4592.83
515.767	4612.27
516.135	4647.97
516.502	4634.64
516.869	4671.7
517.237	4639.61
517.604	4633.73
517.972	4683
518.339	4733.84
518.706	4725.48
519.073	4771.81
519.44	4735.43
519.808	4738.36
520.175	4766.84
520.542	4803
520.909	4839.38
521.276	4831.47
521.643	4878.02
522.009	4896.55
522.376	4931.13
522.743	4951.01
523.11	5004.8
523.477	4968.19
523.843	4999.15
524.21	5065.14
524.577	5076.66
524.943	5094.29
525.31	5123.21
525.676	5162.31
526.043	5146.49
526.409	5160.73
526.776	5249.54
527.142	5233.94
527.508	5294.96
527.874	5305.81
528.241	5339.93
528.607	5348.29
528.973	5372.7
529.339	5362.08
529.705	5445.69
530.071	5468.06
530.437	5473.49
530.803	5474.84
531.169	5562.52
531.535	5600.71
531.901	5600.49
532.267	5593.71
532.632	5615.18
532.998	5648.4
533.364	5642.97
533.73	5633.93
534.095	5736.08
534.461	5745.34
534.826	5758.45
535.192	5840.48
535.557	5848.39
535.923	5820.14
536.288	5881.61
536.653	5854.27
537.019	5894.49
537.384	5928.39
537.749	5929.52
538.114	5937.88
538.479	5977.88
538.845	5985.56
539.21	5955.96
539.575	6042.96
539.94	5996.64
540.305	6056.3
540.67	6045.9
541.034	6117.76
541.399	6176.97
541.764	6196.63
542.129	6170.64
542.494	6230.98
542.858	6228.27
543.223	6269.17
543.587	6303.52
543.952	6339
544.316	6352.33
544.681	6343.75
545.045	6419
545.41	6418.09
545.774	6474.59
546.138	6434.59
546.503	6510.75
546.867	6534.48
547.231	6541.71
547.595	6578.77
547.959	6563.63
548.324	6652.89
548.688	6623.29
549.052	6631.65
549.416	6656.96
549.779	6713.23
550.143	6717.97
550.507	6764.75
550.871	6829.61
551.235	6742.83
551.599	6823.51
551.962	6873
552.326	6869.38
552.689	6846.33
553.053	6860.34
553.417	6949.61
553.78	7008.36
554.143	6988.93
554.507	6976.05
554.87	7009.72
555.234	7122.03
555.597	7002.49
555.96	7086.1
556.323	7023.05
556.686	7128.58
557.05	7149.83
557.413	7154.57
557.776	7197.96
558.139	7240.45
558.502	7244.29
558.865	7227.56
559.228	7267.11
559.59	7334.45
559.953	7305.98
560.316	7363.83
560.679	7326.54
561.041	7445.19
561.404	7442.7
561.767	7394.79
562.129	7445.86
562.492	7569.25
562.854	7485.41
563.217	7570.61
563.579	7498.29
563.941	7617.38
564.304	7648.12
564.666	7644.95
565.028	7656.25
565.39	7727.66
565.753	7732.86
566.115	7826.42
566.477	7769.02
566.839	7811.05
567.201	7832.52
567.563	7815.12
567.925	7919.52
568.287	7985.28
568.648	7951.61
569.01	8040.42
569.372	8063.25
569.734	8008.33
570.095	8151.83
570.457	8154.32
570.819	8169.91
571.18	8180.53
571.542	8269.57
571.903	8259.63
572.265	8295.56
572.626	8371.04
572.987	8355.9
573.349	8442.22
573.71	8410.36
574.071	8537.81
574.432	8630.01
574.794	8749.56
575.155	8774.19
575.516	8736
575.877	8844.92
576.238	8889.67
576.599	8975.54
576.96	9048.53
577.32	9085.59
577.681	9105.03
578.042	9263.67
578.403	9318.81
578.763	9384.34
579.124	9491.01
579.485	9639.48
579.845	9723.77
580.206	9801.06
580.566	9939.81
580.927	10114.49
581.287	10249.86
581.648	10339.57
582.008	10492.11
582.368	10605.1
582.728	10805.32
583.089	10904.98
583.449	10965.32
583.809	11270.62
584.169	11332.77
584.529	11529.15
584.889	11714.23
585.249	11914.9
585.609	12181.11
585.969	12447.09
586.329	12626.97
586.688	12822.22
587.048	13134.08
587.408	13250.46
587.768	13503.78
588.127	13722.99
588.487	14059.93
588.846	14376.3
589.206	14548.73
589.565	14835.95
589.925	15159.56
590.284	15341.02
590.643	15737.62
591.003	15961.35
591.362	16242.24
591.721	16567.43
592.08	16876.58
592.44	17135.1
592.799	17618.25
593.158	17827.29
593.517	18102.31
593.876	18447.61
594.235	18723.31
594.593	19075.84
594.952	19397.87
595.311	19769.61
595.67	20118.3
596.029	20498.4
596.387	20886.19
596.746	21130.48
597.104	21500.86
597.463	21758.03
597.822	22192.82
598.18	22425.13
598.538	22828.74
598.897	23230.08
599.255	23486.8
599.613	24089.72
599.972	24151.64
600.33	24478.18
600.688	24788.46
601.046	25240.65
601.404	25669.79
601.762	25910.24
602.12	26314.52
602.478	26690.33
602.836	27026.82
603.194	27118.34
603.552	27511.32
603.91	27674.71
604.268	28131.42
604.625	28368.7
604.983	28696.6
605.341	28932.08
605.698	29370.71
606.056	29639.4
606.413	29878.49
606.771	30225.6
607.128	30474.18
607.485	30672.15
607.843	30976.32
608.2	31382.86
608.557	31779.46
608.914	31892.68
609.272	32277.3
609.629	32665.77
609.986	32898.98
610.343	32988.02
610.7	33345.75
611.057	33572.63
611.414	33728.56
611.771	33851.5
612.127	34216.23
612.484	34592.49
612.841	34765.6
613.198	34856.67
613.554	35038.58
613.911	35385.24
614.267	35556.08
614.624	35700.49
614.98	36065.45
615.337	36378.21
615.693	36485.78
616.05	36520.35
616.406	36967.57
616.762	36834.92
617.118	37159.21
617.475	37221.58
617.831	37651.62
618.187	37777.72
618.543	37919.64
618.899	38215.22
619.255	38315.56
619.611	38367.76
619.967	38604.14
620.323	38816.34
620.678	38793.29
621.034	38811.59
621.39	38935.43
621.746	38995.54
622.101	39636.2
622.457	39321.18
622.812	39584
623.168	39725.47
623.523	39817.44
623.879	40047.94
624.234	39869.19
624.589	40085.46
624.945	40153.7
625.3	40392.12
625.655	40561.6
626.01	40431.21
626.365	40727.7
626.72	40591.43
627.075	40676.4
627.43	40795.04
627.785	40812.22
628.14	40849.51
628.495	41096.5
628.85	41117.07
629.205	40958.65
629.559	41306.22
629.914	41161.14
630.269	41277.29
630.623	41279.32
630.978	41185.54
631.332	41433.9
631.687	41570.62
632.041	41305.09
632.396	41537.4
632.75	41474.57
633.104	41501.24
633.459	41477.51
633.813	41483.61
634.167	41445.42
634.521	41531.07
634.875	41690.84
635.229	41624.63
635.583	41430.51
635.937	41494.46
636.291	41531.52
636.645	41665.53
636.999	41536.72
637.352	41738.07
637.706	41514.57
638.06	41672.99
638.413	41721.57
638.767	41590.73
639.121	41689.93
639.474	41549.83
639.828	41580.56
640.181	41497.17
640.534	41609.94
640.888	41575.81
641.241	41197.29
641.594	41433.44
641.947	41675.47
642.301	41522.71
642.654	41510.05
643.007	41507.79
643.36	41477.06
643.713	41406.1
644.066	41670.27
644.419	41303.73
644.771	41035.94
645.124	40724.76
645.477	40716.63
645.83	40594.82
646.182	40424.43
646.535	40273.93
646.888	40372.46
647.24	40182.4
647.593	40333.59
647.945	40434.83
648.298	40188.73
648.65	40059.24
649.002	40161.39
649.355	40116.19
649.707	40117.55
650.059	40242.06
650.411	40701.94
650.763	40850.41
651.115	41135.6
651.467	41070.97
651.819	40909.84
652.171	40931.99
652.523	40987.81
652.875	41094.92
653.227	40821.03
653.578	41189.84
653.93	41036.84
654.282	40879.56
654.633	40779.45
654.985	40734.93
655.337	40878.88
655.688	40828.71
656.039	40986.9
656.391	40584.65
656.742	40714.82
657.094	40640.02
657.445	40910.07
657.796	40902.16
658.147	40681.83
658.498	40656.29
658.849	40727.47
659.2	40697.87
659.551	40574.48
659.902	40794.59
660.253	40717.98
660.604	40760.24
660.955	40629.62
661.306	40943.97
661.656	40682.5
662.007	40841.14
662.358	40633.92
662.708	40612.22
663.059	40691.09
663.409	40584.2
663.76	40632.34
664.11	40622.62
664.461	40686.35
664.811	40684.31
665.161	40681.37
665.511	40444.32
665.862	40661.71
666.212	40720.92
666.562	40621.04
666.912	40675.27
667.262	40583.3
667.612	40597.53
667.962	40554.15
668.312	40522.73
668.662	40671.88
669.011	40553.47
669.361	40514.6
669.711	40433.7
670.06	40425.56
670.41	40365.68
670.76	40326.13
671.109	40513.24
671.459	40404.54
671.808	40372.46
672.157	40304.43
672.507	40317.54
672.856	40175.62
673.205	40274.38
673.554	40430.08
673.904	40352.12
674.253	40500.14
674.602	40232.57
674.951	39804.33
675.3	39572.7
675.649	40200.48
675.998	40060.37
676.346	40239.13
676.695	40291.1
677.044	40173.82
677.393	39972.69
677.741	40134.95
678.09	40016.31
678.438	39847.5
678.787	39983.09
679.135	40013.82
679.484	39622.19
679.832	39948.74
680.181	39785.35
680.529	40012.69
680.877	39621.29
681.225	39704.22
681.573	39974.27
681.922	39532.25
682.27	39599.82
682.618	39495.42
682.966	39282.99
683.314	39447.06
683.661	39425.59
684.009	39201.86
684.357	39231.69
684.705	39037.12
685.053	39229.43
685.4	39127.29
685.748	38843.46
686.095	38912.38
686.443	38722.1
686.79	38720.07
687.138	38719.62
687.485	38911.02
687.832	38505.84
688.18	38686.85
688.527	38490.02
688.874	38477.82
689.221	38487.99
689.568	38327.09
689.915	38196.92
690.262	38246.86
690.609	38100.42
690.956	37898.62
691.303	38119.86
691.65	37765.52
691.997	37757.83
692.344	37609.59
692.69	37517.62
693.037	37518.07
693.383	37204.63
693.73	37256.61
694.077	37087.57
694.423	37184.97
694.769	36994.01
695.116	36868.59
695.462	36803.51
695.808	36864.75
696.155	36793.79
696.501	36468.15
696.847	36549.51
697.193	36222.51
697.539	36358.1
697.885	36087.37
698.231	36144.77
698.577	36159.01
698.923	36012.57
699.269	35964.66
699.614	35684.22
699.96	35630.21
700.306	35678.79
700.651	35519.25
700.997	35343.21
701.342	35329.42
701.688	35249.43
702.033	35206.04
702.379	35155.19
702.724	35032.48
703.069	35184.57
703.415	34624.13
703.76	34844.47
704.105	34799.49
704.45	34651.93
704.795	34425.27
705.14	34384.82
705.485	34326.51
705.83	34173.07
706.175	34173.3
706.52	34270.02
706.865	34016.01
707.209	34001.1
707.554	33981.89
707.899	33842.01
708.243	33700.77
708.588	33722.91
708.932	33466.65
709.277	33467.1
709.621	33512.97
709.966	33262.59
710.31	33299.87
710.654	33002.25
710.998	33064.85
711.342	33223.94
711.687	33014.68
712.031	32821.47
712.375	32824.63
712.719	32846.33
713.063	32719.55
713.407	32807.68
713.75	32688.36
714.094	32508.03
714.438	32511.87
714.782	32472.32
715.125	32254.25
715.469	32357.52
715.812	32146.68
716.156	32028.04
716.499	32143.07
716.843	32189.39
717.186	31928.38
717.53	32007.03
717.873	32156.4
718.216	31934.03
718.559	31745.34
718.902	31642.52
719.246	31696.98
719.589	31615.17
719.932	31505.8
720.275	31496.3
720.617	31447.49
720.96	31427.15
721.303	31394.16
721.646	31426.02
721.989	31155.97
722.331	31283.2
722.674	31150.55
723.016	31240.94
723.359	31147.39
723.701	31047.05
724.044	30803.89
724.386	30846.38
724.729	30824.68
725.071	30764.8
725.413	30712.37
725.755	30598.25
726.097	30629.21
726.439	30320.06
726.782	30373.17
727.124	30603.45
727.465	30397.12
727.807	30291.14
728.149	30377.01
728.491	30249.56
728.833	30372.04
729.175	30163.46
729.516	30061.99
729.858	30097.92
730.199	30113.29
730.541	30067.87
730.882	29982.67
731.224	30182.67
731.565	29894.31
731.906	29858.16
732.248	29843.24
732.589	29621.1
732.93	29654.55
733.271	29579.74
733.612	29619.07
733.953	29784.49
734.294	29496.58
734.635	29463.59
734.976	29638.73
735.317	29407.77
735.658	29402.57
735.999	29433.99
736.339	29279.64
736.68	29402.8
737.021	29263.37
737.361	29212.07
737.702	29290.94
738.042	29148.12
738.383	29018.4
738.723	29174.11
739.063	29044.62
739.404	29099.98
739.744	28911.29
740.084	28795.81
740.424	28904.28
740.764	28758.52
741.104	28921.01
741.444	28646.66
741.784	28635.14
742.124	28688.02
742.464	28593.33
742.804	28531.41
743.143	28423.62
743.483	28529.83
743.823	28395.37
744.162	28374.58
744.502	28353.34
744.841	28235.37
745.181	28391.75
745.52	28128.94
745.86	28277.86
746.199	28045.55
746.538	28150.63
746.877	28133.23
747.216	28201.02
747.556	28141.82
747.895	28033.12
748.234	28010.07
748.573	27992.89
748.911	27860.47
749.25	27843.29
749.589	27777.08
749.928	27805.33
750.267	27851.65
750.605	27653.02
750.944	27636.07
751.283	27570.31
751.621	27649.17
751.96	27441.27
752.298	27473.59
752.636	27435.62
752.975	27244.21
753.313	27204.21
753.651	27367.83
753.989	27161.73
754.327	27120.6
754.666	26968.74
755.004	27092.8
755.342	27056.2
755.679	27003.32
756.017	26783.21
756.355	26990.43
756.693	26760.38
757.031	26853.26
757.368	26604.46
757.706	26656.21
758.044	26610.11
758.381	26713.15
758.719	26501.63
759.056	26439.71
759.394	26339.15
759.731	26235.65
760.068	26217.8
760.405	26130.8
760.743	26001.53
761.08	26143.45
761.417	25947.07
