Data from hue_200_FLMS001491_00088.txt Node
Date: Tue Feb 07 16:44:04 GMT 2017
User: dcchb
Spectrometer: FLMS00149
Trigger mode: 0
Integration Time (sec): 2.000000E-2
Scans to average: 10
Electric dark correction enabled: true
Nonlinearity correction enabled: false
Boxcar width: 0
XAxis mode: Wavelengths
Number of Pixels in Spectrum: 2048
>>>>>Begin Spectral Data<<<<<
341.393	-5.35
341.776	-5.35
342.16	-5.35
342.543	-66.59
342.927	-70.66
343.31	-60.49
343.693	-80.38
344.077	-66.59
344.46	-71.11
344.843	-67.72
345.226	-36.09
345.61	-31.34
345.993	-12.58
346.376	4.59
346.759	14.76
347.142	49.56
347.525	52.27
347.908	29
348.291	76
348.674	99.73
349.057	100.41
349.44	140.18
349.823	151.71
350.206	150.12
350.588	180.4
350.971	208.88
351.354	196.22
351.737	243.23
352.119	241.87
352.502	252.49
352.884	279.84
353.267	265.15
353.65	293.4
354.032	299.5
354.414	309.44
354.797	308.54
355.179	308.09
355.562	328.2
355.944	341.3
356.326	334.07
356.709	325.49
357.091	323.45
357.473	342.89
357.855	336.56
358.238	339.72
358.62	351.47
359.002	332.04
359.384	334.98
359.766	340.63
360.148	341.98
360.53	346.95
360.912	328.2
361.294	314.86
361.676	337.69
362.057	318.71
362.439	334.98
362.821	321.19
363.203	310.57
363.584	331.14
363.966	341.76
364.348	322.77
364.729	319.61
365.111	320.74
365.493	309.67
365.874	310.57
366.256	313.28
366.637	329.33
367.019	336.56
367.4	335.2
367.781	322.77
368.163	314.41
368.544	313.51
368.925	306.05
369.306	316.45
369.688	312.6
370.069	335.43
370.45	324.81
370.831	321.87
371.212	308.31
371.593	312.6
371.974	306.5
372.355	295.66
372.736	320.29
373.117	335.43
373.498	315.09
373.879	324.36
374.26	333.4
374.641	306.05
375.021	329.55
375.402	305.6
375.783	317.35
376.163	330.46
376.544	328.42
376.925	329.78
377.305	321.19
377.686	325.03
378.066	344.69
378.447	340.17
378.827	339.5
379.208	325.03
379.588	312.15
379.968	334.75
380.349	335.66
380.729	329.33
381.109	342.89
381.489	324.81
381.87	344.69
382.25	334.3
382.63	322.77
383.01	334.3
383.39	339.95
383.77	355.77
384.15	340.17
384.53	341.53
384.91	346.73
385.29	351.25
385.67	337.24
386.049	363.9
386.429	349.21
386.809	360.97
387.189	365.48
387.568	368.87
387.948	341.08
388.328	366.61
388.707	351.7
389.087	360.06
389.466	377.69
389.846	374.52
390.225	362.32
390.605	387.63
390.984	367.97
391.363	391.25
391.743	380.63
392.122	374.07
392.501	381.3
392.881	392.38
393.26	393.51
393.639	388.76
394.018	389.66
394.397	393.96
394.776	388.76
395.155	375.2
395.534	404.58
395.913	388.76
396.292	397.12
396.671	407.74
397.05	394.86
397.429	429.21
397.808	405.94
398.186	423.11
398.565	402.09
398.944	402.55
399.323	414.97
399.701	408.87
400.08	424.47
400.458	424.47
400.837	422.43
401.215	427.86
401.594	439.61
401.972	433.05
402.351	404.35
402.729	443.67
403.107	433.28
403.486	443.67
403.864	443
404.242	460.85
404.62	462.43
404.999	475.31
405.377	464.69
405.755	464.47
406.133	468.08
406.511	459.27
406.889	488.42
407.267	503.11
407.645	493.39
408.023	509.21
408.401	500.4
408.779	484.8
409.156	524.58
409.534	532.49
409.912	526.16
410.29	527.06
410.667	547.63
411.045	542.66
411.422	563.22
411.8	563.45
412.178	583.11
412.555	616.78
412.933	593.5
413.31	627.85
413.687	627.4
414.065	614.29
414.442	651.58
414.819	640.73
415.197	688.64
415.574	654.97
415.951	691.13
416.328	681.41
416.705	702.2
417.082	722.54
417.46	720.28
417.837	741.07
418.214	738.13
418.591	740.84
418.967	737.68
419.344	762.08
419.721	788.52
420.098	777.23
420.475	777.9
420.852	807.28
421.228	825.36
421.605	836.43
421.982	862.42
422.358	847.73
422.735	871.46
423.111	885.02
423.488	895.41
423.864	913.94
424.241	969.08
424.617	959.37
424.994	966.37
425.37	963.21
425.746	997.33
426.123	1007.73
426.499	1045.01
426.875	1045.92
427.251	1063.55
427.627	1065.13
428.003	1104.22
428.379	1119.59
428.756	1108.52
429.132	1149.87
429.507	1155.29
429.883	1171.57
430.259	1184.9
430.635	1167.5
431.011	1193.26
431.387	1222.41
431.763	1255.63
432.138	1275.29
432.514	1264.9
432.89	1284.56
433.265	1342.18
433.641	1315.52
434.016	1366.14
434.392	1413.37
434.767	1419.02
435.143	1463.99
435.518	1455.4
435.894	1507.38
436.269	1540.14
436.644	1556.41
437.02	1574.49
437.395	1598.45
437.77	1637.32
438.145	1641.61
438.52	1690.42
438.895	1746.69
439.271	1757.54
439.646	1805.9
440.021	1794.15
440.395	1819.23
440.77	1822.62
441.145	1868.27
441.52	1912.11
441.895	1875.05
442.27	1934.93
442.645	1949.85
443.019	1996.63
443.394	2000.02
443.769	2039.11
444.143	2003.63
444.518	2072.78
444.892	2049.28
445.267	2099.45
445.641	2125.89
446.016	2118.21
446.39	2156.4
446.764	2168.6
447.139	2200.92
447.513	2215.61
447.887	2229.16
448.262	2270.52
448.636	2245.89
449.01	2258.77
449.384	2330.63
449.758	2295.6
450.132	2337.41
450.506	2372.89
450.88	2395.04
451.254	2392.1
451.628	2420.12
452.002	2468.71
452.376	2497.63
452.75	2483.85
453.123	2497.18
453.497	2583.73
453.871	2596.61
454.244	2622.37
454.618	2599.55
454.992	2678.42
455.365	2641.13
455.739	2752.77
456.112	2800.22
456.486	2791.64
456.859	2759.55
457.232	2879.54
457.606	2890.62
457.979	2905.08
458.352	2967
458.725	3005.64
459.099	3014
459.472	3076.83
459.845	3110.05
460.218	3119.76
460.591	3145.75
460.964	3120.67
461.337	3263.04
461.71	3287.22
462.083	3318.85
462.456	3385.07
462.829	3362.92
463.201	3412.18
463.574	3453.99
463.947	3525.63
464.32	3574.67
464.692	3575.8
465.065	3603.82
465.438	3662.35
465.81	3718.62
466.183	3752.51
466.555	3820.08
466.928	3802.46
467.3	3840.2
467.672	3908.89
468.045	4052.62
468.417	3986.18
468.789	4077.25
469.161	4145.5
469.534	4110.92
469.906	4274.53
470.278	4277.92
470.65	4291.26
471.022	4405.38
471.394	4457.35
471.766	4512.95
472.138	4582.32
472.51	4673.39
472.882	4687.86
473.253	4727.86
473.625	4809.66
473.997	4882.88
474.369	4961.52
474.74	4969.21
475.112	5045.36
475.484	5170.78
475.855	5216.66
476.227	5288.97
476.598	5436.09
476.97	5456.2
477.341	5563.77
477.713	5633.59
478.084	5634.27
478.455	5854.15
478.827	5818.45
479.198	5964.21
479.569	5986.58
479.94	6168.04
480.311	6145.45
480.682	6331.88
481.053	6454.36
481.424	6558.32
481.795	6519.22
482.166	6673.34
482.537	6761.25
482.908	6852.09
483.279	6937.29
483.65	7044.63
484.021	7206.21
484.391	7244.4
484.762	7289.6
485.133	7322.59
485.503	7382.25
485.874	7589.7
486.244	7656.59
486.615	7800.54
486.985	7811.62
487.356	7974.32
487.726	8013.19
488.097	8223.13
488.467	8186.3
488.837	8342.22
489.207	8490.24
489.578	8557.59
489.948	8610.47
490.318	8715.32
490.688	8708.77
491.058	8808.43
491.428	8908.08
491.798	8988.99
492.168	9150.56
492.538	9121.64
492.908	9263.33
493.278	9319.15
493.648	9382.65
494.017	9404.8
494.387	9488.86
494.757	9551.91
495.126	9674.17
495.496	9672.36
495.866	9683.43
496.235	9842.07
496.605	9937.66
496.974	9923.65
497.344	10015.4
497.713	10091.1
498.082	10200.03
498.452	10171.78
498.821	10226.69
499.19	10146.02
499.559	10330.19
499.928	10303.75
500.298	10399.57
500.667	10440.02
501.036	10373.36
501.405	10540.13
501.774	10473.92
502.143	10481.83
502.512	10534.03
502.88	10617.64
503.249	10609.74
503.618	10701.03
503.987	10716.85
504.356	10685.44
504.724	10739
505.093	10748.26
505.462	10820.13
505.83	10873.91
506.199	10802.95
506.567	10987.13
506.936	10907.13
507.304	11053.79
507.672	11010.4
508.041	11036.16
508.409	11111.87
508.777	11181.92
509.145	11170.17
509.514	11237.97
509.882	11294.46
510.25	11197.74
510.618	11245.42
510.986	11278.64
511.354	11307.57
511.722	11329.04
512.09	11394.57
512.458	11341.24
512.826	11397.06
513.193	11491.29
513.561	11389.83
513.929	11535.13
514.297	11498.75
514.664	11565.42
515.032	11507.11
515.4	11571.97
515.767	11539.65
516.135	11595.25
516.502	11504.85
516.869	11680.22
517.237	11613.32
517.604	11605.87
517.972	11669.14
518.339	11761.34
518.706	11640.44
519.073	11704.4
519.44	11730.16
519.808	11725.19
520.175	11749.37
520.542	11822.13
520.909	11818.52
521.276	11694.9
521.643	11779.65
522.009	11849.25
522.376	11783.26
522.743	11828.46
523.11	11943.49
523.477	11985.52
523.843	11963.82
524.21	12014.44
524.577	11959.53
524.943	12015.8
525.31	11985.07
525.676	12022.81
526.043	12016.93
526.409	12038.62
526.776	12080.66
527.142	12027.1
527.508	12027.55
527.874	11977.16
528.241	12068.45
528.607	12028.23
528.973	12035.91
529.339	12036.36
529.705	12050.6
530.071	12054.22
530.437	12022.81
530.803	12009.02
531.169	11985.29
531.535	11905.29
531.901	11931.06
532.267	11843.15
532.632	11904.84
532.998	11838.18
533.364	11830.95
533.73	11862.13
534.095	11866.43
534.461	11803.6
534.826	11846.76
535.192	11790.5
535.557	11753.89
535.923	11656.94
536.288	11720.44
536.653	11760.21
537.019	11622.14
537.384	11650.16
537.749	11496.72
538.114	11478.64
538.479	11487.9
538.845	11508.69
539.21	11347.57
539.575	11303.95
539.94	11328.59
540.305	11313.22
540.67	11279.1
541.034	11156.39
541.399	11196.39
541.764	11055.15
542.129	11127.46
542.494	11071.87
542.858	11046.33
543.223	10954.13
543.587	11015.6
543.952	10893.12
544.316	10858.32
544.681	10784.19
545.045	10787.36
545.41	10760.01
545.774	10734.93
546.138	10764.08
546.503	10653.12
546.867	10554.82
547.231	10613.35
547.595	10476.41
547.959	10493.35
548.324	10410.87
548.688	10393.24
549.052	10431.66
549.416	10366.8
549.779	10226.24
550.143	10296.52
550.507	10215.4
550.871	10212.23
551.235	10155.28
551.599	10135.4
551.962	10078.22
552.326	10069.18
552.689	10061.95
553.053	9913.71
553.417	9951
553.78	9982.41
554.143	9907.61
554.507	9914.84
554.87	9821.28
555.234	9893.6
555.597	9762.3
555.96	9807.95
556.323	9759.14
556.686	9744.22
557.05	9704.22
557.413	9658.57
557.776	9595.75
558.139	9645.24
558.502	9648.4
558.865	9684.11
559.228	9608.86
559.59	9569.76
559.953	9529.31
560.316	9599.37
560.679	9582.19
561.041	9605.02
561.404	9571.34
561.767	9604.56
562.129	9483.66
562.492	9619.93
562.854	9486.37
563.217	9481.63
563.579	9538.35
563.941	9560.5
564.304	9509.88
564.666	9497.9
565.028	9528.41
565.39	9540.61
565.753	9560.05
566.115	9551.01
566.477	9536.09
566.839	9512.14
567.201	9530.67
567.563	9523.21
567.925	9598.91
568.287	9649.76
568.648	9493.15
569.01	9550.55
569.372	9618.12
569.734	9541.06
570.095	9613.38
570.457	9624.22
570.819	9625.58
571.18	9607.05
571.542	9630.55
571.903	9579.25
572.265	9635.07
572.626	9608.41
572.987	9624.45
573.349	9605.47
573.71	9653.15
574.071	9587.84
574.432	9571.57
574.794	9649.76
575.155	9701.74
575.516	9613.38
575.877	9656.09
576.238	9607.05
576.599	9668.97
576.96	9708.97
577.32	9611.8
577.681	9633.49
578.042	9698.12
578.403	9709.65
578.763	9641.17
579.124	9645.24
579.485	9715.3
579.845	9776.54
580.206	9698.57
580.566	9675.07
580.927	9695.86
581.287	9734.05
581.648	9593.26
582.008	9693.15
582.368	9754.62
582.728	9676.2
583.089	9666.03
583.449	9669.42
583.809	9695.86
584.169	9643.21
584.529	9620.38
584.889	9684.11
585.249	9541.97
585.609	9603.89
585.969	9604.11
586.329	9659.03
586.688	9626.26
587.048	9691.79
587.408	9695.18
587.768	9665.35
588.127	9605.92
588.487	9607.73
588.846	9605.24
589.206	9605.24
589.565	9518.24
589.925	9565.24
590.284	9608.41
590.643	9595.75
591.003	9556.2
591.362	9546.49
591.721	9590.33
592.08	9593.94
592.44	9621.51
592.799	9573.83
593.158	9554.85
593.517	9515.75
593.876	9619.48
594.235	9585.13
594.593	9524.34
594.952	9573.38
595.311	9472.59
595.67	9509.43
596.029	9492.02
596.387	9573.15
596.746	9539.93
597.104	9598.46
597.463	9518.69
597.822	9575.41
598.18	9503.32
598.538	9487.73
598.897	9481.18
599.255	9448.18
599.613	9462.65
599.972	9559.14
600.33	9521.85
600.688	9486.37
601.046	9550.55
601.404	9547.16
601.762	9581.06
602.12	9562.98
602.478	9567.95
602.836	9553.04
603.194	9451.35
603.552	9467.62
603.91	9475.3
604.268	9471.91
604.625	9407.73
604.983	9515.3
605.341	9484.57
605.698	9461.52
606.056	9500.39
606.413	9452.03
606.771	9428.52
607.128	9578.8
607.485	9461.06
607.843	9502.19
608.2	9520.95
608.557	9560.95
608.914	9465.36
609.272	9560.27
609.629	9582.19
609.986	9569.54
610.343	9599.14
610.7	9608.63
611.057	9550.33
611.414	9606.37
611.771	9606.82
612.127	9622.87
612.484	9632.81
612.841	9565.92
613.198	9599.14
613.554	9635.75
613.911	9671.45
614.267	9600.04
614.624	9624.45
614.98	9645.47
615.337	9660.61
615.693	9688.63
616.05	9651.57
616.406	9652.92
616.762	9678.46
617.118	9670.55
617.475	9633.04
617.831	9705.13
618.187	9644.79
618.543	9703.32
618.899	9690.66
619.255	9716.65
619.611	9690.44
619.967	9714.62
620.323	9711
620.678	9693.83
621.034	9695.63
621.39	9714.62
621.746	9683.88
622.101	9816.54
622.457	9717.56
622.812	9745.35
623.168	9674.17
623.523	9723.43
623.879	9727.27
624.234	9730.66
624.589	9769.76
624.945	9698.57
625.3	9739.7
625.655	9760.04
626.01	9750.1
626.365	9684.79
626.72	9709.42
627.075	9729.76
627.43	9692.92
627.785	9683.21
628.14	9760.27
628.495	9655.86
628.85	9700.83
629.205	9664.22
629.559	9700.38
629.914	9594.85
630.269	9669.87
630.623	9644.34
630.978	9669.19
631.332	9715.75
631.687	9681.85
632.041	9616.31
632.396	9607.95
632.75	9581.74
633.104	9632.13
633.459	9518.46
633.813	9525.92
634.167	9588.07
634.521	9518.24
634.875	9520.05
635.229	9522.31
635.583	9437.79
635.937	9461.06
636.291	9443.21
636.645	9486.6
636.999	9391.91
637.352	9419.03
637.706	9402.76
638.06	9439.82
638.413	9417
638.767	9285.7
639.121	9359.37
639.474	9354.17
639.828	9254.29
640.181	9309.66
640.534	9359.82
640.888	9291.8
641.241	9290
641.594	9218.81
641.947	9307.85
642.301	9289.77
642.654	9328.86
643.007	9277.11
643.36	9251.13
643.713	9302.42
644.066	9280.96
644.419	9210.9
644.771	9173.84
645.124	9061.08
645.477	9035.77
645.83	9000.74
646.182	8977.91
646.535	8905.37
646.888	8934.75
647.24	8888.65
647.593	9004.13
647.945	8961.42
648.298	8929.1
648.65	8919.84
649.002	8855.88
649.355	8949.21
649.707	9012.26
650.059	8926.39
650.411	9113.05
650.763	9091.58
651.115	9192.15
651.467	9148.76
651.819	9154.18
652.171	9162.09
652.523	9146.95
652.875	9136.1
653.227	9071.92
653.578	9148.98
653.93	9099.72
654.282	9099.04
654.633	9087.97
654.985	9058.82
655.337	9073.73
655.688	9127.74
656.039	9173.61
656.391	9117.57
656.742	9097.23
657.094	9152.82
657.445	9115.76
657.796	9088.42
658.147	9081.87
658.498	9097.68
658.849	9149.89
659.2	9130.9
659.551	9066.95
659.902	9146.95
660.253	9128.19
660.604	9089.32
660.955	9073.73
661.306	9169.1
661.656	9145.59
662.007	9201.86
662.358	9185.14
662.708	9163.67
663.059	9133.16
663.409	9117.8
663.76	9225.36
664.11	9214.07
664.461	9233.73
664.811	9168.42
665.161	9165.25
665.511	9112.6
665.862	9185.59
666.212	9223.1
666.562	9224.91
666.912	9176.78
667.262	9167.06
667.612	9240.96
667.962	9156.67
668.312	9163.67
668.662	9227.17
669.011	9193.5
669.361	9192.6
669.711	9194.86
670.06	9167.29
670.41	9125.48
670.76	9141.75
671.109	9196.89
671.459	9103.56
671.808	9123.22
672.157	9151.47
672.507	9098.36
672.856	9129.55
673.205	9073.5
673.554	9109.21
673.904	9105.14
674.253	9174.97
674.602	9078.7
674.951	8955.09
675.3	8945.37
675.649	9081.87
675.998	9120.28
676.346	9080.06
676.695	9090
677.044	9005.71
677.393	9011.81
677.741	8996.67
678.09	9000.96
678.438	8981.98
678.787	8955.77
679.135	8978.82
679.484	8893.62
679.832	8954.41
680.181	8813.85
680.529	8896.79
680.877	8877.13
681.225	8867.86
681.573	8915.77
681.922	8867.63
682.27	8806.62
682.618	8758.48
682.966	8805.49
683.314	8763.91
683.661	8832.83
684.009	8680.75
684.357	8743.12
684.705	8694.98
685.053	8730.46
685.4	8704.02
685.748	8644.82
686.095	8607.53
686.443	8647.53
686.79	8541.54
687.138	8601.43
687.485	8563.69
687.832	8623.35
688.18	8564.14
688.527	8495.89
688.874	8454.09
689.221	8398.72
689.568	8436.68
689.915	8386.29
690.262	8429.45
690.609	8356.46
690.956	8332.96
691.303	8284.6
691.65	8311.49
691.997	8273.98
692.344	8182.68
692.69	8193.98
693.037	8171.61
693.383	8047.54
693.73	8179.97
694.077	8109.91
694.423	8094.77
694.769	8002.12
695.116	8017.94
695.462	8017.26
695.808	7958.73
696.155	8023.59
696.501	7914.44
696.847	7837.38
697.193	7840.09
697.539	7874.44
697.885	7832.41
698.231	7749.02
698.577	7721.68
698.923	7701.56
699.269	7737.27
699.614	7616.59
699.96	7631.51
700.306	7674.22
700.651	7576.82
700.997	7527.78
701.342	7569.82
701.688	7538.86
702.033	7529.36
702.379	7443.49
702.724	7448.46
703.069	7457.95
703.415	7286.88
703.76	7332.31
704.105	7302.48
704.45	7295.7
704.795	7217.28
705.14	7272.65
705.485	7259.31
705.83	7199.88
706.175	7179.77
706.52	7169.15
706.865	7192.42
707.209	7068.36
707.554	7026.55
707.899	7066.55
708.243	7085.31
708.588	7030.85
708.932	7032.43
709.277	6984.97
709.621	6991.07
709.966	6934.13
710.31	6929.83
710.654	6892.77
710.998	6914.69
711.342	6904.07
711.687	6857.07
712.031	6845.54
712.375	6811.64
712.719	6822.72
713.063	6794.92
713.407	6801.7
713.75	6791.76
714.094	6767.35
714.438	6733.9
714.782	6671.53
715.125	6693.23
715.469	6725.32
715.812	6639.44
716.156	6643.96
716.499	6667.01
716.843	6654.13
717.186	6698.88
717.53	6638.54
717.873	6713.34
718.216	6624.98
718.559	6596.28
718.902	6530.75
719.246	6628.82
719.589	6574.59
719.932	6559.9
720.275	6513.12
720.617	6570.07
720.96	6561.93
721.303	6501.59
721.646	6565.55
721.989	6519.45
722.331	6503.63
722.674	6511.31
723.016	6536.17
723.359	6508.6
723.701	6479.22
724.044	6476.06
724.386	6389.96
724.729	6462.27
725.071	6449.84
725.413	6462.05
725.755	6450.07
726.097	6398.09
726.439	6418.66
726.782	6408.49
727.124	6451.65
727.465	6412.56
727.807	6400.58
728.149	6424.08
728.491	6413.46
728.833	6368.72
729.175	6364.42
729.516	6402.84
729.858	6405.33
730.199	6453.01
730.541	6360.81
730.882	6400.58
731.224	6443.52
731.565	6333.24
731.906	6422.5
732.248	6446
732.589	6384.31
732.93	6365.55
733.271	6392.44
733.612	6400.81
733.953	6411.43
734.294	6398.32
734.635	6349.28
734.976	6379.56
735.317	6345.21
735.658	6356.74
735.999	6420.47
736.339	6390.41
736.68	6446.23
737.021	6380.47
737.361	6359.45
737.702	6491.88
738.042	6384.31
738.383	6440.13
738.723	6464.76
739.063	6429.96
739.404	6431.09
739.744	6422.95
740.084	6473.8
740.424	6419.11
740.764	6457.3
741.104	6492.56
741.444	6505.66
741.784	6496.4
742.124	6544.76
742.464	6533.68
742.804	6583.4
743.143	6599.22
743.483	6568.49
743.823	6570.52
744.162	6570.52
744.502	6596.51
744.841	6663.85
745.181	6711.53
745.52	6693.23
745.86	6774.58
746.199	6731.87
746.538	6804.19
746.877	6842.6
747.216	6912.43
747.556	6945.65
747.895	7032.65
748.234	7028.36
748.573	7040.79
748.911	7138.41
749.25	7197.17
749.589	7250.5
749.928	7275.59
750.267	7358.07
750.605	7424.06
750.944	7476.71
751.283	7533.88
751.621	7605.29
751.96	7740.21
752.298	7788.34
752.636	7852.29
752.975	8055.23
753.313	8043.47
753.651	8205.73
753.989	8300.87
754.327	8365.05
754.666	8458.61
755.004	8609.34
755.342	8770.91
755.679	8882.55
756.017	9052.49
756.355	9154.86
756.693	9269.43
757.031	9447.28
757.368	9545.13
757.706	9599.59
758.044	9849.08
758.381	10005.01
758.719	10167.26
759.056	10390.08
759.394	10527.93
759.731	10661.71
760.068	10784.42
760.405	11012.44
760.743	11127.91
761.08	11297.17
761.417	11508.92
761.754	11684.28
762.091	11864.17
762.428	11996.59
762.765	12162.69
763.102	12410.82
763.438	12554.77
763.775	12689
764.112	12959.5
764.449	13164.47
764.785	13224.13
765.122	13437.46
765.458	13641.97
765.795	13692.37
