Data from hue_190_FLMS001491_00022.txt Node
Date: Tue Feb 07 16:45:03 GMT 2017
User: dcchb
Spectrometer: FLMS00149
Trigger mode: 0
Integration Time (sec): 2.000000E-2
Scans to average: 10
Electric dark correction enabled: true
Nonlinearity correction enabled: false
Boxcar width: 0
XAxis mode: Wavelengths
Number of Pixels in Spectrum: 2048
>>>>>Begin Spectral Data<<<<<
341.393	-2.67
341.776	-2.67
342.16	-2.67
342.543	-47.64
342.927	-64.36
343.31	-90.35
343.693	-59.62
344.077	-80.18
344.46	-58.71
344.843	-50.8
345.226	-45.61
345.61	-11.93
345.993	-39.96
346.376	9.08
346.759	11.34
347.142	15.86
347.525	58.8
347.908	60.15
348.291	68.52
348.674	107.84
349.057	105.58
349.44	113.03
349.823	144.67
350.206	165.01
350.588	179.92
350.971	213.82
351.354	233.03
351.737	245.91
352.119	252.24
352.502	244.33
352.884	276.42
353.267	267.61
353.65	305.12
354.032	296.08
354.414	298.11
354.797	293.14
355.179	328.62
355.562	308.28
355.944	339.69
356.326	303.54
356.709	311.9
357.091	326.81
357.473	320.94
357.855	335.85
358.238	327.27
358.62	329.07
359.002	332.46
359.384	347.83
359.766	333.59
360.148	337.89
360.53	345.12
360.912	321.16
361.294	329.53
361.676	329.3
362.057	321.84
362.439	308.73
362.821	329.53
363.203	338.56
363.584	317.1
363.966	328.17
364.348	300.37
364.729	300.6
365.111	303.99
365.493	313.71
365.874	294.27
366.256	289.07
366.637	297.66
367.019	308.96
367.4	304.67
367.781	304.67
368.163	310.77
368.544	314.38
368.925	297.66
369.306	304.22
369.688	313.25
370.069	307.6
370.45	297.44
370.831	282.75
371.212	311.9
371.593	291.33
371.974	301.96
372.355	301.73
372.736	299.7
373.117	317.77
373.498	310.54
373.879	329.98
374.26	287.72
374.641	305.8
375.021	307.38
375.402	323.2
375.783	310.09
376.163	307.83
376.544	304.44
376.925	308.28
377.305	322.29
377.686	327.27
378.066	327.27
378.447	315.29
378.827	304.44
379.208	313.25
379.588	321.39
379.968	320.94
380.349	332.24
380.729	320.03
381.109	310.99
381.489	318
381.87	313.25
382.25	319.36
382.63	319.58
383.01	330.88
383.39	331.11
383.77	339.92
384.15	333.14
384.53	338.34
384.91	328.62
385.29	332.01
385.67	340.6
386.049	362.97
386.429	330.66
386.809	348.06
387.189	339.02
387.568	331.11
387.948	349.86
388.328	346.25
388.707	331.56
389.087	327.49
389.466	340.15
389.846	334.95
390.225	341.05
390.605	365.68
390.984	350.77
391.363	364.1
391.743	359.13
392.122	360.03
392.501	369.07
392.881	362.74
393.26	363.2
393.639	368.85
394.018	350.54
394.397	381.73
394.776	368.17
395.155	381.5
395.534	363.2
395.913	364.55
396.292	383.99
396.671	383.08
397.05	368.62
397.429	351.67
397.808	370.65
398.186	375.63
398.565	386.7
398.944	371.56
399.323	384.89
399.701	381.28
400.08	387.38
400.458	384.67
400.837	399.81
401.215	403.42
401.594	411.11
401.972	413.59
402.351	407.04
402.729	407.49
403.107	411.78
403.486	398.22
403.864	418.34
404.242	405.68
404.62	409.52
404.999	445.45
405.377	395.74
405.755	429.86
406.133	424.44
406.511	430.31
406.889	447.04
407.267	439.58
407.645	462.4
408.023	470.76
408.401	457.66
408.779	467.83
409.156	478.9
409.534	478.22
409.912	493.59
410.29	516.19
410.667	492.91
411.045	498.33
411.422	517.77
411.8	530.65
412.178	531.33
412.555	542.85
412.933	539.01
413.31	553.02
413.687	544.89
414.065	575.17
414.442	562.29
414.819	593.47
415.197	581.04
415.574	589.41
415.951	606.81
416.328	619.69
416.705	611.33
417.082	615.39
417.46	627.6
417.837	641.38
418.214	655.17
418.591	686.58
418.967	662.17
419.344	661.27
419.721	681.15
420.098	710.08
420.475	720.25
420.852	726.35
421.228	723.64
421.605	727.03
421.982	767.48
422.358	782.62
422.735	771.55
423.111	792.79
423.488	801.15
423.864	819.23
424.241	833.92
424.617	848.83
424.994	864.2
425.37	851.77
425.746	872.79
426.123	891.77
426.499	907.82
426.875	934.71
427.251	948.04
427.627	935.61
428.003	942.62
428.379	960.24
428.756	987.59
429.132	991.43
429.507	1008.6
429.883	1002.73
430.259	1013.58
430.635	1002.5
431.011	1060.81
431.387	1077.3
431.763	1094.02
432.138	1080.69
432.514	1119.79
432.89	1129.05
433.265	1159.79
433.641	1181.48
434.016	1163.63
434.392	1197.07
434.767	1252.21
435.143	1236.39
435.518	1272.78
435.894	1299.9
436.269	1291.76
436.644	1330.4
437.02	1350.74
437.395	1395.49
437.77	1370.63
438.145	1426.9
438.52	1435.26
438.895	1445.88
439.271	1457.18
439.646	1501.7
440.021	1536.73
440.395	1555.48
440.77	1567.23
441.145	1580.11
441.52	1597.06
441.895	1600.9
442.27	1653.33
442.645	1651.07
443.019	1699.43
443.394	1678.87
443.769	1712.54
444.143	1716.61
444.518	1742.37
444.892	1771.75
445.267	1766.32
445.641	1772.2
446.016	1802.71
446.39	1824.63
446.764	1824.4
447.139	1850.39
447.513	1844.74
447.887	1862.37
448.262	1904.85
448.636	1881.12
449.01	1931.52
449.384	1922.93
449.758	1929.71
450.132	1985.98
450.506	1968.58
450.88	2010.84
451.254	2022.36
451.628	2040.21
452.002	2064.39
452.376	2119.08
452.75	2146.43
453.123	2119.08
453.497	2163.38
453.871	2175.13
454.244	2234.56
454.618	2238.4
454.992	2253.54
455.365	2296.93
455.739	2334.44
456.112	2325.63
456.486	2346.2
456.859	2399.53
457.232	2420.54
457.606	2411.5
457.979	2498.06
458.352	2529.69
458.725	2535.79
459.099	2538.73
459.472	2602.01
459.845	2643.59
460.218	2626.41
460.591	2692.63
460.964	2677.26
461.337	2745.96
461.71	2812.4
462.083	2816.24
462.456	2851.94
462.829	2887.88
463.201	2922.45
463.574	2900.08
463.947	2931.94
464.32	3042.67
464.692	3057.82
465.065	3105.27
465.438	3154.08
465.81	3154.76
466.183	3234.99
466.555	3280.86
466.928	3292.39
467.3	3298.71
467.672	3378.71
468.045	3415.55
468.417	3474.53
468.789	3486.96
469.161	3543.45
469.534	3577.8
469.906	3679.27
470.278	3688.53
470.65	3742.77
471.022	3816.67
471.394	3876.78
471.766	3905.93
472.138	3933.5
472.51	4068.86
472.882	4133.04
473.253	4141.85
473.625	4207.84
473.997	4304.11
474.369	4330.1
474.74	4427.04
475.112	4436.08
475.484	4571.45
475.855	4588.85
476.227	4666.13
476.598	4764.89
476.97	4803.08
477.341	4929.4
477.713	5022.74
478.084	5074.26
478.455	5185.67
478.827	5249.4
479.198	5391.31
479.569	5379.34
479.94	5554.92
480.311	5580.91
480.682	5718.99
481.053	5865.65
481.424	5947.68
481.795	5998.08
482.166	6067.68
482.537	6165.3
482.908	6321.91
483.279	6397.84
483.65	6494.56
484.021	6612.07
484.391	6689.36
484.762	6730.94
485.133	6844.83
485.503	6899.75
485.874	7061.55
486.244	7115.56
486.615	7262
486.985	7353.07
487.356	7480.07
487.726	7563.69
488.097	7700.86
488.467	7752.61
488.837	7869.67
489.207	7998.93
489.578	8013.39
489.948	8137.23
490.318	8211.58
490.688	8300.39
491.058	8398.01
491.428	8524.56
491.798	8521.4
492.168	8813.6
492.538	8743.09
492.908	8795.97
493.278	8932.01
493.648	8963.87
494.017	9123.42
494.387	9186.02
494.757	9255.84
495.126	9292.68
495.496	9289.74
495.866	9352.56
496.235	9449.29
496.605	9540.81
496.974	9604.99
497.344	9683.4
497.713	9659.68
498.082	9774.47
498.452	9802.72
498.821	9846.34
499.19	9886.11
499.559	9955.03
499.928	10005.43
500.298	10035.48
500.667	10160.68
501.036	10054.92
501.405	10134.69
501.774	10104.64
502.143	10240.68
502.512	10249.49
502.88	10324.06
503.249	10334.23
503.618	10363.61
503.987	10384.18
504.356	10405.19
504.724	10406.55
505.093	10436.83
505.462	10464.63
505.83	10555.02
506.199	10557.28
506.567	10679.76
506.936	10654.9
507.304	10762.92
507.672	10707.78
508.041	10720.44
508.409	10748.69
508.777	10893.09
509.145	10921.79
509.514	10799.76
509.882	10837.95
510.25	10822.58
510.618	10886.76
510.986	10952.97
511.354	11017.38
511.722	10963.82
512.09	10968.12
512.458	11031.39
512.826	11049.47
513.193	11052.41
513.561	11123.82
513.929	11166.3
514.297	11178.51
514.664	11174.66
515.032	11185.96
515.4	11188.22
515.767	11137.6
516.135	11209.47
516.502	11047.44
516.869	11283.59
517.237	11231.39
517.604	11106.42
517.972	11207.21
518.339	11254.89
518.706	11166.75
519.073	11190.71
519.44	11149.35
519.808	11258.5
520.175	11159.52
520.542	11320.2
520.909	11267.09
521.276	11187.09
521.643	11251.72
522.009	11296.02
522.376	11265.96
522.743	11256.7
523.11	11351.16
523.477	11310.03
523.843	11336.92
524.21	11384.83
524.577	11383.25
524.943	11373.08
525.31	11366.98
525.676	11382.79
526.043	11324.26
526.409	11316.58
526.776	11404.04
527.142	11337.6
527.508	11381.89
527.874	11382.12
528.241	11329.24
528.607	11322.46
528.973	11305.28
529.339	11263.25
529.705	11254.44
530.071	11278.62
530.437	11305.51
530.803	11222.57
531.169	11211.72
531.535	11138.73
531.901	11130.15
532.267	11017.61
532.632	11077.49
532.998	11000.66
533.364	11035.23
533.73	10962.69
534.095	10967.66
534.461	10889.7
534.826	10931.05
535.192	10862.13
535.557	10797.05
535.923	10776.71
536.288	10727.9
536.653	10633.44
537.019	10559.09
537.384	10513.89
537.749	10549.37
538.114	10533.78
538.479	10357.28
538.845	10443.61
539.21	10271.18
539.575	10249.94
539.94	10241.58
540.305	10167.91
540.67	10157.06
541.034	10120
541.399	10056.05
541.764	10017.18
542.129	9994.58
542.494	9924.53
542.858	9918.2
543.223	9815.38
543.587	9828.26
543.952	9700.13
544.316	9624.87
544.681	9596.4
545.045	9604.76
545.41	9523.41
545.774	9458.55
546.138	9415.61
546.503	9334.49
546.867	9278.67
547.231	9292.68
547.595	9231.44
547.959	9150.76
548.324	9129.75
548.688	9088.62
549.052	9032.8
549.416	8992.35
549.779	8947.6
550.143	8858.57
550.507	8892.24
550.871	8861.96
551.235	8732.47
551.599	8738.57
551.962	8790.32
552.326	8623.54
552.689	8667.61
553.053	8492.25
553.417	8491.12
553.78	8568.18
554.143	8364.57
554.507	8395.08
554.87	8367.51
555.234	8344.46
555.597	8242.76
555.96	8225.59
556.323	8241.18
556.686	8151.47
557.05	8181.3
557.413	8099.04
557.776	8133.84
558.139	8088.87
558.502	7988.98
558.865	8020.62
559.228	7992.83
559.59	8004.58
559.953	7921.19
560.316	7971.58
560.679	7942.66
561.041	7954.18
561.404	7855.43
561.767	7897.91
562.129	7858.82
562.492	7847.52
562.854	7778.59
563.217	7780.63
563.579	7817.92
563.941	7818.37
564.304	7703.79
564.666	7825.6
565.028	7775.43
565.39	7680.29
565.753	7751.03
566.115	7669.45
566.477	7719.16
566.839	7735.88
567.201	7720.97
567.563	7630.58
567.925	7715.77
568.287	7617.7
568.648	7573.85
569.01	7608.66
569.372	7646.62
569.734	7666.96
570.095	7614.08
570.457	7595.77
570.819	7661.99
571.18	7556.68
571.542	7660.41
571.903	7563.46
572.265	7553.97
572.626	7574.31
572.987	7621.76
573.349	7538.6
573.71	7610.46
574.071	7539.73
574.432	7563.46
574.794	7635.1
575.155	7517.81
575.516	7487.98
575.877	7546.51
576.238	7553.74
576.599	7525.72
576.96	7525.04
577.32	7519.62
577.681	7506.96
578.042	7578.37
578.403	7499.96
578.763	7514.65
579.124	7521.43
579.485	7545.83
579.845	7494.76
580.206	7538.6
580.566	7482.78
580.927	7490.69
581.287	7510.58
581.648	7441.43
582.008	7445.27
582.368	7473.52
582.728	7419.06
583.089	7481.88
583.449	7388.55
583.809	7382.22
584.169	7401.88
584.529	7382
584.889	7396.46
585.249	7337.25
585.609	7357.14
585.969	7361.88
586.329	7318.72
586.688	7354.2
587.048	7274.65
587.408	7252.73
587.768	7238.04
588.127	7244.82
588.487	7210.7
588.846	7321.21
589.206	7238.04
589.565	7257.25
589.925	7274.88
590.284	7142.68
590.643	7215.67
591.003	7272.85
591.362	7230.36
591.721	7231.49
592.08	7181.1
592.44	7233.3
592.799	7171.38
593.158	7145.84
593.517	7168.89
593.876	7168.22
594.235	7137.26
594.593	7156.92
594.952	7097.03
595.311	7072.62
595.67	7077.14
596.029	7113.75
596.387	7148.1
596.746	7083.47
597.104	7068.56
597.463	7040.54
597.822	7102.23
598.18	7072.17
598.538	7055
598.897	7077.37
599.255	6962.8
599.613	7057.26
599.972	7012.06
600.33	7025.85
600.688	7030.59
601.046	7030.14
601.404	7075.11
601.762	7019.29
602.12	6989.01
602.478	6985.62
602.836	7020.42
603.194	6957.83
603.552	7015
603.91	6967.77
604.268	7009.8
604.625	6978.62
604.983	7034.21
605.341	6989.92
605.698	6984.27
606.056	6996.69
606.413	6947.43
606.771	6977.71
607.128	6989.92
607.485	6933.42
607.843	6999.63
608.2	6964.38
608.557	6993.53
608.914	6943.36
609.272	7017.48
609.629	7012.06
609.986	7039.63
610.343	6985.4
610.7	7045.28
611.057	7017.48
611.414	6975.45
611.771	7050.25
612.127	7019.29
612.484	7077.82
612.841	7045.96
613.198	6973.64
613.554	7001.44
613.911	7062.68
614.267	7081.66
614.624	7022.23
614.98	7027.43
615.337	7069.91
615.693	7023.13
616.05	7029.46
616.406	7085.73
616.762	7057.48
617.118	7047.54
617.475	7009.8
617.831	7053.19
618.187	7101.1
618.543	7057.48
618.899	7019.29
619.255	7059.07
619.611	7075.79
619.967	7098.39
620.323	7122.57
620.678	7137.48
621.034	7066.75
621.39	7037.37
621.746	7033.3
622.101	7065.39
622.457	7052.74
622.812	7067.2
623.168	7059.07
623.523	7060.87
623.879	7093.64
624.234	7068.56
624.589	7080.76
624.945	6999.86
625.3	7058.16
625.655	7089.12
626.01	7045.73
626.365	7033.53
626.72	7075.79
627.075	7016.13
627.43	7071.49
627.785	7063.59
628.14	7049.8
628.495	7036.69
628.85	7049.12
629.205	7041.67
629.559	7080.99
629.914	7016.13
630.269	7056.81
630.623	6961.44
630.978	6954.21
631.332	7043.7
631.687	7007.32
632.041	6922.57
632.396	7004.83
632.75	6964.38
633.104	6968.22
633.459	6939.97
633.813	6895.68
634.167	6957.6
634.521	6924.61
634.875	6894.78
635.229	6919.41
635.583	6898.17
635.937	6870.82
636.291	6899.97
636.645	6821.33
636.999	6870.6
637.352	6824.5
637.706	6785.63
638.06	6834.66
638.413	6835.57
638.767	6810.48
639.121	6795.12
639.474	6833.76
639.828	6757.15
640.181	6778.4
640.534	6806.42
640.888	6765.74
641.241	6736.14
641.594	6799.64
641.947	6743.37
642.301	6730.94
642.654	6753.09
643.007	6741.11
643.36	6716.7
643.713	6734.1
644.066	6765.29
644.419	6730.03
644.771	6668.34
645.124	6637.38
645.477	6634.22
645.83	6558.06
646.182	6495.69
646.535	6546.99
646.888	6558.51
647.24	6476.93
647.593	6540.21
647.945	6513.09
648.298	6547.67
648.65	6498.63
649.002	6478.52
649.355	6532.98
649.707	6538.63
650.059	6551.73
650.411	6593.99
650.763	6634.22
651.115	6709.92
651.467	6669.92
651.819	6715.35
652.171	6703.59
652.523	6682.8
652.875	6659.53
653.227	6618.85
653.578	6728.23
653.93	6639.42
654.282	6665.4
654.633	6664.95
654.985	6681
655.337	6632.86
655.688	6708.57
656.039	6697.27
656.391	6664.05
656.742	6736.59
657.094	6715.35
657.445	6753.31
657.796	6711.96
658.147	6708.79
658.498	6760.54
658.849	6777.04
659.2	6688
659.551	6720.32
659.902	6723.71
660.253	6758.28
660.604	6773.2
660.955	6621.34
661.306	6802.12
661.656	6728.45
662.007	6760.32
662.358	6732.29
662.708	6783.82
663.059	6762.58
663.409	6723.03
663.76	6818.62
664.11	6801.9
664.461	6777.04
664.811	6798.73
665.161	6824.72
665.511	6771.39
665.862	6784.95
666.212	6849.35
666.562	6793.31
666.912	6859.75
667.262	6848
667.612	6771.62
667.962	6859.97
668.312	6824.5
668.662	6832.41
669.011	6778.85
669.361	6758.96
669.711	6785.85
670.06	6751.5
670.41	6777.27
670.76	6781.11
671.109	6778.17
671.459	6810.48
671.808	6792.86
672.157	6784.95
672.507	6756.25
672.856	6765.51
673.205	6780.88
673.554	6742.46
673.904	6731.16
674.253	6734.78
674.602	6747.89
674.951	6635.12
675.3	6611.17
675.649	6694.1
675.998	6685.29
676.346	6727.1
676.695	6664.27
677.044	6659.53
677.393	6704.72
677.741	6693.2
678.09	6680.09
678.438	6673.77
678.787	6658.62
679.135	6618.63
679.484	6596.25
679.832	6583.6
680.181	6580.43
680.529	6572.52
680.877	6573.2
681.225	6566.65
681.573	6596.71
681.922	6557.84
682.27	6547.44
682.618	6490.72
682.966	6492.08
683.314	6540.66
683.661	6530.72
684.009	6445.07
684.357	6452.08
684.705	6494.11
685.053	6379.08
685.4	6422.7
685.748	6389.48
686.095	6388.12
686.443	6315.81
686.79	6308.8
687.138	6354.68
687.485	6361.23
687.832	6312.19
688.18	6337.05
688.527	6264.96
688.874	6278.75
689.221	6259.76
689.568	6216.6
689.915	6172.08
690.262	6181.57
690.609	6142.71
690.956	6178.64
691.303	6171.63
691.65	6087.34
691.997	6108.13
692.344	6129.82
692.69	6045.31
693.037	6097.28
693.383	5976.38
693.73	5935.48
694.077	5931.64
694.423	5962.82
694.769	5954.01
695.116	5949.72
695.462	5873.79
695.808	5835.6
696.155	5842.83
696.501	5826.1
696.847	5821.13
697.193	5783.62
697.539	5768.25
697.885	5759.21
698.231	5669.05
698.577	5696.16
698.923	5705.43
699.269	5639.22
699.614	5569.84
699.96	5543.85
700.306	5531.42
700.651	5503.85
700.997	5584.98
701.342	5521.03
701.688	5518.99
702.033	5488.94
702.379	5488.94
702.724	5459.11
703.069	5425.66
703.415	5322.61
703.76	5362.61
704.105	5359.45
704.45	5332.56
704.795	5302.28
705.14	5312.67
705.485	5347.92
705.83	5265.44
706.175	5264.54
706.52	5239.9
706.865	5259.34
707.209	5232.9
707.554	5196.74
707.899	5217.98
708.243	5136.86
708.588	5113.81
708.932	5097.54
709.277	5073.36
709.621	5162.84
709.966	5045.56
710.31	5096.41
710.654	5042.85
710.998	5039.23
711.342	5066.58
711.687	5023.19
712.031	4990.42
712.375	4997.43
712.719	4960.36
713.063	4981.38
713.407	4953.13
713.75	4983.41
714.094	4951.55
714.438	4942.29
714.782	4961.95
715.125	4931.89
715.469	4938.22
715.812	4894.38
716.156	4903.87
716.499	4879.01
716.843	4856.41
717.186	4851.44
717.53	4862.06
717.873	4886.02
718.216	4890.76
718.559	4822.74
718.902	4799.69
719.246	4838.33
719.589	4798.33
719.932	4809.63
720.275	4827.71
720.617	4782.06
720.96	4795.62
721.303	4776.19
721.646	4815.06
721.989	4786.13
722.331	4782.74
722.674	4749.75
723.016	4760.37
723.359	4742.06
723.701	4763.98
724.044	4756.3
724.386	4733.25
724.729	4755.85
725.071	4707.26
725.413	4747.49
725.755	4815.06
726.097	4759.47
726.439	4693.03
726.782	4720.14
727.124	4759.92
727.465	4716.53
727.807	4717.66
728.149	4754.04
728.491	4707.49
728.833	4726.92
729.175	4724.66
729.516	4722.4
729.858	4717.21
730.199	4744.78
730.541	4727.83
730.882	4754.95
731.224	4764.21
731.565	4731.9
731.906	4754.27
732.248	4763.53
732.589	4690.54
732.93	4713.14
733.271	4741.39
733.612	4728.51
733.953	4750.2
734.294	4744.1
734.635	4761.27
734.976	4788.39
735.317	4721.27
735.658	4764.44
735.999	4785.68
736.339	4732.12
736.68	4790.65
737.021	4790.65
737.361	4820.25
737.702	4835.17
738.042	4804.66
738.383	4841.95
738.723	4891.89
739.063	4838.11
739.404	4901.16
739.744	4851.44
740.084	4848.73
740.424	4875.62
740.764	4862.51
741.104	4938.44
741.444	4946.58
741.784	4958.33
742.124	4957.65
742.464	4958.56
742.804	4985.67
743.143	4980.02
743.483	5040.59
743.823	5049.18
744.162	5070.87
744.502	5115.61
744.841	5123.75
745.181	5183.63
745.52	5218.21
745.86	5256.18
746.199	5203.97
746.538	5284.65
746.877	5405.32
747.216	5416.4
747.556	5448.03
747.895	5482.38
748.234	5514.02
748.573	5588.14
748.911	5601.48
749.25	5702.72
749.589	5723.73
749.928	5825.88
750.267	5896.38
750.605	5969.6
750.944	6017.96
751.283	6067.23
751.621	6199.88
751.96	6256.83
752.298	6319.2
752.636	6480.78
752.975	6541.57
753.313	6540.21
753.651	6716.93
753.989	6873.76
754.327	6909.47
754.666	6982.23
755.004	7138.84
755.342	7318.72
755.679	7449.56
756.017	7523.69
756.355	7792.38
756.693	7825.83
757.031	8034.41
757.368	8160.28
757.706	8292.25
758.044	8464.23
758.381	8624.22
758.719	8766.14
759.056	9004.55
759.394	9075.51
759.731	9174.94
760.068	9392.34
760.405	9538.55
760.743	9692.22
761.08	9899.9
761.417	10038.42
761.754	10289.26
762.091	10452.87
762.428	10670.95
762.765	10793.43
763.102	10972.18
763.438	11089.47
763.775	11297.15
764.112	11505.73
764.449	11677.7
764.785	11881.99
765.122	12004.47
765.458	12146.39
765.795	12296.67
766.131	12483.33
766.467	12680.39
766.804	12765.36
