Data from hue_290_FLMS001491_00045.txt Node
Date: Tue Feb 07 15:52:47 GMT 2017
User: dcchb
Spectrometer: FLMS00149
Trigger mode: 0
Integration Time (sec): 2.000000E-2
Scans to average: 10
Electric dark correction enabled: true
Nonlinearity correction enabled: false
Boxcar width: 0
XAxis mode: Wavelengths
Number of Pixels in Spectrum: 2048
>>>>>Begin Spectral Data<<<<<
341.393	-17.37
341.776	-17.37
342.16	-17.37
342.543	-32.97
342.927	-75
343.31	-66.41
343.693	-65.05
344.077	-50.59
344.46	-56.69
344.843	-51.72
345.226	-55.56
345.61	-23.25
345.993	-23.7
346.376	0.48
346.759	2.06
347.142	-2.68
347.525	61.95
347.908	59.69
348.291	83.87
348.674	97.2
349.057	90.42
349.44	125.45
349.823	131.32
350.206	176.29
350.588	178.1
350.971	201.6
351.354	214.94
351.737	233.69
352.119	243.86
352.502	261.49
352.884	265.78
353.267	265.33
353.65	271.89
354.032	285.44
354.414	307.14
354.797	307.59
355.179	317.08
355.562	320.47
355.944	327.93
356.326	305.1
356.709	339.91
357.091	323.86
357.473	331.09
357.855	329.74
358.238	320.92
358.62	313.92
359.002	329.51
359.384	323.64
359.766	345.33
360.148	334.71
360.53	329.51
360.912	332
361.294	319.79
361.676	329.96
362.057	307.14
362.439	308.72
362.821	320.47
363.203	319.34
363.584	336.06
363.966	309.62
364.348	304.88
364.729	290.64
365.111	314.37
365.493	313.01
365.874	305.56
366.256	326.8
366.637	319.57
367.019	312.56
367.4	300.13
367.781	304.43
368.163	315.5
368.544	311.43
368.925	292.22
369.306	337.19
369.688	314.37
370.069	315.27
370.45	313.47
370.831	306.91
371.212	300.36
371.593	315.27
371.974	294.26
372.355	322.96
372.736	300.81
373.117	310.08
373.498	315.05
373.879	323.86
374.26	290.42
374.641	327.7
375.021	321.38
375.402	316.86
375.783	313.92
376.163	329.51
376.544	321.83
376.925	340.13
377.305	327.48
377.686	322.51
378.066	315.05
378.447	321.15
378.827	324.09
379.208	294.26
379.588	341.04
379.968	340.13
380.349	345.1
380.729	331.09
381.109	340.58
381.489	339.23
381.87	336.74
382.25	335.61
382.63	341.26
383.01	338.78
383.39	339
383.77	329.96
384.15	341.71
384.53	340.58
384.91	343.3
385.29	342.84
385.67	329.06
386.049	354.82
386.429	339.45
386.809	361.83
387.189	355.27
387.568	361.83
387.948	349.62
388.328	365.67
388.707	376.06
389.087	365.44
389.466	360.47
389.846	358.21
390.225	349.85
390.605	360.02
390.984	358.44
391.363	366.12
391.743	362.5
392.122	368.15
392.501	380.13
392.881	377.42
393.26	370.64
393.639	397.31
394.018	387.81
394.397	375.16
394.776	402.28
395.155	379.68
395.534	400.24
395.913	397.31
396.292	398.89
396.671	393.92
397.05	394.14
397.429	426.91
397.808	399.11
398.186	397.31
398.565	418.1
398.944	391.66
399.323	431.66
399.701	415.16
400.08	410.41
400.458	423.52
400.837	424.2
401.215	425.55
401.594	448.38
401.972	429.62
402.351	417.87
402.729	423.75
403.107	448.6
403.486	449.96
403.864	473.24
404.242	452.22
404.62	431.2
404.999	460.81
405.377	482.05
405.755	476.17
406.133	457.42
406.511	485.67
406.889	477.76
407.267	474.59
407.645	497.42
408.023	489.05
408.401	522.05
408.779	502.84
409.156	508.72
409.534	527.92
409.912	516.85
410.29	569.73
410.667	532.22
411.045	541.48
411.422	540.35
411.8	552.1
412.178	558.21
412.555	571.54
412.933	563.18
413.31	567.24
413.687	595.94
414.065	613.35
414.442	616.06
414.819	591.43
415.197	615.15
415.574	614.02
415.951	620.8
416.328	647.02
416.705	649.28
417.082	673.23
417.46	661.71
417.837	691.31
418.214	686.79
418.591	694.02
418.967	714.13
419.344	697.86
419.721	724.75
420.098	727.47
420.475	729.73
420.852	739.22
421.228	745.32
421.605	736.05
421.982	765.88
422.358	788.03
422.735	783.96
423.111	787.13
423.488	801.59
423.864	827.58
424.241	833.68
424.617	851.53
424.994	858.08
425.37	873.45
425.746	879.1
426.123	860.8
426.499	866.22
426.875	889.04
427.251	878.2
427.627	892.66
428.003	938.99
428.379	927.46
428.756	929.27
429.132	947.12
429.507	975.37
429.883	979.66
430.259	1000
430.635	1026.89
431.011	1001.81
431.387	1029.83
431.763	1010.4
432.138	1052.66
432.514	1070.51
432.89	1052.2
433.265	1119.55
433.641	1114.8
434.016	1102.15
434.392	1150.51
434.767	1160
435.143	1155.93
435.518	1187.79
435.894	1200.45
436.269	1194.57
436.644	1225.98
437.02	1249.94
437.395	1276.6
437.77	1246.78
438.145	1266.89
438.52	1307.34
438.895	1336.72
439.271	1287
439.646	1343.5
440.021	1343.27
440.395	1335.59
440.77	1315.93
441.145	1366.77
441.52	1409.93
441.895	1376.94
442.27	1399.77
442.645	1383.04
443.019	1422.14
443.394	1427.11
443.769	1431.4
444.143	1425.98
444.518	1443.15
444.892	1430.05
445.267	1429.6
445.641	1474.79
446.016	1448.35
446.39	1487.45
446.764	1494
447.139	1492.64
447.513	1483.83
447.887	1496.71
448.262	1514.11
448.636	1512.76
449.01	1525.19
449.384	1566.31
449.758	1553.89
450.132	1562.25
450.506	1569.48
450.88	1612.19
451.254	1582.59
451.628	1603.6
452.002	1624.17
452.376	1576.94
452.75	1646.54
453.123	1641.79
453.497	1664.84
453.871	1642.7
454.244	1674.56
454.618	1698.29
454.992	1723.82
455.365	1717.72
455.739	1757.04
456.112	1745.29
456.486	1776.25
456.859	1750.72
457.232	1816.25
457.606	1822.35
457.979	1797.72
458.352	1840.66
458.725	1862.8
459.099	1856.48
459.472	1867.78
459.845	1931.73
460.218	1926.76
460.591	1930.37
460.964	1938.73
461.337	1985.74
461.71	1976.47
462.083	2032.97
462.456	2030.26
462.829	2017.38
463.201	2054.21
463.574	2046.08
463.947	2107.77
464.32	2106.19
464.692	2088.56
465.065	2132.18
465.438	2137.15
465.81	2162.46
466.183	2190.48
466.555	2225.73
466.928	2237.26
467.3	2256.92
467.672	2267.77
468.045	2304.15
468.417	2330.81
468.789	2340.31
469.161	2312.74
469.534	2380.08
469.906	2378.5
470.278	2418.04
470.65	2426.63
471.022	2477.7
471.394	2554.76
471.766	2549.34
472.138	2575.55
472.51	2564.71
472.882	2631.6
473.253	2674.08
473.625	2688.77
473.997	2687.87
474.369	2742.78
474.74	2735.1
475.112	2817.13
475.484	2823.68
475.855	2838.15
476.227	2879.73
476.598	2948.65
476.97	2992.04
477.341	3027.52
477.713	3023.9
478.084	3005.6
478.455	3098.93
478.827	3115.2
479.198	3236.1
479.569	3225.25
479.94	3290.79
480.311	3285.82
480.682	3371.92
481.053	3431.58
481.424	3457.79
481.795	3448.98
482.166	3518.13
482.537	3537.34
482.908	3567.84
483.279	3619.59
483.65	3659.37
484.021	3739.36
484.391	3710.67
484.762	3823.66
485.133	3816.43
485.503	3860.49
485.874	3919.47
486.244	3957.21
486.615	3985.69
486.985	4013.26
487.356	4051.67
487.726	4135.51
488.097	4131.9
488.467	4170.54
488.837	4266.13
489.207	4290.08
489.578	4316.3
489.948	4357.43
490.318	4413.92
490.688	4446.69
491.058	4486.46
491.428	4523.75
491.798	4523.07
492.168	4621.38
492.538	4663.86
492.908	4669.74
493.278	4724.42
493.648	4690.53
494.017	4804.65
494.387	4814.36
494.757	4832.67
495.126	4905.66
495.496	4885.55
495.866	4903.85
496.235	4933.68
496.605	4975.49
496.974	5008.48
497.344	5019.33
497.713	5023.62
498.082	5076.28
498.452	5116.96
498.821	5105.88
499.19	5198.99
499.559	5203.73
499.928	5188.37
500.298	5230.17
500.667	5282.83
501.036	5248.25
501.405	5285.54
501.774	5303.62
502.143	5353.56
502.512	5340.68
502.88	5436.72
503.249	5429.49
503.618	5421.81
503.987	5443.5
504.356	5540
504.724	5461.35
505.093	5523.05
505.462	5559.2
505.83	5526.21
506.199	5608.24
506.567	5601.01
506.936	5608.24
507.304	5692.99
507.672	5679.65
508.041	5683.95
508.409	5766.43
508.777	5732.53
509.145	5819.99
509.514	5810.5
509.882	5817.05
510.25	5853.66
510.618	5871.74
510.986	5891.85
511.354	5868.57
511.722	5938.4
512.09	5980.66
512.458	5937.05
512.826	5993.09
513.193	6018.63
513.561	6022.47
513.929	6032.41
514.297	6094.78
514.664	6130.04
515.032	6159.41
515.4	6229.02
515.767	6175.46
516.135	6258.39
516.502	6154.89
516.869	6250.49
517.237	6264.04
517.604	6226.76
517.972	6340.88
518.339	6282.35
518.706	6343.36
519.073	6351.05
519.44	6394.66
519.808	6435.11
520.175	6391.72
520.542	6439.63
520.909	6516.24
521.276	6466.98
521.643	6491.38
522.009	6544.26
522.376	6614.09
522.743	6641.44
523.11	6663.13
523.477	6706.07
523.843	6768.66
524.21	6770.7
524.577	6805.05
524.943	6770.7
525.31	6868.1
525.676	6934.31
526.043	6954.2
526.409	7022.22
526.776	7008.43
527.142	7039.39
527.508	7024.48
527.874	7086.17
528.241	7126.85
528.607	7091.82
528.973	7242.32
529.339	7156.45
529.705	7267.18
530.071	7238.93
530.437	7296.11
530.803	7327.07
531.169	7326.62
531.535	7327.29
531.901	7377.91
532.267	7471.24
532.632	7481.19
532.998	7498.14
533.364	7582.2
533.73	7492.49
534.095	7606.38
534.461	7559.38
534.826	7611.81
535.192	7621.52
535.557	7662.88
535.923	7655.65
536.288	7725.02
536.653	7767.28
537.019	7743.1
537.384	7734.97
537.749	7792.59
538.114	7819.03
538.479	7781.74
538.845	7918.01
539.21	7863.1
539.575	7918.69
539.94	7891.35
540.305	7951.68
540.67	7964.11
541.034	7985.58
541.399	8041.4
541.764	8049.76
542.129	8015.64
542.494	8115.97
542.858	8090.44
543.223	8130.89
543.587	8158.68
543.952	8167.72
544.316	8205.69
544.681	8265.8
545.045	8205.91
545.41	8314.16
545.774	8289.75
546.138	8284.78
546.503	8334.72
546.867	8377.21
547.231	8414.72
547.595	8408.62
547.959	8425.34
548.324	8445.68
548.688	8412.91
549.052	8443.2
549.416	8456.76
549.779	8513.7
550.143	8508.73
550.507	8550.09
550.871	8555.96
551.235	8524.78
551.599	8586.92
551.962	8677.09
552.326	8663.76
552.689	8677.09
553.053	8651.1
553.417	8704.21
553.78	8782.85
554.143	8755.96
554.507	8750.98
554.87	8765
555.234	8849.06
555.597	8844.09
555.96	8848.61
556.323	8889.74
556.686	8903.3
557.05	8951.66
557.413	8906.46
557.776	8948.27
558.139	9000.24
558.502	8973.35
558.865	9074.59
559.228	9045.21
559.59	9088.6
559.953	9060.35
560.316	9136.51
560.679	9209.28
561.041	9222.84
561.404	9249.5
561.767	9273.23
562.129	9245.66
562.492	9368.37
562.854	9362.04
563.217	9388.03
563.579	9372.21
563.941	9416.96
564.304	9463.51
564.666	9481.13
565.028	9486.11
565.39	9533.56
565.753	9598.87
566.115	9603.39
566.477	9646.1
566.839	9640
567.201	9738.08
567.563	9758.19
567.925	9816.27
568.287	9844.97
568.648	9814.69
569.01	9866.89
569.372	9978.3
569.734	9877.28
570.095	9912.54
570.457	10049.71
570.819	10051.29
571.18	10039.31
571.542	10145.3
571.903	10130.84
572.265	10201.12
572.626	10254.45
572.987	10283.83
573.349	10250.38
573.71	10303.03
574.071	10367.21
574.432	10450.6
574.794	10521.56
575.155	10547.77
575.516	10530.6
575.877	10574.89
576.238	10617.15
576.599	10719.97
576.96	10745.73
577.32	10793.19
577.681	10864.83
578.042	10912.51
578.403	10910.7
578.763	11049.91
579.124	11126.97
579.485	11195.21
579.845	11265.49
580.206	11313.86
580.566	11337.13
580.927	11427.07
581.287	11567.41
581.648	11553.17
582.008	11667.52
582.368	11735.99
582.728	11881.75
583.089	11946.83
583.449	11984.12
583.809	12098.02
584.169	12186.83
584.529	12305.47
584.889	12497.55
585.249	12474.73
585.609	12561.96
585.969	12738
586.329	12837.43
586.688	12970.99
587.048	13188.38
587.408	13192
587.768	13301.15
588.127	13355.61
588.487	13469.73
588.846	13728.93
589.206	13761.7
589.565	13855.71
589.925	14094.8
590.284	14219.09
590.643	14430.61
591.003	14476.71
591.362	14711.73
591.721	14724.61
592.08	14983.82
592.44	15130.25
592.799	15262.23
593.158	15396.01
593.517	15469.9
593.876	15622.44
594.235	15700.41
594.593	15910.8
594.952	16024.47
595.311	16136.55
595.67	16322.76
596.029	16609.99
596.387	16645.92
596.746	16839.36
597.104	16865.12
597.463	16991.9
597.822	17115.96
598.18	17205.23
598.538	17319.57
598.897	17519.34
599.255	17500.36
599.613	17851.31
599.972	17866.45
600.33	18147.57
600.688	18094.92
601.046	18287.68
601.404	18375.14
601.762	18464.85
602.12	18639.09
602.478	18762.92
602.836	18812.64
603.194	18881.11
603.552	18945.07
603.91	19058.96
604.268	19159.07
604.625	19235.91
604.983	19329.24
605.341	19364.49
605.698	19473.19
606.056	19603.13
606.413	19714.99
606.771	19775.33
607.128	19958.6
607.485	19967.86
607.843	19958.15
608.2	20253.73
608.557	20326.05
608.914	20270.46
609.272	20446.95
609.629	20639.49
609.986	20651.69
610.343	20666.83
610.7	20866.37
611.057	20874.06
611.414	20927.61
611.771	21047.38
612.127	21156.76
612.484	21135.74
612.841	21282.41
613.198	21252.8
613.554	21341.61
613.911	21377.32
614.267	21488.28
614.624	21491.44
614.98	21594.94
615.337	21816.86
615.693	21764.88
616.05	21841.94
616.406	21951.54
616.762	21925.1
617.118	21945.67
617.475	21908.6
617.831	22022.5
618.187	22134.14
618.543	22166.45
618.899	22255.94
619.255	22264.98
619.611	22335.71
619.967	22394.02
620.323	22433.79
620.678	22542.94
621.034	22354.69
621.39	22476.27
621.746	22414.58
622.101	22760.79
622.457	22583.39
622.812	22719.88
623.168	22750.39
623.523	22763.95
623.879	22843.72
624.234	22634.24
624.589	22825.64
624.945	22874.91
625.3	22915.81
625.655	22939.54
626.01	22889.14
626.365	22921.46
626.72	22935.92
627.075	22982.93
627.43	22957.62
627.785	22902.48
628.14	22981.12
628.495	22925.53
628.85	22904.51
629.205	22927.11
629.559	23069.48
629.914	23018.18
630.269	23065.86
630.623	22909.26
630.978	22880.1
631.332	23060.21
631.687	23073.09
632.041	22944.28
632.396	23076.03
632.75	22971.85
633.104	23037.39
633.459	22758.07
633.813	22822.93
634.167	22974.79
634.521	22985.86
634.875	22920.1
635.229	22942.48
635.583	22840.78
635.937	22860.67
636.291	22828.13
636.645	22863.16
636.999	22859.99
637.352	22938.18
637.706	22731.18
638.06	22852.53
638.413	22799.88
638.767	22736.15
639.121	22771.41
639.474	22685.08
639.828	22728.7
640.181	22693.89
640.534	22742.71
640.888	22654.57
641.241	22551.3
641.594	22561.69
641.947	22675.14
642.301	22638.3
642.654	22715.59
643.007	22657.96
643.36	22613.9
643.713	22437.86
644.066	22653.22
644.419	22512.88
644.771	22382.72
645.124	22318.09
645.477	22124.42
645.83	22128.26
646.182	21951.32
646.535	21860.47
646.888	21882.84
647.24	21862.73
647.593	21951.99
647.945	21865.22
648.298	21728.27
648.65	21715.39
649.002	21682.17
649.355	21847.59
649.707	21865.67
650.059	21977.3
650.411	22230.86
650.763	22208.03
651.115	22532.54
651.467	22421.13
651.819	22417.97
652.171	22361.47
652.523	22396.5
652.875	22285.54
653.227	22240.8
653.578	22334.58
653.93	22380.91
654.282	22220.23
654.633	22159.22
654.985	22357.18
655.337	22372.32
655.688	22475.14
656.039	22299.55
656.391	22186.56
656.742	22324.64
657.094	22311.08
657.445	22411.64
657.796	22298.88
658.147	22336.39
658.498	22322.15
658.849	22379.55
659.2	22354.02
659.551	22324.86
659.902	22370.97
660.253	22341.14
660.604	22390.63
660.955	22321.93
661.306	22458.87
661.656	22377.52
662.007	22444.18
662.358	22286.67
662.708	22437.86
663.059	22431.08
663.409	22293
663.76	22449.61
664.11	22441.25
664.461	22518.53
664.811	22460.91
665.161	22358.99
665.511	22425.43
665.862	22386.11
666.212	22483.28
666.562	22515.14
666.912	22400.12
667.262	22395.6
667.612	22382.94
667.962	22397.18
668.312	22482.15
668.662	22529.61
669.011	22411.19
669.361	22447.57
669.711	22317.18
670.06	22391.53
670.41	22302.72
670.76	22262.72
671.109	22331.87
671.459	22338.2
671.808	22284.64
672.157	22307.01
672.507	22092.78
672.856	22170.52
673.205	22341.36
673.554	22294.13
673.904	22218.43
674.253	22324.41
674.602	22271.76
674.951	21929.62
675.3	21815.5
675.649	22192.44
675.998	22175.72
676.346	22107.47
676.695	22231.53
677.044	22000.81
677.393	22126.68
677.741	22121.03
678.09	22100.24
678.438	21853.01
678.787	22030.41
679.135	21921.26
679.484	21762.62
679.832	21893.01
680.181	21769.17
680.529	21752.22
680.877	21728.5
681.225	21734.15
681.573	21946.34
681.922	21629.74
682.27	21735.95
682.618	21671.55
682.966	21700.47
683.314	21668.61
683.661	21565.56
684.009	21503.87
684.357	21402.86
684.705	21404.44
685.053	21347.72
685.4	21424.1
685.748	21286.93
686.095	21253.25
686.443	21161.96
686.79	21116.08
687.138	21148.17
687.485	21148.62
687.832	21081.06
688.18	21086.25
688.527	20908.63
688.874	20928.74
689.221	20946.37
689.568	20764.23
689.915	20758.13
690.262	20747.28
690.609	20714.06
690.956	20527.62
691.303	20638.13
691.65	20439.94
691.997	20384.35
692.344	20389.55
692.69	20346.61
693.037	20268.2
693.383	20094.19
693.73	20152.49
694.077	20059.39
694.423	20020.07
694.769	19937.13
695.116	19902.33
695.462	19935.78
695.808	19737.59
696.155	19780.98
696.501	19673.86
696.847	19705.72
697.193	19385.28
697.539	19560.19
697.885	19382.57
698.231	19322.23
698.577	19301.89
698.923	19279.97
699.269	19122.69
699.614	19022.58
699.96	18957.5
700.306	18999.75
700.651	18875.24
700.997	18895.35
701.342	18804.05
701.688	18806.54
702.033	18678.18
702.379	18677.5
702.724	18583.95
703.069	18658.97
703.415	18437.96
703.76	18440.67
704.105	18409.94
704.45	18308.7
704.795	18202.49
705.14	18210.17
705.485	18169.27
705.83	18033.9
706.175	18014.02
706.52	18047.24
706.865	17914.59
707.209	17926.11
707.554	17792.1
707.899	17846.56
708.243	17781.03
708.588	17746
708.932	17606.12
709.277	17558.21
709.621	17608.6
709.966	17477.31
710.31	17444.99
710.654	17336.97
710.998	17378.33
711.342	17361.15
711.687	17272.12
712.031	17187.15
712.375	17092.69
712.719	17137.88
713.063	17093.82
713.407	17137.88
713.75	17005.46
714.094	17010.43
714.438	17038.45
714.782	16955.06
715.125	16927.04
715.469	17004.78
715.812	16915.97
716.156	16776.76
716.499	16737.44
716.843	16792.58
717.186	16742.86
717.53	16831.9
717.873	16781.51
718.216	16788.51
718.559	16633.94
718.902	16527.5
719.246	16584.9
719.589	16471.23
719.932	16532.25
720.275	16458.13
720.617	16495.87
720.96	16394.4
721.303	16402.08
721.646	16416.32
721.989	16240.28
722.331	16371.58
722.674	16356.21
723.016	16369.32
723.359	16271.69
723.701	16288.41
724.044	16218.81
724.386	16109.66
724.729	16244.35
725.071	16139.04
725.413	16143.33
725.755	16213.61
726.097	16120.51
726.439	16059.04
726.782	16053.84
727.124	16150.79
727.465	15982.88
727.807	16040.74
728.149	16008.65
728.491	15948.76
728.833	15977.69
729.175	15931.59
729.516	15921.19
729.858	15957.12
730.199	15997.57
730.541	15859.95
730.882	15853.4
731.224	15972.26
731.565	15807.75
731.906	15853.17
732.248	15900.63
732.589	15826.5
732.93	15775.88
733.271	15797.8
733.612	15810.01
733.953	15856.33
734.294	15729.78
734.635	15720.52
734.976	15767.75
735.317	15741.31
735.658	15777.69
735.999	15802.1
736.339	15732.04
736.68	15855.88
737.021	15774.3
737.361	15682.78
737.702	15825.37
738.042	15758.71
738.383	15854.07
738.723	15711.48
739.063	15852.27
739.404	15738.37
739.744	15752.83
740.084	15666.51
740.424	15825.37
740.764	15749.22
741.104	15791.25
741.444	15777.47
741.784	15811.59
742.124	15816.34
742.464	15777.92
742.804	15855.43
743.143	15880.29
743.483	15873.28
743.823	15773.62
744.162	15810.01
744.502	15910.12
744.841	15897.24
745.181	15971.59
745.52	15958.93
745.86	16094.75
746.199	15975.88
746.538	16140.39
746.877	16145.37
747.216	16183.56
747.556	16186.5
747.895	16235.99
748.234	16223.1
748.573	16282.31
748.911	16401.63
749.25	16550.78
749.589	16550.1
749.928	16613.15
750.267	16689.98
750.605	16665.8
750.944	16796.2
751.283	16757.33
751.621	16963.2
751.96	16932.46
752.298	17042.29
752.636	17210.42
752.975	17154.61
753.313	17212.91
753.651	17387.59
753.989	17413.81
754.327	17558.21
754.666	17615.84
755.004	17630.07
755.342	17846.79
755.679	17928.14
756.017	17992.1
756.355	18160
756.693	18192.32
757.031	18361.58
757.368	18387.12
757.706	18490.62
758.044	18628.92
758.381	18811.06
758.719	18835.01
759.056	18974.22
