Data from hue_38_FLMS001491_00044.txt Node
Date: Tue Feb 07 17:31:33 GMT 2017
User: dcchb
Spectrometer: FLMS00149
Trigger mode: 0
Integration Time (sec): 2.000000E-2
Scans to average: 10
Electric dark correction enabled: true
Nonlinearity correction enabled: false
Boxcar width: 0
XAxis mode: Wavelengths
Number of Pixels in Spectrum: 2048
>>>>>Begin Spectral Data<<<<<
341.393	-25.61
341.776	-25.61
342.16	-25.61
342.543	-52.5
342.927	-86.85
343.31	-64.48
343.693	-75.1
344.077	-36
344.46	-52.5
344.843	-68.32
345.226	-39.39
345.61	-29.67
345.993	-32.61
346.376	-8.88
346.759	16.88
347.142	34.73
347.525	42.19
347.908	62.3
348.291	69.76
348.674	85.12
349.057	95.97
349.44	136.2
349.823	153.82
350.206	160.15
350.588	191.56
350.971	217.1
351.354	206.48
351.737	245.12
352.119	247.61
352.502	257.78
352.884	272.24
353.267	263.88
353.65	306.59
354.032	302.52
354.414	293.71
354.797	328.73
355.179	323.08
355.562	295.51
355.944	343.88
356.326	346.36
356.709	331.45
357.091	343.88
357.473	354.5
357.855	351.11
358.238	328.51
358.62	341.16
359.002	354.04
359.384	342.07
359.766	345.46
360.148	344.1
360.53	338.68
360.912	334.16
361.294	340.26
361.676	338
362.057	329.86
362.439	311.33
362.821	343.42
363.203	330.32
363.584	343.2
363.966	317.66
364.348	336.42
364.729	322.41
365.111	326.93
365.493	325.8
365.874	317.66
366.256	322.86
366.637	333.03
367.019	337.32
367.4	316.08
367.781	317.66
368.163	299.81
368.544	332.12
368.925	312.01
369.306	319.92
369.688	312.01
370.069	321.05
370.45	319.69
370.831	322.63
371.212	319.92
371.593	328.06
371.974	311.11
372.355	309.98
372.736	331.45
373.117	323.54
373.498	330.09
373.879	303.88
374.26	319.69
374.641	306.81
375.021	321.28
375.402	328.28
375.783	325.8
376.163	341.16
376.544	309.98
376.925	332.35
377.305	325.12
377.686	318.79
378.066	354.04
378.447	336.64
378.827	339.58
379.208	321.05
379.588	332.8
379.968	332.8
380.349	350.43
380.729	327.15
381.109	338.23
381.489	359.92
381.87	313.37
382.25	305.46
382.63	323.31
383.01	340.49
383.39	346.36
383.77	347.94
384.15	340.71
384.53	367.38
384.91	337.77
385.29	344.1
385.67	360.82
386.049	359.92
386.429	352.91
386.809	361.73
387.189	359.24
387.568	357.89
387.948	358.56
388.328	377.77
388.707	365.57
389.087	358.56
389.466	378.22
389.846	371.9
390.225	375.74
390.605	348.17
390.984	367.38
391.363	363.31
391.743	373.93
392.122	369.86
392.501	368.51
392.881	377.55
393.26	367.6
393.639	379.81
394.018	372.57
394.397	395.4
394.776	398.79
395.155	374.16
395.534	378.45
395.913	369.19
396.292	388.62
396.671	400.82
397.05	371.9
397.429	368.73
397.808	389.07
398.186	379.58
398.565	411.22
398.944	395.17
399.323	378.68
399.701	390.2
400.08	408.05
400.458	402.4
400.837	391.56
401.215	401.27
401.594	384.55
401.972	402.63
402.351	402.63
402.729	429.52
403.107	414.83
403.486	390.2
403.864	425.91
404.242	416.42
404.62	437.43
404.999	410.54
405.377	427.94
405.755	436.98
406.133	422.52
406.511	434.27
406.889	421.61
407.267	446.25
407.645	434.27
408.023	454.83
408.401	423.2
408.779	452.57
409.156	434.72
409.534	444.66
409.912	439.92
410.29	452.57
410.667	446.02
411.045	443.08
411.422	449.18
411.8	449.86
412.178	466.36
412.555	470.65
412.933	481.05
413.31	488.96
413.687	466.58
414.065	469.52
414.442	494.61
414.819	479.46
415.197	480.37
415.574	479.69
415.951	504.32
416.328	493.7
416.705	487.6
417.082	503.64
417.46	498.22
417.837	499.58
418.214	504.32
418.591	505
418.967	522.85
419.344	512.01
419.721	511.78
420.098	528.96
420.475	539.8
420.852	540.25
421.228	529.18
421.605	538.22
421.982	546.36
422.358	530.76
422.735	533.02
423.111	525.79
423.488	528.28
423.864	552.68
424.241	547.26
424.617	544.77
424.994	585
425.37	568.73
425.746	579.35
426.123	566.47
426.499	577.32
426.875	576.64
427.251	574.15
427.627	589.29
428.003	599.24
428.379	588.61
428.756	609.4
429.132	603.3
429.507	598.11
429.883	621.61
430.259	598.56
430.635	626.58
431.011	643.3
431.387	618.44
431.763	641.95
432.138	650.99
432.514	633.36
432.89	625.22
433.265	645.11
433.641	656.41
434.016	664.09
434.392	656.64
434.767	668.39
435.143	672.91
435.518	693.7
435.894	668.61
436.269	710.42
436.644	689.18
437.02	700.7
437.395	713.13
437.77	676.52
438.145	723.98
438.52	721.94
438.895	723.53
439.271	735.28
439.646	735.28
440.021	738.44
440.395	756.52
440.77	746.12
441.145	761.94
441.52	761.94
441.895	751.1
442.27	765.56
442.645	754.03
443.019	759.91
443.394	766.24
443.769	778.21
444.143	797.87
444.518	796.74
444.892	796.29
445.267	794.48
445.641	802.17
446.016	810.76
446.39	806.91
446.764	818.21
447.139	795.84
447.513	845.1
447.887	816.86
448.262	833.81
448.636	851.43
449.01	833.35
449.384	858.66
449.758	852.79
450.132	871.77
450.506	837.87
450.88	844.88
451.254	863.41
451.628	879.23
452.002	884.2
452.376	913.35
452.75	897.76
453.123	890.75
453.497	903.63
453.871	916.06
454.244	911.54
454.618	942.05
454.992	960.58
455.365	974.82
455.739	957.42
456.112	974.37
456.486	976.17
456.859	987.93
457.232	991.32
457.606	1033.12
457.979	1023.18
458.352	1053.46
458.725	1053.91
459.099	1062.73
459.472	1095.27
459.845	1068.6
460.218	1105.89
460.591	1093.91
460.964	1089.17
461.337	1104.31
461.71	1133.68
462.083	1125.1
462.456	1137.53
462.829	1160.12
463.201	1168.94
463.574	1207.13
463.947	1218.88
464.32	1225.89
464.692	1207.13
465.065	1248.03
465.438	1265.21
465.81	1269.95
466.183	1311.53
466.555	1323.51
466.928	1332.78
467.3	1338.88
467.672	1353.79
468.045	1389.95
468.417	1411.19
468.789	1430.4
469.161	1417.97
469.534	1458.65
469.906	1492.77
470.278	1503.84
470.65	1537.29
471.022	1560.79
471.394	1599.44
471.766	1602.6
472.138	1614.35
472.51	1672.2
472.882	1689.38
473.253	1737.96
473.625	1764.85
473.997	1812.31
474.369	1826.1
474.74	1879.2
475.112	1921.23
475.484	1971.18
475.855	2013.89
476.227	2022.7
476.598	2100.21
476.97	2097.28
477.341	2193.77
477.713	2213.66
478.084	2243.94
478.455	2360.09
478.827	2401.22
479.198	2454.33
479.569	2535.68
479.94	2558.73
480.311	2654.55
480.682	2691.38
481.053	2807.54
481.424	2846.18
481.795	2903.81
482.166	2997.82
482.537	3059.28
482.908	3141.99
483.279	3187.64
483.65	3303.35
484.021	3400.07
484.391	3403.46
484.762	3513.74
485.133	3619.5
485.503	3722.54
485.874	3865.14
486.244	3872.14
486.615	3952.82
486.985	4082.53
487.356	4204.79
487.726	4283.43
488.097	4407.72
488.467	4459.02
488.837	4585.8
489.207	4627.38
489.578	4830.54
489.948	4938.56
490.318	4995.5
490.688	5068.04
491.058	5233.24
491.428	5315.95
491.798	5419.9
492.168	5598.88
492.538	5721.59
492.908	5809.72
493.278	5929.94
493.648	5979.89
494.017	6083.16
494.387	6178.75
494.757	6346.66
495.126	6411.96
495.496	6480.21
495.866	6572.19
496.235	6647.66
496.605	6801.78
496.974	6880.65
497.344	7002.68
497.713	7120.19
498.082	7126.75
498.452	7248.33
498.821	7411.03
499.19	7443.35
499.559	7520.18
499.928	7613.97
500.298	7691.48
500.667	7889.67
501.036	7915.43
501.405	7949.32
501.774	8049.21
502.143	8203.56
502.512	8238.13
502.88	8320.84
503.249	8339.82
503.618	8489.65
503.987	8555.64
504.356	8708.63
504.724	8745.24
505.093	8772.81
505.462	8861.39
505.83	8986.13
506.199	9069.75
506.567	9213.47
506.936	9164.66
507.304	9328.72
507.672	9408.72
508.041	9439.68
508.409	9489.85
508.777	9601.71
509.145	9716.28
509.514	9732.33
509.882	9818.43
510.25	9862.49
510.618	9934.13
510.986	9975.26
511.354	10111.98
511.722	10224.07
512.09	10297.74
512.458	10264.07
512.826	10445.98
513.193	10467.68
513.561	10567.79
513.929	10551.06
514.297	10760.78
514.664	10837.61
515.032	10862.02
515.4	10961.45
515.767	11015.68
516.135	11081.45
516.502	11066.08
516.869	11256.58
517.237	11336.58
517.604	11222.91
517.972	11428.56
518.339	11432.17
518.706	11442.11
519.073	11547.65
519.44	11605.05
519.808	11758.04
520.175	11768.43
520.542	11918.03
520.909	11943.12
521.276	12040.74
521.643	12016.34
522.009	12199.61
522.376	12216.33
522.743	12302.43
523.11	12415.42
523.477	12518.47
523.843	12602.08
524.21	12651.57
524.577	12733.83
524.943	12841.63
525.31	12891.57
525.676	13067.16
526.043	13125.69
526.409	13227.38
526.776	13280.94
527.142	13372.46
527.508	13458.78
527.874	13525.45
528.241	13601.61
528.607	13644.99
528.973	13813.13
529.339	13771.09
529.705	13904.42
530.071	14008.37
530.437	14137.64
530.803	14152.78
531.169	14226.67
531.535	14256.96
531.901	14315.94
532.267	14377.18
532.632	14508.25
532.998	14528.36
533.364	14629.15
533.73	14670.5
534.095	14780.78
534.461	14771.07
534.826	14786.89
535.192	14909.37
535.557	15013.32
535.923	15018.74
536.288	15139.42
536.653	15169.7
537.019	15144.62
537.384	15261.45
537.749	15279.53
538.114	15395.68
538.479	15403.37
538.845	15561.78
539.21	15459.41
539.575	15609.46
539.94	15675.9
540.305	15704.38
540.67	15721.55
541.034	15883.81
541.399	15909.34
541.764	15908.66
542.129	16034.08
542.494	16012.62
542.858	16155.21
543.223	16216.23
543.587	16307.75
543.952	16240.41
544.316	16369.22
544.681	16387.3
545.045	16438.59
545.41	16527.4
545.774	16617.8
546.138	16650.57
546.503	16679.72
546.867	16645.14
547.231	16873.16
547.595	17026.37
547.959	17064.11
548.324	17027.73
548.688	16978.47
549.052	17172.81
549.416	17125.13
549.779	17240.15
550.143	17324.45
550.507	17353.37
550.871	17437.44
551.235	17428.17
551.599	17508.17
551.962	17568.96
552.326	17622.74
552.689	17831.32
553.053	17705.9
553.417	17738.22
553.78	18022.96
554.143	17900.02
554.507	17966.01
554.87	18040.81
555.234	18217.08
555.597	18190.19
555.96	18240.35
556.323	18300.01
556.686	18380.01
557.05	18380.69
557.413	18487.8
557.776	18549.5
558.139	18700.23
558.502	18729.38
558.865	18777.06
559.228	18923.05
559.59	18975.02
559.953	18915.59
560.316	19134.57
560.679	19141.12
561.041	19214.79
561.404	19332.53
561.767	19486.87
562.129	19400.32
562.492	19531.17
562.854	19595.57
563.217	19563.03
563.579	19595.8
563.941	19756.92
564.304	19886.19
564.666	19986.3
565.028	19980.19
565.39	20066.07
565.753	20231.26
566.115	20236.23
566.477	20321.88
566.839	20322.78
567.201	20504.25
567.563	20491.82
567.925	20668.09
568.287	20691.36
568.648	20781.98
569.01	20843.22
569.372	21047.06
569.734	21033.5
570.095	21170.67
570.457	21270.56
570.819	21423.77
571.18	21377.45
571.542	21453.83
571.903	21548.74
572.265	21656.76
572.626	21766.14
572.987	21698.79
573.349	21770.2
573.71	22040.93
574.071	22110.31
574.432	22127.71
574.794	22260.36
575.155	22390.75
575.516	22413.35
575.877	22563.4
576.238	22687.69
576.599	22831.42
576.96	22809.05
577.32	22947.12
577.681	23176.95
578.042	23274.12
578.403	23303.05
578.763	23446.77
579.124	23573.32
579.485	23951.16
579.845	23993.65
580.206	24138.05
580.566	24240.2
580.927	24279.07
581.287	24614.88
581.648	24705.72
582.008	24949.56
582.368	25019.84
582.728	25182.77
583.089	25375.76
583.449	25526.94
583.809	25711.57
584.169	25929.64
584.529	26046.25
584.889	26349.75
585.249	26309.75
585.609	26481.72
585.969	26987.69
586.329	26983.85
586.688	27331.19
587.048	27372.77
587.408	27478.98
587.768	27682.82
588.127	27984.96
588.487	28098.4
588.846	28502.91
589.206	28323.7
589.565	28728.67
589.925	29142.44
590.284	29259.73
590.643	29438.93
591.003	29696.78
591.362	29834.63
591.721	30035.3
592.08	30299.92
592.44	30505.34
592.799	30748.95
593.158	30790.53
593.517	31022.62
593.876	31290.18
594.235	31240.46
594.593	31603.39
594.952	31935.36
595.311	31968.58
595.67	32323.15
596.029	32665.06
596.387	32834.55
596.746	33009
597.104	33045.61
597.463	33177.14
597.822	33530.35
598.18	33569.67
598.538	33705.48
598.897	34157.45
599.255	33988.64
599.613	34712.46
599.972	34576.87
600.33	34799.01
600.688	34845.11
601.046	35097.09
601.404	35412.56
601.762	35419.79
602.12	35799.89
602.478	35885.54
602.836	36065.2
603.194	36062.26
603.552	36295.25
603.91	36173.67
604.268	36531.85
604.625	36631.51
604.983	36830.15
605.341	36918.73
605.698	37214.54
606.056	37218.61
606.413	37263.13
606.771	37635.78
607.128	37697.02
607.485	37759.39
607.843	37889.55
608.2	38205.93
608.557	38285.7
608.914	38275.53
609.272	38532.93
609.629	38665.35
609.986	38897.89
610.343	38837.55
610.7	39157.32
611.057	39303.53
611.414	39267.37
611.771	39494.48
612.127	39654.93
612.484	39767.02
612.841	39879.78
613.198	39781.48
613.554	39897.64
613.911	40337.17
614.267	40258.76
614.624	40250.17
614.98	40475.93
615.337	40826.43
615.693	40693.32
616.05	40745.07
616.406	41127.21
616.762	40919.08
617.118	41110.49
617.475	41127.44
617.831	41262.57
618.187	41401.78
618.543	41513.19
618.899	41722.45
619.255	41612.85
619.611	41657.14
619.967	41801.09
620.323	41889.68
620.678	41959.28
621.034	41851.48
621.39	41968.09
621.746	42009.67
622.101	42404.69
622.457	42166.05
622.812	42298.93
623.168	42391.58
623.523	42512.94
623.879	42693.27
624.234	42410.34
624.589	42585.7
624.945	42636.77
625.3	42666.15
625.655	42733.27
626.01	42672.93
626.365	42782.31
626.72	42777.79
627.075	42827.73
627.43	42865.92
627.785	42744.57
628.14	42860.95
628.495	42989.76
628.85	43021.85
629.205	42824.34
629.559	43119.93
629.914	42998.12
630.269	43084.45
630.623	42897.33
630.978	42845.36
631.332	43123.99
631.687	43185.01
632.041	43019.59
632.396	43219.58
632.75	43044.22
633.104	43041.51
633.459	43042.19
633.813	43010.32
634.167	42991.34
634.521	42955.41
634.875	43110.89
635.229	43102.07
635.583	42872.25
635.937	42962.64
636.291	42878.8
636.645	43046.71
636.999	42973.71
637.352	42888.75
637.706	42727.62
638.06	42945.01
638.413	42775.08
638.767	42651.92
639.121	42704.12
639.474	42541.86
639.828	42639.94
640.181	42706.38
640.534	42594.29
640.888	42576.21
641.241	42494.41
641.594	42648.3
641.947	42698.47
642.301	42557.91
642.654	42646.72
643.007	42595.87
643.36	42552.03
643.713	42477.46
644.066	42604.01
644.419	42377.57
644.771	42154.08
645.124	41697.82
645.477	41740.75
645.83	41584.15
646.182	41417.82
646.535	41352.29
646.888	41453.3
647.24	41221.44
647.593	41503.7
647.945	41404.94
648.298	41271.61
648.65	41199.3
649.002	41044.73
649.355	41220.77
649.707	41166.08
650.059	41281.78
650.411	41717.48
650.763	41873.63
651.115	42045.83
651.467	42023.46
651.819	42119.5
652.171	41988.43
652.523	41960.18
652.875	41868.21
653.227	41818.49
653.578	42061.2
653.93	41968.77
654.282	41731.04
654.633	41716.57
654.985	41707.53
655.337	41784.14
655.688	41894.87
656.039	41934.19
656.391	41621.21
656.742	41663.47
657.094	41747.76
657.445	41877.47
657.796	41753.18
658.147	41647.65
658.498	41522.23
658.849	41792.95
659.2	41620.53
659.551	41617.82
659.902	41735.78
660.253	41583.47
660.604	41754.31
660.955	41422.57
661.306	41708.44
661.656	41554.32
662.007	41620.76
662.358	41537.14
662.708	41507.54
663.059	41488.78
663.409	41357.26
663.76	41559.29
664.11	41513.19
664.461	41547.76
664.811	41569.23
665.161	41583.02
665.511	41365.4
665.862	41414.21
666.212	41678.38
666.562	41583.02
666.912	41503.02
667.262	41519.97
667.612	41416.92
667.962	41515.67
668.312	41408.11
668.662	41578.5
669.011	41468.44
669.361	41442.23
669.711	41361.78
670.06	41339.86
670.41	41336.02
670.76	41291.95
671.109	41533.3
671.459	41290.37
671.808	41308.22
672.157	41298.05
672.507	41148.23
672.856	41155.23
673.205	41070.71
673.554	41326.3
673.904	41169.47
674.253	41465.73
674.602	41322.46
674.951	40668.01
675.3	40459.2
675.649	41054.67
675.998	41013.31
676.346	41112.75
676.695	41168.79
677.044	40795.92
677.393	40969.93
677.741	41151.16
678.09	40994.11
678.438	40799.53
678.787	40877.05
679.135	40955.69
679.484	40700.78
679.832	40769.25
680.181	40540.56
680.529	40722.7
680.877	40546.21
681.225	40529.49
681.573	40721.34
681.922	40556.6
682.27	40244.97
682.618	40364.74
682.966	40115.48
683.314	40349.83
683.661	40314.8
684.009	40006.56
684.357	39975.15
684.705	39956.84
685.053	40103.28
685.4	39938.31
685.748	39669.17
686.095	39883.17
686.443	39670.07
686.79	39605.67
687.138	39818.77
687.485	39791.65
687.832	39593.24
688.18	39666.01
688.527	39261.04
688.874	39311.21
689.221	39201.16
689.568	39062.86
689.915	39124.55
690.262	38980.6
690.609	39117.09
690.956	38807.95
691.303	38695.18
691.65	38690.44
691.997	38648.86
692.344	38405.25
692.69	38309.88
693.037	38457.9
693.383	38167.29
693.73	38266.49
694.077	38109.89
694.423	38014.07
694.769	38028.08
695.116	37858.37
695.462	37865.83
695.808	37687.98
696.155	37753.06
696.501	37430.81
696.847	37563.01
697.193	37210.02
697.539	37317.82
697.885	37052.06
698.231	37005.51
698.577	37025.17
698.923	36981.33
699.269	36839.19
699.614	36577.95
699.96	36537.5
700.306	36612.75
700.651	36404.17
700.997	36267.68
701.342	36264.74
701.688	36223.16
702.033	36006.67
702.379	36034.01
702.724	35808.48
703.069	36000.79
703.415	35640.35
703.76	35674.92
704.105	35620.01
704.45	35498.43
704.795	35202.85
705.14	35206.24
705.485	35239.45
705.83	35097.99
706.175	35095.73
706.52	34959.69
706.865	34861.39
707.209	34875.17
707.554	34716.3
707.899	34850.99
708.243	34684.89
708.588	34570.32
708.932	34303.21
709.277	34363.55
709.621	34480.6
709.966	34181.86
710.31	34279.03
710.654	33971.92
710.998	34082.2
711.342	34067.96
711.687	33895.31
712.031	33641.98
712.375	33677.01
712.719	33632.72
713.063	33578.26
713.407	33758.14
713.75	33494.87
714.094	33395.66
714.438	33341.65
714.782	33448.09
715.125	33114.76
715.469	33302.1
715.812	33127.19
716.156	32894.88
716.499	32899.86
716.843	32968.1
717.186	32821.44
717.53	32955.67
717.873	32862.34
718.216	32679.97
718.559	32565.63
718.902	32429.81
719.246	32501.45
719.589	32448.79
719.932	32269.82
720.275	32330.83
720.617	32234.11
720.96	32081.57
721.303	32224.62
721.646	32135.13
721.989	31950.05
722.331	31951.41
722.674	31984.4
723.016	31945.53
723.359	31883.84
723.701	31936.49
724.044	31683.62
724.386	31658.31
724.729	31662.6
725.071	31724.97
725.413	31530.4
725.755	31573.34
726.097	31525.88
726.439	31288.15
726.782	31451.31
727.124	31398.65
727.465	31162.05
727.807	31290.63
728.149	31143.52
728.491	31111.65
728.833	31207.7
729.175	31042.28
729.516	30963.64
729.858	30897.87
730.199	30964.31
730.541	30875.95
730.882	30859.91
731.224	30938.32
731.565	30709.4
731.906	30757.54
732.248	30760.25
732.589	30547.15
732.93	30489.07
733.271	30488.85
733.612	30630.76
733.953	30452.91
734.294	30414.95
734.635	30247.95
734.976	30446.59
735.317	30209.98
735.658	30256.99
735.999	30304.44
736.339	30135.86
736.68	30236.87
737.021	29959.14
737.361	29883.66
737.702	30064.9
738.042	29881.18
738.383	29873.04
738.723	29908.52
739.063	29731.35
739.404	29937.9
739.744	29706.72
740.084	29646.61
740.424	29663.33
740.764	29488.65
741.104	29719.83
741.444	29476.22
741.784	29407.74
742.124	29451.36
742.464	29485.71
742.804	29328.2
743.143	29327.07
743.483	29325.49
743.823	29148.09
744.162	29128.88
744.502	29215.43
744.841	29092.95
745.181	29123.91
745.52	29124.36
745.86	29063.8
746.199	28931.15
746.538	28908.77
746.877	28956.68
747.216	28906.06
747.556	28885.27
747.895	28769.12
748.234	28723.02
748.573	28746.29
748.911	28622.91
749.25	28628.33
749.589	28544.26
749.928	28388.34
750.267	28459.29
750.605	28489.58
750.944	28431.5
751.283	28176.59
751.621	28221.79
751.96	28087.55
752.298	27967.56
752.636	28170.94
752.975	27910.83
753.313	27809.14
753.651	27971.4
753.989	27815.7
754.327	27816.6
754.666	27717.84
755.004	27755.13
755.342	27770.95
755.679	27691.86
756.017	27468.36
756.355	27526.21
756.693	27416.84
