Data from hue_120_FLMS001491_00033.txt Node
Date: Tue Feb 07 16:59:16 GMT 2017
User: dcchb
Spectrometer: FLMS00149
Trigger mode: 0
Integration Time (sec): 2.000000E-2
Scans to average: 10
Electric dark correction enabled: true
Nonlinearity correction enabled: false
Boxcar width: 0
XAxis mode: Wavelengths
Number of Pixels in Spectrum: 2048
>>>>>Begin Spectral Data<<<<<
341.393	-17.75
341.776	-17.75
342.16	-17.75
342.543	-55.27
342.927	-53.46
343.31	-53.01
343.693	-66.57
344.077	-68.15
344.46	-63.85
344.843	-45.55
345.226	-45.32
345.61	-49.62
345.993	-34.7
346.376	-19.11
346.759	16.14
347.142	39.19
347.525	31.28
347.908	64.28
348.291	64.28
348.674	103.15
349.057	127.55
349.44	122.81
349.823	143.6
350.206	195.8
350.588	192.64
350.971	203.71
351.354	233.09
351.737	241
352.119	255.69
352.502	267.21
352.884	263.37
353.267	282.13
353.65	289.81
354.032	310.15
354.414	295.91
354.797	306.31
355.179	325.97
355.562	337.27
355.944	324.16
356.326	329.13
356.709	341.33
357.091	342.91
357.473	329.81
357.855	340.43
358.238	356.7
358.62	332.07
359.002	325.06
359.384	339.75
359.766	357.15
360.148	355.57
360.53	333.88
360.912	332.29
361.294	341.33
361.676	342.69
362.057	321.67
362.439	336.36
362.821	335.01
363.203	309.24
363.584	327.55
363.966	330.03
364.348	340.88
364.729	328.9
365.111	294.55
365.493	323.71
365.874	320.09
366.256	314.44
366.637	311.96
367.019	326.19
367.4	318.06
367.781	327.77
368.163	326.42
368.544	332.75
368.925	316.25
369.306	332.52
369.688	308.79
370.069	322.8
370.45	297.94
370.831	307.21
371.212	331.62
371.593	297.94
371.974	294.33
372.355	330.71
372.736	330.71
373.117	341.11
373.498	317.38
373.879	314.89
374.26	310.15
374.641	332.97
375.021	295.46
375.402	305.18
375.783	344.72
376.163	326.64
376.544	332.29
376.925	330.03
377.305	319.64
377.686	326.87
378.066	318.51
378.447	316.02
378.827	337.27
379.208	341.33
379.588	327.77
379.968	343.82
380.349	335.91
380.729	341.11
381.109	358.06
381.489	345.85
381.87	327.77
382.25	356.93
382.63	331.39
383.01	346.3
383.39	335.23
383.77	340.65
384.15	330.71
384.53	354.67
384.91	344.72
385.29	347.21
385.67	381.56
386.049	369.58
386.429	376.13
386.809	379.52
387.189	352.41
387.568	329.58
387.948	371.39
388.328	373.87
388.707	362.35
389.087	359.41
389.466	370.71
389.846	370.48
390.225	393.31
390.605	363.03
390.984	365.96
391.363	364.16
391.743	381.78
392.122	382.46
392.501	360.77
392.881	378.62
393.26	400.31
393.639	400.09
394.018	377.49
394.397	399.86
394.776	404.83
395.155	373.87
395.534	391.28
395.913	394.89
396.292	406.19
396.671	405.06
397.05	404.16
397.429	406.42
397.808	393.08
398.186	411.16
398.565	404.38
398.944	418.84
399.323	413.87
399.701	400.09
400.08	398.28
400.458	409.58
400.837	418.62
401.215	415.23
401.594	405.06
401.972	431.95
402.351	433.53
402.729	441.9
403.107	432.63
403.486	436.47
403.864	418.84
404.242	433.76
404.62	432.18
404.999	464.72
405.377	466.53
405.755	421.33
406.133	435.79
406.511	448.45
406.889	465.62
407.267	456.36
407.645	464.95
408.023	469.24
408.401	474.21
408.779	445.28
409.156	469.47
409.534	484.15
409.912	468.56
410.29	461.56
410.667	472.85
411.045	495.45
411.422	486.87
411.8	495.91
412.178	487.54
412.555	508.56
412.933	486.87
413.31	503.14
413.687	508.56
414.065	488.9
414.442	507.43
414.819	522.8
415.197	526.86
415.574	507.2
415.951	528.9
416.328	521.89
416.705	524.83
417.082	528.9
417.46	541.1
417.837	531.84
418.214	534.32
418.591	527.09
418.967	539.52
419.344	547.43
419.721	562.57
420.098	582.91
420.475	546.53
420.852	566.64
421.228	552.17
421.605	562.8
421.982	576.58
422.358	588.11
422.735	572.29
423.111	600.76
423.488	603.7
423.864	614.32
424.241	603.47
424.617	594.21
424.994	591.95
425.37	591.95
425.746	636.01
426.123	607.54
426.499	628.56
426.875	649.8
427.251	626.3
427.627	643.92
428.003	646.86
428.379	643.92
428.756	650.7
429.132	666.97
429.507	673.75
429.883	678.73
430.259	686.86
430.635	727.31
431.011	701.78
431.387	702
431.763	711.04
432.138	693.19
432.514	711.72
432.89	741.1
433.265	732.28
433.641	749.91
434.016	756.24
434.392	758.05
434.767	758.72
435.143	782
435.518	766.63
435.894	769.57
436.269	769.8
436.644	801.66
437.02	798.95
437.395	789.23
437.77	815.22
438.145	822.9
438.52	831.04
438.895	838.95
439.271	828.33
439.646	821.77
440.021	847.31
440.395	832.39
440.77	848.89
441.145	858.38
441.52	890.02
441.895	892.28
442.27	875.1
442.645	895.22
443.019	910.36
443.394	895.22
443.769	914.65
444.143	902.9
444.518	916.01
444.892	924.37
445.267	924.59
445.641	931.37
446.016	934.09
446.39	963.01
446.764	929.79
447.139	958.27
447.513	931.37
447.887	998.94
448.262	998.94
448.636	970.69
449.01	1000.07
449.384	1017.02
449.758	1005.27
450.132	1001.88
450.506	1040.3
450.88	1017.47
451.254	1029.9
451.628	1026.96
452.002	1064.25
452.376	1082.56
452.75	1043.91
453.123	1074.42
453.497	1125.27
453.871	1086.4
454.244	1125.94
454.618	1118.04
454.992	1118.26
455.365	1142.67
455.739	1178.6
456.112	1191.71
456.486	1196.23
456.859	1205.26
457.232	1200.97
457.606	1225.6
457.979	1251.14
458.352	1247.3
458.725	1282.33
459.099	1258.14
459.472	1277.13
459.845	1299.05
460.218	1329.33
460.591	1304.47
460.964	1330.69
461.337	1384.02
461.71	1393.96
462.083	1418.59
462.456	1415.88
462.829	1409.55
463.201	1456.78
463.574	1467.4
463.947	1475.99
464.32	1535.43
464.692	1518.25
465.065	1566.84
465.438	1539.95
465.81	1589.89
466.183	1611.36
466.555	1655.2
466.928	1678.7
467.3	1679.15
467.672	1706.49
468.045	1777
468.417	1757.79
468.789	1774.06
469.161	1816.32
469.534	1826.27
469.906	1860.16
470.278	1916.88
470.65	1932.7
471.022	1969.31
471.394	2039.82
471.766	2039.59
472.138	2055.41
472.51	2068.97
472.882	2151.91
473.253	2181.06
473.625	2239.81
473.997	2292.47
474.369	2370.21
474.74	2386.7
475.112	2430.77
475.484	2465.34
475.855	2576.75
476.227	2603.87
476.598	2663.76
476.97	2719.12
477.341	2815.62
477.713	2880.48
478.084	2932.9
478.455	3020.13
478.827	3075.72
479.198	3196.4
479.569	3228.71
479.94	3381.7
480.311	3414.25
480.682	3537.18
481.053	3665.09
481.424	3717.74
481.795	3807.68
482.166	3890.84
482.537	3973.78
482.908	4146.2
483.279	4228.01
483.65	4299.19
484.021	4460.55
484.391	4545.29
484.762	4669.13
485.133	4707.55
485.503	4850.14
485.874	5035.45
486.244	5138.72
486.615	5284.48
486.985	5390.01
487.356	5545.04
487.726	5637.01
488.097	5817.12
488.467	5860.06
488.837	6067.74
489.207	6229.31
489.578	6386.82
489.948	6508.85
490.318	6688.28
490.688	6729.87
491.058	6935.74
491.428	7078.56
491.798	7281.49
492.168	7421.82
492.538	7496.62
492.908	7693
493.278	7803.74
493.648	7902.26
494.017	8027.46
494.387	8225.65
494.757	8377.05
495.126	8500.21
495.496	8586.31
495.866	8746.31
496.235	8909.47
496.605	8939.3
496.974	9124.6
497.344	9308.55
497.713	9345.84
498.082	9486.18
498.452	9662.67
498.821	9743.8
499.19	9903.57
499.559	9965.94
499.928	10054.07
500.298	10123.22
500.667	10301.07
501.036	10351.01
501.405	10509.43
501.774	10547.62
502.143	10676.65
502.512	10715.3
502.88	10894.73
503.249	10836.2
503.618	11077.1
503.987	11100.15
504.356	11266.24
504.724	11370.87
505.093	11392.57
505.462	11456.29
505.83	11555.5
506.199	11720.69
506.567	11881.82
506.936	11757.98
507.304	12007.01
507.672	12066
508.041	12066.67
508.409	12139.67
508.777	12304.41
509.145	12322.26
509.514	12382.6
509.882	12504.63
510.25	12477.06
510.618	12645.19
510.986	12648.13
511.354	12752.08
511.722	12854.9
512.09	12891.96
512.458	12956.59
512.826	13001.56
513.193	13050.38
513.561	13075.01
513.929	13142.8
514.297	13341.44
514.664	13340.31
515.032	13394.77
515.4	13427.09
515.767	13478.16
516.135	13550.7
516.502	13324.04
516.869	13674.32
517.237	13747.99
517.604	13543.7
517.972	13749.12
518.339	13785.95
518.706	13778.04
519.073	13803.58
519.44	13836.57
519.808	13994.53
520.175	13976.23
520.542	14059.39
520.909	14061.2
521.276	14055.32
521.643	14217.8
522.009	14185.04
522.376	14193.4
522.743	14346.16
523.11	14359.5
523.477	14407.86
523.843	14408.99
524.21	14509.32
524.577	14676.1
524.943	14614.63
525.31	14660.05
525.676	14757
526.043	14755.87
526.409	14723.55
526.776	14900.05
527.142	14854.85
527.508	14756.1
527.874	14959.48
528.241	14972.13
528.607	14944.56
528.973	15047.84
529.339	14873.61
529.705	15090.32
530.071	14986.6
530.437	15041.06
530.803	15077.44
531.169	15131.68
531.535	15045.58
531.901	15149.76
532.267	15083.09
532.632	15086.71
532.998	15091.45
533.364	15178.91
533.73	15002.42
534.095	15145.01
534.461	15094.84
534.826	15107.05
535.192	15134.84
535.557	15184.11
535.923	15123.77
536.288	15074.5
536.653	15097.78
537.019	14980.5
537.384	15032.25
537.749	14976.88
538.114	14922.19
538.479	14917.67
538.845	14982.76
539.21	14905.24
539.575	14910.67
539.94	14875.41
540.305	14880.61
540.67	14808.52
541.034	14792.7
541.399	14814.4
541.764	14725.14
542.129	14732.82
542.494	14722.2
542.858	14738.24
543.223	14672.26
543.587	14730.11
543.952	14587.51
544.316	14656.44
544.681	14540.96
545.045	14554.07
545.41	14597.23
545.774	14560.17
546.138	14476.33
546.503	14433.17
546.867	14391.81
547.231	14506.84
547.595	14387.07
547.959	14427.74
548.324	14371.25
548.688	14251.7
549.052	14328.54
549.416	14205.83
549.779	14241.53
550.143	14186.84
550.507	14305.03
550.871	14212.83
551.235	14080.86
551.599	14180.07
551.962	14090.12
552.326	14081.31
552.689	14055.32
553.053	14007.64
553.417	13956.12
553.78	14111.82
554.143	13983.69
554.507	13994.99
554.87	13858.27
555.234	14001.54
555.597	13908.66
555.96	13899.85
556.323	13930.35
556.686	13961.31
557.05	14000.18
557.413	13939.39
557.776	13841.99
558.139	13938.72
558.502	13917.93
558.865	13880.41
559.228	13905.27
559.59	13910.24
559.953	13907.53
560.316	13975.1
560.679	14003.12
561.041	13988.88
561.404	14006.74
561.767	13942.11
562.129	13937.59
562.492	14067.3
562.854	13941.2
563.217	13947.75
563.579	13995.44
563.941	14089.9
564.304	14091.93
564.666	14059.84
565.028	14054.64
565.39	14128.31
565.753	14179.84
566.115	14156.79
566.477	14130.35
566.839	14220.52
567.201	14235.43
567.563	14220.52
567.925	14299.16
568.287	14246.05
568.648	14218.48
569.01	14286.95
569.372	14345.71
569.734	14226.84
570.095	14293.51
570.457	14378.25
570.819	14476.33
571.18	14430.45
571.542	14406.73
571.903	14329.44
572.265	14480.4
572.626	14396.1
572.987	14358.82
573.349	14485.14
573.71	14476.55
574.071	14508.42
574.432	14463.45
574.794	14587.96
575.155	14564.01
575.516	14489.66
575.877	14578.92
576.238	14518.14
576.599	14550.68
576.96	14568.53
577.32	14496.89
577.681	14538.02
578.042	14563.78
578.403	14569.43
578.763	14633.61
579.124	14552.71
579.485	14638.13
579.845	14725.36
580.206	14646.04
580.566	14561.07
580.927	14627.28
581.287	14648.3
581.648	14572.6
582.008	14670.67
582.368	14695.08
582.728	14622.54
583.089	14657.11
583.449	14576.66
583.809	14594.29
584.169	14626.15
584.529	14574.86
584.889	14603.33
585.249	14573.5
585.609	14487.63
585.969	14570.11
586.329	14571.47
586.688	14528.98
587.048	14595.87
587.408	14497.12
587.768	14549.55
588.127	14463
588.487	14472.94
588.846	14537.8
589.206	14469.55
589.565	14418.7
589.925	14572.6
590.284	14469.32
590.643	14430.91
591.003	14516.1
591.362	14525.14
591.721	14446.72
592.08	14398.82
592.44	14497.12
592.799	14455.54
593.158	14464.35
593.517	14345.26
593.876	14425.03
594.235	14449.89
594.593	14419.61
594.952	14462.77
595.311	14356.78
595.67	14406.5
596.029	14437.91
596.387	14378.93
596.746	14416.22
597.104	14324.24
597.463	14292.83
597.822	14441.53
598.18	14284.92
598.538	14232.27
598.897	14435.2
599.255	14313.39
599.613	14399.49
599.972	14354.07
600.33	14415.77
600.688	14280.85
601.046	14417.12
601.404	14480.4
601.762	14407.86
602.12	14401.75
602.478	14348.65
602.836	14397.91
603.194	14318.14
603.552	14390
603.91	14306.84
604.268	14407.18
604.625	14334.64
604.983	14425.03
605.341	14276.33
605.698	14414.41
606.056	14371.47
606.413	14385.03
606.771	14304.13
607.128	14420.74
607.485	14310.91
607.843	14374.41
608.2	14453.96
608.557	14431.81
608.914	14416.44
609.272	14529.21
609.629	14498.02
609.986	14448.76
610.343	14423.22
610.7	14549.55
611.057	14475.42
611.414	14453.96
611.771	14485.59
612.127	14585.25
612.484	14675.42
612.841	14566.04
613.198	14532.6
613.554	14579.15
613.911	14708.86
614.267	14680.84
614.624	14622.31
614.98	14719.94
615.337	14768.75
615.693	14722.88
616.05	14615.76
616.406	14796.55
616.762	14708.64
617.118	14706.15
617.475	14705.7
617.831	14665.02
618.187	14768.98
618.543	14755.64
618.899	14767.85
619.255	14788.64
619.611	14850.33
619.967	14829.31
620.323	14908.86
620.678	14846.94
621.034	14816.88
621.39	14730.78
621.746	14827.05
622.101	14946.37
622.457	14846.26
622.812	14766.72
623.168	14813.72
623.523	14805.59
623.879	14862.08
624.234	14853.49
624.589	14886.04
624.945	14804
625.3	14797.22
625.655	14889.2
626.01	14855.53
626.365	14862.53
626.72	14728.75
627.075	14731.01
627.43	14726.49
627.785	14814.4
628.14	14796.32
628.495	14799.71
628.85	14774.85
629.205	14743.44
629.559	14789.99
629.914	14729.66
630.269	14793.38
630.623	14685.36
630.978	14682.2
631.332	14741.63
631.687	14786.83
632.041	14623.22
632.396	14712.71
632.75	14676.32
633.104	14777.56
633.459	14556.78
633.813	14498.93
634.167	14589.55
634.521	14548.64
634.875	14627.51
635.229	14578.02
635.583	14462.09
635.937	14531.69
636.291	14434.75
636.645	14573.28
636.999	14394.07
637.352	14444.46
637.706	14432.04
638.06	14433.17
638.413	14496.89
638.767	14380.96
639.121	14403.79
639.474	14272.27
639.828	14373.51
640.181	14362.43
640.534	14368.53
640.888	14293.06
641.241	14213.28
641.594	14262.77
641.947	14328.99
642.301	14204.7
642.654	14198.14
643.007	14264.13
643.36	14262.77
643.713	14184.81
644.066	14170.35
644.419	14168.09
644.771	14055.32
645.124	13908.43
645.477	13917.47
645.83	13816.23
646.182	13855.33
646.535	13674.54
646.888	13717.93
647.24	13668.67
647.593	13788.66
647.945	13780.98
648.298	13663.69
648.65	13675.9
649.002	13656.91
649.355	13658.27
649.707	13705.05
650.059	13736.01
650.411	13948.88
650.763	13826.63
651.115	14052.16
651.467	13989.34
651.819	13981.2
652.171	13971.26
652.523	14001.54
652.875	13954.99
653.227	13959.05
653.578	13978.71
653.93	13946.85
654.282	13922.9
654.633	13858.72
654.985	13897.36
655.337	13935.55
655.688	13962.67
656.039	13946.62
656.391	13824.82
656.742	13942.78
657.094	13901.88
657.445	13953.63
657.796	13924.48
658.147	13888.32
658.498	13979.62
658.849	13984.82
659.2	13902.11
659.551	13990.92
659.902	13994.99
660.253	14028.43
660.604	14031.14
660.955	13885.16
661.306	14056.68
661.656	13864.37
662.007	13916.34
662.358	13970.8
662.708	13952.27
663.059	13969.68
663.409	13925.83
663.76	13994.08
664.11	13973.29
664.461	14023.46
664.811	13969.22
665.161	13945.72
665.511	14016.45
665.862	13938.04
666.212	13962.22
666.562	14043.57
666.912	13988.88
667.262	13957.47
667.612	13973.06
667.962	13968.09
668.312	14007.64
668.662	14035.21
669.011	14060.75
669.361	13902.33
669.711	13898.26
670.06	13912.28
670.41	13960.41
670.76	13937.59
671.109	13935.55
671.459	13959.96
671.808	13873.86
672.157	13970.13
672.507	13850.36
672.856	13886.97
673.205	13940.52
673.554	13896.46
673.904	13968.09
674.253	13987.3
674.602	13904.82
674.951	13670.25
675.3	13648.78
675.649	13841.32
675.998	13796.57
676.346	13799.96
676.695	13774.43
677.044	13733.75
677.393	13774.43
677.741	13754.31
678.09	13683.81
678.438	13620.76
678.787	13656.24
679.135	13626.63
679.484	13590.93
679.832	13687.87
680.181	13544.6
680.529	13594.09
680.877	13512.06
681.225	13449.01
681.573	13538.27
681.922	13463.25
682.27	13474.09
682.618	13383.93
682.966	13418.73
683.314	13452.4
683.661	13347.54
684.009	13283.82
684.357	13227.55
684.705	13311.61
685.053	13319.52
685.4	13208.79
685.748	13165.4
686.095	13107.32
686.443	13100.09
686.79	13120.21
687.138	13065.74
687.485	13142.13
687.832	13023.03
688.18	13025.07
688.527	13013.77
688.874	12995.01
689.221	12901.45
689.568	12867.33
689.915	12858.97
690.262	12834.11
690.609	12811.97
690.956	12791.85
691.303	12736.49
691.65	12632.99
691.997	12624.4
692.344	12593.67
692.69	12442.94
693.037	12529.94
693.383	12433.67
693.73	12499.66
694.077	12431.41
694.423	12419.89
694.769	12362.49
695.116	12301.02
695.462	12296.05
695.808	12214.69
696.155	12243.62
696.501	12144.19
696.847	12148.03
697.193	12069.61
697.539	12004.53
697.885	11913.23
698.231	11857.87
698.577	11894.02
698.923	11907.81
699.269	11844.99
699.614	11793.24
699.96	11668.72
700.306	11751.65
700.651	11628.95
700.997	11570.64
701.342	11583.52
701.688	11609.51
702.033	11476.41
702.379	11433.02
702.724	11348.95
703.069	11430.08
703.415	11325.68
703.76	11204.1
704.105	11307.15
704.45	11288.84
704.795	11176.08
705.14	11164.78
705.485	11131.56
705.83	11096.3
706.175	11076.87
706.52	11018.34
706.865	11072.8
707.209	10976.76
707.554	10886.37
707.899	10991.45
708.243	10936.76
708.588	10911.22
708.932	10800.04
709.277	10812.24
709.621	10759.14
709.966	10692.02
710.31	10735.18
710.654	10659.71
710.998	10614.96
711.342	10679.59
711.687	10576.77
712.031	10564.79
712.375	10495.42
712.719	10535.19
713.063	10466.49
713.407	10531.35
713.75	10440.95
714.094	10411.58
714.438	10409.09
714.782	10456.32
715.125	10348.98
715.469	10368.87
715.812	10356.89
716.156	10307.85
716.499	10267.4
716.843	10282.31
717.186	10201.41
717.53	10291.58
717.873	10274.18
718.216	10260.85
718.559	10181.98
718.902	10114.41
719.246	10209.1
719.589	10039.38
719.932	10087.97
720.275	10084.58
720.617	10071.25
720.96	10065.82
721.303	10027.86
721.646	10075.77
721.989	10026.95
722.331	10044.35
722.674	9920.29
723.016	9976.56
723.359	10019.95
723.701	9920.52
724.044	9927.52
724.386	9917.8
724.729	9942.44
725.071	9958.26
725.413	9902.89
725.755	9920.29
726.097	9908.09
726.439	9904.02
726.782	9885.49
727.124	9857.01
727.465	9842.55
727.807	9871.03
728.149	9823.57
728.491	9812.95
728.833	9852.95
729.175	9803
729.516	9748.32
729.858	9775.66
730.199	9747.87
730.541	9816.79
730.882	9756.45
731.224	9743.57
731.565	9720.52
731.906	9798.94
732.248	9764.36
732.589	9715.32
732.93	9666.51
733.271	9689.11
733.612	9761.42
733.953	9699.73
734.294	9706.74
734.635	9624.93
734.976	9668.77
735.317	9661.54
735.658	9718.49
735.999	9711.48
736.339	9742.89
736.68	9744.93
737.021	9709.9
737.361	9685.04
737.702	9816.11
738.042	9741.31
738.383	9664.93
738.723	9749.9
739.063	9783.12
739.404	9758.26
739.744	9733.4
740.084	9785.6
740.424	9809.33
740.764	9810.01
741.104	9804.36
741.444	9781.08
741.784	9810.24
742.124	9746.96
742.464	9789.67
742.804	9821.54
743.143	9860.86
743.483	9915.32
743.823	9924.13
744.162	9856.56
744.502	10024.69
744.841	9945.83
745.181	10032.83
745.52	9974.07
745.86	10119.15
746.199	10135.88
746.538	10075.77
746.877	10184.69
747.216	10204.58
747.556	10231.69
747.895	10342.65
748.234	10364.12
748.573	10408.86
748.911	10443.21
749.25	10555.75
749.589	10529.31
749.928	10668.97
750.267	10726.82
750.605	10715.98
750.944	10845.24
751.283	10900.83
751.621	11040.71
751.96	11000.71
752.298	11135.85
752.636	11261.95
752.975	11242.52
753.313	11362.06
753.651	11493.81
753.989	11593.24
754.327	11726.57
754.666	11727.47
755.004	11950.75
755.342	12067.58
755.679	12185.32
756.017	12222.38
756.355	12417.4
756.693	12470.05
757.031	12689.03
757.368	12788.46
