Data from hue_22_FLMS001491_00002.txt Node
Date: Tue Feb 07 17:09:24 GMT 2017
User: dcchb
Spectrometer: FLMS00149
Trigger mode: 0
Integration Time (sec): 2.000000E-2
Scans to average: 10
Electric dark correction enabled: true
Nonlinearity correction enabled: false
Boxcar width: 0
XAxis mode: Wavelengths
Number of Pixels in Spectrum: 2048
>>>>>Begin Spectral Data<<<<<
341.393	-22.1
341.776	-22.1
342.16	-22.1
342.543	-82.44
342.927	-65.27
343.31	-72.72
343.693	-68.88
344.077	-52.84
344.46	-58.49
344.843	-55.55
345.226	-50.13
345.61	-33.86
345.993	-15.32
346.376	-13.74
346.759	18.12
347.142	23.54
347.525	28.52
347.908	61.96
348.291	79.36
348.674	87.95
349.057	122.07
349.44	125.46
349.823	143.32
350.206	152.81
350.588	197.1
350.971	203.43
351.354	215.18
351.737	229.64
352.119	226.7
352.502	259.02
352.884	266.25
353.267	284.78
353.65	287.72
354.032	301.96
354.414	303.54
354.797	314.61
355.179	311.67
355.562	303.54
355.944	326.81
356.326	325.68
356.709	344.44
357.091	337.66
357.473	341.5
357.855	337.89
358.238	325.91
358.62	337.43
359.002	360.26
359.384	355.51
359.766	350.54
360.148	322.07
360.53	322.75
360.912	318
361.294	337.43
361.676	333.14
362.057	337.21
362.439	314.38
362.821	332.24
363.203	335.85
363.584	313.71
363.966	318.45
364.348	313.93
364.729	327.04
365.111	310.99
365.493	326.14
365.874	322.97
366.256	337.21
366.637	318
367.019	336.53
367.4	287.94
367.781	315.51
368.163	317.55
368.544	312.35
368.925	294.72
369.306	322.52
369.688	308.96
370.069	313.48
370.45	302.41
370.831	312.12
371.212	298.11
371.593	323.88
371.974	324.55
372.355	308.28
372.736	323.2
373.117	333.59
373.498	335.4
373.879	336.08
374.26	335.63
374.641	304.44
375.021	310.77
375.402	327.49
375.783	327.94
376.163	317.32
376.544	330.66
376.925	317.55
377.305	341.05
377.686	328.85
378.066	336.3
378.447	338.11
378.827	328.17
379.208	325.68
379.588	322.07
379.968	315.97
380.349	338.56
380.729	337.21
381.109	325.46
381.489	340.6
381.87	335.17
382.25	320.03
382.63	334.5
383.01	337.21
383.39	333.37
383.77	329.3
384.15	343.76
384.53	343.99
384.91	323.42
385.29	353.71
385.67	332.24
386.049	373.14
386.429	337.21
386.809	349.41
387.189	349.41
387.568	355.29
387.948	350.32
388.328	341.5
388.707	356.19
389.087	366.13
389.466	375.4
389.846	348.06
390.225	378.34
390.605	363.2
390.984	350.32
391.363	362.52
391.743	362.52
392.122	367.94
392.501	373.37
392.881	372.91
393.26	356.42
393.639	364.1
394.018	370.43
394.397	368.62
394.776	365.68
395.155	382.18
395.534	408.17
395.913	372.24
396.292	367.26
396.671	372.01
397.05	367.26
397.429	378.11
397.808	370.43
398.186	371.33
398.565	389.86
398.944	369.98
399.323	387.15
399.701	375.85
400.08	376.08
400.458	380.82
400.837	392.12
401.215	412.91
401.594	400.48
401.972	380.15
402.351	388.73
402.729	403.42
403.107	409.07
403.486	408.39
403.864	394.16
404.242	407.26
404.62	417.88
404.999	423.31
405.377	405.68
405.755	421.95
406.133	411.78
406.511	422.4
406.889	419.69
407.267	429.18
407.645	436.87
408.023	427.38
408.401	449.3
408.779	428.28
409.156	425.57
409.534	424.44
409.912	409.07
410.29	432.57
410.667	432.57
411.045	446.13
411.422	449.07
411.8	448.39
412.178	464.21
412.555	474.38
412.933	462.18
413.31	477.77
413.687	455.62
414.065	461.27
414.442	455.62
414.819	492.46
415.197	459.01
415.574	467.37
415.951	472.12
416.328	482.97
416.705	482.29
417.082	478
417.46	482.97
417.837	474.83
418.214	495.4
418.591	476.41
418.967	502.4
419.344	487.94
419.721	498.11
420.098	475.28
420.475	508.73
420.852	505.11
421.228	504.44
421.605	513.25
421.982	510.31
422.358	532.23
422.735	500.59
423.111	524.77
423.488	513.7
423.864	520.93
424.241	528.62
424.617	547.15
424.994	531.78
425.37	540.37
425.746	541.72
426.123	541.05
426.499	543.3
426.875	564.55
427.251	562.51
427.627	529.29
428.003	575.17
428.379	585.56
428.756	572
429.132	573.59
429.507	567.26
429.883	572.46
430.259	593.02
430.635	588.5
431.011	640.25
431.387	605.9
431.763	612.23
432.138	622.17
432.514	612
432.89	626.69
433.265	625.79
433.641	673.7
434.016	633.92
434.392	643.64
434.767	649.06
435.143	636.86
435.518	676.63
435.894	678.67
436.269	673.02
436.644	664.21
437.02	677.54
437.395	682.96
437.77	679.8
438.145	675.5
438.52	680.48
438.895	708.05
439.271	677.31
439.646	715.96
440.021	728.16
440.395	716.63
440.77	699.23
441.145	695.84
441.52	699.91
441.895	720.93
442.27	721.61
442.645	725
443.019	748.5
443.394	742.17
443.769	752.79
444.143	725.9
444.518	758.21
444.892	775.16
445.267	768.38
445.641	751.89
446.016	765.67
446.39	760.7
446.764	752.56
447.139	791.43
447.513	773.13
447.887	778.33
448.262	774.26
448.636	801.15
449.01	812.45
449.384	818.1
449.758	791.21
450.132	803.86
450.506	807.93
450.88	833.47
451.254	812.9
451.628	857.87
452.002	828.95
452.376	821.04
452.75	846.12
453.123	852
453.497	844.09
453.871	852.22
454.244	895.61
454.618	853.58
454.992	908.95
455.365	907.82
455.739	934.26
456.112	926.8
456.486	912.79
456.859	942.16
457.232	933.8
457.606	964.31
457.979	968.83
458.352	971.99
458.725	975.38
459.099	978.55
459.472	987.36
459.845	1010.64
460.218	1012.22
460.591	1012.22
460.964	1035.27
461.337	1029.85
461.71	1028.04
462.083	1073.46
462.456	1077.08
462.829	1055.16
463.201	1082.05
463.574	1101.71
463.947	1122.72
464.32	1130.86
464.692	1142.84
465.065	1117.75
465.438	1152.1
465.81	1155.04
466.183	1173.57
466.555	1205.89
466.928	1198.2
467.3	1206.34
467.672	1220.58
468.045	1224.19
468.417	1264.19
468.789	1259.9
469.161	1255.6
469.534	1273.91
469.906	1305.54
470.278	1313.45
470.65	1327.01
471.022	1353.91
471.394	1393.68
471.766	1399.33
472.138	1412.43
472.51	1448.37
472.882	1458.76
473.253	1501.25
473.625	1502.6
473.997	1541.02
474.369	1530.85
474.74	1527.46
475.112	1587.35
475.484	1656.04
475.855	1613.11
476.227	1653.33
476.598	1687.91
476.97	1717.74
477.341	1747.79
477.713	1767.68
478.084	1789.15
478.455	1844.29
478.827	1893.33
479.198	1912.99
479.569	1910.05
479.94	1954.12
480.311	1971.52
480.682	2001.57
481.053	2060.1
481.424	2094
481.795	2102.36
482.166	2179.65
482.537	2192.98
482.908	2283.6
483.279	2289.25
483.65	2295.8
484.021	2366.99
484.391	2402.47
484.762	2439.75
485.133	2442.92
485.503	2507.77
485.874	2550.48
486.244	2567.43
486.615	2615.57
486.985	2649.24
487.356	2719.74
487.726	2734.43
488.097	2776.92
488.467	2857.37
488.837	2831.61
489.207	2908.44
489.578	2980.98
489.948	3043.35
490.318	3023.69
490.688	3072.28
491.058	3134.2
491.428	3152.95
491.798	3190.92
492.168	3258.26
492.538	3307.98
492.908	3322.89
493.278	3362.89
493.648	3418.94
494.017	3454.19
494.387	3491.48
494.757	3511.81
495.126	3556.56
495.496	3587.07
495.866	3615.09
496.235	3652.38
496.605	3672.71
496.974	3729.89
497.344	3734.41
497.713	3751.81
498.082	3805.14
498.452	3858.7
498.821	3866.38
499.19	3852.37
499.559	3939.6
499.928	3972.82
500.298	4008.98
500.667	4024.12
501.036	4022.76
501.405	4104.79
501.774	4110.22
502.143	4140.95
502.512	4163.55
502.88	4201.06
503.249	4178.92
503.618	4187.95
503.987	4266.14
504.356	4228.41
504.724	4259.82
505.093	4286.71
505.462	4343.43
505.83	4354.5
506.199	4376.88
506.567	4416.88
506.936	4446.48
507.304	4484.44
507.672	4515.86
508.041	4507.04
508.409	4572.13
508.777	4610.32
509.145	4627.72
509.514	4606.25
509.882	4597.89
510.25	4627.72
510.618	4658.22
510.986	4695.29
511.354	4731.44
511.722	4799.24
512.09	4768.5
512.458	4769.18
512.826	4860.25
513.193	4850.99
513.561	4867.71
513.929	4908.84
514.297	4917.43
514.664	4921.95
515.032	4944.55
515.4	5012.11
515.767	4998.1
516.135	5057.76
516.502	4993.13
516.869	5084.88
517.237	5100.7
517.604	5071.55
517.972	5198.1
518.339	5129.17
518.706	5156.29
519.073	5203.97
519.44	5232.9
519.808	5286.01
520.175	5249.4
520.542	5332.33
520.909	5343.86
521.276	5315.16
521.643	5374.14
522.009	5339.11
522.376	5386.79
522.743	5483.06
523.11	5541.37
523.477	5547.02
523.843	5507.24
524.21	5600.8
524.577	5620.46
524.943	5688.71
525.31	5707.24
525.676	5711.53
526.043	5724.64
526.409	5776.84
526.776	5810.51
527.142	5838.31
527.508	5841.24
527.874	5883.5
528.241	5957.4
528.607	5966.67
528.973	5935.93
529.339	6017.96
529.705	6067.68
530.071	6109.71
530.437	6108.36
530.803	6168.24
531.169	6189.26
531.535	6175.7
531.901	6160.33
532.267	6262.02
532.632	6278.75
532.998	6289.59
533.364	6317.16
533.73	6289.14
534.095	6392.19
534.461	6432.19
534.826	6453.43
535.192	6396.26
535.557	6556.71
535.923	6503.37
536.288	6536.82
536.653	6568.46
537.019	6543.37
537.384	6617.5
537.749	6572.07
538.114	6629.47
538.479	6686.19
538.845	6717.15
539.21	6751.28
539.575	6778.85
539.94	6733.88
540.305	6765.74
540.67	6812.29
541.034	6784.72
541.399	6838.51
541.764	6871.05
542.129	6889.13
542.494	6946.75
542.858	7016.81
543.223	7044.15
543.587	7089.57
543.952	7034.43
544.316	7096.58
544.681	7069.46
545.045	7193.07
545.41	7169.57
545.774	7192.4
546.138	7211.15
546.503	7224.03
546.867	7241.21
547.231	7287.99
547.595	7326.18
547.959	7384.03
548.324	7340.64
548.688	7400.75
549.052	7465.16
549.416	7492.95
549.779	7467.64
550.143	7497.47
550.507	7574.98
550.871	7542.44
551.235	7535.44
551.599	7600.52
551.962	7652.5
552.326	7653.85
552.689	7704.25
553.053	7617.24
553.417	7684.81
553.78	7803
554.143	7783.57
554.507	7808.2
554.87	7825.6
555.234	7947.63
555.597	7868.08
555.96	7848.2
556.323	7945.6
556.686	8010
557.05	8006.61
557.413	8001.41
557.776	8037.12
558.139	8078.02
558.502	8106.04
558.865	8120.96
559.228	8222.43
559.59	8199.15
559.953	8239.83
560.316	8316.43
560.679	8280.95
561.041	8304.23
561.404	8350.11
561.767	8412.02
562.129	8405.02
562.492	8477.33
562.854	8480.05
563.217	8517.11
563.579	8585.13
563.941	8576.77
564.304	8586.03
564.666	8581.74
565.028	8580.16
565.39	8638.91
565.753	8744.9
566.115	8775.63
566.477	8773.6
566.839	8844.56
567.201	8905.57
567.563	8861.05
567.925	8982.18
568.287	9006.13
568.648	8974.5
569.01	9067.83
569.372	9080.48
569.734	9062.18
570.095	9153.93
570.457	9238.67
570.819	9226.01
571.18	9288.61
571.542	9301.04
571.903	9346.01
572.265	9319.12
572.626	9437.53
572.987	9462.84
573.349	9435.5
573.71	9498.78
574.071	9620.13
574.432	9678.21
574.794	9704.19
575.155	9780.58
575.516	9751.65
575.877	9819.45
576.238	9951.87
576.599	9993.68
576.96	10039.1
577.32	10076.16
577.681	10208.81
578.042	10285.42
578.403	10335.82
578.763	10391.63
579.124	10524.74
579.485	10621.01
579.845	10717.5
580.206	10758.63
580.566	10856.03
580.927	10962.92
581.287	11176.25
581.648	11198.84
582.008	11378.95
582.368	11429.57
582.728	11600.64
583.089	11647.42
583.449	11879.5
583.809	12002.21
584.169	12228.2
584.529	12298.48
584.889	12518.81
585.249	12704.57
585.609	12886.26
585.969	13186.36
586.329	13222.75
586.688	13446.92
587.048	13666.12
587.408	13908.15
587.768	14064.53
588.127	14392.43
588.487	14550.85
588.846	14925.07
589.206	14946.32
589.565	15322.58
589.925	15560.76
590.284	15802.56
590.643	16063.12
591.003	16387.63
591.362	16651.36
591.721	16884.12
592.08	17107.62
592.44	17489.98
592.799	17769.74
593.158	18053.13
593.517	18291.99
593.876	18579.21
594.235	18849.72
594.593	19227.11
594.952	19518.17
595.311	19766.75
595.67	20087.65
596.029	20595.43
596.387	20845.82
596.746	21239.94
597.104	21415.98
597.463	21688.96
597.822	22144.54
598.18	22355.16
598.538	22631.76
598.897	23144.29
599.255	23259.77
599.613	23885.52
599.972	23967.1
600.33	24385.39
600.688	24566.18
601.046	24978.59
601.404	25447.51
601.762	25622.19
602.12	25959.13
602.478	26326.36
602.836	26661.49
603.194	26707.81
603.552	27064.87
603.91	27217.86
604.268	27757.5
604.625	28055.35
604.983	28289.47
605.341	28452.18
605.698	29017.13
606.056	29260.06
606.413	29466.16
606.771	29815.08
607.128	30127.16
607.485	30306.36
607.843	30585.9
608.2	30942.05
608.557	31255.04
608.914	31401.93
609.272	31692.09
609.629	32022.25
609.986	32302.92
610.343	32262.7
610.7	32832.63
611.057	32829.46
611.414	33075.56
611.771	33342.67
612.127	33675.54
612.484	33947.17
612.841	34189.65
613.198	34219.03
613.554	34344.68
613.911	34769.3
614.267	35030.08
614.624	35042.28
614.98	35231.21
615.337	35710.52
615.693	35697.18
616.05	35934.69
616.406	36247.9
616.762	36285.19
617.118	36390.5
617.475	36547.78
617.831	36975.79
618.187	37159.74
618.543	37158.16
618.899	37483.58
619.255	37561.09
619.611	37757.24
619.967	37886.73
620.323	38070
620.678	38011.02
621.034	38138.7
621.39	38248.53
621.746	38335.31
622.101	38746.59
622.457	38651.23
622.812	38750.44
623.168	39041.73
623.523	39077.66
623.879	39373.92
624.234	39154.95
624.589	39359.69
624.945	39440.81
625.3	39506.8
625.655	39584.76
626.01	39864.98
626.365	39880.58
626.72	39879.22
627.075	39833.8
627.43	40058.2
627.785	39973
628.14	40245.54
628.495	40195.6
628.85	40254.8
629.205	40198.99
629.559	40469.49
629.914	40401.47
630.269	40494.57
630.623	40466.32
630.978	40401.01
631.332	40670.16
631.687	40750.61
632.041	40562.59
632.396	40725.53
632.75	40655.47
633.104	40879.42
633.459	40652.76
633.813	40666.09
634.167	40732.3
634.521	40782.25
634.875	40904.05
635.229	40852.53
635.583	40552.2
635.937	40688.92
636.291	40696.15
636.645	40794
636.999	40780.21
637.352	40840.32
637.706	40610.05
638.06	40941.11
638.413	40731.85
638.767	40744.06
639.121	40806.2
639.474	40555.59
639.828	40649.37
640.181	40675.58
640.534	40749.25
640.888	40657.73
641.241	40580.9
641.594	40634.45
641.947	40877.61
642.301	40746.54
642.654	40712.64
643.007	40781.12
643.36	40742.7
643.713	40618.86
644.066	40795.58
644.419	40502.71
644.771	40158.76
645.124	39935.04
645.477	39859.11
645.83	39779.11
646.182	39598.32
646.535	39692.56
646.888	39690.3
647.24	39533.24
647.593	39667.7
647.945	39515.61
648.298	39416.86
648.65	39360.36
649.002	39291.66
649.355	39444.2
649.707	39612.56
650.059	39473.81
650.411	40019.1
650.763	40071.31
651.115	40425.65
651.467	40224.97
651.819	40352.2
652.171	40239.66
652.523	40188.14
652.875	40214.35
653.227	40151.53
653.578	40354.01
653.93	40175.94
654.282	40164.41
654.633	40157.18
654.985	40178.65
655.337	40197.63
655.688	40304.97
656.039	40295.48
656.391	40001.02
656.742	40033.79
657.094	39946.11
657.445	40273.56
657.796	40032.21
658.147	40006.9
658.498	40050.74
658.849	40115.37
659.2	40100.68
659.551	39834.48
659.902	40087.58
660.253	39916.28
660.604	40082.38
660.955	39795.38
661.306	40097.29
661.656	39804.87
662.007	39871.99
662.358	39988.6
662.708	39989.27
663.059	39898.65
663.409	39729.85
663.76	40048.25
664.11	39990.63
664.461	40054.81
664.811	39949.95
665.161	39973.45
665.511	39925.77
665.862	39843.97
666.212	39962.16
666.562	39891.2
666.912	39917.64
667.262	39730.52
667.612	39817.3
667.962	39922.83
668.312	39744.08
668.662	39939.33
669.011	39857.98
669.361	39855.49
669.711	39697.98
670.06	39643.75
670.41	39728.49
670.76	39684.2
671.109	39809.62
671.459	39609.4
671.808	39706.12
672.157	39701.37
672.507	39490.98
672.856	39550.87
673.205	39571.88
673.554	39600.81
673.904	39570.3
674.253	39780.69
674.602	39626.35
674.951	39140.26
675.3	38846.93
675.649	39558.78
675.998	39474.48
676.346	39547.7
676.695	39524.88
677.044	39393.81
677.393	39375.96
677.741	39403.07
678.09	39179.8
678.438	39227.03
678.787	39369.63
679.135	39297.99
679.484	39161.05
679.832	39241.5
680.181	39009.41
680.529	39208.05
680.877	39053.93
681.225	38968.74
681.573	39299.57
681.922	38951.56
682.27	38751.57
682.618	38831.11
682.966	38881.51
683.314	38853.26
683.661	38679.25
684.009	38672.47
684.357	38476.09
684.705	38569.88
685.053	38468.86
685.4	38459.14
685.748	38234.52
686.095	38244.46
686.443	37987.52
686.79	38103
687.138	38104.58
687.485	37991.36
687.832	37912.27
688.18	38009.21
688.527	37692.84
688.874	37844.25
689.221	37646.06
689.568	37556.57
689.915	37445.39
690.262	37543.91
690.609	37486.29
690.956	37274.77
691.303	37246.29
691.65	37100.54
691.997	37186.41
692.344	36844.5
692.69	36959.97
693.037	36882.69
693.383	36641.11
693.73	36720.88
694.077	36583.04
694.423	36582.36
694.769	36377.84
695.116	36394.11
695.462	36274.12
695.808	36065.31
696.155	36218.75
696.501	35962.94
696.847	36028.02
697.193	35741.93
697.539	35924.07
697.885	35502.61
698.231	35507.81
698.577	35503.29
698.923	35553.01
699.269	35396.17
699.614	35154.37
699.96	35054.71
700.306	35116.18
700.651	34784.89
700.997	34743.31
701.342	34725.68
701.688	34781.27
702.033	34499.25
702.379	34438.23
702.724	34501.06
703.069	34657.44
703.415	34127.51
703.76	34177.45
704.105	34184.45
704.45	34070.11
704.795	33908.98
705.14	33830.79
705.485	33748.31
705.83	33647.75
706.175	33803.67
706.52	33580.63
706.865	33550.12
707.209	33551.48
707.554	33419.73
707.899	33472.61
708.243	33230.36
708.588	33225.16
708.932	32958.95
709.277	32979.74
709.621	32940.42
709.966	32897.93
710.31	32833.3
710.654	32621.78
710.998	32617.94
711.342	32639.86
711.687	32557.83
712.031	32423.37
712.375	32302.24
712.719	32495.91
713.063	32309.02
713.407	32439.19
713.75	32113.32
714.094	32274.67
714.438	32036.49
714.782	32087.11
715.125	31953.78
715.469	31953.1
715.812	31745.2
716.156	31652.09
716.499	31770.51
716.843	31724.41
717.186	31460.68
717.53	31622.49
717.873	31584.97
718.216	31573.68
718.559	31424.3
718.902	31200.35
719.246	31356.96
719.589	31150.86
719.932	31057.98
720.275	31071.54
720.617	31034.03
720.96	30855.5
721.303	30935.27
721.646	31072.45
721.989	30785.9
722.331	30817.54
722.674	30702.74
723.016	30726.92
723.359	30621.61
723.701	30502.29
724.044	30527.83
724.386	30328.51
724.729	30473.37
725.071	30309.75
725.413	30383.88
725.755	30263.88
726.097	30229.76
726.439	30001.74
726.782	30077.9
727.124	30183.88
727.465	30013.04
727.807	30067.95
728.149	29798.13
728.491	29905.02
728.833	29809.88
729.175	29837.22
729.516	29626.61
729.858	29729.88
730.199	29796.1
730.541	29662.99
730.882	29629.55
731.224	29614.18
731.565	29423.45
731.906	29521.07
732.248	29405.14
732.589	29357.46
732.93	29332.6
733.271	29201.08
733.612	29310.23
733.953	29383.22
734.294	29131.48
734.635	29112.5
734.976	29185.94
735.317	28975.33
735.658	28998.15
735.999	28999.28
736.339	28898.04
736.68	29147.3
737.021	28900.75
737.361	28899.4
737.702	28925.16
738.042	28776.23
738.383	28766.52
738.723	28692.17
739.063	28731.72
739.404	28509.8
739.744	28666.86
740.084	28554.55
740.424	28523.36
740.764	28500.08
741.104	28565.17
741.444	28407.66
741.784	28291.5
742.124	28459.41
742.464	28287.66
742.804	28305.29
743.143	28210.15
743.483	28162.69
743.823	28154.1
744.162	28002.7
744.502	28113.43
744.841	28021.23
745.181	27984.84
745.52	27920.21
745.86	28001.79
746.199	28010.61
746.538	27915.69
746.877	27910.49
747.216	27853.55
747.556	27807.45
747.895	27780.33
748.234	27664.17
748.573	27597.96
748.911	27485.2
749.25	27614.23
749.589	27487.46
749.928	27576.27
750.267	27518.41
750.605	27550.96
750.944	27345.76
751.283	27219.21
751.621	27385.76
751.96	27172.89
752.298	27336.05
752.636	27252.66
752.975	27075.04
753.313	26937.41
753.651	27100.57
753.989	26835.72
754.327	26805.89
754.666	26767.25
755.004	26838.21
755.342	26827.59
755.679	26687.48
756.017	26609.06
756.355	26639.57
756.693	26487.48
757.031	26578.33
757.368	26369.97
757.706	26375.62
758.044	26384.43
758.381	26328.16
758.719	26251.33
759.056	26190.09
759.394	26066.7
759.731	25881.4
760.068	25975.86
760.405	25768.4
760.743	25676.88
761.08	25833.49
