Data from hue_26_FLMS001491_00074.txt Node
Date: Tue Feb 07 17:14:30 GMT 2017
User: dcchb
Spectrometer: FLMS00149
Trigger mode: 0
Integration Time (sec): 2.000000E-2
Scans to average: 10
Electric dark correction enabled: true
Nonlinearity correction enabled: false
Boxcar width: 0
XAxis mode: Wavelengths
Number of Pixels in Spectrum: 2048
>>>>>Begin Spectral Data<<<<<
341.393	-13.14
341.776	-13.14
342.16	-13.14
342.543	-84.32
342.927	-76.41
343.31	-65.79
343.693	-79.12
344.077	-70.76
344.46	-45.68
344.843	-67.37
345.226	-53.59
345.61	-18.33
345.993	-32.34
346.376	9.24
346.759	11.95
347.142	8.56
347.525	50.14
347.908	56.69
348.291	82.91
348.674	98.5
349.057	115
349.44	119.97
349.823	129.01
350.206	169.23
350.588	184.15
350.971	216.46
351.354	225.28
351.737	248.33
352.119	265.73
352.502	264.82
352.884	269.8
353.267	286.29
353.65	273.18
354.032	299.17
354.414	306.86
354.797	329.68
355.179	326.06
355.562	330.81
355.944	333.07
356.326	340.98
356.709	333.07
357.091	351.37
357.473	342.34
357.855	337.82
358.238	350.7
358.62	359.06
359.002	357.7
359.384	347.08
359.766	360.41
360.148	347.31
360.53	362.67
360.912	332.17
361.294	339.4
361.676	334.43
362.057	339.4
362.439	317.93
362.821	319.51
363.203	317.48
363.584	334.43
363.966	342.34
364.348	324.03
364.729	322
365.111	339.62
365.493	321.77
365.874	307.99
366.256	321.32
366.637	318.61
367.019	311.6
367.4	296.24
367.781	316.57
368.163	305.73
368.544	318.38
368.925	303.69
369.306	301.88
369.688	315.44
370.069	310.47
370.45	319.74
370.831	309.12
371.212	313.86
371.593	337.14
371.974	328.1
372.355	312.73
372.736	325.84
373.117	301.88
373.498	324.71
373.879	333.3
374.26	303.01
374.641	314.99
375.021	306.18
375.402	323.35
375.783	313.18
376.163	342.56
376.544	322.9
376.925	318.38
377.305	333.07
377.686	325.39
378.066	327.19
378.447	338.27
378.827	333.52
379.208	317.03
379.588	326.74
379.968	345.27
380.349	330.58
380.729	352.05
381.109	340.53
381.489	340.53
381.87	325.39
382.25	350.7
382.63	351.15
383.01	345.73
383.39	361.32
383.77	342.79
384.15	354.99
384.53	355.22
384.91	340.08
385.29	367.42
385.67	360.41
386.049	357.02
386.429	341.21
386.809	358.83
387.189	368.1
387.568	340.3
387.948	366.06
388.328	347.76
388.707	369
389.087	363.58
389.466	362
389.846	332.39
390.225	359.06
390.605	362.45
390.984	359.74
391.363	354.54
391.743	368.78
392.122	362.45
392.501	360.19
392.881	353.86
393.26	391.15
393.639	367.42
394.018	391.83
394.397	372.84
394.776	383.01
395.155	363.8
395.534	380.07
395.913	374.43
396.292	390.7
396.671	393.86
397.05	393.63
397.429	388.66
397.808	399.96
398.186	392.96
398.565	381.66
398.944	384.37
399.323	386.85
399.701	390.7
400.08	392.05
400.458	388.44
400.837	393.18
401.215	411.03
401.594	399.06
401.972	419.62
402.351	416.46
402.729	405.84
403.107	411.71
403.486	427.31
403.864	433.63
404.242	417.36
404.62	429.79
404.999	427.98
405.377	424.37
405.755	407.64
406.133	420.3
406.511	395.44
406.889	432.05
407.267	432.95
407.645	446.06
408.023	452.62
408.401	437.7
408.779	440.64
409.156	460.52
409.534	446.74
409.912	435.21
410.29	459.17
410.667	458.49
411.045	446.74
411.422	471.82
411.8	453.07
412.178	451.94
412.555	474.08
412.933	459.62
413.31	461.43
413.687	483.12
414.065	477.93
414.442	489.68
414.819	471.15
415.197	484.7
415.574	495.1
415.951	499.17
416.328	486.29
416.705	490.35
417.082	496.46
417.46	509.34
417.837	523.12
418.214	510.01
418.591	543.46
418.967	510.01
419.344	520.64
419.721	524.48
420.098	524.93
420.475	531.03
420.852	529.45
421.228	515.21
421.605	546.62
421.982	522.67
422.358	526.51
422.735	542.33
423.111	571.71
423.488	562.89
423.864	558.38
424.241	557.92
424.617	560.41
424.994	570.35
425.37	576.45
425.746	587.75
426.123	573.06
426.499	582.33
426.875	585.72
427.251	576
427.627	596.11
428.003	572.39
428.379	573.74
428.756	587.3
429.132	594.98
429.507	585.72
429.883	623.23
430.259	620.75
430.635	628.43
431.011	591.14
431.387	644.02
431.763	632.27
432.138	659.39
432.514	641.31
432.89	639.05
433.265	653.97
433.641	654.19
434.016	666.62
434.392	683.12
434.767	684.93
435.143	693.74
435.518	686.06
435.894	691.03
436.269	678.82
436.644	693.51
437.02	718.14
437.395	714.3
437.77	705.04
438.145	728.09
438.52	686.73
438.895	746.17
439.271	733.29
439.646	733.06
440.021	716.79
440.395	732.83
440.77	747.75
441.145	777.13
441.52	770.8
441.895	764.7
442.27	771.7
442.645	784.58
443.019	813.74
443.394	778.03
443.769	804.92
444.143	806.28
444.518	790.23
444.892	790.46
445.267	773.51
445.641	803.11
446.016	809.44
446.39	809.22
446.764	830.46
447.139	802.44
447.513	797.24
447.887	835.2
448.262	821.87
448.636	839.05
449.01	855.09
449.384	842.44
449.758	856.67
450.132	842.89
450.506	868.42
450.88	880.85
451.254	857.8
451.628	890.12
452.002	903.22
452.376	902.55
452.75	875.65
453.123	907.29
453.497	920.63
453.871	902.55
454.244	937.12
454.618	931.25
454.992	931.92
455.365	951.36
455.739	971.25
456.112	973.96
456.486	973.73
456.859	986.16
457.232	1000.4
457.606	1004.69
457.979	1024.8
458.352	1032.94
458.725	1026.39
459.099	1049.44
459.472	1067.29
459.845	1084.91
460.218	1091.02
460.591	1081.3
460.964	1097.57
461.337	1126.95
461.71	1124.69
462.083	1141.64
462.456	1130.56
462.829	1144.8
463.201	1168.53
463.574	1168.75
463.947	1188.64
464.32	1213.27
464.692	1204.01
465.065	1225.02
465.438	1250.56
465.81	1302.54
466.183	1288.07
466.555	1309.54
466.928	1289.66
467.3	1323.78
467.672	1323.55
468.045	1347.28
468.417	1347.51
468.789	1389.99
469.161	1386.83
469.534	1417.79
469.906	1446.04
470.278	1458.01
470.65	1469.09
471.022	1469.76
471.394	1518.58
471.766	1510.89
472.138	1554.96
472.51	1571.68
472.882	1587.95
473.253	1619.82
473.625	1641.51
473.997	1690.55
474.369	1708.4
474.74	1722.41
475.112	1759.02
475.484	1802.64
475.855	1814.84
476.227	1825.91
476.598	1870.66
476.97	1919.7
477.341	1963.31
477.713	2002.63
478.084	1991.56
478.455	2042.4
478.827	2082.63
479.198	2126.92
479.569	2170.99
479.94	2219.57
480.311	2215.96
480.682	2256.64
481.053	2334.83
481.424	2372.79
481.795	2415.28
482.166	2431.77
482.537	2505.44
482.908	2580.47
483.279	2577.08
483.65	2637.64
484.021	2704.99
484.391	2737.3
484.762	2738.43
485.133	2787.92
485.503	2843.51
485.874	2920.8
486.244	2978.2
486.615	3022.04
486.985	3010.29
487.356	3082.83
487.726	3158.31
488.097	3207.8
488.467	3220.9
488.837	3302.03
489.207	3412.09
489.578	3410.73
489.948	3464.97
490.318	3509.03
490.688	3553.78
491.058	3606.2
491.428	3647.79
491.798	3710.16
492.168	3770.72
492.538	3849.81
492.908	3877.16
493.278	3918.51
493.648	3950.83
494.017	3997.61
494.387	4043.93
494.757	4103.59
495.126	4150.15
495.496	4165.29
495.866	4242.57
496.235	4240.99
496.605	4308.56
496.974	4362.57
497.344	4346.3
497.713	4381.55
498.082	4387.65
498.452	4452.74
498.821	4548.55
499.19	4517.82
499.559	4607.99
499.928	4587.65
500.298	4621.55
500.667	4732.28
501.036	4699.51
501.405	4752.62
501.774	4720.3
502.143	4803.91
502.512	4867.19
502.88	4814.53
503.249	4872.61
503.618	4942.21
503.987	4921.88
504.356	4951.48
504.724	4983.12
505.093	5027.64
505.462	5034.19
505.83	5097.24
506.199	5126.62
506.567	5189.44
506.936	5171.36
507.304	5259.27
507.672	5248.2
508.041	5287.52
508.409	5355.76
508.777	5333.84
509.145	5342.2
509.514	5384.01
509.882	5397.8
510.25	5426.95
510.618	5470.56
510.986	5488.19
511.354	5525.48
511.722	5541.75
512.09	5605.25
512.458	5587.17
512.826	5631.91
513.193	5666.94
513.561	5642.08
513.929	5696.55
514.297	5751.46
514.664	5744.91
515.032	5770.44
515.4	5879.14
515.767	5816.09
516.135	5878.01
516.502	5823.1
516.869	5884.56
517.237	5909.65
517.604	5954.17
517.972	5998.01
518.339	5960.94
518.706	6033.71
519.073	6055.18
519.44	6017.21
519.808	6117.78
520.175	6122.07
520.542	6206.36
520.909	6185.12
521.276	6191.45
521.643	6225.8
522.009	6300.6
522.376	6291.11
522.743	6308.05
523.11	6374.95
523.477	6402.52
523.843	6452.23
524.21	6525.68
524.577	6536.07
524.943	6533.59
525.31	6559.57
525.676	6687.03
526.043	6649.97
526.409	6706.69
526.776	6741.26
527.142	6750.53
527.508	6800.7
527.874	6830.75
528.241	6891.77
528.607	6842.28
528.973	6938.77
529.339	7000.47
529.705	7090.18
530.071	7103.51
530.437	7076.85
530.803	7142.16
531.169	7174.47
531.535	7122.04
531.901	7173.79
532.267	7256.28
532.632	7285.66
532.998	7316.16
533.364	7364.98
533.73	7402.49
534.095	7430.28
534.461	7451.53
534.826	7501.92
535.192	7498.53
535.557	7548.02
535.923	7591.86
536.288	7579.43
536.653	7585.54
537.019	7620.34
537.384	7727.23
537.749	7725.87
538.114	7717.28
538.479	7755.02
538.845	7800.67
539.21	7842.7
539.575	7797.51
539.94	7871.18
540.305	7950.27
540.67	7887.45
541.034	7961.57
541.399	7966.32
541.764	8001.12
542.129	8047.22
542.494	8061.68
542.858	8124.28
543.223	8096.71
543.587	8118.18
543.952	8187.1
544.316	8188.91
544.681	8222.81
545.045	8299.64
545.41	8305.97
545.774	8369.02
546.138	8327.89
546.503	8385.29
546.867	8457.15
547.231	8576.47
547.595	8587.99
547.959	8531.5
548.324	8574.89
548.688	8575.79
549.052	8635.45
549.416	8620.31
549.779	8700.31
550.143	8717.03
550.507	8780.53
550.871	8803.36
551.235	8766.29
551.599	8878.61
551.962	8885.84
552.326	8909.79
552.689	8962.9
553.053	8919.74
553.417	8998.83
553.78	9064.14
554.143	9020.75
554.507	9070.02
554.87	9071.6
555.234	9134.42
555.597	9131.94
555.96	9106.17
556.323	9215.55
556.686	9224.81
557.05	9226.17
557.413	9356.56
557.776	9391.36
558.139	9399.95
558.502	9399.05
558.865	9440.4
559.228	9458.93
559.59	9521.3
559.953	9483.56
560.316	9648.08
560.679	9614.63
561.041	9611.7
561.404	9680.85
561.767	9735.08
562.129	9710.9
562.492	9781.41
562.854	9763.33
563.217	9749.32
563.579	9840.84
563.941	9847.4
564.304	9952.7
564.666	10068.86
565.028	10002.87
565.39	10059.59
565.753	10078.8
566.115	10066.15
566.477	10118.8
566.839	10210.78
567.201	10218.91
567.563	10256.88
567.925	10307.95
568.287	10325.12
568.648	10376.2
569.01	10390.21
569.372	10457.55
569.734	10448.06
570.095	10534.84
570.457	10618
570.819	10645.12
571.18	10650.77
571.542	10704.78
571.903	10791.33
572.265	10786.35
572.626	10932.57
572.987	10926.01
573.349	10977.31
573.71	10959.91
574.071	11020.02
574.432	11073.35
574.794	11201.26
575.155	11219.34
575.516	11263.4
575.877	11271.31
576.238	11385.66
576.599	11503.17
576.96	11553.34
577.32	11591.31
577.681	11780.23
578.042	11883.73
578.403	11923.95
578.763	12054.57
579.124	12131.63
579.485	12265.64
579.845	12399.19
580.206	12428.8
580.566	12598.28
580.927	12643.93
581.287	12813.65
581.648	12893.19
582.008	13098.61
582.368	13196.46
582.728	13354.42
583.089	13494.53
583.449	13712.15
583.809	13958.25
584.169	14098.36
584.529	14195.76
584.889	14449.08
585.249	14595.97
585.609	14717.1
585.969	14993.25
586.329	15133.36
586.688	15506.68
587.048	15628.94
587.408	15849.72
587.768	16098.98
588.127	16293.33
588.487	16530.38
588.846	16870.49
589.206	17073.42
589.565	17327.43
589.925	17722.22
590.284	17920.18
590.643	18110.23
591.003	18477
591.362	18777.56
591.721	19032.01
592.08	19232.69
592.44	19598.33
592.799	19882.16
593.158	20146.56
593.517	20448.7
593.876	20771.18
594.235	20977.27
594.593	21383.14
594.952	21549.24
595.311	21896.12
595.67	22279.16
596.029	22644.12
596.387	22982.19
596.746	23240.26
597.104	23427.83
597.463	23799.57
597.822	24173.35
598.18	24397.07
598.538	24666.67
598.897	25076.15
599.255	25275.92
599.613	25792.29
599.972	25910.48
600.33	26301.43
600.688	26493.51
601.046	26897.12
601.404	27340.72
601.762	27354.51
602.12	27841.27
602.478	28218.44
602.836	28343.18
603.194	28406.68
603.552	28926.22
603.91	29064.97
604.268	29462.93
604.625	29688.68
604.983	29974.55
605.341	30258.61
605.698	30637.36
606.056	30889.56
606.413	30941.98
606.771	31380.39
607.128	31699.03
607.485	31812.02
607.843	32067.6
608.2	32369.52
608.557	32647.7
608.914	32726.12
609.272	33189.16
609.629	33344.86
609.986	33570.39
610.343	33750.72
610.7	34136.48
611.057	34203.14
611.414	34473.87
611.771	34608.1
612.127	35004.48
612.484	35160.4
612.841	35417.8
613.198	35433.62
613.554	35476.78
613.911	36055.97
614.267	36124.9
614.624	36297.1
614.98	36365.8
615.337	36768.5
615.693	36886.69
616.05	36883.07
616.406	37248.03
616.762	37376.39
617.118	37379.33
617.475	37552.88
617.831	37884.4
618.187	37998.97
618.543	38116.48
618.899	38379.3
619.255	38495.46
619.611	38549.92
619.967	38815.45
620.323	39008.89
620.678	38966.63
621.034	39003.69
621.39	39148.09
621.746	39222.22
622.101	39755.31
622.457	39453.62
622.812	39647.74
623.168	39919.6
623.523	39834.86
623.879	40038.24
624.234	39789.89
624.589	40101.52
624.945	40252.7
625.3	40463.09
625.655	40490.43
626.01	40525.23
626.365	40686.13
626.72	40737.66
627.075	40722.97
627.43	40887.26
627.785	40781.95
628.14	41017.88
628.495	41059.01
628.85	41037.08
629.205	41074.82
629.559	41187.14
629.914	41028.27
630.269	41236.63
630.623	41198.89
630.978	41182.62
631.332	41204.76
631.687	41442.27
632.041	41249.73
632.396	41267.81
632.75	41304.2
633.104	41437.53
633.459	41309.17
633.813	41229.4
634.167	41349.84
634.521	41309.39
634.875	41412.22
635.229	41409.73
635.583	41353.23
635.937	41217.87
636.291	41271.88
636.645	41366.12
636.999	41309.85
637.352	41351.2
637.706	41293.35
638.06	41471.2
638.413	41360.92
638.767	41214.71
639.121	41386
639.474	41113.92
639.828	41221.03
640.181	41329.51
640.534	41316.85
640.888	41119.34
641.241	40991.44
641.594	41188.95
641.947	41369.96
642.301	41236.4
642.654	41225.55
643.007	41151.88
643.36	41333.8
643.713	41202.28
644.066	41315.72
644.419	41056.97
644.771	40940.36
645.124	40542.63
645.477	40448.4
645.83	40311
646.182	40251.57
646.535	40026.72
646.888	40129.99
647.24	39984.01
647.593	40322.75
647.945	40164.57
648.298	39925.02
648.65	39900.62
649.002	39685.93
649.355	39956.21
649.707	39939.71
650.059	40226.03
650.411	40585.35
650.763	40713.03
651.115	40960.7
651.467	40917.31
651.819	40943.08
652.171	40795.28
652.523	40662.86
652.875	40770.43
653.227	40694.95
653.578	40986.92
653.93	40823.98
654.282	40529.3
654.633	40626.25
654.985	40692.46
655.337	40602.97
655.688	40714.38
656.039	40784.89
656.391	40519.81
656.742	40615.18
657.094	40541.5
657.445	40728.84
657.796	40537.89
658.147	40583.09
658.498	40549.19
658.849	40537.21
659.2	40515.97
659.551	40408.17
659.902	40657.66
660.253	40444.33
660.604	40535.63
660.955	40373.83
661.306	40618.34
661.656	40471.22
662.007	40632.12
662.358	40502.64
662.708	40433.94
663.059	40358.01
663.409	40371.11
663.76	40468.96
664.11	40491.34
664.461	40581.96
664.811	40426.48
665.161	40473.48
665.511	40378.35
665.862	40386.48
666.212	40531.34
666.562	40406.14
666.912	40292.25
667.262	40297.44
667.612	40431.45
667.962	40390.77
668.312	40438
668.662	40524.33
669.011	40386.93
669.361	40567.49
669.711	40418.34
670.06	40179.93
670.41	40161.18
670.76	40152.59
671.109	40376.09
671.459	40209.99
671.808	40113.95
672.157	40246.15
672.507	40021.29
672.856	40042.76
673.205	40035.08
673.554	40186.03
673.904	40072.36
674.253	40241.63
674.602	40181.06
674.951	39410.46
675.3	39325.72
675.649	39987.39
675.998	40022.65
676.346	39938.81
676.695	40144.9
677.044	39773.84
677.393	40056.77
677.741	39978.36
678.09	39840.51
678.438	39585.6
678.787	39779.94
679.135	39814.29
679.484	39563.23
679.832	39790.11
680.181	39612.04
680.529	39688.87
680.877	39561.64
681.225	39570.46
681.573	39771.58
681.922	39478.03
682.27	39349.67
682.618	39378.82
682.966	39396.9
683.314	39256.34
683.661	39226.96
684.009	38961.66
684.357	38941.32
684.705	38826.07
685.053	38858.84
685.4	38811.15
685.748	38698.16
686.095	38661.55
686.443	38595.79
686.79	38463.37
687.138	38656.58
687.485	38580.2
687.832	38360.55
688.18	38561.9
688.527	38201.45
688.874	38249.14
689.221	38085.52
689.568	38057.5
689.915	38031.51
690.262	38052.08
690.609	37916.71
690.956	37681.24
691.303	37792.65
691.65	37597.85
691.997	37556.27
692.344	37433.79
692.69	37331.42
693.037	37394.47
693.383	37073.57
693.73	37275.83
694.077	37000.58
694.423	36928.72
694.769	36881.49
695.116	36799.46
695.462	36780.47
695.808	36682.4
696.155	36825.44
696.501	36416.64
696.847	36500.48
697.193	36232.69
697.539	36376.42
697.885	36068.85
698.231	36010.32
698.577	36058.91
698.923	35911.57
699.269	35778.47
699.614	35599.49
699.96	35673.38
700.306	35503.22
700.651	35435.65
700.997	35262.1
701.342	35212.83
701.688	35227.07
702.033	35089.67
702.379	35114.53
702.724	35058.71
703.069	34973.74
703.415	34670.7
703.76	34793.63
704.105	34685.39
704.45	34640.87
704.795	34394.55
705.14	34293.99
705.485	34314.32
705.83	34198.17
706.175	34290.14
706.52	34035.91
706.865	33971.28
707.209	33882.47
707.554	33818.52
707.899	33856.93
708.243	33633.89
708.588	33678.86
708.932	33493.78
709.277	33416.04
709.621	33418.3
709.966	33178.76
710.31	33233.45
710.654	32964.53
710.998	33055.15
711.342	32969.95
711.687	33006.34
712.031	32812.89
712.375	32604.54
712.719	32807.47
713.063	32750.3
713.407	32649.06
713.75	32587.14
714.094	32497.87
714.438	32369.06
714.782	32427.82
715.125	32176.53
715.469	32394.37
715.812	32099.69
716.156	32163.42
716.499	32081.39
716.843	32178.33
717.186	31901.96
717.53	32030.99
717.873	31959.13
718.216	31919.81
718.559	31739.7
718.902	31611.57
719.246	31611.8
719.589	31441.63
719.932	31449.54
720.275	31430.78
720.617	31453.16
720.96	31274.18
721.303	31349.66
721.646	31335.64
721.989	31012.94
722.331	31258.81
722.674	31059.72
723.016	31091.36
723.359	31027.18
723.701	31196.67
724.044	30829.9
724.386	30664.7
724.729	30909.44
725.071	30764.36
725.413	30849.1
725.755	30752.61
726.097	30727.75
726.439	30538.6
726.782	30379.29
727.124	30627.42
727.465	30411.83
727.807	30347.65
728.149	30390.59
728.491	30456.35
728.833	30306.97
729.175	30262.45
729.516	30231.72
729.858	30156.69
730.199	30231.95
730.541	30075.11
730.882	30027.66
731.224	30022.46
731.565	29861.33
731.906	29982.69
732.248	29793.99
732.589	29812.3
732.93	29780.21
733.271	29631.06
733.612	29735.46
733.953	29611.62
734.294	29544.73
734.635	29450.72
734.976	29655.69
735.317	29373.44
735.658	29334.12
735.999	29306.32
736.339	29333.21
736.68	29309.94
737.021	29203.5
737.361	29242.59
737.702	29209.6
738.042	29130.51
738.383	28976.84
738.723	29158.08
739.063	28994.24
739.404	29020.68
739.744	28992.2
740.084	28918.53
740.424	28918.31
740.764	28786.56
741.104	28959.89
741.444	28786.33
741.784	28805.77
742.124	28814.36
742.464	28740.46
742.804	28772.77
743.143	28530.07
743.483	28554.48
743.823	28531.42
744.162	28507.24
744.502	28528.94
744.841	28385.21
745.181	28542.72
745.52	28275.39
745.86	28347.93
746.199	28312.22
746.538	28220.7
746.877	28299.57
747.216	28315.84
747.556	28131.21
747.895	28133.92
748.234	28038.33
748.573	28000.59
748.911	27884.66
749.25	27992.91
749.589	27746.36
749.928	27789.07
750.267	27912.68
750.605	27799.24
750.944	27659.81
751.283	27660.94
751.621	27626.82
751.96	27560.83
752.298	27482.64
752.636	27628.17
752.975	27425.01
753.313	27389.99
753.651	27478.8
753.989	27370.33
754.327	27223.44
754.666	27154.29
755.004	27335.07
755.342	27199.71
755.679	27151.57
756.017	26990.67
756.355	27047.85
756.693	26892.82
757.031	26966.49
757.368	26801.98
757.706	26798.82
758.044	26706.84
758.381	26756.1
758.719	26612.38
759.056	26642.44
759.394	26498.03
759.731	26471.59
760.068	26374.19
