Data from hue_20_FLMS001491_95.txt Node
Date: Mon Feb 06 15:35:00 GMT 2017
User: dcchb
Spectrometer: FLMS00149
Trigger mode: 0
Integration Time (sec): 2.000000E-2
Scans to average: 10
Electric dark correction enabled: true
Nonlinearity correction enabled: false
Boxcar width: 0
XAxis mode: Wavelengths
Number of Pixels in Spectrum: 2048
>>>>>Begin Spectral Data<<<<<
341.393	-3.57
341.776	-3.57
342.16	-3.57
342.543	-45.83
342.927	-49.22
343.31	-69.33
343.693	-55.78
344.077	-68.2
344.46	-59.62
344.843	-52.16
345.226	-48.09
345.61	-21.88
345.993	-7.42
346.376	-18.94
346.759	21.06
347.142	31
347.525	25.13
347.908	51.79
348.291	77.1
348.674	90.89
349.057	104.45
349.44	133.6
349.823	146.03
350.206	165.24
350.588	196.87
350.971	206.36
351.354	238
351.737	241.62
352.119	251.79
352.502	270.32
352.884	287.72
353.267	293.37
353.65	284.55
354.032	308.06
354.414	290.2
354.797	328.85
355.179	343.99
355.562	318.68
355.944	333.37
356.326	336.3
356.709	333.14
357.091	346.93
357.473	346.02
357.855	365.68
358.238	353.48
358.62	327.04
359.002	352.12
359.384	341.5
359.766	354.38
360.148	332.24
360.53	344.67
360.912	361.84
361.294	335.85
361.676	335.85
362.057	334.72
362.439	323.65
362.821	337.66
363.203	330.88
363.584	322.97
363.966	336.76
364.348	342.63
364.729	330.43
365.111	339.92
365.493	322.29
365.874	318.9
366.256	327.72
366.637	338.34
367.019	337.21
367.4	326.36
367.781	328.85
368.163	321.62
368.544	330.43
368.925	310.99
369.306	320.26
369.688	336.3
370.069	332.46
370.45	335.85
370.831	320.94
371.212	330.43
371.593	324.78
371.974	327.04
372.355	303.31
372.736	343.08
373.117	340.6
373.498	323.65
373.879	332.24
374.26	325.68
374.641	356.64
375.021	339.24
375.402	328.4
375.783	319.13
376.163	336.76
376.544	338.79
376.925	347.15
377.305	349.64
377.686	352.58
378.066	331.33
378.447	351.9
378.827	350.54
379.208	345.34
379.588	350.99
379.968	353.25
380.349	354.16
380.729	353.93
381.109	366.36
381.489	349.86
381.87	341.28
382.25	340.82
382.63	363.87
383.01	339.47
383.39	359.13
383.77	366.59
384.15	381.5
384.53	383.54
384.91	339.92
385.29	353.03
385.67	380.37
386.049	381.28
386.429	359.81
386.809	383.76
387.189	382.63
387.568	375.63
387.948	383.76
388.328	353.03
388.707	388.05
389.087	385.34
389.466	387.38
389.846	379.92
390.225	394.16
390.605	383.99
390.984	412.69
391.363	405
391.743	391.67
392.122	394.61
392.501	398.68
392.881	405.91
393.26	403.2
393.639	430.77
394.018	400.94
394.397	371.33
394.776	392.8
395.155	398.45
395.534	406.36
395.913	405
396.292	419.01
396.671	397.09
397.05	403.42
397.429	432.8
397.808	404.1
398.186	421.73
398.565	399.35
398.944	426.92
399.323	422.4
399.701	421.73
400.08	430.31
400.458	428.05
400.837	441.16
401.215	427.38
401.594	459.24
401.972	433.48
402.351	442.06
402.729	433.7
403.107	431.22
403.486	448.62
403.864	463.98
404.242	463.76
404.62	461.27
404.999	455.4
405.377	456.3
405.755	437.32
406.133	451.33
406.511	462.18
406.889	447.04
407.267	463.53
407.645	466.24
408.023	472.12
408.401	469.41
408.779	486.58
409.156	489.52
409.534	475.74
409.912	498.11
410.29	493.14
410.667	473.93
411.045	500.59
411.422	510.76
411.8	502.4
412.178	496.75
412.555	492.23
412.933	527.94
413.31	527.03
413.687	547.15
414.065	517.99
414.442	528.84
414.819	536.53
415.197	548.95
415.574	559.12
415.951	551.89
416.328	538.56
416.705	552.8
417.082	568.61
417.46	571.55
417.837	555.06
418.214	564.32
418.591	576.3
418.967	546.02
419.344	571.1
419.721	603.87
420.098	569.52
420.475	584.66
420.852	597.99
421.228	605.9
421.605	574.94
421.982	599.57
422.358	601.61
422.735	608.39
423.111	614.49
423.488	609.52
423.864	616.07
424.241	614.72
424.617	643.64
424.994	633.7
425.37	634.15
425.746	654.04
426.123	631.44
426.499	653.81
426.875	656.97
427.251	653.13
427.627	660.36
428.003	677.54
428.379	672.57
428.756	671.21
429.132	694.26
429.507	680.93
429.883	717.09
430.259	700.81
430.635	704.43
431.011	711.89
431.387	721.38
431.763	703.53
432.138	729.97
432.514	742.4
432.89	763.19
433.265	751.21
433.641	752.11
434.016	755.73
434.392	776.97
434.767	790.76
435.143	795.73
435.518	803.19
435.894	808.83
436.269	814.26
436.644	839.34
437.02	814.94
437.395	816.74
437.77	852.22
438.145	854.03
438.52	824.2
438.895	838.44
439.271	838.66
439.646	865.33
440.021	867.36
440.395	871.88
440.77	868.95
441.145	871.43
441.52	888.61
441.895	899.68
442.27	915.5
442.645	916.18
443.019	922.73
443.394	924.54
443.769	913.01
444.143	922.5
444.518	942.39
444.892	933.8
445.267	934.93
445.641	952.56
446.016	960.7
446.39	966.12
446.764	972.45
447.139	975.61
447.513	977.19
447.887	969.96
448.262	1004.31
448.636	971.09
449.01	987.14
449.384	982.16
449.758	1006.12
450.132	1017.42
450.506	1015.38
450.88	1044.08
451.254	1012.45
451.628	1049.05
452.002	1059
452.376	1052.44
452.75	1064.2
453.123	1048.15
453.497	1088.15
453.871	1115.72
454.244	1119.33
454.618	1119.56
454.992	1112.78
455.365	1144.42
455.739	1147.81
456.112	1193.46
456.486	1170.41
456.859	1172.21
457.232	1212.21
457.606	1219.45
457.979	1264.87
458.352	1249.73
458.725	1257.64
459.099	1272.33
459.472	1275.94
459.845	1288.82
460.218	1309.84
460.591	1328.14
460.964	1326.34
461.337	1357.29
461.71	1332.44
462.083	1389.84
462.456	1389.16
462.829	1379.22
463.201	1409.95
463.574	1414.47
463.947	1460.57
464.32	1459.21
464.692	1459.67
465.065	1459.44
465.438	1513
465.81	1521.13
466.183	1552.09
466.555	1588.25
466.928	1592.99
467.3	1564.97
467.672	1597.74
468.045	1633.9
468.417	1654.69
468.789	1657.63
469.161	1663.73
469.534	1714.35
469.906	1720.45
470.278	1750.28
470.65	1765.19
471.022	1792.76
471.394	1815.81
471.766	1847.68
472.138	1884.29
472.51	1918.64
472.882	1926.32
473.253	1939.65
473.625	1974.68
473.997	2039.76
474.369	2016.71
474.74	2098.74
475.112	2096.26
475.484	2137.16
475.855	2169.02
476.227	2199.98
476.598	2269.14
476.97	2297.16
477.341	2294.22
477.713	2389.13
478.084	2356.14
478.455	2436.36
478.827	2482.46
479.198	2540.09
479.569	2552.74
479.94	2644.27
480.311	2668.67
480.682	2682.23
481.053	2750.25
481.424	2847.2
481.795	2882.23
482.166	2862.79
482.537	2926.29
482.908	2994.99
483.279	3008.32
483.65	3082.22
484.021	3139.17
484.391	3184.82
484.762	3234.76
485.133	3261.65
485.503	3308.66
485.874	3366.96
486.244	3440.63
486.615	3495.32
486.985	3512.49
487.356	3577.35
487.726	3658.93
488.097	3751.36
488.467	3780.06
488.837	3825.25
489.207	3826.16
489.578	3924.01
489.948	3974.4
490.318	4018.02
490.688	4065.02
491.058	4074.74
491.428	4196.09
491.798	4229.54
492.168	4283.32
492.538	4353.15
492.908	4383.88
493.278	4441.96
493.648	4457.78
494.017	4537.1
494.387	4503.88
494.757	4573.93
495.126	4643.99
495.496	4677.66
495.866	4728.05
496.235	4763.98
496.605	4809.63
496.974	4834.27
497.344	4883.3
497.713	4908.61
498.082	4953.58
498.452	4981.83
498.821	5079.23
499.19	5064.77
499.559	5145.22
499.928	5171.43
500.298	5206.91
500.667	5224.09
501.036	5258.89
501.405	5331.43
501.774	5301.37
502.143	5374.36
502.512	5409.62
502.88	5467.02
503.249	5446.45
503.618	5503.4
503.987	5502.72
504.356	5586.11
504.724	5563.29
505.093	5576.84
505.462	5687.58
505.83	5696.16
506.199	5709.72
506.567	5809.61
506.936	5735.71
507.304	5862.04
507.672	5855.93
508.041	5918.08
508.409	5954.01
508.777	5996.49
509.145	6007.34
509.514	6026.32
509.882	6061.35
510.25	6073.78
510.618	6092.54
510.986	6126.66
511.354	6141.58
511.722	6232.87
512.09	6320.78
512.458	6262.48
512.826	6309.26
513.193	6347.45
513.561	6364.85
513.929	6396.26
514.297	6477.16
514.664	6472.19
515.032	6505.86
515.4	6576.14
515.767	6591.73
516.135	6626.08
516.502	6616.14
516.869	6688.68
517.237	6706.08
517.604	6660.66
517.972	6797.83
518.339	6762.35
518.706	6862.91
519.073	6881.44
519.44	6918.28
519.808	7001.21
520.175	6898.62
520.542	7016.13
520.909	7036.69
521.276	7061.55
521.643	7157.14
522.009	7165.73
522.376	7187.2
522.743	7236.69
523.11	7328.89
523.477	7335.44
523.843	7375.89
524.21	7436.68
524.577	7488.43
524.943	7545.83
525.31	7574.98
525.676	7679.16
526.043	7679.61
526.409	7728.43
526.776	7776.79
527.142	7830.8
527.508	7921.64
527.874	7931.13
528.241	7901.76
528.607	7995.09
528.973	8114.41
529.339	8060.17
529.705	8146.27
530.071	8221.07
530.437	8170.67
530.803	8246.15
531.169	8356.88
531.535	8358.69
531.901	8372.25
532.267	8393.27
532.632	8436.66
532.998	8494.73
533.364	8570.21
533.73	8570.66
534.095	8672.81
534.461	8640.49
534.826	8714.39
535.192	8765.69
535.557	8857.89
535.923	8846.59
536.288	8892.46
536.653	8935.17
537.019	8885.91
537.384	8999.35
537.749	9003.42
538.114	9019.92
538.479	9008.85
538.845	9100.82
539.21	9071.22
539.575	9173.59
539.94	9164.1
540.305	9273.24
540.67	9186.02
541.034	9296.52
541.399	9307.14
541.764	9364.99
542.129	9389.17
542.494	9445.44
542.858	9405.44
543.223	9517.31
543.587	9513.01
543.952	9516.4
544.316	9658.77
544.681	9604.76
545.045	9682.05
545.41	9741.93
545.774	9751.65
546.138	9819.22
546.503	9828.94
546.867	9827.35
547.231	9889.27
547.595	9970.18
547.959	9971.76
548.324	9932.89
548.688	9971.53
549.052	10034.13
549.416	10110.06
549.779	10124.07
550.143	10134.47
550.507	10187.8
550.871	10235.93
551.235	10235.03
551.599	10322.71
551.962	10390.96
552.326	10363.16
552.689	10398.86
553.053	10401.35
553.417	10409.71
553.78	10591.85
554.143	10521.12
554.507	10583.04
554.87	10566.77
555.234	10706.2
555.597	10674.34
555.96	10709.59
556.323	10813.09
556.686	10782.13
557.05	10904.61
557.413	10895.58
557.776	10903.94
558.139	11037.04
558.502	11029.36
558.865	11055.34
559.228	11172.4
559.59	11129.47
559.953	11130.15
560.316	11233.42
560.679	11247.88
561.041	11282.46
561.404	11351.61
561.767	11405.39
562.129	11355.22
562.492	11545.28
562.854	11520.87
563.217	11541.66
563.579	11593.41
563.941	11626.4
564.304	11690.36
564.666	11816.45
565.028	11779.39
565.39	11826.85
565.753	11891.93
566.115	11970.35
566.477	11983.91
566.839	12025.49
567.201	12134.64
567.563	12144.58
567.925	12160.85
568.287	12192.72
568.648	12256.44
569.01	12334.18
569.372	12382.77
569.734	12432.94
570.095	12421.86
570.457	12517.45
570.819	12490.79
571.18	12548.64
571.542	12658.01
571.903	12749.76
572.265	12796.99
572.626	12801.29
572.987	12853.26
573.349	12956.54
573.71	12980.94
574.071	13055.74
574.432	13034.5
574.794	13265
575.155	13244.21
575.516	13247.83
575.877	13274.95
576.238	13313.82
576.599	13413.25
576.96	13523.98
577.32	13589.06
577.681	13660.47
578.042	13798.1
578.403	13816.18
578.763	13921.48
579.124	13991.31
579.485	14093.23
579.845	14156.51
580.206	14241.7
580.566	14366.22
580.927	14515.37
581.287	14689.37
581.648	14664.29
582.008	14840.33
582.368	14951.29
582.728	15092.75
583.089	15180.66
583.449	15290.49
583.809	15421.56
584.169	15688.22
584.529	15762.79
584.889	16104.03
585.249	16096.34
585.609	16185.38
585.969	16529.1
586.329	16689.1
586.688	16888.86
587.048	17056.54
587.408	17172.47
587.768	17474.84
588.127	17603.2
588.487	17807.03
588.846	18079.57
589.206	18218.09
589.565	18513.68
589.925	18781.47
590.284	18860.34
590.643	19218.97
591.003	19441.34
591.362	19736.7
591.721	20076.58
592.08	20275.22
592.44	20549.56
592.799	20707.29
593.158	21046.72
593.517	21320.16
593.876	21675.18
594.235	21879.92
594.593	22205.33
594.952	22467.7
595.311	22621.59
595.67	22968.7
596.029	23467.67
596.387	23666.76
596.746	23958.28
597.104	24176.81
597.463	24466.07
597.822	24861.76
598.18	25050.68
598.538	25350.11
598.897	25761.17
599.255	25795.97
599.613	26433.02
599.972	26569.29
600.33	26822.61
600.688	27146.67
601.046	27428.47
601.404	27902.13
601.762	28079.53
602.12	28442.01
602.478	28667.54
602.836	28939.17
603.194	29056
603.552	29559.94
603.91	29533.96
604.268	29972.81
604.625	30202.86
604.983	30392.92
605.341	30667.94
605.698	31081.26
606.056	31415.04
606.413	31462.72
606.771	31962.59
607.128	32128.92
607.485	32259.53
607.843	32498.62
608.2	32884.38
608.557	33182.9
608.914	33293.18
609.272	33680.29
609.629	33956.66
609.986	34190.56
610.343	34263.32
610.7	34611.11
611.057	34938.11
611.414	35045.22
611.771	35203.64
612.127	35540.58
612.484	35706.45
612.841	36030.06
613.198	36171.29
613.554	36251.97
613.911	36579.19
614.267	36701.68
614.624	36867.32
614.98	37154.55
615.337	37396.12
615.693	37426.85
616.05	37638.6
616.406	38020.74
616.762	37982.77
617.118	38183.45
617.475	38182.09
617.831	38538.92
618.187	38627.73
618.543	38822.98
618.899	39171.44
619.255	39307.48
619.611	39308.84
619.967	39558.32
620.323	39724.2
620.678	39717.64
621.034	39863.18
621.39	39791.54
621.746	39956.51
622.101	40389.26
622.457	40183.17
622.812	40337.96
623.168	40472.88
623.523	40622.25
623.879	40813.43
624.234	40751.06
624.589	40908.8
624.945	41081.67
625.3	41165.06
625.655	41252.97
626.01	41208.9
626.365	41226.53
626.72	41435.56
627.075	41481.89
627.43	41556.92
627.785	41435.79
628.14	41561.44
628.495	41777.7
628.85	41722.11
629.205	41659.96
629.559	41929.56
629.914	41815.44
630.269	41822.9
630.623	41881.43
630.978	41705.61
631.332	41985.61
631.687	42107.86
632.041	41915.1
632.396	42109.22
632.75	42006.85
633.104	42112.83
633.459	42026.73
633.813	41991.03
634.167	42067.18
634.521	42210.91
634.875	42136.79
635.229	42061.31
635.583	41927.3
635.937	42054.53
636.291	41888.88
636.645	42136.56
636.999	41976.79
637.352	42245.71
637.706	41929.11
638.06	42092.27
638.413	42001.88
638.767	41961.42
639.121	42160.29
639.474	41894.99
639.828	42024.47
640.181	42075.09
640.534	42140.63
640.888	41925.95
641.241	41821.09
641.594	41809.56
641.947	42101.08
642.301	41955.32
642.654	42073.29
643.007	41961.88
643.36	41937.24
643.713	41727.76
644.066	42020.86
644.419	41805.04
644.771	41617.93
645.124	41192.41
645.477	41149.24
645.83	40953.77
646.182	40907.67
646.535	40773.43
646.888	40723.27
647.24	40550.16
647.593	40922.58
647.945	40662.7
648.298	40640.56
648.65	40465.42
649.002	40420.67
649.355	40706.54
649.707	40519.88
650.059	40724.85
650.411	41163.93
650.763	41341.33
651.115	41677.14
651.467	41538.61
651.819	41486.64
652.171	41360.54
652.523	41274.44
652.875	41454.32
653.227	41168.68
653.578	41550.81
653.93	41351.72
654.282	41258.84
654.633	41123.48
654.985	41227.88
655.337	41178.17
655.688	41234.21
656.039	41442.12
656.391	40999.87
656.742	41118.28
657.094	41031.73
657.445	41210.48
657.796	41067.89
658.147	41161.45
658.498	41089.81
658.849	41160.99
659.2	41052.07
659.551	41102.92
659.902	41187.89
660.253	41099.75
660.604	41041.9
660.955	40842.13
661.306	41126.42
661.656	41094.56
662.007	41055.91
662.358	41022.01
662.708	41038.06
663.059	41090.71
663.409	40775.02
663.76	41007.78
664.11	40883.71
664.461	40998.51
664.811	40926.88
665.161	41036.25
665.511	40702.93
665.862	40839.65
666.212	41140.2
666.562	41113.54
666.912	40958.97
667.262	40869.48
667.612	40914.45
667.962	40865.63
668.312	40738.86
668.662	41126.19
669.011	40981.56
669.361	40793.77
669.711	40884.84
670.06	40824.73
670.41	40850.04
670.76	40709.93
671.109	40915.35
671.459	40874
671.808	40761.91
672.157	40854.34
672.507	40597.84
672.856	40547.9
673.205	40663.83
673.554	40699.09
673.904	40602.36
674.253	40884.62
674.602	40816.6
674.951	40221.36
675.3	40005.09
675.649	40648.24
675.998	40495.25
676.346	40589.48
676.695	40528.92
677.044	40326.89
677.393	40524.17
677.741	40521.91
678.09	40339.09
678.438	40394.01
678.787	40448.47
679.135	40365.08
679.484	40207.8
679.832	40291.41
680.181	40039.22
680.529	40147.91
680.877	40049.84
681.225	40025.66
681.573	40300.68
681.922	39941.37
682.27	39889.16
682.618	39806
682.966	39720.13
683.314	39780.92
683.661	39707.02
684.009	39472
684.357	39495.05
684.705	39432
685.053	39593.35
685.4	39365.56
685.748	39316.52
686.095	39274.04
686.443	39099.35
686.79	39038.34
687.138	39098.68
687.485	39053.25
687.832	38882.64
688.18	38970.54
688.527	38788.85
688.874	38808.51
689.221	38705.92
689.568	38564.9
689.915	38677.9
690.262	38326.94
690.609	38447.17
690.956	38384.8
691.303	38280.62
691.65	38008.99
691.997	37979.83
692.344	37786.39
692.69	37903.9
693.037	37945.03
693.383	37449.23
693.73	37792.72
694.077	37549.79
694.423	37567.64
694.769	37447.65
695.116	37142.57
695.462	37192.96
695.808	37114.32
696.155	37195
696.501	36713.65
696.847	36838.17
697.193	36572.41
697.539	36880.88
697.885	36445.41
698.231	36378.97
698.577	36391.18
698.923	36230.73
699.269	36152.99
699.614	35941.7
699.96	35822.15
700.306	36005.65
700.651	35724.75
700.997	35640.69
701.342	35598.2
701.688	35466.45
702.033	35460.35
702.379	35391.88
702.724	35223.07
703.069	35378.55
703.415	34904.21
703.76	35082.51
704.105	34956.64
704.45	34863.76
704.795	34682.75
705.14	34664.44
705.485	34667.61
705.83	34404.56
706.175	34479.81
706.52	34408.18
706.865	34390.55
707.209	34262.42
707.554	34171.8
707.899	34125.7
708.243	33998.24
708.588	34025.14
708.932	33833.5
709.277	33841.19
709.621	33857.68
709.966	33609.78
710.31	33683.9
710.654	33398.49
710.998	33388.54
711.342	33426.51
711.687	33352.61
712.031	33260.41
712.375	33014.54
712.719	33131.6
713.063	33079.4
713.407	33090.92
713.75	32949.01
714.094	33005.28
714.438	32796.47
714.782	32730.93
715.125	32547.44
715.469	32667.21
715.812	32491.62
716.156	32365.97
716.499	32444.16
716.843	32530.94
717.186	32295.46
717.53	32368.46
717.873	32336.82
718.216	32269.48
718.559	32137.73
718.902	31927.11
719.246	32118.75
719.589	31865.65
719.932	31689.83
720.275	31821.13
720.617	31813.22
720.96	31771.41
721.303	31488.03
721.646	31602.83
721.989	31549.27
722.331	31472.89
722.674	31496.16
723.016	31415.71
723.359	31392.44
723.701	31335.04
724.044	31194.93
724.386	31154.48
724.729	31168.04
725.071	31060.24
725.413	30969.4
725.755	31027.25
726.097	30880.36
726.439	30780.93
726.782	30795.84
727.124	30860.25
727.465	30735.05
727.807	30677.43
728.149	30759.46
728.491	30614.15
728.833	30622.97
729.175	30419.36
729.516	30424.78
729.858	30354.27
730.199	30372.58
730.541	30264.33
730.882	30186.37
731.224	30386.36
731.565	30050.1
731.906	30177.1
732.248	30171.23
732.589	29944.57
732.93	29793.38
733.271	29922.19
733.612	29957.22
733.953	29967.62
734.294	29822.99
734.635	29806.04
734.976	29863.44
735.317	29715.87
735.658	29662.54
735.999	29707.96
736.339	29634.74
736.68	29697.11
737.021	29634.52
737.361	29517.68
737.702	29615.76
738.042	29484.92
738.383	29501.41
738.723	29404.69
739.063	29305.49
739.404	29428.65
739.744	29290.57
740.084	29146.62
740.424	29264.36
740.764	29110.24
741.104	29219.61
741.444	28942.33
741.784	29032.27
742.124	29101.42
742.464	28929.68
742.804	28971.48
743.143	28866.85
743.483	28929
743.823	28710.47
744.162	28638.16
744.502	28819.85
744.841	28589.12
745.181	28672.73
745.52	28639.29
745.86	28577.37
746.199	28520.42
746.538	28405.17
746.877	28570.14
747.216	28538.28
747.556	28453.31
747.895	28515.22
748.234	28315.68
748.573	28211.05
748.911	28210.6
749.25	28232.29
749.589	28090.38
749.928	28048.12
750.267	28108
750.605	28040.89
750.944	28056.48
751.283	27903.72
751.621	27972.64
751.96	27925.41
752.298	27834.11
752.636	27829.59
752.975	27775.81
753.313	27794.11
753.651	27804.06
753.989	27631.86
754.327	27572.65
754.666	27421.02
755.004	27497.4
755.342	27394.8
755.679	27519.09
756.017	27227.35
756.355	27400.45
756.693	27213.11
757.031	27141.02
757.368	27081.59
757.706	27054.7
758.044	26866.45
758.381	26947.36
758.719	26906
