Data from hue_120_FLMS001491_00048.txt Node
Date: Tue Feb 07 16:59:27 GMT 2017
User: dcchb
Spectrometer: FLMS00149
Trigger mode: 0
Integration Time (sec): 2.000000E-2
Scans to average: 10
Electric dark correction enabled: true
Nonlinearity correction enabled: false
Boxcar width: 0
XAxis mode: Wavelengths
Number of Pixels in Spectrum: 2048
>>>>>Begin Spectral Data<<<<<
341.393	4.84
341.776	4.84
342.16	4.84
342.543	-62.95
342.927	-62.05
343.31	-62.05
343.693	-76.74
344.077	-75.83
344.46	-61.82
344.843	-34.93
345.226	-50.3
345.61	-7.81
345.993	-9.84
346.376	-20.92
346.759	0.1
347.142	13.43
347.525	66.09
347.908	45.75
348.291	75.58
348.674	96.82
349.057	102.47
349.44	115.58
349.823	157.16
350.206	166.42
350.588	206.87
350.971	230.15
351.354	242.8
351.737	231.05
352.119	252.52
352.502	248.45
352.884	284.16
353.267	289.58
353.65	303.59
354.032	309.92
354.414	318.06
354.797	311.05
355.179	318.06
355.562	339.75
355.944	332.52
356.326	324.61
356.709	331.62
357.091	349.47
357.473	342.46
357.855	350.15
358.238	329.36
358.62	346.53
359.002	331.84
359.384	344.72
359.766	359.41
360.148	351.05
360.53	342.46
360.912	344.27
361.294	348.79
361.676	322.35
362.057	336.36
362.439	346.3
362.821	316.93
363.203	332.97
363.584	340.88
363.966	317.38
364.348	319.86
364.729	325.74
365.111	329.13
365.493	327.1
365.874	337.94
366.256	307.44
366.637	314.44
367.019	318.73
367.4	324.38
367.781	333.65
368.163	317.6
368.544	326.19
368.925	334.55
369.306	340.2
369.688	358.06
370.069	328.45
370.45	310.37
370.831	324.84
371.212	335.01
371.593	326.19
371.974	331.39
372.355	325.97
372.736	327.77
373.117	353.76
373.498	324.61
373.879	324.16
374.26	311.96
374.641	318.73
375.021	344.95
375.402	349.24
375.783	320.32
376.163	332.52
376.544	340.65
376.925	317.38
377.305	344.5
377.686	330.03
378.066	357.83
378.447	359.19
378.827	341.78
379.208	358.73
379.588	352.86
379.968	335.91
380.349	339.75
380.729	326.42
381.109	340.65
381.489	340.65
381.87	365.29
382.25	349.92
382.63	356.47
383.01	337.72
383.39	371.61
383.77	361.9
384.15	385.85
384.53	376.36
384.91	377.04
385.29	351.95
385.67	363.25
386.049	361.9
386.429	369.13
386.809	366.87
387.189	368.9
387.568	385.17
387.948	355.34
388.328	363.48
388.707	383.82
389.087	379.52
389.466	377.72
389.846	382.46
390.225	406.87
390.605	397.15
390.984	381.56
391.363	381.56
391.743	375.68
392.122	387.43
392.501	399.86
392.881	407.55
393.26	412.97
393.639	405.96
394.018	391.5
394.397	411.16
394.776	405.96
395.155	405.96
395.534	393.53
395.913	426.98
396.292	403.93
396.671	414.1
397.05	416.36
397.429	412.07
397.808	414.33
398.186	431.27
398.565	434.66
398.944	406.42
399.323	437.15
399.701	423.59
400.08	447.77
400.458	415
400.837	428.34
401.215	430.14
401.594	436.47
401.972	450.03
402.351	439.64
402.729	433.99
403.107	439.86
403.486	444.83
403.864	443.93
404.242	472.63
404.62	452.29
404.999	463.59
405.377	463.14
405.755	477.83
406.133	458.17
406.511	449.8
406.889	491.39
407.267	472.63
407.645	489.58
408.023	473.53
408.401	481.67
408.779	469.69
409.156	487.54
409.534	494.1
409.912	490.71
410.29	513.53
410.667	479.63
411.045	494.78
411.422	511.95
411.8	512.85
412.178	520.31
412.555	521.44
412.933	528.22
413.31	530.03
413.687	556.47
414.065	538.16
414.442	544.27
414.819	554.89
415.197	543.36
415.574	571.38
415.951	554.21
416.328	564.83
416.705	579.52
417.082	577.26
417.46	559.18
417.837	571.16
418.214	586.52
418.591	584.26
418.967	568.67
419.344	579.52
419.721	575.22
420.098	595.56
420.475	584.72
420.852	580.42
421.228	598.05
421.605	596.92
421.982	590.59
422.358	626.98
422.735	615
423.111	611.38
423.488	636.69
423.864	645.51
424.241	652.96
424.617	659.74
424.994	667.65
425.37	679.86
425.746	654.32
426.123	658.39
426.499	682.79
426.875	676.01
427.251	689.12
427.627	695
428.003	710.14
428.379	682.34
428.756	726.63
429.132	718.95
429.507	727.54
429.883	720.08
430.259	752.85
430.635	726.86
431.011	739.97
431.387	753.98
431.763	769.12
432.138	765.95
432.514	760.76
432.89	787.87
433.265	803.69
433.641	798.5
434.016	786.52
434.392	816.12
434.767	830.59
435.143	836.24
435.518	845.73
435.894	857.48
436.269	817.48
436.644	838.49
437.02	871.04
437.395	865.39
437.77	884.14
438.145	885.27
438.52	884.14
438.895	901.09
439.271	914.43
439.646	917.81
440.021	919.62
440.395	925.5
440.77	927.08
441.145	958.94
441.52	953.97
441.895	970.24
442.27	964.59
442.645	980.64
443.019	992.62
443.394	983.58
443.769	981.99
444.143	972.5
444.518	982.45
444.892	1021.09
445.267	1012.95
445.641	1021.54
446.016	1028.32
446.39	1035.33
446.764	1047.53
447.139	1071.03
447.513	1056.12
447.887	1056.57
448.262	1053.18
448.636	1061.09
449.01	1060.18
449.384	1105.15
449.758	1124.14
450.132	1119.39
450.506	1114.87
450.88	1131.37
451.254	1151.48
451.628	1118.71
452.002	1133.18
452.376	1187.19
452.75	1147.87
453.123	1170.46
453.497	1184.47
453.871	1187.64
454.244	1238.94
454.618	1209.78
454.992	1267.18
455.365	1249.11
455.739	1260.63
456.112	1262.44
456.486	1293.85
456.859	1314.41
457.232	1324.36
457.606	1304.92
457.979	1349.44
458.352	1368.2
458.725	1402.32
459.099	1420.17
459.472	1439.16
459.845	1438.48
460.218	1462.21
460.591	1494.3
460.964	1492.71
461.337	1544.69
461.71	1553.96
462.083	1555.31
462.456	1560.51
462.829	1588.31
463.201	1629.89
463.574	1634.18
463.947	1668.08
464.32	1705.59
464.692	1711.24
465.065	1719.83
465.438	1768.19
465.81	1785.14
466.183	1809.09
466.555	1846.83
466.928	1835.3
467.3	1846.15
467.672	1897
468.045	1924.12
468.417	1920.95
468.789	1994.62
469.161	2005.47
469.534	2051.34
469.906	2068.29
470.278	2109.2
470.65	2172.7
471.022	2197.1
471.394	2227.84
471.766	2290.66
472.138	2304.9
472.51	2360.94
472.882	2461.28
473.253	2454.95
473.625	2511.9
473.997	2576.53
474.369	2620.82
474.74	2643.65
475.112	2713.7
475.484	2780.59
475.855	2856.97
476.227	2912.79
476.598	2980.59
476.97	3068.49
477.341	3138.1
477.713	3197.53
478.084	3222.61
478.455	3377.86
478.827	3421.7
479.198	3559.33
479.569	3584.86
479.94	3721.13
480.311	3831.18
480.682	3922.48
481.053	4081.57
481.424	4087.68
481.795	4203.83
482.166	4319.99
482.537	4349.82
482.908	4570.15
483.279	4637.94
483.65	4772.63
484.021	4942.34
484.391	5059.17
484.762	5174.88
485.133	5262.79
485.503	5348.43
485.874	5463.91
486.244	5656
486.615	5837.91
486.985	5924.91
487.356	6107.51
487.726	6188.41
488.097	6421.85
488.467	6476.99
488.837	6666.59
489.207	6792.91
489.578	6951.1
489.948	7149.52
490.318	7254.37
490.688	7378.89
491.058	7555.38
491.428	7746.11
491.798	7839.21
492.168	8077.4
492.538	8240.79
492.908	8361.01
493.278	8536.37
493.648	8646.2
494.017	8818.62
494.387	8989.24
494.757	9117.6
495.126	9279.85
495.496	9302.45
495.866	9534.09
496.235	9630.81
496.605	9755.1
496.974	9857.92
497.344	10027.41
497.713	10212.71
498.082	10305.59
498.452	10364.12
498.821	10602.08
499.19	10639.37
499.559	10795.3
499.928	10825.35
500.298	11017.66
500.667	11184.66
501.036	11214.49
501.405	11420.14
501.774	11470.53
502.143	11582.85
502.512	11596.63
502.88	11724.08
503.249	11821.48
503.618	11930.18
503.987	12065.54
504.356	12157.29
504.724	12322.71
505.093	12351.64
505.462	12358.42
505.83	12579.43
506.199	12605.64
506.567	12704.4
506.936	12807.67
507.304	13013.32
507.672	12978.74
508.041	13101.22
508.409	13132.86
508.777	13302.57
509.145	13386.41
509.514	13390.26
509.882	13509.12
510.25	13453.76
510.618	13622.11
510.986	13721.32
511.354	13750.7
511.722	13910.69
512.09	13971.03
512.458	13964.93
512.826	14128.31
513.193	14176.9
513.561	14241.08
513.929	14245.15
514.297	14441.3
514.664	14340.74
515.032	14393.39
515.4	14545.25
515.767	14622.99
516.135	14621.86
516.502	14572.6
516.869	14778.69
517.237	14780.73
517.604	14771.46
517.972	14951.12
518.339	15026.14
518.706	14942.98
519.073	14936.88
519.44	14977.33
519.808	15143.88
520.175	15087.84
520.542	15180.72
520.909	15249.19
521.276	15303.43
521.643	15427.49
522.009	15450.77
522.376	15516.53
522.743	15649.63
523.11	15584.77
523.477	15662.51
523.843	15614.38
524.21	15861.15
524.577	15831.77
524.943	15894.14
525.31	15912.67
525.676	16000.58
526.043	16050.07
526.409	16011.88
526.776	16210.07
527.142	16185.21
527.508	16317.41
527.874	16231.76
528.241	16315.15
528.607	16334.58
528.973	16452.55
529.339	16311.53
529.705	16482.83
530.071	16411.87
530.437	16493.45
530.803	16568.93
531.169	16604.18
531.535	16449.84
531.901	16426.79
532.267	16470.85
532.632	16497.07
532.998	16512.66
533.364	16525.77
533.73	16506.11
534.095	16524.86
534.461	16601.47
534.826	16551.75
535.192	16737.29
535.557	16656.38
535.923	16528.93
536.288	16514.24
536.653	16510.85
537.019	16502.94
537.384	16599.89
537.749	16541.58
538.114	16441.25
538.479	16419.78
538.845	16477.18
539.21	16325.32
539.575	16333.45
539.94	16296.85
540.305	16327.35
540.67	16267.47
541.034	16383.4
541.399	16382.27
541.764	16287.58
542.129	16292.55
542.494	16335.26
542.858	16244.19
543.223	16232.89
543.587	16284.64
543.952	16107.47
544.316	16150.41
544.681	16077.87
545.045	16153.12
545.41	16118.32
545.774	16076.96
546.138	16038.77
546.503	16067.7
546.867	15862.05
547.231	16003.97
547.595	15968.94
547.959	15917.87
548.324	15854.37
548.688	15859.12
549.052	15831.77
549.416	15843.52
549.779	15822.73
550.143	15743.41
550.507	15928.72
550.871	15783.64
551.235	15672.91
551.599	15806.24
551.962	15720.59
552.326	15693.02
552.689	15799.23
553.053	15653.92
553.417	15666.58
553.78	15812.56
554.143	15645.79
554.507	15671.55
554.87	15587.71
555.234	15734.37
555.597	15537.09
555.96	15554.27
556.323	15574.38
556.686	15572.12
557.05	15603.53
557.413	15627.71
557.776	15613.02
558.139	15578.22
558.502	15604.43
558.865	15566.47
559.228	15564.89
559.59	15677.88
559.953	15595.4
560.316	15779.34
560.679	15711.1
561.041	15794.26
561.404	15777.99
561.767	15781.6
562.129	15737.09
562.492	15848.27
562.854	15788.84
563.217	15668.84
563.579	15732.34
563.941	15837.42
564.304	15817.54
564.666	15911.32
565.028	15877.2
565.39	15915.61
565.753	15937.98
566.115	15948.61
566.477	16053.69
566.839	15962.17
567.201	16056.85
567.563	16170.75
567.925	16134.82
568.287	16095.72
568.648	16077.64
569.01	16175.94
569.372	16271.31
569.734	16032.22
570.095	16167.58
570.457	16300.01
570.819	16184.98
571.18	16191.31
571.542	16315.83
571.903	16345.66
572.265	16308.82
572.626	16394.7
572.987	16305.66
573.349	16407.8
573.71	16413.23
574.071	16375.26
574.432	16294.59
574.794	16669.72
575.155	16552.66
575.516	16392.44
575.877	16513.56
576.238	16543.39
576.599	16582.26
576.96	16548.36
577.32	16557.18
577.681	16638.53
578.042	16609.61
578.403	16578.42
578.763	16659.55
579.124	16599.21
579.485	16635.14
579.845	16722.6
580.206	16602.6
580.566	16623.62
580.927	16615.48
581.287	16753.56
581.648	16618.87
582.008	16710.62
582.368	16684.18
582.728	16718.08
583.089	16661.58
583.449	16683.28
583.809	16649.38
584.169	16629.04
584.529	16530.29
584.889	16710.17
585.249	16596.05
585.609	16595.14
585.969	16635.82
586.329	16581.81
586.688	16619.55
587.048	16523.96
587.408	16550.4
587.768	16474.92
588.127	16504.3
588.487	16474.02
588.846	16542.94
589.206	16448.93
589.565	16502.49
589.925	16457.75
590.284	16455.49
590.643	16511.98
591.003	16533.22
591.362	16479.21
591.721	16411.42
592.08	16440.34
592.44	16461.36
592.799	16510.17
593.158	16337.75
593.517	16467.69
593.876	16549.49
594.235	16444.64
594.593	16472.43
594.952	16441.93
595.311	16392.66
595.67	16421.81
596.029	16510.63
596.387	16537.97
596.746	16518.31
597.104	16413.45
597.463	16286.68
597.822	16464.98
598.18	16325.77
598.538	16347.69
598.897	16379.33
599.255	16312.21
599.613	16473.56
599.972	16402.15
600.33	16509.27
600.688	16356.5
601.046	16450.29
601.404	16427.69
601.762	16433.11
602.12	16480.8
602.478	16462.26
602.836	16441.7
603.194	16363.06
603.552	16439.89
603.91	16400.57
604.268	16466.33
604.625	16398.09
604.983	16454.36
605.341	16336.39
605.698	16436.28
606.056	16418.65
606.413	16386.11
606.771	16435.6
607.128	16488.25
607.485	16426.11
607.843	16492.09
608.2	16542.94
608.557	16546.1
608.914	16511.53
609.272	16585.2
609.629	16547.23
609.986	16626.33
610.343	16573.45
610.7	16669.94
611.057	16694.12
611.414	16611.41
611.771	16575.48
612.127	16700
612.484	16726.21
612.841	16714.69
613.198	16634.92
613.554	16678.76
613.911	16756.72
614.267	16715.14
614.624	16744.74
614.98	16779.32
615.337	16827.9
615.693	16750.84
616.05	16791.97
616.406	16877.17
616.762	16796.04
617.118	16773.22
617.475	16842.37
617.831	16915.81
618.187	16851.63
618.543	16844.18
618.899	16981.35
619.255	16903.61
619.611	16858.86
619.967	16951.52
620.323	17039.2
620.678	16989.03
621.034	16940.67
621.39	16974.12
621.746	16946.55
622.101	17027.67
622.457	16933.44
622.812	16930.73
623.168	17089.59
623.523	16935.47
623.879	16984.06
624.234	16934.34
624.589	17050.95
624.945	17029.93
625.3	17099.76
625.655	16968.69
626.01	17049.82
626.365	17002.14
626.72	16970.5
627.075	16961.91
627.43	16863.61
627.785	16949.26
628.14	16889.15
628.495	17007.56
628.85	16853.89
629.205	16909.48
629.559	16893.67
629.914	16954.91
630.269	16932.54
630.623	16747.23
630.978	16962.36
631.332	16919.65
631.687	16918.98
632.041	16826.55
632.396	16940.9
632.75	16786.78
633.104	16833.1
633.459	16761.69
633.813	16693.45
634.167	16724.18
634.521	16770.28
634.875	16656.16
635.229	16641.7
635.583	16672.2
635.937	16640.11
636.291	16615.48
636.645	16523.96
636.999	16468.82
637.352	16573.67
637.706	16500.68
638.06	16530.74
638.413	16551.08
638.767	16549.95
639.121	16432.44
639.474	16373
639.828	16418.42
640.181	16474.69
640.534	16403.06
640.888	16351.53
641.241	16324.42
641.594	16319.44
641.947	16374.81
642.301	16312.89
642.654	16374.58
643.007	16261.59
643.36	16255.94
643.713	16251.2
644.066	16260.91
644.419	16213.01
644.771	16126.68
645.124	16017.08
645.477	15977.76
645.83	15853.24
646.182	15771.44
646.535	15776.86
646.888	15765.79
647.24	15670.65
647.593	15716.75
647.945	15750.42
648.298	15628.84
648.65	15652.12
649.002	15594.94
649.355	15613.7
649.707	15670.42
650.059	15798.33
650.411	15962.17
650.763	15934.37
651.115	16130.3
651.467	16073.35
651.819	16097.08
652.171	16029.06
652.523	16046.46
652.875	16016.63
653.227	15919
653.578	16096.4
653.93	16086.23
654.282	16017.98
654.633	15836.74
654.985	15963.07
655.337	16052.11
655.688	15962.62
656.039	16042.84
656.391	15876.29
656.742	15959.91
657.094	15979.57
657.445	15998.55
657.796	15915.61
658.147	15943.18
658.498	15876.74
658.849	16083.97
659.2	15979.79
659.551	15959
659.902	16080.58
660.253	16057.3
660.604	16024.54
660.955	15933.92
661.306	15927.59
661.656	16026.34
662.007	15988.83
662.358	15967.81
662.708	16035.16
663.059	16057.76
663.409	15964.2
663.76	16058.21
664.11	16025.89
664.461	15996.97
664.811	16052.56
665.161	16064.08
665.511	15931.43
665.862	15961.49
666.212	16200.58
666.562	16016.63
666.912	15921.04
667.262	15972.11
667.612	16024.76
667.962	16024.76
668.312	16016.4
668.662	16071.77
669.011	15957.19
669.361	15957.19
669.711	15948.38
670.06	15902.96
670.41	15901.38
670.76	15895.95
671.109	16040.81
671.459	15923.3
671.808	15894.14
672.157	15861.6
672.507	15849.85
672.856	15833.13
673.205	15855.5
673.554	15930.75
673.904	15844.2
674.253	15908.16
674.602	15752.23
674.951	15641.95
675.3	15567.6
675.649	15792.9
675.998	15870.42
676.346	15764.2
676.695	15844.88
677.044	15688.73
677.393	15799.46
677.741	15714.49
678.09	15757.2
678.438	15696.41
678.787	15722.17
679.135	15638.33
679.484	15509.3
679.832	15571.44
680.181	15564.66
680.529	15493.48
680.877	15476.08
681.225	15511.56
681.573	15549.29
681.922	15402.86
682.27	15341.16
682.618	15479.69
682.966	15306.59
683.314	15331.67
683.661	15351.33
684.009	15277.89
684.357	15234.5
684.705	15248.51
685.053	15199.7
685.4	15110.89
685.748	15080.15
686.095	15031.57
686.443	14920.84
686.79	14948.86
687.138	15105.69
687.485	15026.37
687.832	15006.26
688.18	14964.68
688.527	14821.86
688.874	14728.53
689.221	14724.46
689.568	14695.31
689.915	14760.84
690.262	14675.87
690.609	14620.28
690.956	14512.71
691.303	14510.9
691.65	14536.44
691.997	14382.55
692.344	14418.93
692.69	14381.19
693.037	14262.55
693.383	14237.69
693.73	14227.97
694.077	14072.72
694.423	14160.86
694.769	14014.65
695.116	14055.1
695.462	14035.89
695.808	13919.28
696.155	13991.82
696.501	13910.02
696.847	13873.41
697.193	13711.83
697.539	13782.11
697.885	13757.7
698.231	13693.75
698.577	13586.63
698.923	13536.47
699.269	13531.27
699.614	13459.63
699.96	13409.69
700.306	13369.46
700.651	13242.01
700.997	13226.42
701.342	13235.91
701.688	13231.39
702.033	13101.22
702.379	13127.89
702.724	13045.63
703.069	13089.25
703.415	12978.74
703.76	12948.91
704.105	12960.89
704.45	12945.52
704.795	12799.99
705.14	12811.06
705.485	12777.62
705.83	12730.61
706.175	12718.18
706.52	12725.41
706.865	12629.6
707.209	12592.31
707.554	12644.96
707.899	12585.98
708.243	12496.72
708.588	12463.73
708.932	12371.07
709.277	12373.33
709.621	12312.54
709.966	12249.27
710.31	12326.55
710.654	12204.3
710.998	12199.1
711.342	12197.74
711.687	12105.54
712.031	12107.13
712.375	12066.45
712.719	12086.79
713.063	12088.14
713.407	12056.05
713.75	12028.94
714.094	11976.06
714.438	11995.04
714.782	12001.37
715.125	11972.21
715.469	11940.8
715.812	11873.91
716.156	11759.79
716.499	11788.49
716.843	11748.04
717.186	11686.8
717.53	11779.45
717.873	11773.12
718.216	11711.2
718.559	11560.47
718.902	11564.99
719.246	11614.03
719.589	11574.26
719.932	11584.65
720.275	11594.14
720.617	11527.93
720.96	11494.03
721.303	11557.31
721.646	11515.28
721.989	11487.25
722.331	11467.37
722.674	11508.72
723.016	11466.92
723.359	11443.41
723.701	11441.61
724.044	11376.07
724.386	11396.64
724.729	11386.24
725.071	11400.48
725.413	11386.69
725.755	11252.23
726.097	11242.97
726.439	11234.83
726.782	11233.7
727.124	11324.77
727.465	11299.01
727.807	11266.24
728.149	11255.62
728.491	11283.64
728.833	11276.86
729.175	11182.18
729.516	11214.72
729.858	11250.42
730.199	11183.31
730.541	11161.84
730.882	11237.32
731.224	11246.13
731.565	11127.04
731.906	11112.8
732.248	11252.91
732.589	11158.68
732.93	11112.58
733.271	11110.99
733.612	11150.31
733.953	11113.48
734.294	11061.95
734.635	11128.39
734.976	11109.41
735.317	11095.85
735.658	11066.93
735.999	11055.63
736.339	11079.81
736.68	11211.78
737.021	11045.91
737.361	11092.01
737.702	11159.81
738.042	11113.03
738.383	11091.78
738.723	11120.26
739.063	11109.41
739.404	11129.98
739.744	11128.85
740.084	11138.34
740.424	11140.82
740.764	11160.48
741.104	11162.07
741.444	11125.23
741.784	11170.2
742.124	11135.85
742.464	11234.15
742.804	11179.47
743.143	11218.33
743.483	11278.9
743.823	11224.89
744.162	11322.06
744.502	11259.24
744.841	11346.69
745.181	11388.27
745.52	11369.52
745.86	11407.03
746.199	11391.66
746.538	11485.45
746.877	11567.03
747.216	11593.47
747.556	11607.03
747.895	11673.46
748.234	11706.91
748.573	11709.4
748.911	11862.16
749.25	11894.25
749.589	11840.24
749.928	12000.24
750.267	12065.54
750.605	12143.73
750.944	12107.35
751.283	12231.87
751.621	12361.58
751.96	12422.6
752.298	12507.11
752.636	12620.11
752.975	12652.87
753.313	12807.67
753.651	12910.27
753.989	13008.34
754.327	13094.9
754.666	13151.62
755.004	13277.04
755.342	13416.47
755.679	13566.3
