Data from hue_240_FLMS001491_00057.txt Node
Date: Tue Feb 07 16:35:40 GMT 2017
User: dcchb
Spectrometer: FLMS00149
Trigger mode: 0
Integration Time (sec): 2.000000E-2
Scans to average: 10
Electric dark correction enabled: true
Nonlinearity correction enabled: false
Boxcar width: 0
XAxis mode: Wavelengths
Number of Pixels in Spectrum: 2048
>>>>>Begin Spectral Data<<<<<
341.393	-5.8
341.776	-5.8
342.16	-5.8
342.543	-72.24
342.927	-56.43
343.31	-69.76
343.693	-64.56
344.077	-65.24
344.46	-25.92
344.843	-49.19
345.226	-27.27
345.61	-31.57
345.993	-10.32
346.376	-10.1
346.759	-8.97
347.142	23.35
347.525	40.3
347.908	58.15
348.291	44.14
348.674	95.89
349.057	101.08
349.44	115.32
349.823	164.81
350.206	139.05
350.588	209.56
350.971	195.55
351.354	206.62
351.737	233.74
352.119	252.04
352.502	266.28
352.884	266.96
353.267	290.01
353.65	290.46
354.032	290.23
354.414	290.46
354.797	317.12
355.179	319.84
355.562	298.37
355.944	317.8
356.326	307.86
356.709	322.55
357.091	338.82
357.473	323.9
357.855	366.61
358.238	336.33
358.62	338.37
359.002	352.15
359.384	317.12
359.766	332.27
360.148	317.8
360.53	318.48
360.912	325.71
361.294	338.14
361.676	312.15
362.057	316.9
362.439	322.77
362.821	308.54
363.203	330.68
363.584	340.4
363.966	323.23
364.348	330.01
364.729	334.07
365.111	319.16
365.493	326.39
365.874	293.4
366.256	318.25
366.637	306.05
367.019	311.7
367.4	304.02
367.781	299.27
368.163	312.83
368.544	308.54
368.925	308.09
369.306	305.6
369.688	298.14
370.069	315.77
370.45	288.88
370.831	310.8
371.212	313.96
371.593	302.89
371.974	307.18
372.355	303.34
372.736	307.41
373.117	297.24
373.498	307.63
373.879	309.44
374.26	313.51
374.641	309.44
375.021	298.14
375.402	305.15
375.783	315.54
376.163	297.69
376.544	334.07
376.925	306.73
377.305	313.28
377.686	325.71
378.066	313.06
378.447	322.1
378.827	329.78
379.208	318.03
379.588	337.46
379.968	318.93
380.349	340.63
380.729	332.72
381.109	321.64
381.489	336.56
381.87	335.43
382.25	351.7
382.63	323.45
383.01	339.72
383.39	356.9
383.77	339.5
384.15	346.73
384.53	343.79
384.91	342.89
385.29	348.54
385.67	344.47
386.049	341.76
386.429	351.02
386.809	347.63
387.189	334.3
387.568	353.73
387.948	344.24
388.328	355.54
388.707	333.85
389.087	337.24
389.466	341.53
389.846	348.31
390.225	385.37
390.605	365.71
390.984	355.99
391.363	352.15
391.743	357.58
392.122	377.01
392.501	372.04
392.881	357.8
393.26	372.04
393.639	374.52
394.018	371.59
394.397	366.61
394.776	351.25
395.155	363.68
395.534	389.21
395.913	382.66
396.292	381.98
396.671	388.08
397.05	399.83
397.429	383.79
397.808	394.41
398.186	397.12
398.565	396.9
398.944	393.28
399.323	405.26
399.701	393.73
400.08	403
400.458	401.87
400.837	398.48
401.215	420.85
401.594	407.97
401.972	405.94
402.351	413.62
402.729	412.49
403.107	415.88
403.486	428.99
403.864	434.18
404.242	414.97
404.62	417.23
404.999	402.32
405.377	414.75
405.755	447.29
406.133	412.94
406.511	417.46
406.889	453.17
407.267	446.61
407.645	464.01
408.023	444.58
408.401	449.32
408.779	489.55
409.156	481.87
409.534	502.66
409.912	474.63
410.29	488.19
410.667	489.78
411.045	474.86
411.422	485.71
411.8	511.92
412.178	528.19
412.555	506.95
412.933	529.55
413.31	507.63
413.687	530.68
414.065	545.14
414.442	542.88
414.819	544.46
415.197	561.19
415.574	560.06
415.951	577.46
416.328	568.87
416.705	572.94
417.082	580.39
417.46	590.34
417.837	597.34
418.214	594.63
418.591	606.83
418.967	605.25
419.344	612.03
419.721	619.72
420.098	616.78
420.475	622.65
420.852	640.28
421.228	670.11
421.605	657.68
421.982	648.64
422.358	677.57
422.735	703.55
423.111	686.15
423.488	688.87
423.864	707.17
424.241	717.11
424.617	737.9
424.994	739.94
425.37	730.9
425.746	735.87
426.123	763.21
426.499	770.67
426.875	773.84
427.251	761.63
427.627	782.42
428.003	802.76
428.379	791.46
428.756	823.55
429.132	819.48
429.507	857.22
429.883	857
430.259	847.51
430.635	870.1
431.011	872.82
431.387	869.88
431.763	884.34
432.138	914.62
432.514	901.29
432.89	904.91
433.265	941.06
433.641	918.01
434.016	965.92
434.392	971.34
434.767	1005.92
435.143	1000.95
435.518	1017.9
435.894	1054.28
436.269	1022.19
436.644	1059.25
437.02	1092.25
437.395	1090.44
437.77	1126.82
438.145	1108.52
438.52	1132.92
438.895	1150.32
439.271	1152.36
439.646	1169.31
440.021	1182.41
440.395	1155.29
440.77	1195.52
441.145	1215.41
441.52	1224.45
441.895	1246.82
442.27	1242.3
442.645	1251.34
443.019	1293.6
443.394	1270.09
443.769	1287.49
444.143	1276.65
444.518	1310.09
444.892	1307.61
445.267	1304.22
445.641	1331.79
446.016	1357.78
446.39	1330.43
446.764	1320.94
447.139	1354.39
447.513	1363.42
447.887	1391.22
448.262	1403.2
448.636	1423.76
449.01	1411.33
449.384	1419.47
449.758	1448.85
450.132	1449.52
450.506	1462.18
450.88	1471.67
451.254	1466.7
451.628	1502.4
452.002	1495.4
452.376	1521.39
452.75	1525.45
453.123	1531.78
453.497	1536.98
453.871	1576.3
454.244	1597.99
454.618	1642.74
454.992	1627.37
455.365	1619.46
455.739	1655.85
456.112	1657.43
456.486	1667.15
456.859	1693.59
457.232	1726.13
457.606	1702.85
457.979	1752.79
458.352	1772.23
458.725	1788.95
459.099	1809.74
459.472	1846.58
459.845	1837.08
460.218	1850.42
460.591	1883.64
460.964	1909.85
461.337	1919.57
461.71	1956.18
462.083	1999.11
462.456	1976.06
462.829	1986.69
463.201	1991.2
463.574	2026.68
463.947	2035.5
464.32	2071.88
464.692	2086.8
465.065	2114.37
465.438	2116.85
465.81	2139.45
466.183	2164.76
466.555	2237.98
466.928	2226.9
467.3	2218.09
467.672	2258.99
468.045	2295.15
468.417	2328.82
468.789	2315.26
469.161	2365.88
469.534	2400.23
469.906	2442.04
470.278	2427.58
470.65	2464.86
471.022	2513.45
471.394	2543.28
471.766	2583.73
472.138	2608.14
472.51	2650.4
472.882	2646.1
473.253	2710.96
473.625	2733.11
473.997	2797.74
474.369	2818.53
474.74	2828.24
475.112	2865.98
475.484	2882.03
475.855	2951.86
476.227	2940.33
476.598	3066.88
476.97	3058.97
477.341	3123.15
477.713	3155.02
478.084	3190.95
478.455	3236.6
478.827	3248.12
479.198	3366.08
479.569	3345.29
479.94	3433.88
480.311	3458.96
480.682	3542.35
481.053	3589.35
481.424	3616.7
481.795	3651.73
482.166	3725.17
482.537	3763.36
482.908	3831.38
483.279	3821.67
483.65	3922.68
484.021	3952.06
484.391	4023.02
484.762	4027.76
485.133	4017.82
485.503	4139.62
485.874	4212.16
486.244	4261.43
486.615	4291.26
486.985	4321.54
487.356	4399.95
487.726	4370.13
488.097	4527.64
488.467	4506.17
488.837	4583.68
489.207	4607.63
489.578	4691.7
489.948	4770.34
490.318	4780.06
490.688	4790.45
491.058	4834.75
491.428	4853.73
491.798	4949.54
492.168	5087.17
492.538	5071.58
492.908	5089.2
493.278	5195.87
493.648	5133.72
494.017	5259.82
494.387	5262.98
494.757	5284.45
495.126	5375.07
495.496	5355.86
495.866	5332.81
496.235	5440.61
496.605	5414.84
496.974	5437.67
497.344	5509.76
497.713	5529.42
498.082	5587.04
498.452	5628.85
498.821	5598.12
499.19	5644.22
499.559	5669.3
499.928	5751.56
500.298	5734.61
500.667	5748.85
501.036	5780.48
501.405	5796.53
501.774	5801.5
502.143	5879.69
502.512	5886.92
502.88	5929.41
503.249	5960.82
503.618	5965.11
503.987	5982.06
504.356	5993.81
504.724	6027.48
505.093	5971.21
505.462	6036.3
505.83	6050.08
506.199	6105.22
506.567	6209.17
506.936	6116.75
507.304	6155.84
507.672	6220.47
508.041	6260.24
508.409	6221.6
508.777	6242.84
509.145	6328.72
509.514	6329.17
509.882	6298.66
510.25	6361.49
510.618	6351.77
510.986	6406
511.354	6418.88
511.722	6453.01
512.09	6488.04
512.458	6447.58
512.826	6539.33
513.193	6528.03
513.561	6509.05
513.929	6572.33
514.297	6556.28
514.664	6611.87
515.032	6610.97
515.4	6637.86
515.767	6663.62
516.135	6717.63
516.502	6653.91
516.869	6749.72
517.237	6740.23
517.604	6678.99
517.972	6784.98
518.339	6796.28
518.706	6772.1
519.073	6765.99
519.44	6810.51
519.808	6789.72
520.175	6840.12
520.542	6862.26
520.909	6869.27
521.276	6861.36
521.643	6904.07
522.009	6936.61
522.376	6963.5
522.743	6908.82
523.11	7048.47
523.477	7050.28
523.843	7034.01
524.21	7114.69
524.577	7149.71
524.943	7128.02
525.31	7096.16
525.676	7120.79
526.043	7128.24
526.409	7203.27
526.776	7215.02
527.142	7173.44
527.508	7185.87
527.874	7295.92
528.241	7318.52
528.607	7273.1
528.973	7300.44
529.339	7281.01
529.705	7343.15
530.071	7361.91
530.437	7290.05
530.803	7377.5
531.169	7382.48
531.535	7317.62
531.901	7375.92
532.267	7308.8
532.632	7386.77
532.998	7363.72
533.364	7370.95
533.73	7417.95
534.095	7426.32
534.461	7417.05
534.826	7410.05
535.192	7426.99
535.557	7442.13
535.923	7389.93
536.288	7427.9
536.653	7422.02
537.019	7387.22
537.384	7475.35
537.749	7443.26
538.114	7406.66
538.479	7408.92
538.845	7444.62
539.21	7379.76
539.575	7339.76
539.94	7411.85
540.305	7400.33
540.67	7353.78
541.034	7370.95
541.399	7400.1
541.764	7373.21
542.129	7396.03
542.494	7392.64
542.858	7414.56
543.223	7426.77
543.587	7356.71
543.952	7383.83
544.316	7401.68
544.681	7377.5
545.045	7390.38
545.41	7356.04
545.774	7323.95
546.138	7292.31
546.503	7364.62
546.867	7260.22
547.231	7306.55
547.595	7381.35
547.959	7308.35
548.324	7258.64
548.688	7322.59
549.052	7363.04
549.416	7333.21
549.779	7344.74
550.143	7240.11
550.507	7316.04
550.871	7285.3
551.235	7323.04
551.599	7327.34
551.962	7317.17
552.326	7283.95
552.689	7331.63
553.053	7319.65
553.417	7345.19
553.78	7329.6
554.143	7312.19
554.507	7258.86
554.87	7282.82
555.234	7361.23
555.597	7306.77
555.96	7302.03
556.323	7342.93
556.686	7350.61
557.05	7347.45
557.413	7366.43
557.776	7416.15
558.139	7379.54
558.502	7370.95
558.865	7481.46
559.228	7438.07
559.59	7450.04
559.953	7408.24
560.316	7458.41
560.679	7495.01
561.041	7526.2
561.404	7518.52
561.767	7549.7
562.129	7541.57
562.492	7615.46
562.854	7582.24
563.217	7546.09
563.579	7530.04
563.941	7672.19
564.304	7592.19
564.666	7674.22
565.028	7639.19
565.39	7673.32
565.753	7748.34
566.115	7785.4
566.477	7677.83
566.839	7749.92
567.201	7721.45
567.563	7791.28
567.925	7839.19
568.287	7833.31
568.648	7859.75
569.01	7922.8
569.372	7971.16
569.734	7851.84
570.095	7912.4
570.457	7947.43
570.819	7919.64
571.18	7964.83
571.542	8067.43
571.903	8057.94
572.265	8043.47
572.626	8056.58
572.987	8087.77
573.349	8119.63
573.71	8122.12
574.071	8116.92
574.432	8164.6
574.794	8186.52
575.155	8159.86
575.516	8174.54
575.877	8240.31
576.238	8256.58
576.599	8304.49
576.96	8287.99
577.32	8278.05
577.681	8388.55
578.042	8353.07
578.403	8320.3
578.763	8307.87
579.124	8376.57
579.485	8458.15
579.845	8401.88
580.206	8401.43
580.566	8400.98
580.927	8438.49
581.287	8486.63
581.648	8465.61
582.008	8486.18
582.368	8490.24
582.728	8565.72
583.089	8545.16
583.449	8548.32
583.809	8472.39
584.169	8541.09
584.529	8526.4
584.889	8622.22
585.249	8601.43
585.609	8548.32
585.969	8619.28
586.329	8617.25
586.688	8618.15
587.048	8634.19
587.408	8570.01
587.768	8612.5
588.127	8647.3
588.487	8639.84
588.846	8773.4
589.206	8676.45
589.565	8625.61
589.925	8740.63
590.284	8749.9
590.643	8708.09
591.003	8708.54
591.362	8715.32
591.721	8737.92
592.08	8772.95
592.44	8743.34
592.799	8723.91
593.158	8779.5
593.517	8751.03
593.876	8793.51
594.235	8754.87
594.593	8789.9
594.952	8744.47
595.311	8762.33
595.67	8811.14
596.029	8886.84
596.387	8857.24
596.746	8871.48
597.104	8867.63
597.463	8830.12
597.822	8834.64
598.18	8810.23
598.538	8828.31
598.897	8916.22
599.255	8827.86
599.613	8928.42
599.972	8922.32
600.33	8905.83
600.688	8812.72
601.046	8898.82
601.404	8963.68
601.762	8912.15
602.12	8991.47
602.478	9009.33
602.836	9002.77
603.194	8972.04
603.552	8951.02
603.91	8888.65
604.268	8975.88
604.625	8878.48
604.983	8944.92
605.341	8881.87
605.698	8941.76
606.056	8969.1
606.413	9006.16
606.771	9037.12
607.128	9093.84
607.485	8983.34
607.843	9016.33
608.2	9085.93
608.557	9026.5
608.914	9099.72
609.272	9090.23
609.629	9088.87
609.986	9177
610.343	9045.93
610.7	9177.23
611.057	9155.76
611.414	9122.32
611.771	9102.2
612.127	9169.1
612.484	9212.48
612.841	9187.63
613.198	9154.86
613.554	9120.06
613.911	9188.53
614.267	9240.28
614.624	9196.44
614.98	9219.94
615.337	9284.8
615.693	9232.14
616.05	9257.23
616.406	9266.72
616.762	9268.53
617.118	9240.05
617.475	9186.5
617.831	9249.32
618.187	9309.88
618.543	9273.05
618.899	9241.64
619.255	9295.42
619.611	9288.19
619.967	9351.69
620.323	9320.05
620.678	9331.58
621.034	9240.05
621.39	9302.42
621.746	9253.84
622.101	9416.55
622.457	9353.72
622.812	9386.49
623.168	9350.33
623.523	9358.69
623.879	9356.21
624.234	9302.65
624.589	9357.56
624.945	9394.4
625.3	9284.8
625.655	9323.67
626.01	9340.39
626.365	9292.48
626.72	9340.62
627.075	9349.2
627.43	9319.6
627.785	9305.59
628.14	9292.03
628.495	9308.53
628.85	9353.27
629.205	9193.73
629.559	9252.93
629.914	9248.19
630.269	9261.75
630.623	9224.23
630.978	9214.74
631.332	9294.52
631.687	9355.08
632.041	9259.49
632.396	9261.75
632.75	9227.4
633.104	9220.62
633.459	9148.98
633.813	9165.48
634.167	9200.96
634.521	9159.15
634.875	9118.93
635.229	9168.87
635.583	9055.65
635.937	9154.63
636.291	9098.59
636.645	9126.61
636.999	9106.27
637.352	9118.7
637.706	8989.21
638.06	9078.25
638.413	9017.69
638.767	8976.33
639.121	9017.23
639.474	8990.12
639.828	9040.96
640.181	8956.22
640.534	9054.3
640.888	8999.83
641.241	8900.18
641.594	8975.88
641.947	8977.01
642.301	8887.07
642.654	8913.06
643.007	8944.69
643.36	8922.1
643.713	8847.97
644.066	8890.68
644.419	8836.22
644.771	8824.02
645.124	8744.7
645.477	8722.78
645.83	8683.01
646.182	8621.76
646.535	8601.43
646.888	8629.67
647.24	8579.96
647.593	8625.15
647.945	8613.4
648.298	8543.35
648.65	8525.27
649.002	8565.5
649.355	8558.04
649.707	8530.92
650.059	8541.54
650.411	8687.98
650.763	8731.14
651.115	8827.41
651.467	8805.04
651.819	8768.2
652.171	8782.89
652.523	8752.16
652.875	8722.33
653.227	8723.68
653.578	8728.65
653.93	8707.86
654.282	8650.24
654.633	8690.24
654.985	8734.3
655.337	8680.52
655.688	8640.07
656.039	8631.93
656.391	8647.3
656.742	8641.43
657.094	8660.18
657.445	8680.97
657.796	8675.77
658.147	8687.3
658.498	8674.42
658.849	8752.83
659.2	8703.34
659.551	8636
659.902	8672.38
660.253	8751.25
660.604	8709.9
660.955	8701.54
661.306	8711.03
661.656	8708.32
662.007	8729.33
662.358	8744.02
662.708	8696.79
663.059	8698.82
663.409	8640.07
663.76	8707.64
664.11	8699.5
664.461	8698.82
664.811	8658.37
665.161	8712.16
665.511	8701.99
665.862	8657.7
666.212	8755.09
666.562	8752.38
666.912	8710.8
667.262	8665.38
667.612	8657.24
667.962	8659.05
668.312	8666.96
668.662	8755.09
669.011	8723.68
669.361	8633.52
669.711	8640.3
670.06	8630.58
670.41	8662.89
670.76	8652.05
671.109	8702.44
671.459	8644.14
671.808	8614.99
672.157	8603.91
672.507	8632.84
672.856	8663.57
673.205	8570.01
673.554	8642.1
673.904	8570.92
674.253	8614.99
674.602	8643.01
674.951	8501.54
675.3	8490.24
675.649	8518.72
675.998	8481.66
676.346	8497.47
676.695	8599.39
677.044	8523.01
677.393	8472.84
677.741	8509.45
678.09	8498.6
678.438	8472.39
678.787	8507.19
679.135	8501.99
679.484	8353.52
679.832	8413.18
680.181	8353.07
680.529	8451.37
680.877	8423.58
681.225	8401.66
681.573	8490.02
681.922	8422.45
682.27	8364.37
682.618	8333.86
682.966	8287.08
683.314	8350.81
683.661	8313.3
684.009	8217.93
684.357	8204.6
684.705	8258.38
685.053	8244.37
685.4	8247.31
685.748	8212.06
686.095	8203.92
686.443	8153.75
686.79	8128.22
687.138	8085.51
687.485	8134.32
687.832	8141.33
688.18	8129.57
688.527	8057.49
688.874	8010.71
689.221	8030.59
689.568	7970.48
689.915	8002.12
690.262	7939.75
690.609	7932.07
690.956	7878.06
691.303	7950.6
691.65	7872.63
691.997	7888.22
692.344	7795.12
692.69	7885.96
693.037	7844.84
693.383	7805.06
693.73	7756.25
694.077	7737.95
694.423	7663.15
694.769	7629.93
695.116	7712.64
695.462	7661.56
695.808	7633.77
696.155	7572.53
696.501	7565.3
696.847	7574.33
697.193	7500.89
697.539	7523.71
697.885	7458.18
698.231	7468.57
698.577	7474.68
698.923	7471.74
699.269	7333.21
699.614	7326.43
699.96	7347.45
700.306	7339.99
700.651	7283.72
700.997	7202.82
701.342	7269.71
701.688	7238.75
702.033	7212.76
702.379	7186.77
702.724	7086.21
703.069	7128.92
703.415	7067.46
703.76	7082.6
704.105	7104.74
704.45	7096.83
704.795	7020
705.14	6995.37
705.485	6989.94
705.83	7042.6
706.175	6948.14
706.52	6969.6
706.865	6943.62
707.209	6907.23
707.554	6860.23
707.899	6870.62
708.243	6872.21
708.588	6816.84
708.932	6800.34
709.277	6808.03
709.621	6795.6
709.966	6749.27
710.31	6725.32
710.654	6698.65
710.998	6723.28
711.342	6712.44
711.687	6666.11
712.031	6649.16
712.375	6621.37
712.719	6635.6
713.063	6632.66
713.407	6662.72
713.75	6650.74
714.094	6664.98
714.438	6563.74
714.782	6597.86
715.125	6554.25
715.469	6541.82
715.812	6523.29
716.156	6553.8
716.499	6466.34
716.843	6534.36
717.186	6478.77
717.53	6466.57
717.873	6526.23
718.216	6475.83
718.559	6443.29
718.902	6431.99
719.246	6417.75
719.589	6416.4
719.932	6330.75
720.275	6400.35
720.617	6351.09
720.96	6398.09
721.303	6414.37
721.646	6361.49
721.989	6375.72
722.331	6382.95
722.674	6347.7
723.016	6298.66
723.359	6324.2
723.701	6345.44
724.044	6303.86
724.386	6294.14
724.729	6283.52
725.071	6304.54
725.413	6302.05
725.755	6306.35
726.097	6242.17
726.439	6232.22
726.782	6248.49
727.124	6255.73
727.465	6229.74
727.807	6187.93
728.149	6253.92
728.491	6255.95
728.833	6243.3
729.175	6210.3
729.516	6215.95
729.858	6213.24
730.199	6271.54
730.541	6181.15
730.882	6213.01
731.224	6211.21
731.565	6184.31
731.906	6205.56
732.248	6120.36
732.589	6161.72
732.93	6139.12
733.271	6150.87
733.612	6183.64
733.953	6137.76
734.294	6142.51
734.635	6138.44
734.976	6203.3
735.317	6147.93
735.658	6129.85
735.999	6137.99
736.339	6143.19
736.68	6206.01
737.021	6149.06
737.361	6140.47
737.702	6173.02
738.042	6141.15
738.383	6149.97
738.723	6139.57
739.063	6101.83
739.404	6155.39
739.744	6193.13
740.084	6150.19
740.424	6124.88
740.764	6180.25
741.104	6181.15
741.444	6195.39
741.784	6154.49
742.124	6262.28
742.464	6187.7
742.804	6206.24
743.143	6137.99
743.483	6237.19
743.823	6138.67
744.162	6190.19
744.502	6291.88
744.841	6279.91
745.181	6330.53
745.52	6300.47
745.86	6310.19
746.199	6338.66
746.538	6359
746.877	6367.13
747.216	6402.61
747.556	6408.26
747.895	6451.88
748.234	6428.83
748.573	6493.91
748.911	6503.63
749.25	6542.05
749.589	6518.77
749.928	6641.03
750.267	6634.47
750.605	6679.89
750.944	6760.57
751.283	6718.54
751.621	6777.75
751.96	6808.71
752.298	6919.21
752.636	6915.59
752.975	6941.58
753.313	6976.38
753.651	7082.6
753.989	7093.22
754.327	7214.12
754.666	7204.4
755.004	7322.14
755.342	7429.03
755.679	7423.83
756.017	7519.42
756.355	7615.69
756.693	7763.03
757.031	7790.83
757.368	7820.66
757.706	7941.1
758.044	7973.65
758.381	8036.02
758.719	8115.79
759.056	8158.05
759.394	8285.5
759.731	8374.77
760.068	8474.2
760.405	8540.19
760.743	8619.96
761.08	8770.46
761.417	8802.55
761.754	8984.92
762.091	9014.97
762.428	9126.16
762.765	9145.14
763.102	9324.12
763.438	9385.13
763.775	9394.4
764.112	9530.22
764.449	9678.91
764.785	9663.55
765.122	9743.32
765.458	9820.83
765.795	9995.29
766.131	10008.85
766.467	10085.91
766.804	10079.58
767.14	10184.89
767.476	10307.14
767.812	10354.6
768.148	10459
768.485	10442.73
768.821	10456.74
769.157	10604.09
769.492	10634.14
769.828	10758.88
