Data from hue_240_FLMS001491_00076.txt Node
Date: Tue Feb 07 16:35:56 GMT 2017
User: dcchb
Spectrometer: FLMS00149
Trigger mode: 0
Integration Time (sec): 2.000000E-2
Scans to average: 10
Electric dark correction enabled: true
Nonlinearity correction enabled: false
Boxcar width: 0
XAxis mode: Wavelengths
Number of Pixels in Spectrum: 2048
>>>>>Begin Spectral Data<<<<<
341.393	-23.78
341.776	-23.78
342.16	-23.78
342.543	-52.94
342.927	-70.79
343.31	-88.19
343.693	-68.76
344.077	-55.65
344.46	-54.52
344.843	-66.95
345.226	-33.95
345.61	-19.72
345.993	-18.14
346.376	-4.8
346.759	2.43
347.142	31.13
347.525	53.28
347.908	48.3
348.291	81.98
348.674	85.36
349.057	108.19
349.44	142.09
349.823	143.67
350.206	152.03
350.588	188.87
350.971	207.85
351.354	216.66
351.737	206.49
352.119	232.03
352.502	252.59
352.884	269.31
353.267	284.91
353.65	282.65
354.032	283.55
354.414	289.43
354.797	314.96
355.179	293.04
355.562	320.61
355.944	319.48
356.326	319.03
356.709	324
357.091	331.91
357.473	346.6
357.855	335.53
358.238	326.49
358.62	339.14
359.002	332.14
359.384	334.17
359.766	329.65
360.148	333.27
360.53	324.45
360.912	319.94
361.294	337.34
361.676	323.32
362.057	322.65
362.439	333.04
362.821	332.82
363.203	319.94
363.584	318.81
363.966	321.97
364.348	313.83
364.729	327.62
365.111	322.19
365.493	311.8
365.874	291.24
366.256	301.86
366.637	309.31
367.019	311.8
367.4	311.35
367.781	338.24
368.163	308.41
368.544	300.95
368.925	290.11
369.306	305.92
369.688	277.68
370.069	302.76
370.45	287.62
370.831	286.94
371.212	314.74
371.593	277.68
371.974	303.21
372.355	314.74
372.736	316.77
373.117	295.98
373.498	305.02
373.879	313.61
374.26	314.51
374.641	310.67
375.021	311.8
375.402	303.66
375.783	300.73
376.163	311.12
376.544	331.23
376.925	328.75
377.305	333.95
377.686	282.42
378.066	313.16
378.447	339.14
378.827	310.9
379.208	323.1
379.588	325.81
379.968	317
380.349	324.68
380.729	334.62
381.109	313.61
381.489	350.89
381.87	321.29
382.25	336.43
382.63	328.3
383.01	341.18
383.39	335.08
383.77	333.72
384.15	343.21
384.53	331.69
384.91	338.24
385.29	333.27
385.67	326.71
386.049	338.69
386.429	348.86
386.809	349.31
387.189	345.92
387.568	356.77
387.948	365.58
388.328	347.05
388.707	359.71
389.087	349.31
389.466	340.73
389.846	344.57
390.225	350.67
390.605	347.96
390.984	371.23
391.363	377.11
391.743	367.62
392.122	367.17
392.501	376.88
392.881	368.3
393.26	372.59
393.639	356.32
394.018	387.96
394.397	367.62
394.776	376.43
395.155	387.5
395.534	378.92
395.913	390.44
396.292	382.98
396.671	373.72
397.05	380.05
397.429	370.78
397.808	393.83
398.186	394.06
398.565	398.8
398.944	388.86
399.323	389.76
399.701	408.97
400.08	386.37
400.458	403.32
400.837	407.62
401.215	419.37
401.594	419.59
401.972	424.34
402.351	408.97
402.729	410.55
403.107	420.27
403.486	437.22
403.864	437.67
404.242	403.77
404.62	426.37
404.999	421.18
405.377	435.41
405.755	443.1
406.133	448.75
406.511	449.42
406.889	440.38
407.267	471.57
407.645	457.78
408.023	479.03
408.401	459.14
408.779	466.6
409.156	477.45
409.534	479.7
409.912	458.46
410.29	481.51
410.667	490.1
411.045	506.37
411.422	486.48
411.8	512.47
412.178	510.89
412.555	518.8
412.933	521.74
413.31	532.81
413.687	562.41
414.065	548.86
414.442	556.09
414.819	561.51
415.197	562.87
415.574	558.12
415.951	585.69
416.328	581.62
416.705	580.72
417.082	586.59
417.46	611.45
417.837	620.49
418.214	623.43
418.591	629.31
418.967	609.42
419.344	604
419.721	622.07
420.098	640.83
420.475	642.86
420.852	658.01
421.228	689.19
421.605	660.27
421.982	692.81
422.358	706.59
422.735	701.85
423.111	670.89
423.488	732.81
423.864	723.54
424.241	741.62
424.617	749.3
424.994	742.75
425.37	768.51
425.746	784.33
426.123	750.43
426.499	778.23
426.875	794.05
427.251	780.49
427.627	798.79
428.003	828.17
428.379	830.66
428.756	858.9
429.132	834.72
429.507	834.5
429.883	883.99
430.259	893.25
430.635	885.34
431.011	924.44
431.387	908.39
431.763	936.64
432.138	909.52
432.514	943.2
432.89	978.9
433.265	954.95
433.641	1000.6
434.016	1025
434.392	1025.23
434.767	1035.85
435.143	1045.34
435.518	1060.71
435.894	1054.83
436.269	1077.88
436.644	1105.68
437.02	1103.87
437.395	1128.5
437.77	1128.95
438.145	1177.77
438.52	1172.79
438.895	1177.31
439.271	1179.12
439.646	1232.91
440.021	1228.84
440.395	1252.11
440.77	1228.61
441.145	1247.37
441.52	1263.19
441.895	1291.89
442.27	1281.04
442.645	1278.55
443.019	1305.45
443.394	1316.75
443.769	1318.78
444.143	1358.33
444.518	1390.87
444.892	1351.32
445.267	1372.11
445.641	1401.71
446.016	1383.41
446.39	1421.83
446.764	1401.71
447.139	1422.96
447.513	1448.72
447.887	1435.16
448.262	1473.13
448.636	1464.31
449.01	1483.29
449.384	1501.6
449.758	1489.62
450.132	1512.9
450.506	1529.85
450.88	1542.28
451.254	1533.24
451.628	1550.86
452.002	1528.72
452.376	1591.09
452.75	1603.74
453.123	1629.51
453.497	1649.17
453.871	1620.01
454.244	1651.2
454.618	1666.57
454.992	1709.5
455.365	1708.83
455.739	1708.37
456.112	1782.72
456.486	1741.14
456.859	1789.73
457.232	1804.19
457.606	1811.2
457.979	1835.15
458.352	1872.44
458.725	1886.45
459.099	1870.63
459.472	1940.91
459.845	1936.62
460.218	1958.54
460.591	1974.35
460.964	2006.9
461.337	2040.34
461.71	2050.06
462.083	2059.78
462.456	2081.02
462.829	2110.17
463.201	2094.13
463.574	2110.62
463.947	2152.2
464.32	2172.77
464.692	2195.14
465.065	2236.04
465.438	2247.57
465.81	2272.65
466.183	2300.45
466.555	2353.55
466.928	2350.62
467.3	2374.57
467.672	2379.54
468.045	2428.58
468.417	2484.4
468.789	2462.48
469.161	2465.87
469.534	2534.34
469.906	2605.98
470.278	2569.59
470.65	2614.79
471.022	2652.3
471.394	2692.53
471.766	2718.97
472.138	2771.17
472.51	2808.23
472.882	2814.11
473.253	2829.25
473.625	2885.29
473.997	2939.08
474.369	2945.85
474.74	3005.97
475.112	3043.03
475.484	3117.38
475.855	3095
476.227	3127.09
476.598	3253.87
476.97	3238.73
477.341	3309.24
477.713	3348.56
478.084	3347.2
478.455	3446.18
478.827	3511.04
479.198	3558.72
479.569	3541.77
479.94	3683.46
480.311	3670.58
480.682	3763.23
481.053	3844.81
481.424	3877.36
481.795	3890.01
482.166	3931.59
482.537	3978.82
482.908	4080.51
483.279	4078.25
483.65	4145.37
484.021	4188.53
484.391	4247.29
484.762	4310.11
485.133	4307.85
485.503	4394.18
485.874	4425.59
486.244	4505.36
486.615	4550.56
486.985	4632.14
487.356	4716.88
487.726	4762.76
488.097	4814.28
488.467	4785.81
488.837	4869.65
489.207	4969.08
489.578	4996.42
489.948	5053.37
490.318	5111
490.688	5102.18
491.058	5212.91
491.428	5207.49
491.798	5194.84
492.168	5360.48
492.538	5386.69
492.908	5428.5
493.278	5475.73
493.648	5555.73
494.017	5563.64
494.387	5586.46
494.757	5654.71
495.126	5665.11
495.496	5714.82
495.866	5772.45
496.235	5814.25
496.605	5859.68
496.974	5888.15
497.344	5928.38
497.713	5896.96
498.082	6009.28
498.452	6047.47
498.821	6023.97
499.19	6043.85
499.559	6059.9
499.928	6089.95
500.298	6186.45
500.667	6181.48
501.036	6211.53
501.405	6258.99
501.774	6216.05
502.143	6308.25
502.512	6314.58
502.88	6384.18
503.249	6371.75
503.618	6429.38
503.987	6431.86
504.356	6477.74
504.724	6468.47
505.093	6461.02
505.462	6496.04
505.83	6520
506.199	6561.8
506.567	6656.04
506.936	6589.37
507.304	6657.85
507.672	6662.82
508.041	6770.16
508.409	6758.64
508.777	6753.89
509.145	6830.72
509.514	6800.22
509.882	6861.68
510.25	6795.92
510.618	6894.45
510.986	6878.63
511.354	6938.97
511.722	6940.1
512.09	7029.82
512.458	7003.6
512.826	6949.37
513.193	7037.05
513.561	7065.52
513.929	7089.7
514.297	7172.41
514.664	7137.61
515.032	7125.63
515.4	7189.81
515.767	7170.15
516.135	7163.37
516.502	7126.76
516.869	7315.01
517.237	7289.92
517.604	7212.18
517.972	7256.25
518.339	7320.2
518.706	7307.32
519.073	7358.39
519.44	7352.07
519.808	7406.08
520.175	7358.39
520.542	7422.35
520.909	7467.77
521.276	7479.75
521.643	7497.37
522.009	7521.1
522.376	7457.37
522.743	7573.53
523.11	7566.75
523.477	7630.48
523.843	7640.65
524.21	7732.17
524.577	7754.77
524.943	7765.62
525.31	7784.82
525.676	7877.48
526.043	7822.34
526.409	7880.64
526.776	7872.28
527.142	7869.34
527.508	7854.2
527.874	7947.31
528.241	7927.19
528.607	7903.01
528.973	7982.56
529.339	7931.03
529.705	7974.2
530.071	8065.04
530.437	8024.59
530.803	8024.59
531.169	8039.28
531.535	7982.33
531.901	8064.82
532.267	8051.94
532.632	8063.69
532.998	8073.86
533.364	8106.85
533.73	8107.3
534.095	8111.82
534.461	8078.6
534.826	8120.41
535.192	8097.13
535.557	8164.25
535.923	8159.95
536.288	8175.77
536.653	8158.15
537.019	8105.27
537.384	8104.14
537.749	8143.01
538.114	8201.76
538.479	8124.7
538.845	8111.82
539.21	8081.76
539.575	8092.39
539.94	8103.91
540.305	8189.33
540.67	8089.45
541.034	8148.66
541.399	8119.96
541.764	8112.27
542.129	8131.03
542.494	8106.4
542.858	8137.81
543.223	8147.98
543.587	8134.42
543.952	8135.77
544.316	8114.76
544.681	8105.49
545.045	8085.83
545.41	8168.32
545.774	8025.04
546.138	8128.54
546.503	8025.04
546.867	8108.43
547.231	8086.51
547.595	8114.98
547.959	8104.14
548.324	8065.04
548.688	8097.36
549.052	8065.49
549.416	8021.88
549.779	8051.71
550.143	8014.87
550.507	8092.16
550.871	8008.32
551.235	8011.94
551.599	8063.69
551.962	8039.05
552.326	8020.52
552.689	8098.04
553.053	8044.48
553.417	8060.75
553.78	8151.37
554.143	8096.91
554.507	8080.86
554.87	8055.32
555.234	8139.16
555.597	8145.94
555.96	8096
556.323	8095.55
556.686	8051.48
557.05	8168.77
557.413	8049.9
557.776	8197.47
558.139	8128.77
558.502	8194.53
558.865	8126.51
559.228	8158.83
559.59	8128.32
559.953	8181.2
560.316	8250.8
560.679	8228.2
561.041	8244.92
561.404	8242.66
561.767	8258.94
562.129	8257.13
562.492	8321.53
562.854	8294.41
563.217	8334.19
563.579	8316.34
563.941	8348.42
564.304	8403.34
564.666	8393.17
565.028	8453.28
565.39	8439.72
565.753	8470.91
566.115	8469.78
566.477	8489.44
566.839	8540.96
567.201	8596.78
567.563	8543.45
567.925	8619.6
568.287	8574.63
568.648	8601.53
569.01	8640.85
569.372	8632.71
569.734	8654.86
570.095	8733.05
570.457	8792.03
570.819	8735.08
571.18	8723.78
571.542	8805.14
571.903	8764.01
572.265	8785.02
572.626	8843.33
572.987	8828.41
573.349	8909.54
573.71	8899.37
574.071	8929.88
574.432	8937.34
574.794	8925.13
575.155	8959.48
575.516	8955.19
575.877	8977.11
576.238	8933.72
576.599	9049.2
576.96	9025.02
577.32	8993.15
577.681	9116.31
578.042	9176.43
578.403	9145.47
578.763	9100.27
579.124	9121.96
579.485	9109.53
579.845	9185.01
580.206	9166.26
580.566	9121.51
580.927	9212.36
581.287	9226.82
581.648	9269.98
582.008	9321.28
582.368	9272.47
582.728	9305.24
583.089	9300.49
583.449	9352.92
583.809	9276.76
584.169	9411.9
584.529	9294.84
584.889	9369.87
585.249	9333.03
585.609	9382.75
585.969	9380.71
586.329	9368.96
586.688	9459.58
587.048	9409.87
587.408	9423.88
587.768	9482.18
588.127	9467.94
588.487	9419.81
588.846	9467.72
589.206	9429.53
589.565	9465.46
589.925	9490.54
590.284	9435.4
590.643	9493.25
591.003	9556.53
591.362	9570.99
591.721	9604.89
592.08	9575.28
592.44	9586.58
592.799	9547.04
593.158	9507.49
593.517	9605.57
593.876	9583.19
594.235	9575.74
594.593	9610.76
594.952	9555.85
595.311	9557.21
595.67	9528.51
596.029	9738.44
596.387	9577.32
596.746	9708.39
597.104	9624.78
597.463	9600.37
597.822	9635.85
598.18	9655.96
598.538	9676.07
598.897	9717.43
599.255	9569.64
599.613	9741.38
599.972	9647.15
600.33	9678.33
600.688	9701.61
601.046	9743.64
601.404	9735.96
601.762	9731.44
602.12	9733.25
602.478	9809.4
602.836	9748.39
603.194	9745.9
603.552	9760.36
603.91	9658.22
604.268	9713.13
604.625	9795.17
604.983	9800.36
605.341	9771.21
605.698	9802.62
606.056	9806.92
606.413	9786.8
606.771	9839.68
607.128	9804.21
607.485	9787.26
607.843	9775.05
608.2	9871.32
608.557	9933.92
608.914	9813.92
609.272	9903.86
609.629	9894.6
609.986	9994.48
610.343	9898.89
610.7	9947.7
611.057	9943.86
611.414	9968.49
611.771	9940.47
612.127	9988.38
612.484	9903.64
612.841	9990.64
613.198	9935.5
613.554	9992.9
613.911	10030.87
614.267	10008.27
614.624	9990.87
614.98	10022.96
615.337	10089.4
615.693	10052.79
616.05	9971.21
616.406	10102.28
616.762	10062.73
617.118	10049.17
617.475	10059.11
617.831	10105.44
618.187	10173.91
618.543	10075.61
618.899	10187.02
619.255	10107.02
619.611	10112.9
619.967	10159.68
620.323	10142.05
620.678	10141.37
621.034	10170.75
621.39	10060.7
621.746	10155.38
622.101	10206.91
622.457	10166.91
622.812	10082.84
623.168	10268.15
623.523	10138.66
623.879	10196.29
624.234	10122.16
624.589	10181.14
624.945	10185.89
625.3	10178.21
625.655	10167.81
626.01	10158.09
626.365	10140.24
626.72	10159.68
627.075	10132.78
627.43	10133.91
627.785	10081.03
628.14	10203.52
628.495	10117.87
628.85	10129.39
629.205	10124.2
629.559	10165.33
629.914	10139.11
630.269	10077.64
630.623	10032.22
630.978	10009.62
631.332	10028.15
631.687	10090.75
632.041	10017.08
632.396	10065.44
632.75	9904.54
633.104	10037.87
633.459	10001.49
633.813	9985.22
634.167	10005.33
634.521	9937.08
634.875	10037.42
635.229	9925.33
635.583	9909.51
635.937	9922.85
636.291	9877.65
636.645	9932.11
636.999	9921.49
637.352	9865.22
637.706	9844.2
638.06	9890.08
638.413	9878.1
638.767	9891.21
639.121	9816.63
639.474	9814.37
639.828	9841.94
640.181	9801.72
640.534	9797.43
640.888	9745.45
641.241	9753.81
641.594	9726.69
641.947	9745.9
642.301	9745.68
642.654	9746.58
643.007	9758.11
643.36	9688.95
643.713	9682.85
644.066	9704.55
644.419	9662.74
644.771	9597.66
645.124	9544.55
645.477	9580.71
645.83	9432.92
646.182	9397.66
646.535	9375.74
646.888	9430.2
647.24	9309.3
647.593	9354.95
647.945	9262.75
648.298	9333.48
648.65	9341.62
649.002	9266.37
649.355	9346.14
649.707	9401.05
650.059	9423.2
650.411	9490.54
650.763	9441.28
651.115	9531.9
651.467	9535.29
651.819	9565.34
652.171	9575.96
652.523	9493.48
652.875	9517.21
653.227	9463.65
653.578	9509.75
653.93	9544.78
654.282	9453.25
654.633	9455.74
654.985	9437.89
655.337	9472.91
655.688	9486.7
656.039	9563.08
656.391	9436.98
656.742	9445.8
657.094	9508.17
657.445	9459.13
657.796	9470.2
658.147	9382.3
658.498	9425.91
658.849	9465.46
659.2	9406.48
659.551	9433.37
659.902	9474.5
660.253	9482.18
660.604	9469.53
660.955	9455.06
661.306	9483.31
661.656	9425.91
662.007	9487.38
662.358	9483.08
662.708	9458.68
663.059	9504.78
663.409	9446.02
663.76	9542.52
664.11	9467.72
664.461	9491.22
664.811	9493.48
665.161	9500.03
665.511	9425.01
665.862	9490.32
666.212	9442.86
666.562	9453.25
666.912	9450.99
667.262	9500.26
667.612	9404.67
667.962	9481.28
668.312	9418.68
668.662	9492.35
669.011	9474.5
669.361	9497.55
669.711	9381.84
670.06	9400.37
670.41	9366.48
670.76	9389.08
671.109	9445.8
671.459	9387.27
671.808	9412.8
672.157	9406.02
672.507	9301.39
672.856	9351.11
673.205	9394.95
673.554	9332.35
673.904	9376.87
674.253	9357.89
674.602	9336.42
674.951	9242.41
675.3	9139.59
675.649	9331.9
675.998	9385.46
676.346	9289.87
676.695	9326.93
677.044	9241.28
677.393	9272.02
677.741	9282.64
678.09	9241.06
678.438	9167.39
678.787	9221.4
679.135	9192.7
679.484	9160.83
679.832	9207.61
680.181	9183.2
680.529	9176.2
680.877	9139.59
681.225	9143.66
681.573	9202.19
681.922	9089.65
682.27	9077.44
682.618	9087.16
682.966	9041.29
683.314	9029.99
683.661	9070.89
684.009	8950.67
684.357	8954.06
684.705	8925.58
685.053	8982.31
685.4	8941.86
685.748	8883.33
686.095	8927.17
686.443	8904.12
686.79	8951.8
687.138	8883.33
687.485	8861.18
687.832	8785.02
688.18	8825.25
688.527	8754.06
688.874	8675.87
689.221	8691.24
689.568	8708.42
689.915	8691.69
690.262	8698.02
690.609	8646.72
690.956	8622.32
691.303	8575.31
691.65	8528.98
691.997	8591.58
692.344	8487.4
692.69	8477.23
693.037	8489.89
693.383	8415.09
693.73	8462.77
694.077	8405.6
694.423	8380.74
694.769	8389.55
695.116	8319.95
695.462	8313.62
695.808	8279.5
696.155	8225.04
696.501	8233.4
696.847	8203.57
697.193	8115.66
697.539	8202.44
697.885	8140.52
698.231	8039.51
698.577	8050.81
698.923	8070.69
699.269	8014.65
699.614	7986.4
699.96	7993.86
700.306	7948.66
700.651	7872.5
700.997	7860.3
701.342	7856.69
701.688	7854.2
702.033	7817.37
702.379	7789.34
702.724	7771.04
703.069	7738.5
703.415	7689.23
703.76	7716.12
704.105	7691.49
704.45	7637.03
704.795	7602.68
705.14	7566.3
705.485	7566.75
705.83	7520.65
706.175	7540.54
706.52	7505.28
706.865	7452.63
707.209	7473.65
707.554	7444.95
707.899	7429.58
708.243	7399.3
708.588	7405.4
708.932	7329.02
709.277	7356.13
709.621	7324.72
709.966	7270.03
710.31	7302.58
710.654	7230.49
710.998	7268
711.342	7182.13
711.687	7206.76
712.031	7135.58
712.375	7176.93
712.719	7200.43
713.063	7109.81
713.407	7226.87
713.75	7124.05
714.094	7131.28
714.438	7154.11
714.782	7104.62
715.125	7017.16
715.469	7068.46
715.812	7037.05
716.156	7002.7
716.499	7010.38
716.843	6961.12
717.186	6975.58
717.53	7014.9
717.873	6998.63
718.216	6967.9
718.559	6947.11
718.902	6881.12
719.246	6937.61
719.589	6856.94
719.932	6907.33
720.275	6847.9
720.617	6873.66
720.96	6806.54
721.303	6806.77
721.646	6864.4
721.989	6790.95
722.331	6879.54
722.674	6858.52
723.016	6817.39
723.359	6822.81
723.701	6823.49
724.044	6828.69
724.386	6768.81
724.729	6752.99
725.071	6767.45
725.413	6802.25
725.755	6772.42
726.097	6713.67
726.439	6717.73
726.782	6739.88
727.124	6736.04
727.465	6677.96
727.807	6713.44
728.149	6677.96
728.491	6731.74
728.833	6676.6
729.175	6699.43
729.516	6651.07
729.858	6692.87
730.199	6677.51
730.541	6614.01
730.882	6668.24
731.224	6712.54
731.565	6623.27
731.906	6634.8
732.248	6677.51
732.589	6621.24
732.93	6611.07
733.271	6651.75
733.612	6644.51
733.953	6647.68
734.294	6649.94
734.635	6608.13
734.976	6677.51
735.317	6647.45
735.658	6601.35
735.999	6630.96
736.339	6590.96
736.68	6572.43
737.021	6595.93
737.361	6594.35
737.702	6670.05
738.042	6655.81
738.383	6608.13
738.723	6644.29
739.063	6628.02
739.404	6612.43
739.744	6623.05
740.084	6614.01
740.424	6644.29
740.764	6696.04
741.104	6686.77
741.444	6609.26
741.784	6610.17
742.124	6643.84
742.464	6717.73
742.804	6739.2
743.143	6696.04
743.483	6755.7
743.823	6704.17
744.162	6702.37
744.502	6783.49
744.841	6751.86
745.181	6726.77
745.52	6800.67
745.86	6873.89
746.199	6814
746.538	6809.71
746.877	6853.1
747.216	6914.34
747.556	6892.64
747.895	6960.21
748.234	6918.63
748.573	7009.25
748.911	7040.21
749.25	7049.48
749.589	7073.88
749.928	7108.68
750.267	7191.62
750.605	7222.35
750.944	7241.11
751.283	7207.89
751.621	7327.43
751.96	7319.07
752.298	7385.06
752.636	7407.43
752.975	7534.43
753.313	7554.32
753.651	7654.21
753.989	7670.02
754.327	7718.84
754.666	7736.92
755.004	7819.85
755.342	7968.32
755.679	8016.91
756.017	8046.06
756.355	8188.88
756.693	8256.45
757.031	8314.98
757.368	8390.23
757.706	8484.69
758.044	8546.61
758.381	8676.1
758.719	8703.67
759.056	8810.11
759.394	8891.91
759.731	8977.11
760.068	9079.25
760.405	9186.59
760.743	9223.2
761.08	9360.38
761.417	9413.26
761.754	9535.29
762.091	9624.78
762.428	9649.41
762.765	9784.32
763.102	9884.43
763.438	9967.14
763.775	10063.18
764.112	10191.99
764.449	10283.74
764.785	10360.8
765.122	10386.79
765.458	10416.84
765.795	10491.42
766.131	10647.8
766.467	10644.86
766.804	10800.11
767.14	10795.82
767.476	10937.96
767.812	10994.23
768.148	11084.4
768.485	11146.09
