Data from hue_170_FLMS001491_00100.txt Node
Date: Tue Feb 07 16:49:32 GMT 2017
User: dcchb
Spectrometer: FLMS00149
Trigger mode: 0
Integration Time (sec): 2.000000E-2
Scans to average: 10
Electric dark correction enabled: true
Nonlinearity correction enabled: false
Boxcar width: 0
XAxis mode: Wavelengths
Number of Pixels in Spectrum: 2048
>>>>>Begin Spectral Data<<<<<
341.393	-7.09
341.776	-7.09
342.16	-7.09
342.543	-55.68
342.927	-69.91
343.31	-67.2
343.693	-72.17
344.077	-68.11
344.46	-44.6
344.843	-53.64
345.226	-20.42
345.61	-33.3
345.993	-29.01
346.376	2.18
346.759	17.54
347.142	26.81
347.525	27.26
347.908	42.85
348.291	84.88
348.674	91.44
349.057	95.51
349.44	112.68
349.823	139.35
350.206	153.13
350.588	195.84
350.971	204.43
351.354	225.45
351.737	227.25
352.119	258.21
352.502	247.59
352.884	268.38
353.267	293.24
353.65	294.82
354.032	284.65
354.414	302.96
354.797	314.48
355.179	311.09
355.562	337.76
355.944	321.04
356.326	346.12
356.709	339.12
357.091	327.14
357.473	332.79
357.855	338.21
358.238	341.6
358.62	319.68
359.002	349.28
359.384	337.53
359.766	355.61
360.148	349.06
360.53	349.28
360.912	337.99
361.294	322.62
361.676	330.98
362.057	318.32
362.439	355.16
362.821	324.2
363.203	335.95
363.584	314.71
363.966	333.92
364.348	333.24
364.729	315.61
365.111	311.32
365.493	316.52
365.874	321.94
366.256	309.96
366.637	287.37
367.019	289.63
367.4	319.23
367.781	327.14
368.163	316.52
368.544	319.68
368.925	328.95
369.306	309.96
369.688	308.83
370.069	311.55
370.45	302.96
370.831	306.35
371.212	321.71
371.593	304.99
371.974	316.97
372.355	321.49
372.736	320.81
373.117	312.22
373.498	302.73
373.879	319.45
374.26	327.14
374.641	304.99
375.021	299.34
375.402	329.17
375.783	304.77
376.163	318.1
376.544	308.38
376.925	330.3
377.305	320.81
377.686	332.34
378.066	325.33
378.447	323.75
378.827	313.81
379.208	318.78
379.588	329.17
379.968	304.31
380.349	326.91
380.729	344.99
381.109	335.27
381.489	322.39
381.87	317.87
382.25	306.35
382.63	334.37
383.01	338.44
383.39	311.55
383.77	352.67
384.15	349.06
384.53	354.93
384.91	350.19
385.29	344.09
385.67	343.41
386.049	365.56
386.429	321.71
386.809	325.1
387.189	354.71
387.568	367.14
387.948	347.93
388.328	358.32
388.707	374.14
389.087	349.28
389.466	349.06
389.846	339.34
390.225	375.5
390.605	374.59
390.984	358.1
391.363	355.39
391.743	362.62
392.122	378.44
392.501	366.23
392.881	352.45
393.26	377.98
393.639	371.88
394.018	370.3
394.397	359.23
394.776	363.97
395.155	376.63
395.534	390.41
395.913	383.86
396.292	368.49
396.671	390.41
397.05	368.04
397.429	382.73
397.808	376.18
398.186	382.73
398.565	380.02
398.944	380.7
399.323	394.71
399.701	394.71
400.08	388.83
400.458	384.54
400.837	397.64
401.215	409.17
401.594	405.78
401.972	418.21
402.351	425.44
402.729	407.81
403.107	417.76
403.486	433.8
403.864	430.64
404.242	418.44
404.62	420.7
404.999	408.49
405.377	422.5
405.755	417.31
406.133	435.38
406.511	448.04
406.889	448.27
407.267	428.83
407.645	436.74
408.023	438.1
408.401	442.39
408.779	437.19
409.156	452.11
409.534	447.81
409.912	470.41
410.29	474.25
410.667	465.44
411.045	482.84
411.422	488.94
411.8	473.35
412.178	503.18
412.555	515.83
412.933	495.72
413.31	493.01
413.687	496.63
414.065	513.12
414.442	513.57
414.819	510.41
415.197	526.68
415.574	543.4
415.951	533.23
416.328	531.65
416.705	554.93
417.082	554.02
417.46	551.31
417.837	573.91
418.214	556.96
418.591	562.61
418.967	579.79
419.344	563.74
419.721	603.52
420.098	609.84
420.475	602.39
420.852	588.15
421.228	593.12
421.605	613.91
421.982	627.92
422.358	619.33
422.735	615.72
423.111	636.06
423.488	647.58
423.864	644.87
424.241	662.72
424.617	671.54
424.994	683.06
425.37	676.06
425.746	671.31
426.123	674.7
426.499	708.82
426.875	686.45
427.251	712.21
427.627	722.61
428.003	730.97
428.379	745.88
428.756	728.26
429.132	759.67
429.507	738.43
429.883	749.5
430.259	763.74
430.635	767.35
431.011	790.85
431.387	811.65
431.763	810.97
432.138	799.22
432.514	814.36
432.89	793.11
433.265	823.17
433.641	831.76
434.016	844.41
434.392	849.84
434.767	896.39
435.143	872.89
435.518	893.9
435.894	915.37
436.269	923.51
436.644	923.51
437.02	922.15
437.395	965.54
437.77	950.62
438.145	990.17
438.52	980.23
438.895	997.86
439.271	1014.8
439.646	1028.14
440.021	1013.45
440.395	1041.92
440.77	1034.01
441.145	1061.81
441.52	1056.16
441.895	1053.22
442.27	1088.47
442.645	1069.72
443.019	1105.42
443.394	1116.72
443.769	1109.72
444.143	1114.91
444.518	1108.59
444.892	1111.98
445.267	1157.4
445.641	1165.99
446.016	1142.03
446.39	1183.39
446.764	1163.95
447.139	1187.45
447.513	1190.62
447.887	1213.89
448.262	1194.23
448.636	1203.05
449.01	1254.12
449.384	1249.15
449.758	1244.85
450.132	1255.25
450.506	1257.74
450.88	1263.61
451.254	1263.38
451.628	1318.52
452.002	1322.59
452.376	1332.76
452.75	1358.52
453.123	1372.08
453.497	1378.86
453.871	1380.67
454.244	1427.45
454.618	1403.49
454.992	1456.83
455.365	1419.76
455.739	1481.91
456.112	1486.2
456.486	1518.97
456.859	1507.45
457.232	1550.16
457.606	1551.74
457.979	1554
458.352	1574.79
458.725	1623.38
459.099	1627.22
459.472	1631.96
459.845	1637.16
460.218	1691.85
460.591	1702.7
460.964	1724.84
461.337	1769.59
461.71	1783.82
462.083	1805.97
462.456	1805.29
462.829	1816.14
463.201	1824.73
463.574	1872.41
463.947	1885.74
464.32	1946.98
464.692	1986.98
465.065	2005.51
465.438	2052.06
465.81	2062.01
466.183	2114.66
466.555	2113.53
466.928	2127.54
467.3	2144.94
467.672	2189.01
468.045	2260.87
468.417	2235.34
468.789	2310.59
469.161	2327.54
469.534	2357.82
469.906	2443.92
470.278	2473.3
470.65	2477.14
471.022	2533.86
471.394	2597.59
471.766	2643.24
472.138	2663.8
472.51	2712.39
472.882	2784.25
473.253	2819.73
473.625	2835.77
473.997	2992.83
474.369	2976.33
474.74	3033.96
475.112	3102.66
475.484	3150.11
475.855	3208.87
476.227	3304.24
476.598	3428.98
476.97	3456.1
477.341	3573.38
477.713	3631.91
478.084	3665.36
478.455	3807.5
478.827	3842.98
479.198	3977.66
479.569	4006.59
479.94	4163.65
480.311	4220.14
480.682	4310.31
481.053	4427.37
481.424	4524.99
481.795	4613.13
482.166	4699.68
482.537	4816.29
482.908	4964.98
483.279	5027.13
483.65	5115.94
484.021	5301.02
484.391	5381.02
484.762	5440.22
485.133	5562.25
485.503	5677.73
485.874	5804.96
486.244	5899.87
486.615	6058.51
486.985	6142.58
487.356	6326.08
487.726	6393.19
488.097	6549.12
488.467	6639.97
488.837	6815.56
489.207	6927.87
489.578	7061.65
489.948	7153.63
490.318	7284.02
490.688	7375.31
491.058	7529.89
491.428	7653.27
491.798	7752.93
492.168	7984.11
492.538	7981.63
492.908	8116.09
493.278	8253.26
493.648	8326.25
494.017	8475.62
494.387	8591.78
494.757	8663.42
495.126	8779.35
495.496	8851.21
495.866	8938.21
496.235	9006.46
496.605	9133.46
496.974	9252.33
497.344	9380.46
497.713	9458.65
498.082	9501.59
498.452	9608.7
498.821	9697.74
499.19	9789.71
499.559	9864.06
499.928	9983.61
500.298	10030.84
500.667	10096.15
501.036	10116.49
501.405	10210.04
501.774	10257.95
502.143	10370.49
502.512	10423.6
502.88	10547.43
503.249	10495.46
503.618	10611.16
503.987	10655.45
504.356	10689.13
504.724	10751.04
505.093	10839.4
505.462	10958.5
505.83	10911.94
506.199	11063.81
506.567	11050.92
506.936	11089.34
507.304	11169.57
507.672	11295.89
508.041	11336.79
508.409	11368.43
508.777	11480.52
509.145	11442.33
509.514	11495.88
509.882	11576.11
510.25	11596.9
510.618	11694.75
510.986	11711.92
511.354	11654.98
511.722	11760.96
512.09	11794.41
512.458	11867.85
512.826	12000.73
513.193	11947.17
513.561	12028.07
513.929	12077.79
514.297	12118.69
514.664	12157.56
515.032	12122.76
515.4	12202.08
515.767	12279.82
516.135	12303.09
516.502	12157.34
516.869	12337.44
517.237	12384.45
517.604	12341.74
517.972	12414.73
518.339	12468.29
518.706	12387.84
519.073	12452.7
519.44	12486.59
519.808	12572.01
520.175	12442.75
520.542	12561.84
520.909	12642.97
521.276	12560.49
521.643	12720.26
522.009	12721.16
522.376	12694.95
522.743	12749.64
523.11	12766.36
523.477	12982.85
523.843	12866.24
524.21	12965.9
524.577	12950.08
524.943	13005
525.31	12985.79
525.676	13091.55
526.043	13096.97
526.409	13062.4
526.776	13170.19
527.142	13119.12
527.508	13155.95
527.874	13215.16
528.241	13190.53
528.607	13134.26
528.973	13200.02
529.339	13201.15
529.705	13265.78
530.071	13243.86
530.437	13217.87
530.803	13182.85
531.169	13241.15
531.535	13139.46
531.901	13160.7
532.267	13172.22
532.632	13154.15
532.998	13142.62
533.364	13198.21
533.73	13181.49
534.095	13143.75
534.461	13091.32
534.826	13196.86
535.192	13107.37
535.557	13089.29
535.923	13059.23
536.288	13057.2
536.653	13033.7
537.019	12896.98
537.384	12934.49
537.749	12929.29
538.114	12837.54
538.479	12873.7
538.845	12816.08
539.21	12795.51
539.575	12755.06
539.94	12712.35
540.305	12796.64
540.67	12698.11
541.034	12719.58
541.399	12569.75
541.764	12562.97
542.129	12581.51
542.494	12538.12
542.858	12534.27
543.223	12486.59
543.587	12430.55
543.952	12379.02
544.316	12343.55
544.681	12283.89
545.045	12195.75
545.41	12331.12
545.774	12222.87
546.138	12181.06
546.503	12134.96
546.867	12037.34
547.231	12134.74
547.595	12065.36
547.959	12032.82
548.324	11969.54
548.688	11934.06
549.052	11880.73
549.416	11925.93
549.779	11883.9
550.143	11782.43
550.507	11816.55
550.871	11836.67
551.235	11685.94
551.599	11696.33
551.962	11687.07
552.326	11629.67
552.689	11612.49
553.053	11572.27
553.417	11457.92
553.78	11670.12
554.143	11520.29
554.507	11493.4
554.87	11488.2
555.234	11513.96
555.597	11436.45
555.96	11424.7
556.323	11422.21
556.686	11367.53
557.05	11344.48
557.413	11372.95
557.776	11313.97
558.139	11351.71
558.502	11283.23
558.865	11270.35
559.228	11317.81
559.59	11282.33
559.953	11294.53
560.316	11329.11
560.679	11237.81
561.041	11303.12
561.404	11241.2
561.767	11281.2
562.129	11269.68
562.492	11311.93
562.854	11292.95
563.217	11243.91
563.579	11224.93
563.941	11288.88
564.304	11249.79
564.666	11353.06
565.028	11357.13
565.39	11308.54
565.753	11312.84
566.115	11281.43
566.477	11349
566.839	11327.3
567.201	11349.67
567.563	11318.04
567.925	11370.69
568.287	11366.85
568.648	11354.87
569.01	11401.65
569.372	11419.95
569.734	11403.46
570.095	11346.51
570.457	11384.25
570.819	11439.16
571.18	11382.21
571.542	11406.39
571.903	11402.1
572.265	11463.57
572.626	11429.9
572.987	11407.52
573.349	11478.03
573.71	11454.08
574.071	11482.33
574.432	11495.43
574.794	11491.14
575.155	11443.68
575.516	11482.78
575.877	11457.24
576.238	11492.49
576.599	11480.07
576.96	11468.31
577.32	11574.07
577.681	11546.96
578.042	11542.21
578.403	11492.49
578.763	11486.62
579.124	11479.39
579.485	11506.96
579.845	11573.4
580.206	11508.31
580.566	11487.97
580.927	11537.24
581.287	11534.98
581.648	11485.49
582.008	11529.78
582.368	11488.2
582.728	11401.2
583.089	11493.17
583.449	11464.02
583.809	11434.19
584.169	11460.4
584.529	11373.63
584.889	11461.53
585.249	11433.96
585.609	11341.99
585.969	11461.99
586.329	11405.04
586.688	11322.78
587.048	11319.39
587.408	11307.19
587.768	11338.37
588.127	11308.54
588.487	11310.8
588.846	11403.01
589.206	11271.03
589.565	11236.91
589.925	11241.88
590.284	11285.72
590.643	11238.26
591.003	11292.73
591.362	11227.42
591.721	11196.46
592.08	11270.81
592.44	11287.75
592.799	11230.58
593.158	11210.69
593.517	11203.69
593.876	11263.35
594.235	11213.18
594.593	11142.45
594.952	11169.11
595.311	11097.7
595.67	11153.29
596.029	11220.86
596.387	11182.9
596.746	11239.39
597.104	11175.21
597.463	11115.78
597.822	11080.08
598.18	11016.35
598.538	11091.15
598.897	11149.68
599.255	11096.57
599.613	11139.28
599.972	11168.21
600.33	11128.44
600.688	11094.99
601.046	11166.63
601.404	11187.87
601.762	11076.91
602.12	11201.65
602.478	11144.71
602.836	11147.42
603.194	11105.39
603.552	11119.62
603.91	11082.79
604.268	11177.7
604.625	11040.75
604.983	11089.79
605.341	11036.69
605.698	11126.18
606.056	11173.63
606.413	11107.65
606.771	11144.93
607.128	11158.27
607.485	11041.21
607.843	11091.15
608.2	11147.42
608.557	11179.28
608.914	11110.36
609.272	11189
609.629	11200.52
609.986	11181.32
610.343	11164.59
610.7	11171.6
611.057	11210.02
611.414	11180.41
611.771	11151.26
612.127	11245.72
612.484	11196.68
612.841	11170.92
613.198	11239.39
613.554	11231.26
613.911	11291.14
614.267	11294.53
614.624	11235.55
614.98	11277.81
615.337	11336.57
615.693	11333.85
616.05	11337.92
616.406	11340.86
616.762	11267.19
617.118	11226.74
617.475	11265.16
617.831	11300.41
618.187	11360.52
618.543	11229.45
618.899	11392.84
619.255	11356.9
619.611	11316.23
619.967	11339.73
620.323	11381.31
620.678	11323.69
621.034	11299.96
621.39	11352.16
621.746	11296.79
622.101	11494.75
622.457	11318.26
622.812	11345.38
623.168	11362.78
623.523	11429.45
623.879	11433.29
624.234	11368.43
624.589	11467.41
624.945	11455.89
625.3	11437.13
625.655	11431.25
626.01	11367.3
626.365	11390.8
626.72	11391.03
627.075	11342.44
627.43	11331.59
627.785	11286.62
628.14	11299.96
628.495	11374.76
628.85	11308.09
629.205	11287.08
629.559	11360.29
629.914	11326.17
630.269	11324.36
630.623	11253.18
630.978	11199.17
631.332	11334.31
631.687	11265.38
632.041	11205.27
632.396	11266.06
632.75	11188.77
633.104	11203.69
633.459	11186.51
633.813	11144.03
634.167	11179.51
634.521	11200.52
634.875	11174.31
635.229	11167.08
635.583	11120.98
635.937	11182.45
636.291	11074.65
636.645	11135.22
636.999	11100.87
637.352	11058.16
637.706	11099.28
638.06	11126.18
638.413	11019.29
638.767	11018.83
639.121	11053.64
639.474	10912.17
639.828	10991.94
640.181	11003.47
640.534	10962.56
640.888	10876.69
641.241	10832.17
641.594	10881.89
641.947	10899.74
642.301	10863.81
642.654	10830.36
643.007	10881.66
643.36	10825.85
643.713	10832.17
644.066	10895.22
644.419	10774.55
644.771	10729.35
645.124	10749.69
645.477	10626.75
645.83	10658.17
646.182	10608
646.535	10510.83
646.888	10578.85
647.24	10474.67
647.593	10555.8
647.945	10569.13
648.298	10482.58
648.65	10511.73
649.002	10426.76
649.355	10529.58
649.707	10453.43
650.059	10550.6
650.411	10653.19
650.763	10689.35
651.115	10764.38
651.467	10728.67
651.819	10675.79
652.171	10693.19
652.523	10669.69
652.875	10649.13
653.227	10588.56
653.578	10701.33
653.93	10734.32
654.282	10680.54
654.633	10671.95
654.985	10658.62
655.337	10717.6
655.688	10769.12
656.039	10759.63
656.391	10669.69
656.742	10727.77
657.094	10735.45
657.445	10765.73
657.796	10723.25
658.147	10774.1
658.498	10783.81
658.849	10765.73
659.2	10774.77
659.551	10778.84
659.902	10823.81
660.253	10823.81
660.604	10896.8
660.955	10737.49
661.306	10863.36
661.656	10856.8
662.007	10855
662.358	10812.29
662.708	10820.2
663.059	10784.26
663.409	10802.34
663.76	10766.41
664.11	10888.22
664.461	10863.13
664.811	10939.51
665.161	10842.79
665.511	10815
665.862	10864.04
666.212	10795.56
666.562	10885.5
666.912	10850.48
667.262	10866.52
667.612	10826.07
667.962	10855.45
668.312	10802.8
668.662	10854.77
669.011	10834.21
669.361	10792.17
669.711	10831.27
670.06	10849.35
670.41	10729.58
670.76	10775.9
671.109	10828.11
671.459	10769.8
671.808	10775.68
672.157	10775
672.507	10698.84
672.856	10804.83
673.205	10769.58
673.554	10796.47
673.904	10752.4
674.253	10838.05
674.602	10796.02
674.951	10601.67
675.3	10533.65
675.649	10690.26
675.998	10764.38
676.346	10710.82
676.695	10738.62
677.044	10623.14
677.393	10692.97
677.741	10701.33
678.09	10660.2
678.438	10566.19
678.787	10694.32
679.135	10555.57
679.484	10462.69
679.832	10623.59
680.181	10537.49
680.529	10576.59
680.877	10495.01
681.225	10460.66
681.573	10539.75
681.922	10477.61
682.27	10451.62
682.618	10388.57
682.966	10344.73
683.314	10358.51
683.661	10363.03
684.009	10255.46
684.357	10300.66
684.705	10343.82
685.053	10316.25
685.4	10329.81
685.748	10268.57
686.095	10193.32
686.443	10126.88
686.79	10186.09
687.138	10093.66
687.485	10144.51
687.832	10094.57
688.18	10079.65
688.527	10069.03
688.874	10038.07
689.221	9964.62
689.568	9943.83
689.915	9974.79
690.262	9918.52
690.609	9939.09
690.956	9896.15
691.303	9820.9
691.65	9741.35
691.997	9794.01
692.344	9751.3
692.69	9717.85
693.037	9676.27
693.383	9638.31
693.73	9583.84
694.077	9532.32
694.423	9543.85
694.769	9484.64
695.116	9477.18
695.462	9401.93
695.808	9406.67
696.155	9346.11
696.501	9357.41
696.847	9296.62
697.193	9291.87
697.539	9289.61
697.885	9201.03
698.231	9194.48
698.577	9177.08
698.923	9138.21
699.269	9083.74
699.614	9055.04
699.96	9009.4
700.306	9025.67
700.651	8972.11
700.997	8929.85
701.342	8837.42
701.688	8881.26
702.033	8799.23
702.379	8774.6
702.724	8767.59
703.069	8792
703.415	8662.96
703.76	8647.37
704.105	8671.55
704.45	8631.78
704.795	8570.54
705.14	8561.95
705.485	8504.78
705.83	8564.89
706.175	8501.84
706.52	8475.17
706.865	8478.79
707.209	8458.9
707.554	8420.03
707.899	8393.14
708.243	8384.55
708.588	8299.36
708.932	8266.59
709.277	8241.96
709.621	8243.77
709.966	8180.94
710.31	8214.16
710.654	8147.5
710.998	8176.42
711.342	8151.11
711.687	8170.32
712.031	8068.86
712.375	8088.29
712.719	8104.33
713.063	8036.77
713.407	8054.62
713.75	7945.92
714.094	7965.58
714.438	7942.08
714.782	7962.19
715.125	7928.75
715.469	7928.07
715.812	7889.65
716.156	7894.85
716.499	7891.69
716.843	7855.75
717.186	7761.97
717.53	7856.66
717.873	7853.49
718.216	7826.6
718.559	7804.91
718.902	7731.01
719.246	7850.33
719.589	7802.2
719.932	7749.77
720.275	7712.25
720.617	7730.79
720.96	7700.73
721.303	7645.14
721.646	7606.72
721.989	7680.17
722.331	7649.43
722.674	7617.57
723.016	7697.34
723.359	7621.64
723.701	7666.61
724.044	7556.1
724.386	7624.57
724.729	7615.53
725.071	7633.39
725.413	7626.83
725.755	7557.23
726.097	7577.34
726.439	7543.67
726.782	7600.39
727.124	7534.63
727.465	7565.59
727.807	7550.68
728.149	7544.12
728.491	7513.16
728.833	7484.24
729.175	7507.29
729.516	7536.67
729.858	7523.56
730.199	7501.64
730.541	7542.32
730.882	7501.86
731.224	7551.13
731.565	7514.97
731.906	7528.53
732.248	7497.57
732.589	7466.84
732.93	7471.36
733.271	7518.36
733.612	7547.29
733.953	7478.14
734.294	7518.14
734.635	7452.6
734.976	7533.5
735.317	7506.61
735.658	7540.06
735.999	7502.99
736.339	7515.65
736.68	7582.31
737.021	7496.67
737.361	7504.35
737.702	7546.61
738.042	7495.99
738.383	7514.29
738.723	7529.43
739.063	7537.57
739.404	7626.83
739.744	7548.87
740.084	7585.93
740.424	7614.86
740.764	7597.91
741.104	7658.92
741.444	7614.18
741.784	7708.87
742.124	7717.9
742.464	7703.44
742.804	7738.69
743.143	7692.14
743.483	7791.12
743.823	7773.27
744.162	7848.97
744.502	7836.09
744.841	7901.63
745.181	7932.36
745.52	7977.78
745.86	8002.87
746.199	7978.01
746.538	8008.29
746.877	8114.05
747.216	8154.73
747.556	8119.93
747.895	8284.67
748.234	8296.87
748.573	8267.49
748.911	8339.36
749.25	8484.89
749.589	8466.81
749.928	8559.46
750.267	8609.86
750.605	8647.37
750.944	8746.8
751.283	8865.44
751.621	8954.71
751.96	8954.48
752.298	9018.44
752.636	9145.66
752.975	9221.59
753.313	9238.54
753.651	9452.77
753.989	9500.91
754.327	9638.08
754.666	9728.02
755.004	9878.98
755.342	10011.63
755.679	10132.3
756.017	10183.38
756.355	10357.61
756.693	10465.18
757.031	10610.71
757.368	10753.08
757.706	10972.96
758.044	11009.57
758.381	11220.64
758.719	11310.58
759.056	11484.81
