Data from hue_180_FLMS001491_00022.txt Node
Date: Tue Feb 07 16:46:45 GMT 2017
User: dcchb
Spectrometer: FLMS00149
Trigger mode: 0
Integration Time (sec): 2.000000E-2
Scans to average: 10
Electric dark correction enabled: true
Nonlinearity correction enabled: false
Boxcar width: 0
XAxis mode: Wavelengths
Number of Pixels in Spectrum: 2048
>>>>>Begin Spectral Data<<<<<
341.393	-18.81
341.776	-18.81
342.16	-18.81
342.543	-71.02
342.927	-82.54
343.31	-38.47
343.693	-78.47
344.077	-69.66
344.46	-68.53
344.843	-50.9
345.226	-63.56
345.61	-28.3
345.993	-13.16
346.376	-20.85
346.759	-6.38
347.142	42.43
347.525	43.33
347.908	69.55
348.291	62.54
348.674	88.98
349.057	131.47
349.44	123.33
349.823	140.05
350.206	171.46
350.588	207.62
350.971	216.89
351.354	247.62
351.737	214.85
352.119	234.06
352.502	248.98
352.884	287.39
353.267	282.2
353.65	263.89
354.032	309.31
354.414	312.7
354.797	320.84
355.179	307.28
355.562	322.87
355.944	305.7
356.326	302.99
356.709	327.17
357.091	315.64
357.473	344.12
357.855	340.73
358.238	339.14
358.62	337.11
359.002	340.73
359.384	341.4
359.766	333.04
360.148	339.14
360.53	345.92
360.912	341.4
361.294	333.49
361.676	331.69
362.057	339.14
362.439	341.18
362.821	319.03
363.203	321.07
363.584	346.15
363.966	338.47
364.348	313.61
364.729	307.73
365.111	315.42
365.493	309.77
365.874	330.56
366.256	320.61
366.637	301.18
367.019	322.19
367.4	305.7
367.781	305.7
368.163	319.26
368.544	313.61
368.925	303.44
369.306	326.26
369.688	307.73
370.069	310.9
370.45	317.9
370.831	302.08
371.212	305.25
371.593	319.71
371.974	330.1
372.355	321.97
372.736	327.62
373.117	307.96
373.498	291.69
373.879	306.38
374.26	327.62
374.641	308.64
375.021	299.37
375.402	292.37
375.783	319.26
376.163	333.72
376.544	326.26
376.925	332.14
377.305	317.45
377.686	323.55
378.066	307.05
378.447	344.79
378.827	345.7
379.208	318.13
379.588	318.13
379.968	318.35
380.349	326.49
380.729	320.16
381.109	329.88
381.489	321.52
381.87	358.13
382.25	340.05
382.63	337.11
383.01	356.09
383.39	333.49
383.77	315.19
384.15	344.79
384.53	356.77
384.91	330.1
385.29	344.79
385.67	349.99
386.049	350.44
386.429	356.09
386.809	346.6
387.189	323.32
387.568	333.04
387.948	357.67
388.328	361.06
388.707	334.85
389.087	339.82
389.466	356.09
389.846	370.33
390.225	369.43
390.605	371.46
390.984	348.86
391.363	354.28
391.743	361.97
392.122	380.05
392.501	354.96
392.881	366.94
393.26	356.77
393.639	362.65
394.018	363.55
394.397	386.6
394.776	365.36
395.155	370.1
395.534	368.07
395.913	383.44
396.292	342.99
396.671	370.56
397.05	371.23
397.429	406.71
397.808	402.87
398.186	377.79
398.565	402.19
398.944	390.67
399.323	393.61
399.701	401.29
400.08	410.55
400.458	388.41
400.837	408.52
401.215	402.42
401.594	411.68
401.972	399.71
402.351	415.75
402.729	401.51
403.107	412.36
403.486	420.72
403.864	416.43
404.242	414.62
404.62	434.51
404.999	422.98
405.377	432.7
405.755	422.76
406.133	438.8
406.511	429.31
406.889	443.55
407.267	431.8
407.645	453.94
408.023	459.82
408.401	487.84
408.779	462.76
409.156	466.15
409.534	510.89
409.912	493.04
410.29	488.52
410.667	501.17
411.045	514.28
411.422	494.62
411.8	520.83
412.178	558.8
412.555	542.98
412.933	542.75
413.31	538.69
413.687	563.77
414.065	557.44
414.442	575.07
414.819	562.64
415.197	580.49
415.574	596.99
415.951	591.57
416.328	615.29
416.705	626.59
417.082	596.99
417.46	632.92
417.837	638.34
418.214	653.71
418.591	646.71
418.967	645.35
419.344	665.01
419.721	670.66
420.098	673.82
420.475	682.41
420.852	689.87
421.228	693.26
421.605	719.92
421.982	730.55
422.358	738.46
422.735	730.32
423.111	746.14
423.488	769.87
423.864	756.08
424.241	777.55
424.617	806.48
424.994	802.63
425.37	815.06
425.746	825.91
426.123	839.02
426.499	855.97
426.875	856.87
427.251	867.27
427.627	867.49
428.003	900.48
428.379	899.58
428.756	907.04
429.132	932.35
429.507	934.38
429.883	947.94
430.259	949.3
430.635	949.3
431.011	980.03
431.387	986.58
431.763	1002.85
432.138	1025.23
432.514	1016.87
432.89	1045.57
433.265	1078.11
433.641	1059.12
434.016	1087.6
434.392	1100.48
434.767	1144.32
435.143	1124.43
435.518	1141.61
435.894	1161.04
436.269	1204.88
436.644	1210.31
437.02	1232
437.395	1244.2
437.77	1267.03
438.145	1267.71
438.52	1278.1
438.895	1334.82
439.271	1310.42
439.646	1359
440.021	1384.77
440.395	1376.4
440.77	1392.22
441.145	1441.26
441.52	1428.83
441.895	1435.84
442.27	1436.97
442.645	1469.28
443.019	1490.98
443.394	1450.75
443.769	1515.16
444.143	1517.42
444.518	1533.69
444.892	1524.2
445.267	1573.91
445.641	1601.03
446.016	1575.5
446.39	1587.02
446.764	1644.87
447.139	1591.54
447.513	1595.38
447.887	1682.84
448.262	1617.53
448.636	1649.84
449.01	1716.96
449.384	1719.45
449.758	1736.17
450.132	1710.63
450.506	1755.83
450.88	1742.27
451.254	1772.78
451.628	1788.37
452.002	1810.97
452.376	1852.55
452.75	1851.65
453.123	1869.95
453.497	1896.62
453.871	1925.09
454.244	1930.29
454.618	1952.66
454.992	1975.71
455.365	1991.76
455.739	1985.43
456.112	2054.8
456.486	2089.38
456.859	2073.11
457.232	2110.17
457.606	2140
457.979	2152.88
458.352	2193.56
458.725	2247.57
459.099	2225.87
459.472	2286.89
459.845	2330.96
460.218	2306.55
460.591	2351.52
460.964	2384.74
461.337	2417.06
461.71	2467.68
462.083	2522.82
462.456	2526.43
462.829	2504.51
463.201	2570.95
463.574	2569.14
463.947	2590.16
464.32	2669.93
464.692	2699.31
465.065	2750.38
465.438	2743.37
465.81	2817.27
466.183	2834.67
466.555	2888.46
466.928	2919.41
467.3	2923.26
467.672	2982.92
468.045	3064.27
468.417	3083.25
468.789	3072.18
469.161	3180.2
469.534	3185.4
469.906	3294.09
470.278	3295.68
470.65	3358.73
471.022	3394.66
471.394	3492.28
471.766	3539.29
472.138	3560.08
472.51	3650.24
472.882	3762.33
473.253	3793.74
473.625	3857.02
473.997	3917.35
474.369	3934.3
474.74	4012.27
475.112	4124.35
475.484	4165.94
475.855	4249.55
476.227	4251.58
476.598	4389.21
476.97	4461.75
477.341	4499.71
477.713	4617.9
478.084	4680.72
478.455	4832.81
478.827	4844.11
479.198	5046.59
479.569	5061.28
479.94	5198
480.311	5220.82
480.682	5405
481.053	5512.11
481.424	5578.33
481.795	5670.3
482.166	5746.01
482.537	5830.52
482.908	5999.79
483.279	6043.85
483.65	6124.98
484.021	6264.86
484.391	6383.05
484.762	6523.39
485.133	6557.06
485.503	6631.41
485.874	6827.56
486.244	6936.26
486.615	7039.98
486.985	7175.8
487.356	7291.05
487.726	7276.59
488.097	7452.63
488.467	7592.51
488.837	7763.36
489.207	7824.6
489.578	7940.3
489.948	7993.18
490.318	8208.54
490.688	8219.61
491.058	8390.91
491.428	8413.06
491.798	8596.78
492.168	8698.92
492.538	8829.09
492.908	8882.42
493.278	8957
493.648	9047.39
494.017	9142.98
494.387	9186.82
494.757	9343.65
495.126	9416.19
495.496	9488.28
495.866	9533.7
496.235	9619.58
496.605	9719.69
496.974	9712
497.344	9795.62
497.713	9875.39
498.082	9930.98
498.452	10045.33
498.821	10049.62
499.19	10074.93
499.559	10188.15
499.928	10269.5
500.298	10351.31
500.667	10386.11
501.036	10297.3
501.405	10446.9
501.774	10494.81
502.143	10571.42
502.512	10533
502.88	10622.94
503.249	10671.75
503.618	10699.55
503.987	10662.71
504.356	10716.27
504.724	10773.22
505.093	10790.17
505.462	10845.76
505.83	10933.89
506.199	10991.29
506.567	11025.19
506.936	11041.46
507.304	11139.99
507.672	11154.23
508.041	11257.05
508.409	11285.07
508.777	11343.15
509.145	11393.09
509.514	11350.15
509.882	11375.92
510.25	11377.27
510.618	11459.53
510.986	11431.06
511.354	11556.93
511.722	11489.36
512.09	11649.13
512.458	11587.89
512.826	11589.92
513.193	11665.4
513.561	11590.6
513.929	11715.34
514.297	11759.41
514.664	11822.68
515.032	11868.78
515.4	11829.01
515.767	11817.49
516.135	11818.62
516.502	11707.88
516.869	11890.93
517.237	11936.58
517.604	11876.92
517.972	11853.19
518.339	11888.67
518.706	11913.08
519.073	11906.75
519.44	11872.63
519.808	12023.36
520.175	11951.27
520.542	12012.73
520.909	11995.56
521.276	12045.5
521.643	12108.33
522.009	12020.42
522.376	12087.08
522.743	12160.53
523.11	12161.88
523.477	12256.57
523.843	12227.42
524.21	12279.62
524.577	12269.23
524.943	12290.69
525.31	12339.73
525.676	12299.96
526.043	12313.74
526.409	12265.16
526.776	12377.7
527.142	12297.02
527.508	12311.48
527.874	12333.86
528.241	12304.25
528.607	12323.91
528.973	12356.23
529.339	12265.84
529.705	12323.24
530.071	12371.82
530.437	12296.8
530.803	12314.65
531.169	12212.73
531.535	12207.31
531.901	12185.16
532.267	12171.37
532.632	12203.69
532.998	12171.6
533.364	12150.36
533.73	12198.27
534.095	12196.46
534.461	12114.2
534.826	12109.23
535.192	12031.49
535.557	12069.23
535.923	11947.88
536.288	11987.2
536.653	11913.3
537.019	11862.68
537.384	11786.53
537.749	11760.09
538.114	11735.23
538.479	11671.05
538.845	11719.18
539.21	11626.98
539.575	11560.09
539.94	11561.67
540.305	11488.45
540.67	11454.33
541.034	11461.11
541.399	11436.93
541.764	11359.87
542.129	11354.9
542.494	11379.76
542.858	11280.32
543.223	11224.28
543.587	11235.81
543.952	11119.88
544.316	11071.97
544.681	11085.98
545.045	11037.85
545.41	10990.61
545.774	10960.33
546.138	10944.06
546.503	10776.16
546.867	10790.17
547.231	10869.71
547.595	10736.84
547.959	10673.11
548.324	10691.64
548.688	10639.89
549.052	10639.21
549.416	10542.27
549.779	10520.57
550.143	10391.31
550.507	10443.51
550.871	10401.7
551.235	10324.87
551.599	10348.15
551.962	10333.91
552.326	10229.51
552.689	10270.86
553.053	10141.6
553.417	10188.83
553.78	10205.55
554.143	10083.75
554.507	10147.93
554.87	10076.06
555.234	10110.41
555.597	9962.39
555.96	9905.45
556.323	9910.42
556.686	9945.44
557.05	9873.81
557.413	9841.49
557.776	9862.96
558.139	9906.58
558.502	9800.82
558.865	9822.74
559.228	9746.81
559.59	9774.83
559.953	9743.64
560.316	9762.62
560.679	9758.56
561.041	9769.63
561.404	9752.68
561.767	9755.17
562.129	9691.21
562.492	9672.91
562.854	9680.14
563.217	9673.59
563.579	9660.25
563.941	9660.25
564.304	9658.9
564.666	9696.86
565.028	9630.2
565.39	9639.92
565.753	9646.7
566.115	9686.92
566.477	9657.77
566.839	9706.58
567.201	9660.25
567.563	9639.01
567.925	9714.72
568.287	9655.96
568.648	9653.25
569.01	9636.3
569.372	9698.9
569.734	9642.63
570.095	9673.81
570.457	9709.97
570.819	9639.24
571.18	9676.3
571.542	9748.61
571.903	9663.64
572.265	9691.44
572.626	9658.22
572.987	9708.61
573.349	9688.5
573.71	9664.1
574.071	9695.96
574.432	9672.01
574.794	9751.1
575.155	9692.57
575.516	9633.14
575.877	9703.87
576.238	9666.58
576.599	9658.45
576.96	9709.52
577.32	9660.03
577.681	9700.03
578.042	9660.93
578.403	9642.18
578.763	9651.67
579.124	9688.73
579.485	9622.29
579.845	9672.23
580.206	9622.29
580.566	9629.29
580.927	9620.93
581.287	9618.67
581.648	9610.31
582.008	9669.97
582.368	9590.65
582.728	9657.09
583.089	9602.85
583.449	9661.84
583.809	9566.25
584.169	9598.79
584.529	9573.25
584.889	9548.17
585.249	9515.63
585.609	9494.16
585.969	9535.06
586.329	9534.61
586.688	9541.16
587.048	9475.4
587.408	9486.47
587.768	9421.16
588.127	9429.07
588.487	9409.41
588.846	9459.13
589.206	9424.1
589.565	9385.23
589.925	9423.88
590.284	9392.01
590.643	9460.03
591.003	9401.28
591.362	9443.31
591.721	9422.75
592.08	9354.05
592.44	9396.98
592.799	9434.95
593.158	9387.95
593.517	9338.68
593.876	9339.13
594.235	9321.96
594.593	9335.97
594.952	9283.09
595.311	9272.02
595.67	9299.13
596.029	9346.14
596.387	9366.02
596.746	9347.27
597.104	9330.55
597.463	9241.73
597.822	9284.45
598.18	9263.65
598.538	9225.01
598.897	9295.29
599.255	9167.16
599.613	9309.08
599.972	9190.21
600.33	9230.44
600.688	9203.09
601.046	9210.32
601.404	9265.91
601.762	9240.15
602.12	9212.58
602.478	9284.9
602.836	9213.03
603.194	9202.41
603.552	9183.88
603.91	9177.56
604.268	9220.72
604.625	9154.51
604.983	9252.58
605.341	9164.67
605.698	9260.49
606.056	9257.78
606.413	9197.22
606.771	9222.07
607.128	9214.16
607.485	9077.9
607.843	9212.81
608.2	9135.75
608.557	9271.56
608.914	9155.86
609.272	9285.58
609.629	9236.99
609.986	9293.03
610.343	9230.21
610.7	9202.19
611.057	9245.8
611.414	9273.37
611.771	9284.67
612.127	9275.63
612.484	9296.65
612.841	9342.3
613.198	9270.89
613.554	9280.6
613.911	9299.13
614.267	9301.62
614.624	9334.61
614.98	9269.76
615.337	9384.33
615.693	9277.44
616.05	9295.97
616.406	9326.7
616.762	9349.53
617.118	9277.44
617.475	9366.02
617.831	9319.02
618.187	9337.1
618.543	9347.72
618.899	9429.75
619.255	9396.31
619.611	9385.46
619.967	9375.29
620.323	9347.49
620.678	9352.92
621.034	9323.09
621.39	9384.56
621.746	9296.87
622.101	9469.75
622.457	9314.5
622.812	9403.31
623.168	9395.18
623.523	9446.47
623.879	9420.03
624.234	9361.05
624.589	9361.96
624.945	9447.6
625.3	9354.05
625.655	9322.18
626.01	9345.91
626.365	9332.58
626.72	9350.88
627.075	9321.51
627.43	9332.13
627.785	9352.92
628.14	9352.69
628.495	9350.43
628.85	9320.38
629.205	9288.96
629.559	9349.53
629.914	9356.53
630.269	9299.81
630.623	9238.57
630.978	9289.87
631.332	9297.1
631.687	9320.15
632.041	9198.8
632.396	9285.8
632.75	9268.17
633.104	9219.59
633.459	9175.97
633.813	9217.55
634.167	9204.22
634.521	9211
634.875	9134.39
635.229	9218.01
635.583	9110.21
635.937	9114.96
636.291	9071.8
636.645	9126.71
636.999	9109.53
637.352	9078.8
637.706	9062.08
638.06	9137.56
638.413	9048.75
638.767	9084.45
639.121	9055.3
639.474	8947.5
639.828	8986.83
640.181	8996.54
640.534	9039.03
640.888	8963.1
641.241	8961.29
641.594	8935.08
641.947	8946.37
642.301	8916.32
642.654	8986.6
643.007	8958.8
643.36	9012.81
643.713	8958.13
644.066	8966.94
644.419	8936.21
644.771	8835.64
645.124	8784.8
645.477	8755.65
645.83	8748.41
646.182	8688.98
646.535	8632.48
646.888	8711.8
647.24	8639.49
647.593	8712.26
647.945	8698.25
648.298	8599.04
648.65	8585.93
649.002	8645.37
649.355	8671.58
649.707	8584.8
650.059	8730.56
650.411	8707.74
650.763	8780.73
651.115	8884.68
651.467	8874.06
651.819	8813.95
652.171	8853.95
652.523	8688.3
652.875	8788.64
653.227	8764.01
653.578	8804.46
653.93	8845.59
654.282	8858.02
654.633	8794.06
654.985	8794.29
655.337	8869.31
655.688	8868.18
656.039	8855.3
656.391	8883.78
656.742	8840.16
657.094	8823.67
657.445	8891.46
657.796	8895.08
658.147	8839.71
658.498	8881.97
658.849	8875.42
659.2	8916.55
659.551	8867.05
659.902	8883.55
660.253	8942.31
660.604	8910.67
660.955	8815.76
661.306	8880.39
661.656	8899.82
662.007	8898.01
662.358	8930.56
662.708	8890.11
663.059	8881.74
663.409	8905.25
663.76	8930.56
664.11	8868.18
664.461	8983.89
664.811	8984.79
665.161	8947.73
665.511	8927.17
665.862	8926.71
666.212	8959.48
666.562	8968.3
666.912	8976.66
667.262	8926.04
667.612	8946.37
667.962	8947.28
668.312	8917.68
668.662	8972.59
669.011	8962.19
669.361	8920.61
669.711	8899.37
670.06	8893.49
670.41	8952.93
670.76	8900.27
671.109	8968.07
671.459	8899.14
671.808	8870.9
672.157	8888.52
672.507	8824.34
672.856	8912.93
673.205	8877
673.554	8879.71
673.904	8827.96
674.253	8881.29
674.602	8886.04
674.951	8742.54
675.3	8747.28
675.649	8829.32
675.998	8796.55
676.346	8869.54
676.695	8850.56
677.044	8735.08
677.393	8798.58
677.741	8813.05
678.09	8723.78
678.438	8737.11
678.787	8763.78
679.135	8768.3
679.484	8719.04
679.832	8751.13
680.181	8631.58
680.529	8693.27
680.877	8629.32
681.225	8653.73
681.573	8622.32
681.922	8636.1
682.27	8498.93
682.618	8571.24
682.966	8554.29
683.314	8565.14
683.661	8496.9
684.009	8495.54
684.357	8437.46
684.705	8470.91
685.053	8414.41
685.4	8473.62
685.748	8407.18
686.095	8433.85
686.443	8376.9
686.79	8353.62
687.138	8366.05
687.485	8378.25
687.832	8350.01
688.18	8327.63
688.527	8229.33
688.874	8282.89
689.221	8191.59
689.568	8227.75
689.915	8149.79
690.262	8145.04
690.609	8107.07
690.956	8110.46
691.303	8124.48
691.65	8045.16
691.997	8069.79
692.344	8039.51
692.69	7950.47
693.037	7965.16
693.383	7833.64
693.73	7919.96
694.077	7864.82
694.423	7839.29
694.769	7773.52
695.116	7803.81
695.462	7756.35
695.808	7697.59
696.155	7645.84
696.501	7685.17
696.847	7623.92
697.193	7614.66
697.539	7582.12
697.885	7545.73
698.231	7544.83
698.577	7593.19
698.923	7461.89
699.269	7408.34
699.614	7417.83
699.96	7350.03
700.306	7382.35
700.651	7340.32
700.997	7237.72
701.342	7315.46
701.688	7275.01
702.033	7222.8
702.379	7191.39
702.724	7212.64
703.069	7212.41
703.415	7058.51
703.76	7042.02
704.105	7091.28
704.45	7065.75
704.795	7017.84
705.14	7016.03
705.485	6988.46
705.83	6947.56
706.175	6976.94
706.52	6947.56
706.865	6905.3
707.209	6899.88
707.554	6864.85
707.899	6812.42
708.243	6822.81
708.588	6834.57
708.932	6762.03
709.277	6723.38
709.621	6739.43
709.966	6661.01
710.31	6712.76
710.654	6650.39
710.998	6649.94
711.342	6618.53
711.687	6612.88
712.031	6567.23
712.375	6608.13
712.719	6556.16
713.063	6530.17
713.407	6515.93
713.75	6524.97
714.094	6485.65
714.438	6491.52
714.782	6507.34
715.125	6452.43
715.469	6468.93
715.812	6484.74
716.156	6395.03
716.499	6451.3
716.843	6420.34
717.186	6310.29
717.53	6431.86
717.873	6381.24
718.216	6444.75
718.559	6381.7
718.902	6315.71
719.246	6352.54
719.589	6343.96
719.932	6269.38
720.275	6322.04
720.617	6309.61
720.96	6281.13
721.303	6285.2
721.646	6260.57
721.989	6279.33
722.331	6367.01
722.674	6284.98
723.016	6269.38
723.359	6259.44
723.701	6293.34
724.044	6285.65
724.386	6228.48
724.729	6251.98
725.071	6173.57
725.413	6245.2
725.755	6195.49
726.097	6169.95
726.439	6207.46
726.782	6127.47
727.124	6209.95
727.465	6162.04
727.807	6216.28
728.149	6173.57
728.491	6221.02
728.833	6183.28
729.175	6199.55
729.516	6105.32
729.858	6155.94
730.199	6143.74
730.541	6174.02
730.882	6145.54
731.224	6200.91
731.565	6192.55
731.906	6159.78
732.248	6176.96
732.589	6163.62
732.93	6183.06
733.271	6173.11
733.612	6157.3
733.953	6183.28
734.294	6095.15
734.635	6243.85
734.976	6237.52
735.317	6174.7
735.658	6164.3
735.999	6189.16
736.339	6188.03
736.68	6195.94
737.021	6196.62
737.361	6259.67
737.702	6229.38
738.042	6212.44
738.383	6262.15
738.723	6227.58
739.063	6241.81
739.404	6293.11
739.744	6245.88
740.084	6271.19
740.424	6275.48
740.764	6337.4
741.104	6334.92
741.444	6289.04
741.784	6326.1
742.124	6378.08
742.464	6342.15
742.804	6395.93
743.143	6403.62
743.483	6421.7
743.823	6467.12
744.162	6444.75
744.502	6534.01
744.841	6509.15
745.181	6608.81
745.52	6562.26
745.86	6642.93
746.199	6655.81
746.538	6679.77
746.877	6785.3
747.216	6820.1
747.556	6864.62
747.895	6911.17
748.234	6929.93
748.573	6978.07
748.911	6979.42
749.25	7095.58
749.589	7120.66
749.928	7238.17
750.267	7258.96
750.605	7370.6
750.944	7391.61
751.283	7428.45
751.621	7638.84
751.96	7607.43
752.298	7761.32
752.636	7835.44
752.975	7863.69
753.313	8055.55
753.651	8168.99
753.989	8226.85
754.327	8310.01
754.666	8472.94
755.004	8583.9
755.342	8743.22
755.679	8854.17
756.017	8943.66
756.355	9097.78
756.693	9125.13
757.031	9378.68
757.368	9447.38
757.706	9653.47
758.044	9735.96
758.381	9918.78
758.719	10093.01
759.056	10224.76
759.394	10338.2
759.731	10461.14
760.068	10701.81
760.405	10822.03
760.743	10927.34
761.08	11169.14
761.417	11290.04
761.754	11539.75
762.091	11666.53
762.428	11797.37
762.765	12005.5
763.102	12199.85
763.438	12358.71
763.775	12503.12
764.112	12635.09
764.449	12861.53
764.785	13012.03
765.122	13033.05
765.458	13226.71
765.795	13485.01
766.131	13623.09
