Data from hue_280_FLMS001491_00083.txt Node
Date: Tue Feb 07 15:55:54 GMT 2017
User: dcchb
Spectrometer: FLMS00149
Trigger mode: 0
Integration Time (sec): 2.000000E-2
Scans to average: 10
Electric dark correction enabled: true
Nonlinearity correction enabled: false
Boxcar width: 0
XAxis mode: Wavelengths
Number of Pixels in Spectrum: 2048
>>>>>Begin Spectral Data<<<<<
341.393	-20.58
341.776	-20.58
342.16	-20.58
342.543	-50.18
342.927	-66
343.31	-70.07
343.693	-57.87
344.077	-59.22
344.46	-62.61
344.843	-76.62
345.226	-62.16
345.61	-34.14
345.993	-11.99
346.376	-1.6
346.759	3.83
347.142	23.94
347.525	44.73
347.908	68.46
348.291	79.98
348.674	100.1
349.057	115.24
349.44	113.2
349.823	157.72
350.206	142.36
350.588	179.42
350.971	195.01
351.354	215.35
351.737	221.9
352.119	246.76
352.502	245.4
352.884	239.3
353.267	275.91
353.65	284.5
354.032	307.32
354.414	285.18
354.797	307.32
355.179	299.19
355.562	298.96
355.944	315.68
356.326	313.2
356.709	319.07
357.091	325.63
357.473	323.37
357.855	295.35
358.238	337.38
358.62	314.55
359.002	334.67
359.384	319.75
359.766	317.94
360.148	320.88
360.53	335.57
360.912	331.5
361.294	309.81
361.676	323.82
362.057	309.81
362.439	319.3
362.821	309.81
363.203	319.3
363.584	317.72
363.966	304.84
364.348	317.94
364.729	321.79
365.111	308.45
365.493	293.31
365.874	302.58
366.256	277.27
366.637	305.06
367.019	312.97
367.4	313.2
367.781	305.06
368.163	295.8
368.544	283.14
368.925	307.32
369.306	337.6
369.688	315.68
370.069	287.44
370.45	317.27
370.831	294.22
371.212	280.66
371.593	313.2
371.974	306.64
372.355	295.57
372.736	309.13
373.117	321.33
373.498	306.42
373.879	322.92
374.26	299.86
374.641	304.61
375.021	316.36
375.402	315.01
375.783	318.85
376.163	311.84
376.544	306.42
376.925	305.74
377.305	320.88
377.686	320.66
378.066	324.05
378.447	305.97
378.827	319.07
379.208	324.72
379.588	324.5
379.968	328.11
380.349	320.2
380.729	328.11
381.109	325.85
381.489	336.02
381.87	321.79
382.25	329.69
382.63	327.89
383.01	343.03
383.39	336.02
383.77	319.3
384.15	347.32
384.53	344.84
384.91	328.56
385.29	331.73
385.67	333.08
386.049	342.35
386.429	354.1
386.809	341.22
387.189	317.04
387.568	351.84
387.948	345.29
388.328	349.81
388.707	360.2
389.087	353.42
389.466	337.15
389.846	351.62
390.225	373.31
390.605	352.74
390.984	368.79
391.363	364.72
391.743	366.53
392.122	372.41
392.501	376.7
392.881	369.47
393.26	368.11
393.639	370.82
394.018	362.91
394.397	392.52
394.776	388.9
395.155	369.69
395.534	383.25
395.913	392.74
396.292	376.47
396.671	371.28
397.05	392.07
397.429	385.51
397.808	365.63
398.186	394.55
398.565	377.38
398.944	384.83
399.323	399.98
399.701	382.35
400.08	394.33
400.458	410.82
400.837	409.24
401.215	412.86
401.594	391.61
401.972	420.77
402.351	406.98
402.729	428.9
403.107	418.51
403.486	429.81
403.864	435.45
404.242	450.37
404.62	432.52
404.999	435.91
405.377	433.65
405.755	437.94
406.133	452.18
406.511	464.38
406.889	446.98
407.267	440.43
407.645	456.47
408.023	471.84
408.401	460.99
408.779	460.99
409.156	472.06
409.534	490.82
409.912	486.53
410.29	500.54
410.667	510.25
411.045	485.17
411.422	505.28
411.8	507.77
412.178	530.37
412.555	543.02
412.933	536.47
413.31	546.86
413.687	542.8
414.065	548.67
414.442	547.77
414.819	586.64
415.197	562.23
415.574	581.67
415.951	584.15
416.328	581.21
416.705	612.63
417.082	611.95
417.46	604.04
417.837	583.47
418.214	602.23
418.591	630.48
418.967	638.16
419.344	653.08
419.721	651.04
420.098	649.23
420.475	653.53
420.852	657.37
421.228	675.9
421.605	678.61
421.982	685.84
422.358	700.53
422.735	707.31
423.111	711.83
423.488	719.97
423.864	741.66
424.241	751.83
424.617	762
424.994	758.61
425.37	774.88
425.746	781.66
426.123	802
426.499	816.46
426.875	815.11
427.251	800.87
427.627	836.35
428.003	830.02
428.379	846.74
428.756	863.24
429.132	851.49
429.507	851.94
429.883	868.44
430.259	895.78
430.635	899.17
431.011	880.64
431.387	924.03
431.763	954.99
432.138	948.66
432.514	962.45
432.89	978.04
433.265	983.69
433.641	1001.99
434.016	1014.42
434.392	1011.94
434.767	1039.96
435.143	1054.87
435.518	1059.62
435.894	1067.98
436.269	1057.13
436.644	1102.56
437.02	1109.79
437.395	1138.26
437.77	1164.02
438.145	1137.81
438.52	1157.47
438.895	1183.46
439.271	1197.24
439.646	1204.7
440.021	1205.6
440.395	1207.41
440.77	1215.32
441.145	1237.02
441.52	1225.49
441.895	1262.1
442.27	1264.36
442.645	1263.91
443.019	1288.99
443.394	1289.22
443.769	1274.3
444.143	1295.77
444.518	1324.24
444.892	1331.93
445.267	1335.77
445.641	1333.06
446.016	1332.38
446.39	1355.43
446.764	1346.17
447.139	1354.98
447.513	1350.23
447.887	1378.71
448.262	1399.27
448.636	1388.65
449.01	1390.01
449.384	1409.89
449.758	1403.79
450.132	1418.93
450.506	1447.41
450.88	1456.67
451.254	1451.47
451.628	1451.25
452.002	1471.59
452.376	1468.42
452.75	1504.35
453.123	1503.45
453.497	1516.1
453.871	1530.57
454.244	1542.09
454.618	1551.36
454.992	1555.2
455.365	1527.18
455.739	1620.06
456.112	1624.35
456.486	1596.78
456.859	1611.69
457.232	1637.46
457.606	1667.06
457.979	1662.99
458.352	1681.3
458.725	1698.92
459.099	1721.97
459.472	1736.44
459.845	1748.41
460.218	1755.42
460.591	1788.64
460.964	1758.81
461.337	1790.45
461.71	1819.37
462.083	1862.99
462.456	1839.26
462.829	1853.5
463.201	1864.57
463.574	1903.66
463.947	1897.79
464.32	1928.52
464.692	1954.74
465.065	1965.81
465.438	1970.56
465.81	2004.23
466.183	2015.98
466.555	2015.75
466.928	2065.69
467.3	2042.19
467.672	2053.27
468.045	2125.81
468.417	2105.24
468.789	2115.86
469.161	2145.01
469.534	2169.65
469.906	2217.78
470.278	2253.71
470.65	2229.98
471.022	2283.99
471.394	2288.06
471.766	2323.77
472.138	2359.25
472.51	2357.66
472.882	2405.8
473.253	2433.59
473.625	2410.77
473.997	2480.6
474.369	2495.74
474.74	2493.03
475.112	2533.25
475.484	2599.69
475.855	2596.98
476.227	2605.12
476.598	2655.51
476.97	2679.01
477.341	2745
477.713	2767.6
478.084	2762.17
478.455	2801.49
478.827	2855.73
479.198	2909.51
479.569	2922.85
479.94	2926.69
480.311	2988.61
480.682	3028.61
481.053	3092.11
481.424	3097.98
481.795	3112.9
482.166	3207.36
482.537	3180.24
482.908	3253.69
483.279	3295.04
483.65	3274.93
484.021	3369.84
484.391	3364.42
484.762	3401.7
485.133	3391.31
485.503	3428.37
485.874	3514.92
486.244	3536.62
486.615	3628.37
486.985	3572.77
487.356	3626.56
487.726	3683.73
488.097	3768.02
488.467	3721.47
488.837	3776.16
489.207	3856.16
489.578	3864.74
489.948	3880.79
490.318	3904.06
490.688	3928.92
491.058	3981.58
491.428	4036.94
491.798	4055.25
492.168	4111.06
492.538	4119.88
492.908	4183.6
493.278	4217.05
493.648	4236.94
494.017	4227.45
494.387	4250.95
494.757	4283.94
495.126	4347.89
495.496	4331.17
495.866	4339.08
496.235	4391.28
496.605	4461.34
496.974	4449.36
497.344	4481.68
497.713	4484.39
498.082	4492.3
498.452	4561.67
498.821	4540.43
499.19	4545.86
499.559	4596.48
499.928	4596.7
500.298	4606.19
500.667	4679.41
501.036	4624.05
501.405	4661.33
501.774	4699.07
502.143	4703.59
502.512	4708.56
502.88	4783.59
503.249	4752.18
503.618	4809.58
503.987	4749.69
504.356	4852.74
504.724	4833.31
505.093	4859.07
505.462	4883.47
505.83	4885.73
506.199	4907.43
506.567	4962.57
506.936	4949.91
507.304	4965.51
507.672	4969.8
508.041	4978.61
508.409	5045.5
508.777	5048.21
509.145	5044.6
509.514	5063.81
509.882	5094.77
510.25	5074.2
510.618	5114.2
510.986	5127.08
511.354	5158.49
511.722	5185.61
512.09	5238.72
512.458	5193.3
512.826	5175.22
513.193	5252.28
513.561	5241.43
513.929	5246.85
514.297	5247.76
514.664	5290.24
515.032	5297.47
515.4	5344.25
515.767	5322.33
516.135	5354.2
516.502	5264.48
516.869	5318.94
517.237	5398.71
517.604	5403.91
517.972	5474.64
518.339	5442.33
518.706	5448.66
519.073	5369.56
519.44	5453.18
519.808	5483.23
520.175	5406.85
520.542	5513.97
520.909	5528.88
521.276	5559.16
521.643	5522.78
522.009	5584.25
522.376	5618.37
522.743	5635.09
523.11	5663.57
523.477	5689.55
523.843	5700.17
524.21	5723.45
524.577	5746.95
524.943	5725.71
525.31	5758.25
525.676	5833.28
526.043	5807.97
526.409	5816.56
526.776	5911.24
527.142	5907.4
527.508	5933.84
527.874	5901.53
528.241	5933.16
528.607	5958.93
528.973	6011.13
529.339	5979.04
529.705	6033.95
530.071	6055.19
530.437	6061.3
530.803	6061.07
531.169	6128.41
531.535	6106.27
531.901	6108.75
532.267	6174.96
532.632	6172.93
532.998	6198.01
533.364	6161.63
533.73	6208.64
534.095	6213.16
534.461	6210.44
534.826	6242.76
535.192	6280.5
535.557	6264.91
535.923	6346.71
536.288	6333.38
536.653	6323.21
537.019	6361.17
537.384	6346.26
537.749	6374.51
538.114	6398.69
538.479	6391.23
538.845	6359.14
539.21	6386.71
539.575	6383.32
539.94	6448.86
540.305	6435.52
540.67	6452.47
541.034	6475.52
541.399	6466.03
541.764	6461.74
542.129	6508.52
542.494	6493.83
542.858	6542.41
543.223	6594.16
543.587	6600.72
543.952	6499.7
544.316	6607.27
544.681	6581.96
545.045	6561.17
545.41	6617.44
545.774	6612.92
546.138	6621.73
546.503	6658.57
546.867	6637.55
547.231	6725.46
547.595	6706.93
547.959	6717.78
548.324	6696.31
548.688	6736.08
549.052	6748.28
549.416	6709.64
549.779	6744.44
550.143	6812.01
550.507	6781.95
550.871	6826.7
551.235	6790.09
551.599	6855.62
551.962	6875.51
552.326	6848.17
552.689	6913.48
553.053	6807.04
553.417	6849.3
553.78	6957.77
554.143	6932.68
554.507	6897.88
554.87	6916.19
555.234	7030.08
555.597	6887.94
555.96	6997.54
556.323	7012
556.686	6979.01
557.05	7052.23
557.413	7053.13
557.776	7076.64
558.139	7113.02
558.502	7061.5
558.865	7131.1
559.228	7112.34
559.59	7159.12
559.953	7169.51
560.316	7265.11
560.679	7220.14
561.041	7256.52
561.404	7314.37
561.767	7306.01
562.129	7326.35
562.492	7383.07
562.854	7419.9
563.217	7369.51
563.579	7415.38
563.941	7494.03
564.304	7412.22
564.666	7519.11
565.028	7518.88
565.39	7556.4
565.753	7537.87
566.115	7498.32
566.477	7625.32
566.839	7669.61
567.201	7640.24
567.563	7662.16
567.925	7659.9
568.287	7748.93
568.648	7726.34
569.01	7814.24
569.372	7854.24
569.734	7833.9
570.095	7900.12
570.457	7955.93
570.819	7944.64
571.18	7884.3
571.542	7908.7
571.903	8002.49
572.265	8006.78
572.626	8055.59
572.987	8103.28
573.349	8108.7
573.71	8155.48
574.071	8155.03
574.432	8215.59
574.794	8301.01
575.155	8256.49
575.516	8298.3
575.877	8304.63
576.238	8390.05
576.599	8430.95
576.96	8423.04
577.32	8447.67
577.681	8444.06
578.042	8536.71
578.403	8534.9
578.763	8538.07
579.124	8566.99
579.485	8644.96
579.845	8673.66
580.206	8729.25
580.566	8768.57
580.927	8770.83
581.287	8805.86
581.648	8956.59
582.008	8939.19
582.368	8933.76
582.728	9070.93
583.089	9101.44
583.449	9105.74
583.809	9158.62
584.169	9310.7
584.529	9298.95
584.889	9377.37
585.249	9363.13
585.609	9446.97
585.969	9476.12
586.329	9539.17
586.688	9562.22
587.048	9665.72
587.408	9749.11
587.768	9776.45
588.127	9840.63
588.487	9856.68
588.846	10027.29
589.206	9974.64
589.565	9992.49
589.925	10117.91
590.284	10195.42
590.643	10270.45
591.003	10378.47
591.362	10361.07
591.721	10527.62
592.08	10547.51
592.44	10662.53
592.799	10633.38
593.158	10707.5
593.517	10772.36
593.876	10863.2
594.235	10892.58
594.593	10945.69
594.952	11032.69
595.311	11072.46
595.67	11147.26
596.029	11254.83
596.387	11342.51
596.746	11342.51
597.104	11366.24
597.463	11402.4
597.822	11537.99
598.18	11525.33
598.538	11559.46
598.897	11670.87
599.255	11607.14
599.613	11831.99
599.972	11821.14
600.33	11932.33
600.688	11848.26
601.046	12010.97
601.404	12019.1
601.762	12035.15
602.12	12173
602.478	12142.72
602.836	12164.19
603.194	12191.3
603.552	12297.52
603.91	12253.45
604.268	12347.91
604.625	12346.78
604.983	12515.14
605.341	12453.67
605.698	12526.89
606.056	12547.9
606.413	12630.84
606.771	12674.45
607.128	12735.47
607.485	12709.26
607.843	12751.51
608.2	12824.73
608.557	12833.09
608.914	12865.64
609.272	12949.7
609.629	12987.44
609.986	13060.21
610.343	13081
610.7	13123.03
611.057	13140.21
611.414	13076.48
611.771	13170.49
612.127	13210.26
612.484	13236.7
612.841	13334.78
613.198	13324.83
613.554	13292.07
613.911	13422.68
614.267	13405.74
614.624	13465.17
614.98	13459.07
615.337	13432.18
615.693	13504.04
616.05	13424.94
616.406	13596.01
616.762	13548.78
617.118	13574.09
617.475	13527.54
617.831	13622
618.187	13733.64
618.543	13669.68
618.899	13780.41
619.255	13743.81
619.611	13795.78
619.967	13882.11
620.323	13837.59
620.678	13791.04
621.034	13743.58
621.39	13780.64
621.746	13821.32
622.101	13963.91
622.457	13842.79
622.812	13923.46
623.168	13901.77
623.523	13937.25
623.879	13944.7
624.234	13847.53
624.589	13999.62
624.945	13964.82
625.3	13980.41
625.655	14005.95
626.01	14027.19
626.365	14005.72
626.72	13986.74
627.075	13937.02
627.43	13945.38
627.785	13997.36
628.14	13977.7
628.495	14018.83
628.85	13940.64
629.205	13918.72
629.559	14073.74
629.914	13991.26
630.269	14042.33
630.623	13996.45
630.978	13959.17
631.332	13945.83
631.687	13918.26
632.041	13867.19
632.396	13971.14
632.75	13926.63
633.104	13903.35
633.459	13892.5
633.813	13893.86
634.167	13922.33
634.521	13879.17
634.875	13888.21
635.229	13851.15
635.583	13734.99
635.937	13873.52
636.291	13752.17
636.645	13818.15
636.999	13753.52
637.352	13711.04
637.706	13684.6
638.06	13800.07
638.413	13686.86
638.767	13695.44
639.121	13701.09
639.474	13619.97
639.828	13692.51
640.181	13659.74
640.534	13705.61
640.888	13606.41
641.241	13599.18
641.594	13610.7
641.947	13612.28
642.301	13629.68
642.654	13654.09
643.007	13674.43
643.36	13617.71
643.713	13618.38
644.066	13601.44
644.419	13538.61
644.771	13497.71
645.124	13308.56
645.477	13327.32
645.83	13248.9
646.182	13200.32
646.535	13114.22
646.888	13237.15
647.24	13160.77
647.593	13220.2
647.945	13194.44
648.298	13110.83
648.65	13214.78
649.002	13064.05
649.355	13156.7
649.707	13159.87
650.059	13158.74
650.411	13363.7
650.763	13388.33
651.115	13537.93
651.467	13479.86
651.819	13439.86
652.171	13501.1
652.523	13441.89
652.875	13440.08
653.227	13478.28
653.578	13482.34
653.93	13470.14
654.282	13455.68
654.633	13393.53
654.985	13410.48
655.337	13477.82
655.688	13443.93
656.039	13488.22
656.391	13380.43
656.742	13412.74
657.094	13441.67
657.445	13510.82
657.796	13496.81
658.147	13446.41
658.498	13513.98
658.849	13506.98
659.2	13485.73
659.551	13464.04
659.902	13466.98
660.253	13472.17
660.604	13582.68
660.955	13379.3
661.306	13556.01
661.656	13468.33
662.007	13480.76
662.358	13516.24
662.708	13553.53
663.059	13512.4
663.409	13455.23
663.76	13605.05
664.11	13563.25
664.461	13534.09
664.811	13605.05
665.161	13591.27
665.511	13577.03
665.862	13558.73
666.212	13586.07
666.562	13504.94
666.912	13686.86
667.262	13576.35
667.612	13485.51
667.962	13581.1
668.312	13607.99
668.662	13597.82
669.011	13573.64
669.361	13572.06
669.711	13624.26
670.06	13524.6
670.41	13528.9
670.76	13545.39
671.109	13638.05
671.459	13586.52
671.808	13527.09
672.157	13528.44
672.507	13446.41
672.856	13484.38
673.205	13445.96
673.554	13512.17
673.904	13573.64
674.253	13504.49
674.602	13513.53
674.951	13274.89
675.3	13207.77
675.649	13381.78
675.998	13396.24
676.346	13370.71
676.695	13467.43
677.044	13283.03
677.393	13351.73
677.741	13351.73
678.09	13363.02
678.438	13361.22
678.787	13283.7
679.135	13335
679.484	13201.22
679.832	13226.08
680.181	13174.78
680.529	13273.08
680.877	13204.38
681.225	13181.79
681.573	13266.3
681.922	13175.46
682.27	13055.01
682.618	13119.64
682.966	13074.67
683.314	13118.51
683.661	12986.54
684.009	13029.93
684.357	12961.68
684.705	12976.59
685.053	12878.74
685.4	12912.64
685.748	12814.56
686.095	12801.91
686.443	12828.35
686.79	12831.74
687.138	12787.9
687.485	12843.26
687.832	12722.14
688.18	12696.6
688.527	12563.72
688.874	12619.99
689.221	12655.92
689.568	12518.07
689.915	12499.77
690.262	12521.46
690.609	12500.9
690.956	12371.86
691.303	12376.38
691.65	12345.42
691.997	12307.46
692.344	12264.52
692.69	12181.13
693.037	12210.06
693.383	12121.93
693.73	12175.48
694.077	12003.06
694.423	12051.19
694.769	12000.12
695.116	11949.95
695.462	11885.55
695.808	11869.05
696.155	11899.11
696.501	11721.71
696.847	11784.53
697.193	11680.13
697.539	11675.16
697.885	11691.66
698.231	11563.07
698.577	11562.17
698.923	11499.8
699.269	11526.91
699.614	11428.16
699.96	11363.98
700.306	11351.78
700.651	11350.42
700.997	11260.03
701.342	11266.81
701.688	11224.1
702.033	11253.7
702.379	11114.72
702.724	11217.54
703.069	11184.55
703.415	11005.35
703.76	11018.68
704.105	10971.67
704.45	10891.9
704.795	10876.76
705.14	10825.01
705.485	10813.94
705.83	10786.14
706.175	10765.8
706.52	10740.27
706.865	10673.6
707.209	10734.84
707.554	10671.57
707.899	10624.57
708.243	10660.5
708.588	10559.26
708.932	10536.66
709.277	10555.87
709.621	10499.6
709.966	10422.08
710.31	10446.49
710.654	10341.41
710.998	10420.05
711.342	10373.95
711.687	10346.38
712.031	10301.64
712.375	10237.46
712.719	10313.16
713.063	10284.24
713.407	10243.56
713.75	10210.34
714.094	10190.45
714.438	10153.39
714.782	10205.59
715.125	10166.05
715.469	10058.7
715.812	10036.11
716.156	10014.41
716.499	10055.99
716.843	9962.89
717.186	9888.09
717.53	10007.18
717.873	10048.08
718.216	9982.1
718.559	9925.37
718.902	9848.99
719.246	9879.95
719.589	9859.16
719.932	9809.45
720.275	9852.61
720.617	9814.64
720.96	9937.13
721.303	9800.18
721.646	9839.95
721.989	9704.36
722.331	9768.54
722.674	9745.72
723.016	9773.06
723.359	9732.16
723.701	9719.73
724.044	9780.07
724.386	9623.69
724.729	9656.91
725.071	9684.25
725.413	9669.11
725.755	9659.84
726.097	9630.92
726.439	9588.66
726.782	9601.54
727.124	9662.78
727.465	9635.21
727.807	9609.45
728.149	9592.73
728.491	9586.85
728.833	9594.76
729.175	9491.71
729.516	9541.43
729.858	9554.54
730.199	9519.51
730.541	9529.68
730.882	9548.89
731.224	9560.64
731.565	9534.42
731.906	9507.98
732.248	9601.99
732.589	9526.97
732.93	9439.51
733.271	9521.32
733.612	9534.2
733.953	9559.51
734.294	9525.16
734.635	9488.32
734.976	9542.79
735.317	9522.67
735.658	9513.86
735.999	9551.83
736.339	9528.1
736.68	9528.55
737.021	9476.57
737.361	9546.4
737.702	9552.05
738.042	9528.77
738.383	9533.07
738.723	9564.48
739.063	9517.7
739.404	9582.78
739.744	9604.48
740.084	9604.93
740.424	9667.3
740.764	9630.24
741.104	9646.74
741.444	9590.02
741.784	9654.65
742.124	9641.09
742.464	9718.6
742.804	9680.86
743.143	9703.91
743.483	9769.67
743.823	9778.71
744.162	9848.54
744.502	9799.28
744.841	9865.72
745.181	9882.66
745.52	9876.11
745.86	9972.38
746.199	10022.55
746.538	9985.94
746.877	10053.05
747.216	10066.39
747.556	10191.81
747.895	10204.46
748.234	10222.09
748.573	10326.72
748.911	10303.44
749.25	10399.26
749.589	10449.65
749.928	10583.89
750.267	10575.53
750.605	10585.92
750.944	10690.33
751.283	10835.63
751.621	10865.69
751.96	10912.02
752.298	11000.6
752.636	11154.27
752.975	11184.32
753.313	11279.24
753.651	11416.41
753.989	11514.71
754.327	11631.54
754.666	11716.29
755.004	11845.32
755.342	12011.87
755.679	12083.96
756.017	12212.77
756.355	12355.37
756.693	12386.55
757.031	12557.4
757.368	12662.03
757.706	12768.01
758.044	12904.73
758.381	13018.17
758.719	13160.54
759.056	13397.6
759.394	13399.63
759.731	13574.32
760.068	13737.7
760.405	13796.01
760.743	13972.27
761.08	14136.11
761.417	14283.9
761.754	14351.92
