Data from hue_250_FLMS001491_00049.txt Node
Date: Tue Feb 07 16:01:02 GMT 2017
User: dcchb
Spectrometer: FLMS00149
Trigger mode: 0
Integration Time (sec): 2.000000E-2
Scans to average: 10
Electric dark correction enabled: true
Nonlinearity correction enabled: false
Boxcar width: 0
XAxis mode: Wavelengths
Number of Pixels in Spectrum: 2048
>>>>>Begin Spectral Data<<<<<
341.393	-9.58
341.776	-9.58
342.16	-9.58
342.543	-58.61
342.927	-46.64
343.31	-67.43
343.693	-52.74
344.077	-71.5
344.46	-70.37
344.843	-32.85
345.226	-50.25
345.61	-20.88
345.993	-22.01
346.376	-19.07
346.759	15.96
347.142	26.13
347.525	29.29
347.908	64.55
348.291	67.03
348.674	89.4
349.057	114.71
349.44	137.76
349.823	121.04
350.206	182.96
350.588	201.27
350.971	207.14
351.354	218.21
351.737	238.55
352.119	249.85
352.502	238.1
352.884	245.11
353.267	265.22
353.65	284.2
354.032	290.76
354.414	288.72
354.797	297.76
355.179	330.08
355.562	311.55
355.944	328.04
356.326	349.51
356.709	334.14
357.091	322.62
357.473	319.45
357.855	333.69
358.238	353.35
358.62	317.65
359.002	332.34
359.384	313.81
359.766	323.97
360.148	334.14
360.53	335.5
360.912	338.44
361.294	307.93
361.676	337.53
362.057	313.58
362.439	332.56
362.821	326.23
363.203	335.73
363.584	332.56
363.966	307.93
364.348	323.07
364.729	331.66
365.111	329.85
365.493	299.12
365.874	315.16
366.256	297.76
366.637	327.59
367.019	313.58
367.4	304.54
367.781	309.29
368.163	324.88
368.544	304.54
368.925	276.07
369.306	324.88
369.688	320.81
370.069	300.7
370.45	302.28
370.831	304.77
371.212	309.51
371.593	329.4
371.974	295.5
372.355	325.56
372.736	315.84
373.117	327.59
373.498	314.71
373.879	303.18
374.26	320.13
374.641	315.84
375.021	313.13
375.402	314.26
375.783	326.69
376.163	321.94
376.544	314.03
376.925	317.2
377.305	300.25
377.686	334.82
378.066	336.63
378.447	325.56
378.827	332.11
379.208	329.17
379.588	337.76
379.968	319.91
380.349	338.21
380.729	320.58
381.109	330.75
381.489	377.76
381.87	339.79
382.25	336.63
382.63	329.17
383.01	317.87
383.39	352.45
383.77	318.55
384.15	326.23
384.53	364.88
384.91	341.38
385.29	355.61
385.67	345.67
386.049	345.67
386.429	342.51
386.809	346.12
387.189	347.48
387.568	346.35
387.948	363.75
388.328	369.62
388.707	357.42
389.087	361.04
389.466	353.35
389.846	374.82
390.225	377.98
390.605	380.02
390.984	348.61
391.363	348.61
391.743	356.52
392.122	369.85
392.501	376.63
392.881	379.34
393.26	381.15
393.639	390.87
394.018	380.7
394.397	377.53
394.776	392.22
395.155	393.13
395.534	389.51
395.913	391.54
396.292	381.37
396.671	390.87
397.05	382.05
397.429	390.41
397.808	400.81
398.186	391.09
398.565	403.29
398.944	391.32
399.323	408.49
399.701	414.37
400.08	400.81
400.458	422.05
400.837	415.72
401.215	410.07
401.594	418.44
401.972	410.07
402.351	406.68
402.729	440.13
403.107	430.64
403.486	437.64
403.864	437.64
404.242	423.63
404.62	441.94
404.999	441.03
405.377	455.5
405.755	468.15
406.133	457.3
406.511	461.37
406.889	467.02
407.267	460.02
407.645	475.16
408.023	472.9
408.401	477.64
408.779	487.59
409.156	479
409.534	489.62
409.912	482.16
410.29	493.24
410.667	535.72
411.045	535.49
411.422	502.73
411.8	532.56
412.178	533.91
412.555	517.64
412.933	555.61
413.31	538.43
413.687	561.03
414.065	550.41
414.442	559
414.819	568.94
415.197	589.5
415.574	588.37
415.951	590.41
416.328	590.63
416.705	611.88
417.082	611.2
417.46	601.71
417.837	628.83
418.214	630.41
418.591	636.06
418.967	648.49
419.344	649.84
419.721	663.4
420.098	651.65
420.475	690.74
420.852	660.24
421.228	683.74
421.605	712.21
421.982	690.97
422.358	697.98
422.735	715.6
423.111	716.51
423.488	741.82
423.864	745.66
424.241	791.53
424.617	776.17
424.994	780.46
425.37	792.21
425.746	771.19
426.123	790.18
426.499	797.41
426.875	829.27
427.251	837.18
427.627	843.73
428.003	877.86
428.379	849.16
428.756	860.23
429.132	885.32
429.507	871.76
429.883	894.58
430.259	908.82
430.635	905.43
431.011	930.29
431.387	947.91
431.763	973.9
432.138	958.76
432.514	972.09
432.89	966.67
433.265	1023.62
433.641	1027.91
434.016	1036.72
434.392	1035.59
434.767	1080.79
435.143	1069.04
435.518	1073.33
435.894	1109.72
436.269	1112.88
436.644	1110.62
437.02	1127.34
437.395	1153.11
437.77	1186.32
438.145	1175.03
438.52	1203.95
438.895	1253.44
439.271	1219.77
439.646	1251.63
440.021	1283.72
440.395	1271.29
440.77	1283.27
441.145	1312.42
441.52	1308.58
441.895	1347
442.27	1338.19
442.645	1363.27
443.019	1391.97
443.394	1374.12
443.769	1377.28
444.143	1375.25
444.518	1421.35
444.892	1419.76
445.267	1401.91
445.641	1434.91
446.016	1419.31
446.39	1464.51
446.764	1476.71
447.139	1442.36
447.513	1482.81
447.887	1492.08
448.262	1490.05
448.636	1517.16
449.01	1520.33
449.384	1529.59
449.758	1557.61
450.132	1549.25
450.506	1583.6
450.88	1567.33
451.254	1563.04
451.628	1615.47
452.002	1628.8
452.376	1641.45
452.75	1671.51
453.123	1673.09
453.497	1699.31
453.871	1691.62
454.244	1707.44
454.618	1722.58
454.992	1767.78
455.365	1746.76
455.739	1765.97
456.112	1834.44
456.486	1815.23
456.859	1815.01
457.232	1860.43
457.606	1846.87
457.979	1884.84
458.352	1901.79
458.725	1936.36
459.099	1935.46
459.472	1980.65
459.845	2005.06
460.218	2010.71
460.591	2040.31
460.964	2052.29
461.337	2097.49
461.71	2086.19
462.083	2115.34
462.456	2134.1
462.829	2164.15
463.201	2178.62
463.574	2194.21
463.947	2199.63
464.32	2258.61
464.692	2290.25
465.065	2276.69
465.438	2335.9
465.81	2357.82
466.183	2360.76
466.555	2408.21
466.928	2410.25
467.3	2448.66
467.672	2486.4
468.045	2500.19
468.417	2488.66
468.789	2533.18
469.161	2554.65
469.534	2581.09
469.906	2647.76
470.278	2662.22
470.65	2668.32
471.022	2706.51
471.394	2728.88
471.766	2825.6
472.138	2808.2
472.51	2893.4
472.882	2882.33
473.253	2965.94
473.625	2971.59
473.997	3033.28
474.369	3035.77
474.74	3075.09
475.112	3109.89
475.484	3150.79
475.855	3216.1
476.227	3249.1
476.598	3287.29
476.97	3297.68
477.341	3415.64
477.713	3453.16
478.084	3438.24
478.455	3519.37
478.827	3574.96
479.198	3683.89
479.569	3676.88
479.94	3734.96
480.311	3721.4
480.682	3831.68
481.053	3883.43
481.424	3926.59
481.795	4008.85
482.166	4022.86
482.537	4051.56
482.908	4129.98
483.279	4183.53
483.65	4287.49
484.021	4294.49
484.391	4383.98
484.762	4435.05
485.133	4426.24
485.503	4485.9
485.874	4548.04
486.244	4599.12
486.615	4693.35
486.985	4712.33
487.356	4773.8
487.726	4845.66
488.097	4959.78
488.467	4920.92
488.837	4970.86
489.207	5077.97
489.578	5112.1
489.948	5130.63
490.318	5205.88
490.688	5223.51
491.058	5304.63
491.428	5334.24
491.798	5381.02
492.168	5495.82
492.538	5510.05
492.908	5541.24
493.278	5607.68
493.648	5621.24
494.017	5663.95
494.387	5701.69
494.757	5754.79
495.126	5817.39
495.496	5840.89
495.866	5867.33
496.235	5900.1
496.605	5943.49
496.974	5974.45
497.344	6052.41
497.713	6016.03
498.082	6041.56
498.452	6110.04
498.821	6143.26
499.19	6119.08
499.559	6194.55
499.928	6257.15
500.298	6290.82
500.667	6299.41
501.036	6307.77
501.405	6430.25
501.774	6336.92
502.143	6395.91
502.512	6481.55
502.88	6468.67
503.249	6463.25
503.618	6486.07
503.987	6508.67
504.356	6592.74
504.724	6590.93
505.093	6574.21
505.462	6650.14
505.83	6650.36
506.199	6692.39
506.567	6715.44
506.936	6749.34
507.304	6821.2
507.672	6774.43
508.041	6817.36
508.409	6845.84
508.777	6897.81
509.145	6902.33
509.514	6923.35
509.882	6973.74
510.25	6970.13
510.618	6990.69
510.986	7016
511.354	7082.21
511.722	7068.66
512.09	7119.95
512.458	7081.54
512.826	7159.95
513.193	7207.86
513.561	7129.67
513.929	7169.22
514.297	7220.29
514.664	7285.83
515.032	7244.02
515.4	7305.94
515.767	7284.02
516.135	7328.31
516.502	7278.14
516.869	7410.79
517.237	7376.44
517.604	7357.24
517.972	7458.25
518.339	7457.8
518.706	7467.74
519.073	7468.42
519.44	7501.19
519.808	7544.35
520.175	7528.3
520.542	7623.9
520.909	7552.26
521.276	7630.68
521.643	7639.71
522.009	7631.13
522.376	7711.12
522.743	7721.97
523.11	7720.62
523.477	7842.19
523.843	7757.45
524.21	7881.97
524.577	7824.12
524.943	7857.56
525.31	7898.69
525.676	7940.05
526.043	7968.52
526.409	7935.98
526.776	8017.56
527.142	7999.48
527.508	8066.14
527.874	8048.74
528.241	8098.01
528.607	8056.43
528.973	8113.83
529.339	8055.97
529.705	8184.56
530.071	8191.56
530.437	8166.93
530.803	8229.76
531.169	8267.72
531.535	8238.79
531.901	8227.27
532.267	8199.93
532.632	8266.82
532.998	8258.91
533.364	8313.82
533.73	8261.17
534.095	8301.39
534.461	8254.39
534.826	8293.71
535.192	8280.6
535.557	8351.33
535.923	8293.93
536.288	8287.15
536.653	8348.85
537.019	8335.97
537.384	8277.66
537.749	8311.79
538.114	8281.28
538.479	8298.23
538.845	8304.33
539.21	8288.74
539.575	8326.48
539.94	8374.61
540.305	8326.02
540.67	8303.88
541.034	8363.54
541.399	8312.92
541.764	8299.58
542.129	8303.88
542.494	8332.13
542.858	8391.11
543.223	8363.09
543.587	8340.71
543.952	8345.23
544.316	8301.39
544.681	8301.84
545.045	8330.09
545.41	8321.5
545.774	8326.02
546.138	8329.64
546.503	8345.68
546.867	8329.87
547.231	8345.23
547.595	8370.09
547.959	8298.68
548.324	8336.19
548.688	8311.56
549.052	8348.85
549.416	8357.66
549.779	8361.05
550.143	8359.02
550.507	8349.3
550.871	8389.98
551.235	8324.67
551.599	8377.55
551.962	8328.06
552.326	8345.68
552.689	8358.57
553.053	8291.9
553.417	8365.12
553.78	8349.75
554.143	8317.89
554.507	8318.57
554.87	8400.37
555.234	8454.16
555.597	8350.43
555.96	8405.57
556.323	8437.21
556.686	8443.76
557.05	8457.55
557.413	8441.95
557.776	8490.77
558.139	8528.73
558.502	8474.49
558.865	8487.38
559.228	8529.41
559.59	8581.16
559.953	8547.49
560.316	8643.98
560.679	8617.09
561.041	8618.45
561.404	8659.57
561.767	8714.04
562.129	8701.83
562.492	8778.89
562.854	8737.76
563.217	8720.36
563.579	8728.95
563.941	8762.4
564.304	8757.43
564.666	8791.77
565.028	8911.32
565.39	8871.32
565.753	8911.32
566.115	8938.21
566.477	8935.73
566.839	8942.28
567.201	9047.13
567.563	9043.75
567.925	9050.52
568.287	9045.78
568.648	9071.09
569.01	9141.82
569.372	9142.5
569.734	9128.94
570.095	9252.33
570.457	9232.67
570.819	9254.14
571.18	9260.24
571.542	9308.37
571.903	9280.8
572.265	9292.78
572.626	9315.38
572.987	9397.41
573.349	9378.65
573.71	9413.68
574.071	9435.37
574.432	9479.21
574.794	9548.82
575.155	9488.93
575.516	9484.86
575.877	9516.28
576.238	9502.04
576.599	9542.94
576.96	9521.47
577.32	9564.41
577.681	9645.31
578.042	9605.31
578.403	9660.45
578.763	9691.41
579.124	9597.18
579.485	9634.69
579.845	9741.13
580.206	9692.32
580.566	9741.81
580.927	9800.34
581.287	9791.3
581.648	9796.49
582.008	9872.2
582.368	9814.57
582.728	9831.52
583.089	9868.81
583.449	9881.46
583.809	9890.73
584.169	9909.71
584.529	9885.08
584.889	9998.07
585.249	9973.44
585.609	9924.85
585.969	9986.32
586.329	9940.22
586.688	10002.82
587.048	10040.78
587.408	9998.75
587.768	9991.52
588.127	9995.81
588.487	10037.17
588.846	10106.32
589.206	10018.18
589.565	10029.93
589.925	10109.93
590.284	10107.45
590.643	10198.74
591.003	10124.17
591.362	10187.22
591.721	10161.91
592.08	10195.13
592.44	10140.21
592.799	10184.73
593.158	10157.84
593.517	10228.35
593.876	10249.59
594.235	10219.08
594.593	10238.97
594.952	10238.06
595.311	10163.94
595.67	10269.48
596.029	10273.77
596.387	10278.06
596.746	10343.6
597.104	10309.47
597.463	10271.74
597.822	10313.77
598.18	10269.25
598.538	10227.67
598.897	10351.51
599.255	10247.56
599.613	10351.51
599.972	10331.85
600.33	10327.33
600.688	10269.25
601.046	10330.27
601.404	10353.09
601.762	10344.28
602.12	10410.26
602.478	10363.26
602.836	10417.95
603.194	10383.82
603.552	10365.97
603.91	10271.74
604.268	10354.22
604.625	10358.06
604.983	10323.71
605.341	10408.68
605.698	10425.86
606.056	10449.36
606.413	10435.57
606.771	10467.66
607.128	10441.22
607.485	10437.15
607.843	10428.34
608.2	10514.67
608.557	10531.62
608.914	10506.98
609.272	10617.04
609.629	10564.16
609.986	10607.55
610.343	10474.89
610.7	10626.53
611.057	10585.63
611.414	10545.17
611.771	10566.64
612.127	10624.49
612.484	10624.95
612.841	10627.88
613.198	10651.16
613.554	10645.51
613.911	10629.69
614.267	10674.21
614.624	10664.72
614.98	10670.82
615.337	10764.6
615.693	10699.75
616.05	10698.62
616.406	10786.07
616.762	10697.49
617.118	10694.1
617.475	10682.57
617.831	10724.83
618.187	10816.58
618.543	10746.3
618.899	10829.24
619.255	10818.39
619.611	10760.99
619.967	10838.05
620.323	10849.57
620.678	10807.09
621.034	10817.71
621.39	10768.67
621.746	10781.55
622.101	10902.23
622.457	10804.83
622.812	10853.87
623.168	10849.35
623.523	10835.11
623.879	10848.67
624.234	10854.55
624.589	10860.65
624.945	10851.61
625.3	10796.92
625.655	10845.05
626.01	10791.04
626.365	10801.44
626.72	10827.2
627.075	10797.37
627.43	10778.16
627.785	10795.34
628.14	10790.59
628.495	10803.7
628.85	10780.2
629.205	10720.54
629.559	10804.38
629.914	10670.37
630.269	10789.24
630.623	10761.21
630.978	10717.83
631.332	10757.15
631.687	10732.06
632.041	10731.16
632.396	10751.5
632.75	10725.28
633.104	10666.98
633.459	10655.68
633.813	10619.75
634.167	10603.93
634.521	10663.36
634.875	10659.97
635.229	10621.78
635.583	10507.89
635.937	10532.97
636.291	10536.81
636.645	10535.01
636.999	10516.25
637.352	10500.66
637.706	10428.57
638.06	10505.4
638.413	10576.59
638.767	10459.75
639.121	10532.97
639.474	10404.84
639.828	10429.7
640.181	10428.79
640.534	10415.91
640.888	10380.66
641.241	10340.43
641.594	10470.37
641.947	10342.47
642.301	10405.52
642.654	10302.92
643.007	10488
643.36	10306.08
643.713	10315.58
644.066	10305.63
644.419	10287.1
644.771	10229.25
645.124	10119.88
645.477	10116.49
645.83	10055.7
646.182	10058.41
646.535	9917.39
646.888	9990.16
647.24	9905.19
647.593	9925.3
647.945	9897.28
648.298	9863.84
648.65	9867.45
649.002	9816.38
649.355	9984.51
649.707	9959.65
650.059	9987
650.411	10052.76
650.763	10133.43
651.115	10208.01
651.467	10171.85
651.819	10147.22
652.171	10164.62
652.523	10123.04
652.875	10179.99
653.227	10034.23
653.578	10175.47
653.93	10132.98
654.282	10146.77
654.633	10068.8
654.985	10063.38
655.337	10115.58
655.688	10102.93
656.039	10154
656.391	10082.36
656.742	10146.99
657.094	10036.26
657.445	10168.69
657.796	10078.97
658.147	10076.94
658.498	10093.89
658.849	10081.91
659.2	10134.11
659.551	10034.23
659.902	10076.03
660.253	10059.76
660.604	10100.67
660.955	10076.71
661.306	10044.85
661.656	10076.03
662.007	10064.28
662.358	10083.72
662.708	10065.64
663.059	10052.98
663.409	10087.11
663.76	10094.34
664.11	10091.63
664.461	10034.68
664.811	10054.57
665.161	10089.59
665.511	10047.79
665.862	10090.05
666.212	10032.42
666.562	10102.02
666.912	10063.61
667.262	10048.46
667.612	10049.82
667.962	10045.53
668.312	10019.54
668.662	10121.91
669.011	10052.08
669.361	10008.47
669.711	10046.43
670.06	10001.01
670.41	10028.58
670.76	9980.67
671.109	10083.94
671.459	9997.62
671.808	9996.71
672.157	10060.67
672.507	9995.58
672.856	9995.81
673.205	9940.9
673.554	9996.71
673.904	9950.61
674.253	10034
674.602	9986.32
674.951	9845.76
675.3	9719.66
675.649	9884.85
675.998	9859.54
676.346	9877.85
676.695	9973.21
677.044	9913.55
677.393	9841.01
677.741	9949.03
678.09	9828.58
678.438	9817.74
678.787	9815.93
679.135	9794.23
679.484	9813.67
679.832	9833.1
680.181	9725.99
680.529	9786.32
680.877	9733.9
681.225	9805.53
681.573	9812.09
681.922	9664.29
682.27	9629.04
682.618	9717.63
682.966	9695.25
683.314	9646.44
683.661	9617.06
684.009	9604.63
684.357	9560.57
684.705	9591.3
685.053	9504.98
685.4	9506.33
685.748	9491.19
686.095	9445.32
686.443	9453.45
686.79	9423.4
687.138	9426.56
687.485	9410.74
687.832	9406.22
688.18	9310.18
688.527	9318.77
688.874	9329.84
689.221	9305.89
689.568	9224.53
689.915	9304.76
690.262	9221.37
690.609	9225.66
690.956	9148.83
691.303	9151.99
691.65	9128.04
691.997	9104.31
692.344	9056.4
692.69	9065.21
693.037	9013.92
693.383	9000.58
693.73	9052.78
694.077	8854.37
694.423	8868.83
694.769	8873.13
695.116	8858.67
695.462	8782.06
695.808	8819.34
696.155	8860.02
696.501	8770.31
696.847	8732.57
697.193	8701.83
697.539	8721.27
697.885	8649.18
698.231	8614.6
698.577	8573.7
698.923	8606.02
699.269	8557.88
699.614	8529.18
699.96	8451.9
700.306	8486.92
700.651	8441.28
700.997	8402.63
701.342	8385.01
701.688	8382.97
702.033	8319.02
702.379	8306.36
702.724	8255.29
703.069	8234.28
703.415	8229.76
703.76	8217.55
704.105	8216.2
704.45	8191.79
704.795	8116.31
705.14	8071.79
705.485	8101.62
705.83	8034.05
706.175	8018.01
706.52	7988.18
706.865	7946.15
707.209	7938.92
707.554	7949.99
707.899	7943.21
708.243	7932.59
708.588	7919.26
708.932	7801.07
709.277	7864.57
709.621	7848.75
709.966	7748.86
710.31	7811.01
710.654	7761.29
710.998	7752.25
711.342	7769.88
711.687	7744.34
712.031	7652.6
712.375	7609.21
712.719	7665.48
713.063	7575.54
713.407	7627.74
713.75	7623.67
714.094	7596.55
714.438	7477.91
714.782	7535.99
715.125	7513.16
715.469	7532.15
715.812	7459.15
716.156	7446.5
716.499	7424.58
716.843	7451.7
717.186	7437.46
717.53	7470.68
717.873	7407.86
718.216	7415.99
718.559	7404.69
718.902	7386.84
719.246	7371.7
719.589	7338.71
719.932	7349.1
720.275	7327.86
720.617	7292.6
720.96	7309.55
721.303	7319.27
721.646	7281.76
721.989	7277.69
722.331	7258.93
722.674	7207.64
723.016	7309.1
723.359	7189.33
723.701	7267.29
724.044	7189.33
724.386	7160.63
724.729	7273.4
725.071	7181.65
725.413	7202.89
725.755	7176
726.097	7168.09
726.439	7156.56
726.782	7089.45
727.124	7198.37
727.465	7114.08
727.807	7130.12
728.149	7097.58
728.491	7098.26
728.833	7147.75
729.175	7090.35
729.516	7093.74
729.858	7122.67
730.199	7075.89
730.541	7113.17
730.882	7031.59
731.224	7091.25
731.565	7060.52
731.906	7080.63
732.248	7115.89
732.589	7042.44
732.93	7076.57
733.271	7096.45
733.612	7019.39
733.953	7038.15
734.294	7090.12
734.635	7030.24
734.976	7032.05
735.317	7043.35
735.658	7043.8
735.999	7051.48
736.339	6992.73
736.68	7049.22
737.021	7012.61
737.361	6960.86
737.702	7018.49
738.042	7013.06
738.383	7002.44
738.723	7001.77
739.063	7016
739.404	6984.82
739.744	7018.71
740.084	7042.89
740.424	7065.49
740.764	7027.98
741.104	7018.94
741.444	7076.79
741.784	7064.14
742.124	7078.6
742.464	7072.5
742.804	7080.18
743.143	7110.24
743.483	7139.16
743.823	7032.95
744.162	7082.67
744.502	7073.63
744.841	7137.13
745.181	7141.87
745.52	7131.03
745.86	7221.42
746.199	7265.71
746.538	7227.52
746.877	7286.05
747.216	7271.81
747.556	7301.19
747.895	7312.04
748.234	7315.2
748.573	7371.02
748.911	7362.43
749.25	7466.84
749.589	7512.03
749.928	7502.32
750.267	7599.04
750.605	7579.38
750.944	7629.77
751.283	7698.92
751.621	7744.8
751.96	7762.87
752.298	7829.54
752.636	7943.21
752.975	7959.48
753.313	7995.86
753.651	8125.35
753.989	8125.58
754.327	8142.07
754.666	8235.86
755.004	8382.52
755.342	8362.86
755.679	8483.76
756.017	8554.94
756.355	8638.11
756.693	8691.44
757.031	8781.15
757.368	8883.52
757.706	8966.23
758.044	9090.3
758.381	9132.78
758.719	9177.98
759.056	9249.84
759.394	9354.47
759.731	9533.68
760.068	9580.23
760.405	9720.79
760.743	9692.77
761.08	9848.7
761.417	9992.19
761.754	10015.25
762.091	10116.94
762.428	10250.27
762.765	10295.01
763.102	10436.93
763.438	10472.18
763.775	10576.81
764.112	10704.04
764.449	10835.56
