Data from hue_32_FLMS001491_00040.txt Node
Date: Tue Feb 07 17:23:19 GMT 2017
User: dcchb
Spectrometer: FLMS00149
Trigger mode: 0
Integration Time (sec): 2.000000E-2
Scans to average: 10
Electric dark correction enabled: true
Nonlinearity correction enabled: false
Boxcar width: 0
XAxis mode: Wavelengths
Number of Pixels in Spectrum: 2048
>>>>>Begin Spectral Data<<<<<
341.393	-13.35
341.776	-13.35
342.16	-13.35
342.543	-68.71
342.927	-60.35
343.31	-68.49
343.693	-71.42
344.077	-55.15
344.46	-65.78
344.843	-60.13
345.226	-47.92
345.61	-29.17
345.993	-17.64
346.376	-18.32
346.759	4.96
347.142	36.37
347.525	64.39
347.908	61.45
348.291	66.42
348.674	88.57
349.057	111.85
349.44	123.82
349.823	138.06
350.206	160.89
350.588	196.82
350.971	218.74
351.354	214.9
351.737	230.04
352.119	254.67
352.502	262.13
352.884	286.31
353.267	269.13
353.65	300.77
354.032	280.43
354.414	326.98
354.797	299.64
355.179	323.14
355.562	299.64
355.944	321.56
356.326	317.94
356.709	339.41
357.091	320.88
357.473	344.84
357.855	343.25
358.238	331.28
358.62	343.48
359.002	356.13
359.384	342.58
359.766	331.73
360.148	332.18
360.53	331.28
360.912	334.44
361.294	334.89
361.676	340.09
362.057	339.41
362.439	339.64
362.821	343.71
363.203	302.35
363.584	335.8
363.966	332.18
364.348	328.11
364.729	308.68
365.111	320.2
365.493	323.59
365.874	318.17
366.256	318.17
366.637	303.48
367.019	308.9
367.4	313.2
367.781	328.79
368.163	311.62
368.544	316.14
368.925	310.26
369.306	335.12
369.688	309.36
370.069	317.72
370.45	318.4
370.831	305.06
371.212	315.23
371.593	296.25
371.974	323.59
372.355	329.92
372.736	315.23
373.117	337.38
373.498	321.79
373.879	287.66
374.26	320.2
374.641	313.65
375.021	315.01
375.402	321.79
375.783	326.53
376.163	344.61
376.544	318.4
376.925	331.73
377.305	325.63
377.686	319.75
378.066	339.19
378.447	325.4
378.827	320.2
379.208	332.18
379.588	333.08
379.968	316.59
380.349	345.97
380.729	316.36
381.109	344.16
381.489	348
381.87	340.54
382.25	331.95
382.63	329.24
383.01	332.41
383.39	360.65
383.77	338.51
384.15	362.01
384.53	371.5
384.91	343.03
385.29	349.36
385.67	335.12
386.049	343.25
386.429	324.95
386.809	361.56
387.189	345.51
387.568	338.06
387.948	345.06
388.328	349.58
388.707	328.56
389.087	349.13
389.466	374.89
389.846	362.91
390.225	361.11
390.605	358.17
390.984	372.41
391.363	346.87
391.743	370.15
392.122	368.34
392.501	394.55
392.881	352.74
393.26	356.36
393.639	375.8
394.018	362.01
394.397	403.14
394.776	372.63
395.155	369.24
395.534	385.29
395.913	370.37
396.292	390.94
396.671	375.34
397.05	380.31
397.429	383.93
397.808	377.6
398.186	378.96
398.565	395.46
398.944	380.31
399.323	394.78
399.701	364.27
400.08	399.98
400.458	389.35
400.837	394.55
401.215	408.11
401.594	398.62
401.972	395
402.351	402.24
402.729	422.57
403.107	400.2
403.486	401.56
403.864	398.62
404.242	408.34
404.62	433.65
404.999	395.68
405.377	413.31
405.755	421.67
406.133	405.17
406.511	429.13
406.889	412.18
407.267	421.44
407.645	438.62
408.023	434.55
408.401	442.01
408.779	435
409.156	466.64
409.534	430.93
409.912	443.82
410.29	433.65
410.667	444.49
411.045	457.15
411.422	456.47
411.8	479.52
412.178	437.71
412.555	468.9
412.933	462.12
413.31	470.48
413.687	479.75
414.065	461.89
414.442	463.93
414.819	471.16
415.197	478.84
415.574	486.07
415.951	489.69
416.328	479.97
416.705	466.87
417.082	505.51
417.46	501.44
417.837	508.9
418.214	487.2
418.591	509.13
418.967	506.87
419.344	512.97
419.721	506.19
420.098	522.01
420.475	524.49
420.852	504.38
421.228	503.48
421.605	527.43
421.982	513.64
422.358	519.75
422.735	512.97
423.111	528.11
423.488	545.06
423.864	554.77
424.241	550.25
424.617	569.46
424.994	539.18
425.37	549.8
425.746	549.12
426.123	562.46
426.499	579.86
426.875	585.96
427.251	576.69
427.627	601.33
428.003	575.34
428.379	576.24
428.756	588.44
429.132	576.92
429.507	588.22
429.883	603.36
430.259	601.1
430.635	620.31
431.011	611.72
431.387	601.33
431.763	627.09
432.138	633.64
432.514	634.32
432.89	646.07
433.265	651.27
433.641	651.49
434.016	640.65
434.392	664.38
434.767	658.5
435.143	677.03
435.518	669.8
435.894	676.13
436.269	658.05
436.644	697.59
437.02	721.32
437.395	699.63
437.77	703.7
438.145	717.03
438.52	731.72
438.895	736.01
439.271	727.65
439.646	754.32
440.021	744.6
440.395	720.87
440.77	739.63
441.145	744.15
441.52	738.27
441.895	751.83
442.27	761.77
442.645	760.87
443.019	759.74
443.394	765.16
443.769	792.06
444.143	770.81
444.518	804.71
444.892	803.58
445.267	819.17
445.641	803.35
446.016	812.62
446.39	802.22
446.764	795.22
447.139	797.71
447.513	833.41
447.887	834.54
448.262	815.11
448.636	820.08
449.01	845.16
449.384	844.94
449.758	868.21
450.132	860.75
450.506	859.4
450.88	859.4
451.254	865.5
451.628	881.32
452.002	865.27
452.376	889.45
452.75	897.14
453.123	883.13
453.497	906.85
453.871	919.06
454.244	923.13
454.618	922
454.992	935.33
455.365	949.34
455.739	938.94
456.112	951.6
456.486	980.3
456.859	955.89
457.232	995.21
457.606	1009
457.979	1006.06
458.352	1044.93
458.725	1043.8
459.099	1016.46
459.472	1034.99
459.845	1060.3
460.218	1064.14
460.591	1077.7
460.964	1098.49
461.337	1108.21
461.71	1126.74
462.083	1149.79
462.456	1161.54
462.829	1156.11
463.201	1142.33
463.574	1152.27
463.947	1197.69
464.32	1188.88
464.692	1229.33
465.065	1243.34
465.438	1221.2
465.81	1262.78
466.183	1282.44
466.555	1301.42
466.928	1308.2
467.3	1310.46
467.672	1357.46
468.045	1336.9
468.417	1347.75
468.789	1380.74
469.161	1396.11
469.534	1442.21
469.906	1444.02
470.278	1441.76
470.65	1473.17
471.022	1492.6
471.394	1549.32
471.766	1561.98
472.138	1594.29
472.51	1613.73
472.882	1630.23
473.253	1672.48
473.625	1693.05
473.997	1705.48
474.369	1744.12
474.74	1757.68
475.112	1788.87
475.484	1853.72
475.855	1852.37
476.227	1883.78
476.598	1966.94
476.97	1984.57
477.341	2020.95
477.713	2060.27
478.084	2087.39
478.455	2170.55
478.827	2206.93
479.198	2269.76
479.569	2293.94
479.94	2344.78
480.311	2395.63
480.682	2457.32
481.053	2496.42
481.424	2571.9
481.795	2620.03
482.166	2654.83
482.537	2770.08
482.908	2828.61
483.279	2829.74
483.65	2934.15
484.021	2991.55
484.391	3079
484.762	3161.48
485.133	3219.34
485.503	3296.62
485.874	3373
486.244	3423.62
486.615	3472.21
486.985	3543.85
487.356	3629.27
487.726	3714.01
488.097	3766.89
488.467	3871.97
488.837	3947.9
489.207	4040.56
489.578	4126.66
489.948	4199.42
490.318	4278.74
490.688	4323.04
491.058	4420.21
491.428	4505.86
491.798	4575.91
492.168	4641.22
492.538	4718.05
492.908	4806.87
493.278	4924.83
493.648	4981.55
494.017	5073.07
494.387	5152.17
494.757	5179.06
495.126	5304.48
495.496	5304.93
495.866	5414.31
496.235	5463.35
496.605	5544.02
496.974	5587.18
497.344	5717.35
497.713	5750.8
498.082	5830.79
498.452	5943.56
498.821	6011.13
499.19	6031.92
499.559	6097.45
499.928	6153.5
500.298	6202.08
500.667	6264.68
501.036	6306.03
501.405	6424.68
501.774	6461.51
502.143	6482.3
502.512	6574.95
502.88	6668.06
503.249	6648.62
503.618	6720.04
503.987	6777.66
504.356	6839.58
504.724	6880.03
505.093	6947.15
505.462	6967.71
505.83	7101.27
506.199	7071.66
506.567	7198.44
506.936	7224.43
507.304	7312.11
507.672	7315.05
508.041	7391.66
508.409	7403.63
508.777	7526.79
509.145	7624.19
509.514	7591.65
509.882	7677.98
510.25	7705.32
510.618	7741.7
510.986	7781.25
511.354	7883.85
511.722	7951.19
512.09	8032.77
512.458	8015.59
512.826	7995.93
513.193	8066.89
513.561	8120.9
513.929	8253.78
514.297	8329.26
514.664	8287.23
515.032	8339.2
515.4	8417.62
515.767	8456.49
516.135	8456.94
516.502	8454.9
516.869	8632.53
517.237	8635.69
517.604	8564.96
517.972	8728.8
518.339	8706.65
518.706	8759.3
519.073	8825.06
519.44	8798.62
519.808	8942.12
520.175	8912.29
520.542	9031.61
520.909	9040.43
521.276	9051.95
521.643	9107.32
522.009	9179.41
522.376	9224.15
522.743	9246.07
523.11	9348.21
523.477	9447.87
523.843	9516.12
524.21	9586.17
524.577	9648.55
524.943	9710.92
525.31	9733.97
525.676	9819.84
526.043	9855.77
526.409	9876.56
526.776	10020.74
527.142	9988.65
527.508	10059.38
527.874	10071.59
528.241	10220.96
528.607	10161.98
528.973	10227.97
529.339	10283.78
529.705	10399.71
530.071	10479.26
530.437	10511.12
530.803	10578.01
531.169	10610.33
531.535	10650.78
531.901	10716.99
532.267	10737.33
532.632	10845.12
532.998	10828.4
533.364	10855.07
533.73	10935.97
534.095	10994.05
534.461	10999.47
534.826	11114.27
535.192	11116.76
535.557	11288.28
535.923	11235.85
536.288	11242.85
536.653	11335.51
537.019	11218.9
537.384	11367.14
537.749	11410.08
538.114	11408.73
538.479	11501.38
538.845	11595.16
539.21	11584.99
539.575	11655.95
539.94	11685.55
540.305	11752.22
540.67	11733.69
541.034	11819.79
541.399	11801.71
541.764	11874.7
542.129	11946.79
542.494	12012.78
542.858	12044.87
543.223	12023.17
543.587	12150.4
543.952	12095.26
544.316	12237.63
544.681	12207.12
545.045	12346.33
545.41	12346.1
545.774	12370.51
546.138	12452.77
546.503	12524.63
546.867	12509.94
547.231	12531.86
547.595	12648.92
547.959	12702.25
548.324	12759.2
548.688	12744.74
549.052	12770.05
549.416	12892.3
549.779	12820.67
550.143	12996.93
550.507	12941.79
550.871	13054.56
551.235	13061.56
551.599	13074.44
551.962	13084.84
552.326	13106.99
552.689	13160.32
553.053	13254.78
553.417	13210.26
553.78	13448.67
554.143	13419.29
554.507	13478.28
554.87	13505.62
555.234	13620.19
555.597	13563.7
555.96	13595.56
556.323	13695.22
556.686	13650.93
557.05	13768.44
557.413	13733.41
557.776	13730.92
558.139	13908.09
558.502	13942.22
558.865	13934.08
559.228	14014.76
559.59	14033.06
559.953	14045.04
560.316	14224.7
560.679	14219.05
561.041	14253.4
561.404	14423.56
561.767	14431.47
562.129	14327.52
562.492	14592.37
562.854	14530.45
563.217	14571.81
563.579	14592.37
563.941	14640.73
564.304	14642.99
564.666	14811.12
565.028	14839.37
565.39	14918.92
565.753	14977.9
566.115	14965.24
566.477	15055.18
566.839	15049.53
567.201	15141.51
567.563	15263.54
567.925	15351.45
568.287	15327.94
568.648	15408.85
569.01	15483.19
569.372	15560.48
569.734	15592.12
570.095	15654.94
570.457	15750.08
570.819	15790.53
571.18	15726.58
571.542	15845.22
571.903	15894.94
572.265	15972
572.626	16113.69
572.987	16117.98
573.349	16202.5
573.71	16314.81
574.071	16418.09
574.432	16480.46
574.794	16647.68
575.155	16717.51
575.516	16645.2
575.877	16795.25
576.238	16842.03
576.599	17083.83
576.96	17015.13
577.32	17166.09
577.681	17365.4
578.042	17504.38
578.403	17551.16
578.763	17686.98
579.124	17801.1
579.485	17965.16
579.845	18099.62
580.206	18106.4
580.566	18348.2
580.927	18600.17
581.287	18747.74
581.648	18834.07
582.008	19078.58
582.368	19143.21
582.728	19374.39
583.089	19544.33
583.449	19771.22
583.809	19978.22
584.169	20112.9
584.529	20309.51
584.889	20645.77
585.249	20713.79
585.609	20927.57
585.969	21336.37
586.329	21433.32
586.688	21565.07
587.048	21833.99
587.408	22126.64
587.768	22341.77
588.127	22453.63
588.487	22702.21
588.846	23125.71
589.206	23231.24
589.565	23415.19
589.925	23904.44
590.284	24073.7
590.643	24309.86
591.003	24593.24
591.362	24884.3
591.721	25138.08
592.08	25457.17
592.44	25746.88
592.799	25983.26
593.158	26235.68
593.517	26540.3
593.876	26804.48
594.235	27041.31
594.593	27262.55
594.952	27580.96
595.311	27931.23
595.67	28065.69
596.029	28554.49
596.387	28799.23
596.746	29091.2
597.104	29154.02
597.463	29431.08
597.822	29775.25
598.18	29885.98
598.538	30293.88
598.897	30663.81
599.255	30503.14
599.613	31346.51
599.972	31314.87
600.33	31657.01
600.688	31744.46
601.046	32117.56
601.404	32482.75
601.762	32550.32
602.12	32856.07
602.478	33166.8
602.836	33292.9
603.194	33402.72
603.552	33553.68
603.91	33726.33
604.268	34144.17
604.625	34172.42
604.983	34550.94
605.341	34668.68
605.698	34960.87
606.056	35283.58
606.413	35318.61
606.771	35667.07
607.128	35806.5
607.485	35848.76
607.843	36088.98
608.2	36524.45
608.557	36550.89
608.914	36756.31
609.272	37028.39
609.629	37364.2
609.986	37692.78
610.343	37584.99
610.7	37862.27
611.057	37922.6
611.414	38028.59
611.771	38192.65
612.127	38608.24
612.484	38556.94
612.841	38885.29
613.198	38925.52
613.554	38829.25
613.911	39337.93
614.267	39365.05
614.624	39476.01
614.98	39566.18
615.337	39864.02
615.693	39894.08
616.05	39941.53
616.406	40254.29
616.762	40231.24
617.118	40263.56
617.475	40508.3
617.831	40634.17
618.187	40805.24
618.543	40878.23
618.899	41087.72
619.255	41062.41
619.611	41133.14
619.967	41342.4
620.323	41616.29
620.678	41464.21
621.034	41623.52
621.39	41613.81
621.746	41596.18
622.101	42210.85
622.457	41903.29
622.812	42005.89
623.168	42122.04
623.523	42205.2
623.879	42398.87
624.234	42096.51
624.589	42457.4
624.945	42448.14
625.3	42522.48
625.655	42576.95
626.01	42530.39
626.365	42615.81
626.72	42693.1
627.075	42783.27
627.43	42711.86
627.785	42611.75
628.14	42936.26
628.495	42923.6
628.85	42848.8
629.205	42878.41
629.559	43052.19
629.914	42882.47
630.269	42990.95
630.623	42996.37
630.978	42938.97
631.332	43021.91
631.687	43244.95
632.041	43026.2
632.396	43126.31
632.75	42907.56
633.104	43152.75
633.459	42916.82
633.813	42969.03
634.167	42987.33
634.521	42957.73
634.875	43135.57
635.229	43009.02
635.583	42957.27
635.937	42962.92
636.291	43027.1
636.645	42973.77
636.999	42858.75
637.352	43005.86
637.706	42875.69
638.06	43061.23
638.413	43019.42
638.767	42875.47
639.121	42898.74
639.474	42660.79
639.828	42804.96
640.181	42859.65
640.534	42856.26
640.888	42697.85
641.241	42642.48
641.594	42678.41
641.947	42715.92
642.301	42733.33
642.654	42763.16
643.007	42642.71
643.36	42571.3
643.713	42624.63
644.066	42676.15
644.419	42529.04
644.771	42264.19
645.124	41849.51
645.477	41844.08
645.83	41700.36
646.182	41427.37
646.535	41527.03
646.888	41530.19
647.24	41275.28
647.593	41449.07
647.945	41434.83
648.298	41296.08
648.65	41211.33
649.002	41129.75
649.355	41310.54
649.707	41226.7
650.059	41459.01
650.411	41895.83
650.763	41885.66
651.115	42342.83
651.467	42096.05
651.819	42210.63
652.171	41986.68
652.523	42063.51
652.875	42004.53
653.227	41814.03
653.578	42191.42
653.93	42136.96
654.282	41875.49
654.633	41673.92
654.985	41950.52
655.337	41953.23
655.688	41919.56
656.039	42039.78
656.391	41696.29
656.742	41816.06
657.094	41874.82
657.445	41968.83
657.796	41898.09
658.147	41787.14
658.498	41834.14
658.849	41836.17
659.2	42025.32
659.551	41690.42
659.902	41882.05
660.253	41749.62
660.604	41838.66
660.955	41683.18
661.306	41852.22
661.656	41648.38
662.007	41639.79
662.358	41571.1
662.708	41735.39
663.059	41699.91
663.409	41458.78
663.76	41723.63
664.11	41541.49
664.461	41744.65
664.811	41821.49
665.161	41584.66
665.511	41625.11
665.862	41614.94
666.212	41661.94
666.562	41692.67
666.912	41498.78
667.262	41402.97
667.612	41512.11
667.962	41586.91
668.312	41466.69
668.662	41586.46
669.011	41412.91
669.361	41520.48
669.711	41562.51
670.06	41488.39
670.41	41352.57
670.76	41309.41
671.109	41564.99
671.459	41296.75
671.808	41398.22
672.157	41363.42
672.507	41113.03
672.856	41257.21
673.205	41293.36
673.554	41404.77
673.904	41242.97
674.253	41453.36
674.602	41299.46
674.951	40664.91
675.3	40525.93
675.649	41158.9
675.998	41170.65
676.346	41170.43
676.695	41320.71
677.044	41036.42
677.393	41042.75
677.741	41114.61
678.09	40952.58
678.438	41012.01
678.787	40903.77
679.135	40950.32
679.484	40788.97
679.832	40899.02
680.181	40564.79
680.529	40738.58
680.877	40599.82
681.225	40543.55
681.573	40860.38
681.922	40565.02
682.27	40426.27
682.618	40594.85
682.966	40385.59
683.314	40450.22
683.661	40376.55
684.009	40256.78
684.357	40254.97
684.705	39997.8
685.053	40091.59
685.4	40013.17
685.748	39904.93
686.095	39977.01
686.443	39806.85
686.79	39668.32
687.138	39829.9
687.485	39652.73
687.832	39605.5
688.18	39626.06
688.527	39417.03
688.874	39318.5
689.221	39302.46
689.568	39182.46
689.915	39179.07
690.262	39085.06
690.609	38928
690.956	38878.74
691.303	38832.64
691.65	38652.3
691.997	38745.41
692.344	38561.46
692.69	38359.66
693.037	38495.47
693.383	38035.6
693.73	38229.49
694.077	38035.14
694.423	38091.64
694.769	37890.06
695.116	37747.92
695.462	37830.63
695.808	37761.93
696.155	37810.97
696.501	37472.67
696.847	37644.87
697.193	37210.98
697.539	37446.23
697.885	37083.08
698.231	37088.5
698.577	37116.3
698.923	36931.9
699.269	36761.28
699.614	36657.78
699.96	36553.83
700.306	36546.82
700.651	36418.69
700.997	36291.46
701.342	36238.36
701.688	36227.28
702.033	36071.13
702.379	35951.36
702.724	35910.91
703.069	35986.38
703.415	35640.63
703.76	35602.21
704.105	35583.91
704.45	35609.67
704.795	35323.35
705.14	35227.08
705.485	35151.83
705.83	35080.87
706.175	35127.88
706.52	35162.9
706.865	34764.5
707.209	34813.99
707.554	34796.36
707.899	34669.81
708.243	34575.57
708.588	34522.92
708.932	34315.02
709.277	34324.51
709.621	34365.18
709.966	34154.34
710.31	34152.53
710.654	33860.34
710.998	33952.54
711.342	33972.2
711.687	33878.87
712.031	33764.52
712.375	33552.78
712.719	33663.73
713.063	33560.91
713.407	33691.76
713.75	33525.43
714.094	33467.58
714.438	33281.6
714.782	33410.18
715.125	33256.29
715.469	33341.48
715.812	33117.76
716.156	32898.33
716.499	32917.76
716.843	32997.99
717.186	32767.71
717.53	32917.09
717.873	32866.92
718.216	32760.48
718.559	32496.31
718.902	32465.8
719.246	32478.91
719.589	32302.64
719.932	32308.51
720.275	32471.22
720.617	32179.03
720.96	32101.29
721.303	32107.84
721.646	32130.67
721.989	32032.59
722.331	32028.75
722.674	32045.7
723.016	32021.74
723.359	31911.24
723.701	31875.98
724.044	31620.4
724.386	31478.71
724.729	31717.34
725.071	31594.18
725.413	31646.84
725.755	31618.36
726.097	31370.23
726.439	31229
726.782	31330.91
727.124	31382.66
727.465	31245.94
727.807	31113.52
728.149	31146.29
728.491	31002.11
728.833	31175.44
729.175	30926.4
729.516	30987.87
729.858	30820.19
730.199	30923.24
730.541	30709.46
730.882	30684.15
731.224	30816.8
731.565	30586.07
731.906	30671.5
732.248	30695.45
732.589	30477.15
732.93	30436.93
733.271	30293.65
733.612	30371.62
733.953	30399.64
734.294	30357.83
734.635	30343.59
734.976	30340.88
735.317	30301.79
735.658	30180.66
735.999	30188.57
736.339	30004.39
736.68	30168.68
737.021	30142.02
737.361	29896.83
737.702	30012.53
738.042	29969.59
738.383	29877.84
738.723	29958.97
739.063	29631.07
739.404	29823.16
739.744	29721.24
740.084	29619.32
740.424	29664.52
740.764	29666.78
741.104	29747.9
741.444	29635.82
741.784	29446.22
742.124	29566.89
742.464	29436.73
742.804	29364.41
743.143	29273.34
743.483	29325.99
743.823	29172.78
744.162	29211.42
744.502	29080.58
744.841	29088.26
745.181	29126
745.52	29016.62
745.86	29058.88
746.199	28978.21
746.538	28912.45
746.877	29035.83
747.216	29029.96
747.556	28812.56
747.895	28895.72
748.234	28741.38
748.573	28680.36
748.911	28777.99
749.25	28639.01
749.589	28545.22
749.928	28545.22
750.267	28537.77
750.605	28392.91
750.944	28518.78
751.283	28367.38
751.621	28383.65
751.96	28185.23
752.298	28178.91
752.636	28233.59
752.975	28238.34
753.313	27959.25
753.651	28132.35
753.989	27907.05
754.327	27813.27
754.666	27775.53
755.004	27792.93
755.342	27779.82
755.679	27730.78
756.017	27584.35
756.355	27777.79
756.693	27473.61
757.031	27598.58
757.368	27442.65
757.706	27366.72
758.044	27364.01
