Data from hue_280_FLMS001491_00062.txt Node
Date: Tue Feb 07 15:55:35 GMT 2017
User: dcchb
Spectrometer: FLMS00149
Trigger mode: 0
Integration Time (sec): 2.000000E-2
Scans to average: 10
Electric dark correction enabled: true
Nonlinearity correction enabled: false
Boxcar width: 0
XAxis mode: Wavelengths
Number of Pixels in Spectrum: 2048
>>>>>Begin Spectral Data<<<<<
341.393	-4.28
341.776	-4.28
342.16	-4.28
342.543	-65.97
342.927	-62.36
343.31	-87.22
343.693	-93.99
344.077	-69.36
344.46	-59.65
344.843	-55.8
345.226	-50.38
345.61	-7.67
345.993	-22.58
346.376	18.77
346.759	28.26
347.142	35.72
347.525	42.5
347.908	63.52
348.291	67.81
348.674	76.4
349.057	113.68
349.44	107.58
349.823	151.87
350.206	170.41
350.588	175.6
350.971	224.42
351.354	206.56
351.737	244.75
352.119	247.24
352.502	280.01
352.884	262.15
353.267	280.91
353.65	288.82
354.032	273.91
354.414	305.77
354.797	307.8
355.179	301.25
355.562	307.35
355.944	330.17
356.326	312.32
356.709	334.47
357.091	310.97
357.473	342.15
357.855	330.85
358.238	342.6
358.62	340.12
359.002	310.74
359.384	336.95
359.766	330.85
360.148	335.82
360.53	323.85
360.912	301.25
361.294	321.14
361.676	316.16
362.057	314.81
362.439	340.8
362.821	328.14
363.203	327.24
363.584	296.28
363.966	299.44
364.348	314.81
364.729	318.88
365.111	321.36
365.493	324.3
365.874	320.46
366.256	318.65
366.637	310.06
367.019	302.61
367.4	307.58
367.781	320.23
368.163	316.16
368.544	306.67
368.925	304.64
369.306	303.51
369.688	331.53
370.069	325.43
370.45	304.64
370.831	301.7
371.212	310.29
371.593	294.47
371.974	299.89
372.355	309.84
372.736	305.77
373.117	331.76
373.498	323.4
373.879	291.98
374.26	309.84
374.641	317.75
375.021	288.59
375.402	316.16
375.783	308.03
376.163	341.02
376.544	324.53
376.925	339.89
377.305	333.34
377.686	306.45
378.066	324.98
378.447	320.91
378.827	322.04
379.208	308.25
379.588	318.42
379.968	319.33
380.349	324.07
380.729	326.79
381.109	337.18
381.489	327.01
381.87	329.95
382.25	329.72
382.63	325.2
383.01	340.57
383.39	333.79
383.77	332.66
384.15	360.91
384.53	365.2
384.91	344.19
385.29	331.98
385.67	353.9
386.049	331.3
386.429	340.34
386.809	354.13
387.189	347.8
387.568	344.41
387.948	347.8
388.328	348.48
388.707	350.74
389.087	348.25
389.466	368.14
389.846	369.04
390.225	378.76
390.605	360
390.984	370.17
391.363	392.09
391.743	353.9
392.122	395.26
392.501	362.94
392.881	380.8
393.26	358.65
393.639	384.64
394.018	371.98
394.397	377.63
394.776	374.47
395.155	380.8
395.534	363.17
395.913	386.44
396.292	368.37
396.671	377.18
397.05	391.42
397.429	370.63
397.808	383.51
398.186	391.19
398.565	392.09
398.944	399.1
399.323	399.78
399.701	400.68
400.08	401.59
400.458	419.66
400.837	388.93
401.215	408.36
401.594	405.88
401.972	414.47
402.351	413.34
402.729	411.3
403.107	402.49
403.486	428.7
403.864	419.44
404.242	408.82
404.62	434.58
404.999	443.84
405.377	434.35
405.755	436.61
406.133	443.39
406.511	449.49
406.889	448.59
407.267	447.69
407.645	458.76
408.023	469.61
408.401	437.29
408.779	473.67
409.156	449.27
409.534	485.88
409.912	506.89
410.29	484.75
410.667	490.4
411.045	511.64
411.422	520.9
411.8	510.74
412.178	517.06
412.555	531.98
412.933	501.7
413.31	547.8
413.687	519.1
414.065	543.05
414.442	564.52
414.819	585.08
415.197	575.14
415.574	592.31
415.951	568.81
416.328	598.64
416.705	585.31
417.082	610.17
417.46	617.4
417.837	617.17
418.214	600.9
418.591	609.04
418.967	615.59
419.344	626.66
419.721	658.08
420.098	656.72
420.475	674.35
420.852	642.94
421.228	694.69
421.605	685.65
421.982	707.57
422.358	695.36
422.735	704.18
423.111	725.87
423.488	736.27
423.864	731.97
424.241	766.1
424.617	762.03
424.994	750.95
425.37	750.5
425.746	769.94
426.123	807
426.499	784.4
426.875	797.06
427.251	814.23
427.627	843.83
428.003	838.18
428.379	872.31
428.756	849.94
429.132	837.73
429.507	876.83
429.883	860.1
430.259	886.32
430.635	899.2
431.011	932.42
431.387	921.8
431.763	924.06
432.138	959.76
432.514	945.98
432.89	972.19
433.265	1014.22
433.641	988.24
434.016	1019.87
434.392	1032.3
434.767	1057.61
435.143	1030.5
435.518	1064.39
435.894	1074.56
436.269	1068.91
436.644	1086.31
437.02	1111.17
437.395	1130.83
437.77	1124.05
438.145	1142.36
438.52	1153.2
438.895	1158.18
439.271	1185.97
439.646	1213.77
440.021	1221.22
440.395	1213.77
440.77	1220.55
441.145	1237.27
441.52	1242.69
441.895	1272.98
442.27	1277.49
442.645	1239.3
443.019	1253.99
443.394	1282.92
443.769	1302.58
444.143	1283.37
444.518	1319.3
444.892	1313.2
445.267	1336.93
445.641	1340.54
446.016	1345.29
446.39	1341
446.764	1335.35
447.139	1319.98
447.513	1367.89
447.887	1347.78
448.262	1375.12
448.636	1388.23
449.01	1399.3
449.384	1379.19
449.758	1416.47
450.132	1417.83
450.506	1392.97
450.88	1412.18
451.254	1412.41
451.628	1447.66
452.002	1462.12
452.376	1425.51
452.75	1466.42
453.123	1448.79
453.497	1510.26
453.871	1496.02
454.244	1520.43
454.618	1549.8
454.992	1555
455.365	1535.34
455.739	1568.11
456.112	1617.82
456.486	1599.52
456.859	1587.32
457.232	1615.79
457.606	1643.81
457.979	1644.94
458.352	1679.52
458.725	1682
459.099	1680.65
459.472	1688.56
459.845	1752.74
460.218	1749.35
460.591	1750.93
460.964	1751.61
461.337	1780.98
461.71	1785.5
462.083	1830.25
462.456	1816.24
462.829	1837.03
463.201	1840.64
463.574	1815.56
463.947	1892.17
464.32	1901.89
464.692	1922.68
465.065	1924.71
465.438	1931.04
465.81	1955.67
466.183	1970.36
466.555	2008.55
466.928	2053.97
467.3	2038.83
467.672	2004.93
468.045	2082.45
468.417	2084.93
468.789	2093.52
469.161	2118.6
469.534	2127.87
469.906	2170.13
470.278	2175.32
470.65	2187.08
471.022	2241.31
471.394	2281.08
471.766	2274.98
472.138	2314.53
472.51	2345.49
472.882	2326.73
473.253	2406.28
473.625	2365.38
473.997	2443.79
474.369	2435.66
474.74	2422.78
475.112	2510.91
475.484	2520.85
475.855	2556.78
476.227	2540.96
476.598	2647.18
476.97	2648.53
477.341	2657.57
477.713	2699.15
478.084	2665.03
478.455	2780.28
478.827	2805.36
479.198	2825.48
479.569	2833.84
479.94	2878.36
480.311	2901.63
480.682	2951.57
481.053	3028.41
481.424	3047.17
481.795	3094.62
482.166	3109.54
482.537	3131.23
482.908	3154.73
483.279	3215.97
483.65	3253.04
484.021	3281.51
484.391	3301.85
484.762	3299.14
485.133	3352.24
485.503	3368.97
485.874	3459.81
486.244	3445.12
486.615	3546.81
486.985	3541.16
487.356	3608.05
487.726	3580.71
488.097	3654.38
488.467	3696.41
488.837	3732.12
489.207	3798.33
489.578	3787.03
489.948	3793.13
490.318	3858.67
490.688	3876.52
491.058	3952.45
491.428	3963.53
491.798	3977.54
492.168	4004.2
492.538	4041.04
492.908	4092.11
493.278	4079.68
493.648	4128.49
494.017	4149.28
494.387	4194.48
494.757	4212.11
495.126	4253.91
495.496	4254.14
495.866	4273.35
496.235	4331.43
496.605	4365.78
496.974	4359.22
497.344	4374.81
497.713	4413.23
498.082	4409.84
498.452	4447.13
498.821	4433.8
499.19	4443.97
499.559	4507.92
499.928	4474.25
500.298	4490.07
500.667	4563.28
501.036	4547.01
501.405	4559.89
501.774	4564.64
502.143	4603.96
502.512	4654.81
502.88	4655.26
503.249	4656.84
503.618	4677.86
503.987	4659.55
504.356	4721.47
504.724	4709.49
505.093	4761.47
505.462	4738.87
505.83	4764.18
506.199	4804.86
506.567	4780
506.936	4824.97
507.304	4873.78
507.672	4895.48
508.041	4891.86
508.409	4911.98
508.777	4949.71
509.145	5007.34
509.514	4936.16
509.882	4964.4
510.25	4984.74
510.618	5012.31
510.986	4969.6
511.354	5032.2
511.722	4976.15
512.09	5051.86
512.458	5048.02
512.826	5068.81
513.193	5130.05
513.561	5103.38
513.929	5109.03
514.297	5151.07
514.664	5160.1
515.032	5195.58
515.4	5196.94
515.767	5256.15
516.135	5231.97
516.502	5191.97
516.869	5250.95
517.237	5221.35
517.604	5194.68
517.972	5228.58
518.339	5289.82
518.706	5254.79
519.073	5299.08
519.44	5316.48
519.808	5355.35
520.175	5353.09
520.542	5389.7
520.909	5422.24
521.276	5368.46
521.643	5430.61
522.009	5470.6
522.376	5446.42
522.743	5455.92
523.11	5464.05
523.477	5528.68
523.843	5520.09
524.21	5610.94
524.577	5625.18
524.943	5619.08
525.31	5612.75
525.676	5722.8
526.043	5644.84
526.409	5675.12
526.776	5720.99
527.142	5747.66
527.508	5768.9
527.874	5796.7
528.241	5798.96
528.607	5814.55
528.973	5812.29
529.339	5884.61
529.705	5885.28
530.071	5948.78
530.437	5946.3
530.803	5925.28
531.169	5915.56
531.535	5919.86
531.901	5932.06
532.267	5998.5
532.632	6039.4
532.998	6025.17
533.364	6056.35
533.73	6001.21
534.095	6108.78
534.461	6067.2
534.826	6125.95
535.192	6079.63
535.557	6109.46
535.923	6145.62
536.288	6143.81
536.653	6193.75
537.019	6108.55
537.384	6189
537.749	6147.88
538.114	6213.64
538.479	6240.53
538.845	6224.26
539.21	6219.29
539.575	6212.96
539.94	6263.35
540.305	6260.87
540.67	6294.76
541.034	6315.78
541.399	6321.66
541.764	6311.49
542.129	6359.62
542.494	6357.81
542.858	6400.3
543.223	6401.43
543.587	6487.3
543.952	6408.21
544.316	6448.66
544.681	6392.39
545.045	6397.59
545.41	6455.44
545.774	6412.73
546.138	6467.87
546.503	6474.42
546.867	6470.8
547.231	6550.58
547.595	6494.76
547.959	6581.76
548.324	6566.62
548.688	6530.01
549.052	6614.08
549.416	6588.99
549.779	6494.31
550.143	6560.75
550.507	6638.03
550.871	6579.95
551.235	6609.33
551.599	6676.22
551.962	6631.48
552.326	6618.37
552.689	6672.83
553.053	6597.58
553.417	6656.56
553.78	6718.03
554.143	6690.23
554.507	6761.42
554.87	6739.5
555.234	6774.98
555.597	6752.38
555.96	6834.41
556.323	6869.21
556.686	6805.26
557.05	6838.93
557.413	6852.49
557.776	6847.29
558.139	6836.9
558.502	6894.52
558.865	6892.26
559.228	6894.07
559.59	6924.35
559.953	6982.43
560.316	6986.05
560.679	6997.12
561.041	7017.23
561.404	7038.25
561.767	7108.53
562.129	7028.98
562.492	7126.15
562.854	7120.05
563.217	7156.66
563.579	7149.2
563.941	7158.7
564.304	7190.11
564.666	7253.16
565.028	7253.61
565.39	7297
565.753	7311.91
566.115	7327.51
566.477	7360.72
566.839	7431.01
567.201	7354.17
567.563	7443.43
567.925	7501.51
568.287	7398.46
568.648	7495.86
569.01	7453.38
569.372	7567.5
569.734	7530.89
570.095	7608.4
570.457	7640.27
570.819	7681.39
571.18	7587.84
571.542	7695.63
571.903	7734.73
572.265	7728.62
572.626	7806.36
572.987	7777.89
573.349	7900.15
573.71	7888.62
574.071	7920.94
574.432	7881.84
574.794	7921.84
575.155	7950.99
575.516	7943.76
575.877	8027.83
576.238	8064.43
576.599	8105.56
576.96	8106.69
577.32	8127.71
577.681	8184.88
578.042	8190.08
578.403	8226.69
578.763	8282.28
579.124	8348.5
579.485	8405.89
579.845	8420.58
580.206	8437.08
580.566	8506.01
580.927	8484.54
581.287	8594.36
581.648	8553.46
582.008	8681.14
582.368	8695.15
582.728	8759.78
583.089	8684.31
583.449	8800.69
583.809	8894.47
584.169	8916.39
584.529	8979.21
584.889	9051.3
585.249	9065.09
585.609	9125.42
585.969	9348.69
586.329	9255.36
586.688	9356.38
587.048	9404.74
587.408	9414.68
587.768	9449.71
588.127	9533.32
588.487	9524.96
588.846	9714.33
589.206	9682.92
589.565	9851.05
589.925	9826.65
590.284	9911.62
590.643	10017.15
591.003	9988
591.362	10111.61
591.721	10137.6
592.08	10273.87
592.44	10322
592.799	10395.67
593.158	10412.4
593.517	10494.88
593.876	10540.3
594.235	10583.24
594.593	10629.34
594.952	10690.81
595.311	10681.54
595.67	10868.65
596.029	10967.18
596.387	10952.04
596.746	11066.62
597.104	11051.47
597.463	11127.63
597.822	11201.3
598.18	11258.48
598.538	11270.9
598.897	11338.47
599.255	11368.53
599.613	11552.48
599.972	11527.62
600.33	11551.12
600.688	11610.1
601.046	11760.38
601.404	11754.96
601.762	11768.74
602.12	11827.05
602.478	11948.4
602.836	12027.27
603.194	11933.49
603.552	12031.11
603.91	12031.56
604.268	12084.44
604.625	12111.33
604.983	12216.87
605.341	12200.15
605.698	12272.23
606.056	12377.09
606.413	12282.18
606.771	12379.58
607.128	12335.73
607.485	12432.23
607.843	12412.57
608.2	12562.4
608.557	12610.53
608.914	12533.47
609.272	12599.46
609.629	12659.12
609.986	12691.43
610.343	12721.94
610.7	12806.46
611.057	12872.67
611.414	12796.06
611.771	12836.96
612.127	12932.56
612.484	12831.54
612.841	12951.09
613.198	12922.16
613.554	12967.81
613.911	13036.73
614.267	13015.49
614.624	12996.06
614.98	13048.94
615.337	13173.45
615.693	13193.79
616.05	13148.82
616.406	13216.16
616.762	13159.67
617.118	13260.68
617.475	13249.16
617.831	13342.26
618.187	13312.21
618.543	13301.36
618.899	13470.39
619.255	13436.5
619.611	13383.84
619.967	13438.53
620.323	13523.95
620.678	13461.58
621.034	13408.48
621.39	13445.76
621.746	13476.04
622.101	13613.44
622.457	13501.35
622.812	13517.85
623.168	13553.78
623.523	13616.15
623.879	13675.13
624.234	13595.36
624.589	13607.57
624.945	13584.06
625.3	13730.73
625.655	13641.24
626.01	13679.2
626.365	13645.98
626.72	13648.24
627.075	13628.58
627.43	13665.87
627.785	13602.14
628.14	13647.34
628.495	13730.27
628.85	13597.17
629.205	13636.72
629.559	13719.88
629.914	13638.75
630.269	13661.12
630.623	13579.54
630.978	13652.99
631.332	13643.95
631.687	13620.9
632.041	13563.5
632.396	13607.34
632.75	13578.64
633.104	13561.01
633.459	13464.29
633.813	13438.98
634.167	13537.96
634.521	13537.96
634.875	13517.85
635.229	13555.36
635.583	13468.13
635.937	13448.47
636.291	13465.2
636.645	13498.87
636.999	13418.64
637.352	13499.77
637.706	13340.68
638.06	13460.9
638.413	13457.06
638.767	13391.53
639.121	13351.53
639.474	13377.97
639.828	13350.17
640.181	13318.99
640.534	13318.76
640.888	13375.71
641.241	13286.67
641.594	13302.26
641.947	13356.95
642.301	13279.21
642.654	13321.02
643.007	13435.37
643.36	13245.99
643.713	13222.49
644.066	13296.16
644.419	13254.35
644.771	13210.97
645.124	13011.88
645.477	13035.6
645.83	12982.95
646.182	12867.25
646.535	12906.12
646.888	12930.75
647.24	12843.07
647.593	12969.84
647.945	12868.83
648.298	12857.08
648.65	12825.21
649.002	12850.98
649.355	12818.89
649.707	12836.96
650.059	12906.57
650.411	13076.96
650.763	13111.31
651.115	13243.73
651.467	13205.54
651.819	13149.95
652.171	13170.52
652.523	13120.8
652.875	13093.91
653.227	13025.21
653.578	13167.35
653.93	13153.57
654.282	13130.74
654.633	12986.57
654.985	13140.69
655.337	13094.36
655.688	13145.43
656.039	13257.07
656.391	13094.36
656.742	13090.52
657.094	13214.36
657.445	13209.16
657.796	13217.75
658.147	13167.58
658.498	13243.51
658.849	13202.38
659.2	13203.06
659.551	13237.41
659.902	13308.14
660.253	13079.22
660.604	13275.15
660.955	13185.88
661.306	13235.37
661.656	13248.93
662.007	13245.09
662.358	13218.2
662.708	13244.64
663.059	13219.78
663.409	13201.25
663.76	13353.11
664.11	13287.8
664.461	13269.04
664.811	13260.91
665.161	13292.32
665.511	13244.19
665.862	13286.22
666.212	13261.59
666.562	13304.98
666.912	13210.74
667.262	13275.37
667.612	13252.1
667.962	13295.48
668.312	13293
668.662	13378.87
669.011	13270.4
669.361	13168.48
669.711	13283.73
670.06	13223.62
670.41	13234.69
670.76	13221.81
671.109	13174.13
671.459	13252.1
671.808	13202.15
672.157	13293.22
672.507	13162.61
672.856	13193.79
673.205	13219.1
673.554	13237.18
673.904	13149.5
674.253	13293.45
674.602	13228.59
674.951	13052.55
675.3	12920.8
675.649	13198.09
675.998	13039.22
676.346	13118.09
676.695	13124.87
677.044	13053
677.393	13067.47
677.741	13092.33
678.09	13094.59
678.438	13014.36
678.787	12983.4
679.135	13065.21
679.484	13014.14
679.832	12873.57
680.181	12850.75
680.529	12897.08
680.877	12863.4
681.225	12862.5
681.573	13013.46
681.922	12819.34
682.27	12776.18
682.618	12755.16
682.966	12878.55
683.314	12846.46
683.661	12760.13
684.009	12736.18
684.357	12662.73
684.705	12691.43
685.053	12667.25
685.4	12563.75
685.748	12660.02
686.095	12549.06
686.443	12590.87
686.79	12524.43
687.138	12556.75
687.485	12594.94
687.832	12437.88
688.18	12406.47
688.527	12371.89
688.874	12359.92
689.221	12227.72
689.568	12302.29
689.915	12272.69
690.262	12220.48
690.609	12193.14
690.956	12178
691.303	12025.01
691.65	12072.92
691.997	12125.12
692.344	12039.02
692.69	11947.04
693.037	11935.97
693.383	11795.64
693.73	11867.5
694.077	11835.18
694.423	11746.15
694.769	11773.72
695.116	11721.29
695.462	11655.98
695.808	11645.58
696.155	11614.4
696.501	11514.51
696.847	11547.96
697.193	11398.58
697.539	11465.48
697.885	11387.74
698.231	11350
698.577	11310.23
698.923	11348.64
699.269	11286.95
699.614	11164.47
699.96	11164.92
700.306	11105.03
700.651	11126.28
700.997	10944.13
701.342	11018.48
701.688	11020.74
702.033	10890.35
702.379	10888.99
702.724	10887.41
703.069	10858.71
703.415	10762.89
703.76	10774.65
704.105	10790.24
704.45	10655.1
704.795	10634.54
705.14	10573.52
705.485	10561.32
705.83	10451.04
706.175	10488.1
706.52	10484.48
706.865	10421.21
707.209	10435.22
707.554	10340.76
707.899	10387.31
708.243	10315.45
708.588	10252.63
708.932	10217.37
709.277	10230.93
709.621	10237.94
709.966	10198.84
710.31	10140.31
710.654	10107.32
710.998	10098.28
711.342	10089.01
711.687	10055.12
712.031	10031.61
712.375	9974.44
712.719	10070.03
713.063	9997.27
713.407	10034.55
713.75	9918.4
714.094	9859.19
714.438	9910.71
714.782	9891.28
715.125	9837.04
715.469	9870.49
715.812	9723.15
716.156	9737.61
716.499	9752.53
716.843	9789.59
717.186	9681.34
717.53	9833.43
717.873	9715.69
718.216	9721.79
718.559	9619.42
718.902	9680.89
719.246	9630.27
719.589	9600.89
719.932	9651.96
720.275	9616.94
720.617	9568.12
720.96	9597.5
721.303	9531.29
721.646	9571.97
721.989	9495.36
722.331	9542.81
722.674	9530.16
723.016	9527.9
723.359	9518.41
723.701	9538.29
724.044	9468.69
724.386	9424.4
724.729	9550.27
725.071	9421.24
725.413	9458.07
725.755	9449.03
726.097	9387.11
726.439	9421.69
726.782	9416.49
727.124	9443.83
727.465	9394.12
727.807	9422.37
728.149	9373.1
728.491	9347.79
728.833	9465.3
729.175	9291.3
729.516	9324.06
729.858	9343.27
730.199	9336.94
730.541	9325.42
730.882	9313.67
731.224	9370.62
731.565	9291.97
731.906	9323.16
732.248	9292.65
732.589	9334.01
732.93	9321.58
733.271	9319.54
733.612	9290.39
733.953	9314.8
734.294	9315.93
734.635	9324.29
734.976	9347.11
735.317	9275.25
735.658	9280
735.999	9300.79
736.339	9329.94
736.68	9430.27
737.021	9345.53
737.361	9289.71
737.702	9379.65
738.042	9326.77
738.383	9328.36
738.723	9404.29
739.063	9380.56
739.404	9408.13
739.744	9401.57
740.084	9385.08
740.424	9371.29
740.764	9432.76
741.104	9481.12
741.444	9374.68
741.784	9400.9
742.124	9553.66
742.464	9466.21
742.804	9512.53
743.143	9547.33
743.483	9548.92
743.823	9537.39
744.162	9562.47
744.502	9558.63
744.841	9624.17
745.181	9634.11
745.52	9711.62
745.86	9718.4
746.199	9738.29
746.538	9796.82
746.877	9823.26
747.216	9900.77
747.556	9914.33
747.895	9986.42
748.234	10006.53
748.573	10019.86
748.911	10098.51
749.25	10113.87
749.589	10219.18
749.928	10278.84
750.267	10353.19
750.605	10386.63
750.944	10465.28
751.283	10505.05
751.621	10710.47
751.96	10750.69
752.298	10781.65
752.636	10923.34
752.975	10919.73
753.313	11020.97
753.651	11200.85
753.989	11229.32
754.327	11434.74
754.666	11432.71
755.004	11585.25
755.342	11740.72
755.679	11883.09
756.017	11886.48
756.355	12126.25
756.693	12140.49
757.031	12340.48
757.368	12441.72
757.706	12476.3
758.044	12592.45
758.381	12787.25
758.719	12916.28
759.056	13163.74
759.394	13102.27
759.731	13310.85
760.068	13408.93
760.405	13483.5
760.743	13660.9
761.08	13815.24
761.417	13986.09
761.754	14130.49
762.091	14211.62
762.428	14303.14
