Data from hue_170_FLMS001491_00055.txt Node
Date: Tue Feb 07 16:48:53 GMT 2017
User: dcchb
Spectrometer: FLMS00149
Trigger mode: 0
Integration Time (sec): 2.000000E-2
Scans to average: 10
Electric dark correction enabled: true
Nonlinearity correction enabled: false
Boxcar width: 0
XAxis mode: Wavelengths
Number of Pixels in Spectrum: 2048
>>>>>Begin Spectral Data<<<<<
341.393	-0.32
341.776	-0.32
342.16	-0.32
342.543	-83.49
342.927	-50.04
343.31	-73.09
343.693	-71.96
344.077	-82.58
344.46	-59.08
344.843	-46.65
345.226	-62.92
345.61	-25.41
345.993	-17.27
346.376	-2.13
346.759	10.52
347.142	28.83
347.525	39
347.908	67.24
348.291	85.55
348.674	93.68
349.057	116.28
349.44	119.45
349.823	144.76
350.206	175.94
350.588	190.63
350.971	217.52
351.354	231.76
351.737	230.86
352.119	265.2
352.502	269.5
352.884	263.17
353.267	280.35
353.65	280.57
354.032	300.46
354.414	302.04
354.797	315.83
355.179	318.08
355.562	322.83
355.944	338.65
356.326	302.27
356.709	333.9
357.091	335.03
357.473	326.67
357.855	331.87
358.238	345.43
358.62	353.11
359.002	328.93
359.384	321.02
359.766	312.66
360.148	330.51
360.53	330.29
360.912	324.86
361.294	341.14
361.676	319.89
362.057	327.58
362.439	313.11
362.821	314.7
363.203	325.09
363.584	333.23
363.966	310.18
364.348	331.19
364.729	325.09
365.111	323.96
365.493	323.73
365.874	332.32
366.256	318.54
366.637	307.92
367.019	299.1
367.4	315.37
367.781	325.54
368.163	309.5
368.544	316.28
368.925	332.1
369.306	327.35
369.688	330.74
370.069	293
370.45	308.37
370.831	305.66
371.212	319.89
371.593	318.08
371.974	316.28
372.355	311.98
372.736	300.91
373.117	331.42
373.498	334.36
373.879	318.54
374.26	309.27
374.641	319.67
375.021	311.08
375.402	302.72
375.783	310.18
376.163	320.57
376.544	329.61
376.925	325.54
377.305	305.88
377.686	335.71
378.066	333.23
378.447	350.63
378.827	314.24
379.208	329.84
379.588	326.67
379.968	338.42
380.349	344.3
380.729	323.96
381.109	326.45
381.489	333.9
381.87	327.58
382.25	335.03
382.63	326.45
383.01	346.56
383.39	351.53
383.77	338.42
384.15	344.52
384.53	354.92
384.91	339.33
385.29	347.69
385.67	360.12
386.049	343.39
386.429	345.43
386.809	344.07
387.189	356.05
387.568	344.3
387.948	354.92
388.328	376.39
388.707	350.4
389.087	357.18
389.466	335.26
389.846	377.97
390.225	366.22
390.605	364.41
390.984	376.39
391.363	362.15
391.743	372.77
392.122	373.22
392.501	374.58
392.881	395.37
393.26	380.23
393.639	373.9
394.018	383.62
394.397	391.08
394.776	373
395.155	363.73
395.534	401.02
395.913	371.42
396.292	396.5
396.671	405.99
397.05	407.12
397.429	387.01
397.808	377.97
398.186	386.56
398.565	424.97
398.944	396.73
399.323	407.12
399.701	397.4
400.08	408.03
400.458	401.92
400.837	421.13
401.215	395.14
401.594	411.19
401.972	407.57
402.351	428.59
402.729	443.96
403.107	412.32
403.486	438.99
403.864	431.75
404.242	436.95
404.62	431.98
404.999	439.89
405.377	444.41
405.755	435.82
406.133	452.54
406.511	433.34
406.889	454.8
407.267	455.93
407.645	474.01
408.023	453
408.401	471.08
408.779	470.4
409.156	459.55
409.534	473.56
409.912	460.45
410.29	482.37
410.667	490.51
411.045	486.22
411.422	497.06
411.8	500
412.178	510.85
412.555	529.6
412.933	511.98
413.31	507.23
413.687	528.7
414.065	534.58
414.442	531.64
414.819	544.97
415.197	528.93
415.574	554.01
415.951	571.41
416.328	565.99
416.705	565.76
417.082	571.86
417.46	572.54
417.837	579.77
418.214	581.81
418.591	585.2
418.967	581.58
419.344	598.08
419.721	603.28
420.098	601.24
420.475	619.55
420.852	625.65
421.228	628.59
421.605	615.7
421.982	663.61
422.358	675.82
422.735	639.21
423.111	669.04
423.488	662.93
423.864	670.62
424.241	696.83
424.617	674.91
424.994	685.31
425.37	686.66
425.746	714.01
426.123	723.72
426.499	729.15
426.875	720.11
427.251	727.79
427.627	755.81
428.003	771.63
428.379	756.04
428.756	773.67
429.132	745.64
429.507	770.95
429.883	792.65
430.259	766.21
430.635	810.28
431.011	804.63
431.387	833.1
431.763	817.51
432.138	845.53
432.514	848.24
432.89	868.13
433.265	879.88
433.641	899.31
434.016	894.79
434.392	909.48
434.767	906.77
435.143	931.4
435.518	944.74
435.894	963.72
436.269	946.99
436.644	963.04
437.02	976.15
437.395	986.99
437.77	995.81
438.145	1012.98
438.52	1016.37
438.895	1051.4
439.271	1062.92
439.646	1044.17
440.021	1093.88
440.395	1072.87
440.77	1093.66
441.145	1117.39
441.52	1095.69
441.895	1121
442.27	1141.79
442.645	1104.5
443.019	1160.1
443.394	1159.87
443.769	1158.97
444.143	1150.38
444.518	1195.8
444.892	1184.05
445.267	1198.51
445.641	1210.72
446.016	1229.7
446.39	1216.59
446.764	1249.81
447.139	1233.54
447.513	1273.99
447.887	1246.87
448.262	1278.74
448.636	1278.29
449.01	1312.41
449.384	1269.25
449.758	1309.25
450.132	1302.92
450.506	1332.52
450.88	1349.02
451.254	1356.7
451.628	1342.92
452.002	1362.58
452.376	1379.3
452.75	1420.88
453.123	1429.92
453.497	1451.16
453.871	1462.24
454.244	1464.5
454.618	1463.14
454.992	1508.11
455.365	1530.71
455.739	1575.68
456.112	1545.62
456.486	1572.06
456.859	1593.08
457.232	1630.82
457.606	1662
457.979	1672.63
458.352	1670.59
458.725	1737.93
459.099	1733.41
459.472	1768.67
459.845	1750.59
460.218	1760.98
460.591	1772.28
460.964	1806.86
461.337	1874.43
461.71	1884.82
462.083	1912.17
462.456	1951.49
462.829	1946.06
463.201	1999.4
463.574	1985.39
463.947	2037.59
464.32	2077.36
464.692	2085.72
465.065	2120.07
465.438	2133.63
465.81	2165.04
466.183	2191.26
466.555	2238.71
466.928	2287.98
467.3	2284.59
467.672	2358.03
468.045	2386.96
468.417	2401.87
468.789	2439.39
469.161	2453.17
469.534	2513.51
469.906	2553.73
470.278	2587.18
470.65	2661.07
471.022	2675.09
471.394	2800.05
471.766	2815.87
472.138	2872.14
472.51	2949.43
472.882	2984.46
473.253	2976.55
473.625	3057.45
473.997	3155.52
474.369	3174.51
474.74	3237.33
475.112	3322.53
475.484	3377.44
475.855	3477.1
476.227	3527.27
476.598	3643.65
476.97	3693.14
477.341	3745.34
477.713	3889.29
478.084	3888.84
478.455	4050.87
478.827	4088.38
479.198	4243.86
479.569	4279.34
479.94	4426.45
480.311	4476.85
480.682	4604.53
481.053	4719.55
481.424	4866.44
481.795	4903.95
482.166	5027.57
482.537	5169.71
482.908	5237.05
483.279	5381.91
483.65	5493.32
484.021	5635.01
484.391	5724.27
484.762	5787.55
485.133	5937.6
485.503	6029.12
485.874	6242
486.244	6330.36
486.615	6474.08
486.985	6587.75
487.356	6752.72
487.726	6898.25
488.097	6994.75
488.467	7075.42
488.837	7263.44
489.207	7433.83
489.578	7536.65
489.948	7701.85
490.318	7843.76
490.688	7901.84
491.058	8125.56
491.428	8174.38
491.798	8293.69
492.168	8474.25
492.538	8556.51
492.908	8716.73
493.278	8872.44
493.648	8909.05
494.017	9122.83
494.387	9220.68
494.757	9315.81
495.126	9460.22
495.496	9504.28
495.866	9562.59
496.235	9774.56
496.605	9840.77
496.974	9921.67
497.344	9974.33
497.713	10114.44
498.082	10195.57
498.452	10337.93
498.821	10365.05
499.19	10455.22
499.559	10592.62
499.928	10731.6
500.298	10718.26
500.667	10915.77
501.036	10896.56
501.405	10945.83
501.774	10993.74
502.143	11194.64
502.512	11133.62
502.88	11346.72
503.249	11346.95
503.618	11430.56
503.987	11458.81
504.356	11485.25
504.724	11605.02
505.093	11659.71
505.462	11699.25
505.83	11835.97
506.199	11975.86
506.567	12026.25
506.936	12126.14
507.304	12113.93
507.672	12112.58
508.041	12184.21
508.409	12253.82
508.777	12385.79
509.145	12401.16
509.514	12414.94
509.882	12507.14
510.25	12443.87
510.618	12569.51
510.986	12614.94
511.354	12651.55
511.722	12756.85
512.09	12832.78
512.458	12830.52
512.826	12880.69
513.193	12927.92
513.561	12922.95
513.929	13046.11
514.297	13134.02
514.664	13138.09
515.032	13113.45
515.4	13234.36
515.767	13218.76
516.135	13317.52
516.502	13159.33
516.869	13308.03
517.237	13329.95
517.604	13399.32
517.972	13435.93
518.339	13491.07
518.706	13545.53
519.073	13467.57
519.44	13465.76
519.808	13576.49
520.175	13551.41
520.542	13682.48
520.909	13682.48
521.276	13710.73
521.643	13758.18
522.009	13816.71
522.376	13894.9
522.743	13908.01
523.11	13946.43
523.477	14080.21
523.843	14028.01
524.21	14114.33
524.577	14041.79
524.943	14171.73
525.31	14168.57
525.676	14226.19
526.043	14208.57
526.409	14227.32
526.776	14355.23
527.142	14250.6
527.508	14362.24
527.874	14388.68
528.241	14321.78
528.607	14343.93
528.973	14429.8
529.339	14375.57
529.705	14434.32
530.071	14443.59
530.437	14541.89
530.803	14493.08
531.169	14439.07
531.535	14484.72
531.901	14454.21
532.267	14424.83
532.632	14484.72
532.998	14483.81
533.364	14459.86
533.73	14385.74
534.095	14503.47
534.461	14462.12
534.826	14394.1
535.192	14417.83
535.557	14436.13
535.923	14342.35
536.288	14307.77
536.653	14410.37
537.019	14244.72
537.384	14266.42
537.749	14256.93
538.114	14154.56
538.479	14177.38
538.845	14190.49
539.21	14101.45
539.575	14044.73
539.94	14112.75
540.305	14122.47
540.67	14025.97
541.034	14002.24
541.399	13982.81
541.764	13983.04
542.129	13878.86
542.494	13895.35
542.858	13905.07
543.223	13795.24
543.587	13808.8
543.952	13718.41
544.316	13712.08
544.681	13654.91
545.045	13670.28
545.41	13696.72
545.774	13661.01
546.138	13503.27
546.503	13614.68
546.867	13463.28
547.231	13487.46
547.595	13415.14
547.959	13378.31
548.324	13485.65
548.688	13329.27
549.052	13251.08
549.416	13312.32
549.779	13189.84
550.143	13139.22
550.507	13219.44
550.871	13191.42
551.235	13088.6
551.599	13153.91
551.962	13146.9
552.326	13070.52
552.689	13046.34
553.053	13031.87
553.417	12977.41
553.78	13062.16
554.143	12941.48
554.507	12957.3
554.87	12899.9
555.234	12948.04
555.597	12804.54
555.96	12847.25
556.323	12859.45
556.686	12797.53
557.05	12818.1
557.413	12743.52
557.776	12796.85
558.139	12827.13
558.502	12819.45
558.865	12790.07
559.228	12832.33
559.59	12752.79
559.953	12771.09
560.316	12869.85
560.679	12745.1
561.041	12801.37
561.404	12782.16
561.767	12768.15
562.129	12719.79
562.492	12805.89
562.854	12757.76
563.217	12719.11
563.579	12795.72
563.941	12769.73
564.304	12840.47
564.666	12889.96
565.028	12830.3
565.39	12724.54
565.753	12895.83
566.115	12969.73
566.477	12860.35
566.839	12881.14
567.201	12936.06
567.563	12812.67
567.925	12905.55
568.287	12882.95
568.648	12887.92
569.01	12943.97
569.372	13091.31
569.734	12862.16
570.095	12957.75
570.457	13012.89
570.819	12994.14
571.18	13024.64
571.542	12941.93
571.903	13085.21
572.265	13077.07
572.626	13122.27
572.987	13055.6
573.349	13098.31
573.71	13064.19
574.071	13154.36
574.432	13078.43
574.794	13311.64
575.155	13247.91
575.516	13097.86
575.877	13168.59
576.238	13116.84
576.599	13123.17
576.96	13169.95
577.32	13109.39
577.681	13125.66
578.042	13209.95
578.403	13142.61
578.763	13188.03
579.124	13162.72
579.485	13232.32
579.845	13232.1
580.206	13152.32
580.566	13178.99
580.927	13130.86
581.287	13274.81
581.648	13196.39
582.008	13228.03
582.368	13230.51
582.728	13183.74
583.089	13189.84
583.449	13117.97
583.809	13175.6
584.169	13084.53
584.529	13080.01
584.889	13193
585.249	13037.75
585.609	13110.97
585.969	13159.33
586.329	13068.48
586.688	13095.83
587.048	13096.51
587.408	13027.81
587.768	13104.19
588.127	12962.95
588.487	12980.12
588.846	13058.77
589.206	13061.93
589.565	12882.73
589.925	13024.42
590.284	13014.93
590.643	12956.17
591.003	13029.16
591.362	12968.83
591.721	13005.89
592.08	12907.36
592.44	13031.2
592.799	12924.76
593.158	12904.42
593.517	12941.93
593.876	12938.77
594.235	12937.64
594.593	12922.95
594.952	12948.94
595.311	12917.75
595.67	12989.39
596.029	12963.18
596.387	12901.71
596.746	12990.75
597.104	12911.88
597.463	12892.67
597.822	12964.31
598.18	12856.29
598.538	12846.57
598.897	12933.35
599.255	12840.92
599.613	13057.41
599.972	12884.99
600.33	12854.48
600.688	12801.82
601.046	12974.93
601.404	12903.06
601.762	12868.94
602.12	12870.07
602.478	12919.11
602.836	12944.19
603.194	12727.93
603.552	12916.4
603.91	12756.63
604.268	12814.93
604.625	12791.66
604.983	12837.08
605.341	12753.69
605.698	12898.09
606.056	12828.72
606.413	12813.8
606.771	12861.03
607.128	12935.38
607.485	12860.13
607.843	12830.07
608.2	12897.87
608.557	12901.26
608.914	12882.5
609.272	12920.24
609.629	12970.41
609.986	13044.3
610.343	12890.41
610.7	13033.23
611.057	12949.62
611.414	12945.78
611.771	12966.57
612.127	13126.79
612.484	13049.73
612.841	13044.3
613.198	13067.13
613.554	13093.79
613.911	13081.59
614.267	12982.38
614.624	13024.87
614.98	12956.62
615.337	13179.22
615.693	13091.99
616.05	13113
616.406	13087.24
616.762	13066
617.118	13162.94
617.475	13066.45
617.831	13079.11
618.187	13222.38
618.543	13135.6
618.899	13234.81
619.255	13223.96
619.611	13186.45
619.967	13264.41
620.323	13249.04
620.678	13157.3
621.034	13116.62
621.39	13193.23
621.746	13115.04
622.101	13255.15
622.457	13186.45
622.812	13172.44
623.168	13253.79
623.523	13203.17
623.879	13305.09
624.234	13231.64
624.589	13186
624.945	13218.99
625.3	13317.29
625.655	13182.61
626.01	13220.34
626.365	13249.5
626.72	13148.93
627.075	13206.33
627.43	13223.51
627.785	13200.01
628.14	13107.35
628.495	13275.94
628.85	13156.39
629.205	13177.41
629.559	13195.03
629.914	13170.18
630.269	13220.57
630.623	13109.39
630.978	13060.57
631.332	13109.39
631.687	13088.37
632.041	13015.38
632.396	13047.47
632.75	13052.67
633.104	12928.37
633.459	12997.98
633.813	13027.13
634.167	12982.38
634.521	12860.58
634.875	13041.59
635.229	12931.99
635.583	12916.85
635.937	12843.63
636.291	12891.09
636.645	12836.63
636.999	12859.45
637.352	12927.7
637.706	12748.49
638.06	12825.33
638.413	12720.92
638.767	12721.37
639.121	12755.5
639.474	12702.39
639.828	12715.27
640.181	12643.86
640.534	12710.75
640.888	12713.24
641.241	12729.96
641.594	12701.04
641.947	12748.94
642.301	12661.49
642.654	12707.14
643.007	12631.43
643.36	12612
643.713	12616.29
644.066	12571.32
644.419	12626.91
644.771	12446.81
645.124	12445.9
645.477	12421.04
645.83	12340.82
646.182	12259.47
646.535	12231.22
646.888	12183.54
647.24	12150.32
647.593	12282.97
647.945	12148.96
648.298	12173.59
648.65	12106.7
649.002	12041.62
649.355	12230.99
649.707	12180.15
650.059	12294.27
650.411	12414.49
650.763	12432.79
651.115	12503.08
651.467	12542.62
651.819	12395.28
652.171	12525.9
652.523	12398.45
652.875	12419.01
653.227	12334.94
653.578	12480.48
653.93	12474.6
654.282	12458.1
654.633	12325.23
654.985	12406.35
655.337	12444.77
655.688	12485
656.039	12490.87
656.391	12406.58
656.742	12454.71
657.094	12443.19
657.445	12447.94
657.796	12450.42
658.147	12381.27
658.498	12402.51
658.849	12509.18
659.2	12462.4
659.551	12351.44
659.902	12489.52
660.253	12525.45
660.604	12477.31
660.955	12382.4
661.306	12476.86
661.656	12487.48
662.007	12507.14
662.358	12454.26
662.708	12497.43
663.059	12483.19
663.409	12440.7
663.76	12518.67
664.11	12455.62
664.461	12498.33
664.811	12449.74
665.161	12472.34
665.511	12490.87
665.862	12510.08
666.212	12536.97
666.562	12552.11
666.912	12476.86
667.262	12485.22
667.612	12503.08
667.962	12489.52
668.312	12494.49
668.662	12579.68
669.011	12477.77
669.361	12463.75
669.711	12504.66
670.06	12539.46
670.41	12459.91
670.76	12426.47
671.109	12463.53
671.459	12395.28
671.808	12393.47
672.157	12489.06
672.507	12392.34
672.856	12386.24
673.205	12387.82
673.554	12525.67
673.904	12428.73
674.253	12504.43
674.602	12383.76
674.951	12200.26
675.3	12126.59
675.649	12280.03
675.998	12272.12
676.346	12259.01
676.695	12392.57
677.044	12222.18
677.393	12243.42
677.741	12340.82
678.09	12278.45
678.438	12197.77
678.787	12193.7
679.135	12147.6
679.484	12145.34
679.832	12140.6
680.181	12105.8
680.529	12166.59
680.877	12121.84
681.225	12099.24
681.573	12106.02
681.922	12129.53
682.27	12022.41
682.618	12065.12
682.966	11940.15
683.314	12026.25
683.661	11918.01
684.009	11904.45
684.357	11897.22
684.705	11879.81
685.053	11814.73
685.4	11808.4
685.748	11750.55
686.095	11749.87
686.443	11786.26
686.79	11720.72
687.138	11700.16
687.485	11702.64
687.832	11697.22
688.18	11632.82
688.527	11632.14
688.874	11593.27
689.221	11528.86
689.568	11519.37
689.915	11507.17
690.262	11439.15
690.609	11409.09
690.956	11336.1
691.303	11278.25
691.65	11302.43
691.997	11285.48
692.344	11255.65
692.69	11164.81
693.037	11137.24
693.383	11028.99
693.73	11119.16
694.077	11030.35
694.423	11037.58
694.769	10989.67
695.116	10912.38
695.462	10933.62
695.808	10844.14
696.155	10878.03
696.501	10777.7
696.847	10772.73
697.193	10729.11
697.539	10694.76
697.885	10605.27
698.231	10526.86
698.577	10549.23
698.923	10556.23
699.269	10567.53
699.614	10429.23
699.96	10367.31
700.306	10419.51
700.651	10296.81
700.997	10308.33
701.342	10377.71
701.688	10261.33
702.033	10164.38
702.379	10189.46
702.724	10146.3
703.069	10120.99
703.415	9995.8
703.76	10029.69
704.105	10045.96
704.45	9977.72
704.795	9918.74
705.14	9935.46
705.485	9910.15
705.83	9828.34
706.175	9868.34
706.52	9834.67
706.865	9786.08
707.209	9747.44
707.554	9716.48
707.899	9764.16
708.243	9672.64
708.588	9704.96
708.932	9566.66
709.277	9546.77
709.621	9530.05
709.966	9474.45
710.31	9464.06
710.654	9438.52
710.998	9435.59
711.342	9484.17
711.687	9388.35
712.031	9400.11
712.375	9332.09
712.719	9397.17
713.063	9397.17
713.407	9349.03
713.75	9295.93
714.094	9214.35
714.438	9166.21
714.782	9234.01
715.125	9162.15
715.469	9158.08
715.812	9219.09
716.156	9097.52
716.499	9131.64
716.843	9151.3
717.186	9072.88
717.53	9118.98
717.873	9084.18
718.216	9010.74
718.559	9030.85
718.902	8943.39
719.246	8990.63
719.589	9054.13
719.932	8961.47
720.275	8960.12
720.617	8960.12
720.96	8959.67
721.303	8924.19
721.646	8983.62
721.989	8874.7
722.331	8859.56
722.674	8986.33
723.016	8885.32
723.359	8899.33
723.701	8892.55
724.044	8856.62
724.386	8827.92
724.729	8887.35
725.071	8808.48
725.413	8813.68
725.755	8777.98
726.097	8770.97
726.439	8777.07
726.782	8745.43
727.124	8797.41
727.465	8758.77
727.807	8799.22
728.149	8755.6
728.491	8709.5
728.833	8697.53
729.175	8760.12
729.516	8686.45
729.858	8667.92
730.199	8756.51
730.541	8719.67
730.882	8667.47
731.224	8675.38
731.565	8699.79
731.906	8682.84
732.248	8678.54
732.589	8689.84
732.93	8646
733.271	8687.36
733.612	8708.15
733.953	8683.29
734.294	8643.97
734.635	8597.19
734.976	8699.33
735.317	8651.65
735.658	8715.15
735.999	8692.33
736.339	8694.14
736.68	8739.33
737.021	8655.27
737.361	8637.87
737.702	8709.95
738.042	8726
738.383	8699.56
738.723	8705.66
739.063	8711.76
739.404	8712.67
739.744	8750.63
740.084	8680.58
740.424	8794.25
740.764	8744.08
741.104	8792.89
741.444	8788.82
741.784	8734.36
742.124	8822.72
742.464	8824.08
742.804	8803.51
743.143	8880.8
743.483	8866.11
743.823	8913.34
744.162	8920.34
744.502	8944.52
744.841	8974.13
745.181	9052.09
745.52	9025.65
745.86	9079.44
746.199	9119.21
746.538	9126.89
746.877	9184.97
747.216	9231.3
747.556	9317.4
747.895	9322.59
748.234	9390.39
748.573	9372.31
748.911	9452.08
749.25	9523.72
749.589	9545.64
749.928	9698.86
750.267	9775.24
750.605	9775.01
750.944	9860.21
751.283	9890.49
751.621	10050.71
751.96	10091.39
752.298	10151.5
752.636	10326.41
752.975	10322.34
753.313	10419.74
753.651	10575.89
753.989	10673.74
754.327	10739.05
754.666	10887.07
755.004	10953.29
755.342	11164.35
755.679	11179.49
756.017	11323.45
756.355	11487.96
756.693	11593.04
757.031	11718.46
757.368	11897.67
757.706	11969.76
758.044	12226.47
