Data from hue_140_FLMS001491_00004.txt Node
Date: Tue Feb 07 16:55:17 GMT 2017
User: dcchb
Spectrometer: FLMS00149
Trigger mode: 0
Integration Time (sec): 2.000000E-2
Scans to average: 10
Electric dark correction enabled: true
Nonlinearity correction enabled: false
Boxcar width: 0
XAxis mode: Wavelengths
Number of Pixels in Spectrum: 2048
>>>>>Begin Spectral Data<<<<<
341.393	-31.24
341.776	-31.24
342.16	-31.24
342.543	-60.85
342.927	-86.38
343.31	-64.46
343.693	-64.91
344.077	-64.69
344.46	-42.54
344.843	-51.81
345.226	-41.19
345.61	-23.56
345.993	-10
346.376	-23.11
346.759	17.12
347.142	14.63
347.525	32.94
347.908	39.04
348.291	85.14
348.674	97.57
349.057	99.83
349.44	108.42
349.823	159.49
350.206	163.33
350.588	178.92
350.971	221.63
351.354	213.05
351.737	239.03
352.119	248.98
352.502	258.92
352.884	285.81
353.267	279.26
353.65	285.59
354.032	280.16
354.414	305.7
354.797	317.68
355.179	328.07
355.562	323.32
355.944	333.95
356.326	339.14
356.709	328.97
357.091	334.4
357.473	334.62
357.855	350.44
358.238	345.7
358.62	341.86
359.002	331.23
359.384	345.47
359.766	336.21
360.148	335.3
360.53	335.98
360.912	331.91
361.294	332.82
361.676	338.47
362.057	320.84
362.439	322.42
362.821	315.64
363.203	347.96
363.584	318.58
363.966	321.74
364.348	311.35
364.729	312.03
365.111	324.68
365.493	319.03
365.874	333.95
366.256	311.12
366.637	316.77
367.019	315.87
367.4	315.64
367.781	314.29
368.163	310.67
368.544	303.21
368.925	309.99
369.306	307.96
369.688	314.74
370.069	290.78
370.45	312.03
370.831	311.35
371.212	300.27
371.593	303.21
371.974	307.05
372.355	311.12
372.736	314.06
373.117	332.36
373.498	319.71
373.879	314.96
374.26	300.27
374.641	319.48
375.021	317.68
375.402	322.19
375.783	325.81
376.163	322.87
376.544	325.13
376.925	323.32
377.305	335.98
377.686	341.18
378.066	331.91
378.447	334.17
378.827	335.3
379.208	363.55
379.588	332.14
379.968	345.02
380.349	345.02
380.729	328.52
381.109	343.89
381.489	345.25
381.87	337.56
382.25	345.25
382.63	349.76
383.01	296.21
383.39	319.48
383.77	331.01
384.15	344.79
384.53	336.88
384.91	345.47
385.29	345.47
385.67	362.87
386.049	353.61
386.429	361.06
386.809	356.09
387.189	355.19
387.568	350.22
387.948	354.51
388.328	366.26
388.707	350.67
389.087	389.54
389.466	383.89
389.846	359.93
390.225	373.27
390.605	365.13
390.984	371.46
391.363	386.15
391.743	351.12
392.122	342.76
392.501	390.22
392.881	382.53
393.26	374.62
393.639	386.15
394.018	373.94
394.397	383.66
394.776	380.72
395.155	397.22
395.534	405.13
395.913	391.35
396.292	378.92
396.671	373.04
397.05	369.65
397.429	392.93
397.808	399.03
398.186	389.76
398.565	402.19
398.944	387.5
399.323	392.93
399.701	408.75
400.08	387.73
400.458	397.45
400.837	398.58
401.215	415.07
401.594	407.39
401.972	403.1
402.351	392.25
402.729	417.56
403.107	408.52
403.486	431.8
403.864	422.76
404.242	423.21
404.62	417.33
404.999	423.44
405.377	425.24
405.755	419.37
406.133	429.54
406.511	433.15
406.889	444
407.267	439.93
407.645	429.31
408.023	458.01
408.401	455.3
408.779	451.46
409.156	459.37
409.534	468.41
409.912	481.74
410.29	453.26
410.667	449.88
411.045	473.83
411.422	450.1
411.8	461.17
412.178	476.54
412.555	474.28
412.933	484.45
413.31	485.58
413.687	497.33
414.065	497.33
414.442	501.85
414.819	495.07
415.197	513.6
415.574	500.27
415.951	510.89
416.328	513.38
416.705	522.87
417.082	499.37
417.46	518.8
417.837	502.08
418.214	517.44
418.591	516.31
418.967	517.44
419.344	518.57
419.721	530.1
420.098	527.84
420.475	526.48
420.852	536.2
421.228	553.38
421.605	552.7
421.982	557.22
422.358	562.87
422.735	553.15
423.111	569.42
423.488	577.1
423.864	566.48
424.241	566.71
424.617	590.44
424.994	576.2
425.37	561.51
425.746	573.94
426.123	595.18
426.499	559.48
426.875	589.53
427.251	608.74
427.627	611.23
428.003	604
428.379	593.83
428.756	627.5
429.132	615.29
429.507	655.07
429.883	644.45
430.259	623.88
430.635	629.08
431.011	641.73
431.387	645.8
431.763	662.75
432.138	657.33
432.514	686.03
432.89	680.83
433.265	699.36
433.641	698.46
434.016	688.96
434.392	716.31
434.767	708.4
435.143	729.64
435.518	726.25
435.894	741.84
436.269	733.48
436.644	752.01
437.02	761.05
437.395	751.56
437.77	757.66
438.145	770.77
438.52	773.71
438.895	781.17
439.271	791.34
439.646	785.69
440.021	768.51
440.395	797.89
440.77	807.15
441.145	778.23
441.52	815.74
441.895	830.43
442.27	810.77
442.645	848.96
443.019	822.97
443.394	833.37
443.769	851.45
444.143	838.79
444.518	869.75
444.892	866.36
445.267	848.06
445.641	877.66
446.016	873.82
446.39	897.32
446.764	877.66
447.139	905.23
447.513	900.48
447.887	887.38
448.262	898
448.636	892.35
449.01	907.26
449.384	915.85
449.758	939.81
450.132	939.35
450.506	938.68
450.88	944.33
451.254	940.71
451.628	971.22
452.002	947.49
452.376	967.6
452.75	994.95
453.123	1003.31
453.497	1019.35
453.871	1016.19
454.244	1035.17
454.618	1032.68
454.992	1065.68
455.365	1032.01
455.739	1068.39
456.112	1081.72
456.486	1100.03
456.859	1120.37
457.232	1114.04
457.606	1094.83
457.979	1141.16
458.352	1151.1
458.725	1161.27
459.099	1176.86
459.472	1204.43
459.845	1230.65
460.218	1193.58
460.591	1213.24
460.964	1230.42
461.337	1256.63
461.71	1287.82
462.083	1310.19
462.456	1314.03
462.829	1299.57
463.201	1317.65
463.574	1371.21
463.947	1338.21
464.32	1389.51
464.692	1382.28
465.065	1390.19
465.438	1436.06
465.81	1452.79
466.183	1478.32
466.555	1522.62
466.928	1509.51
467.3	1538.89
467.672	1573.69
468.045	1622.27
468.417	1609.39
468.789	1642.16
469.161	1636.74
469.534	1706.79
469.906	1715.15
470.278	1756.51
470.65	1760.35
471.022	1813.23
471.394	1867.24
471.766	1895.71
472.138	1916.05
472.51	1959.67
472.882	1991.08
473.253	2050.06
473.625	2048.7
473.997	2112.88
474.369	2138.19
474.74	2168.25
475.112	2233.33
475.484	2333.89
475.855	2328.92
476.227	2379.32
476.598	2502.48
476.97	2492.31
477.341	2611.4
477.713	2627.45
478.084	2688.91
478.455	2772.3
478.827	2842.13
479.198	2947.66
479.569	2961.67
479.94	3066.76
480.311	3181.1
480.682	3248.45
481.053	3363.02
481.424	3464.49
481.795	3522.11
482.166	3594.2
482.537	3698.83
482.908	3822.44
483.279	3902.89
483.65	4025.15
484.021	4100.4
484.391	4194.18
484.762	4298.14
485.133	4385.14
485.503	4549.2
485.874	4618.81
486.244	4781.74
486.615	4900.15
486.985	4996.42
487.356	5177.89
487.726	5251.78
488.097	5448.39
488.467	5479.8
488.837	5675.95
489.207	5781.26
489.578	5972.22
489.948	6089.5
490.318	6223.28
490.688	6289.27
491.058	6507.57
491.428	6628.92
491.798	6797.05
492.168	6976.48
492.538	7051.28
492.908	7208.79
493.278	7384.16
493.648	7448.11
494.017	7623.92
494.387	7794.31
494.757	7888.78
495.126	8012.16
495.496	8146.4
495.866	8251.03
496.235	8444.02
496.605	8527.18
496.974	8638.59
497.344	8797.23
497.713	8913.83
498.082	9055.98
498.452	9204.67
498.821	9247.38
499.19	9264.78
499.559	9514.95
499.928	9596.3
500.298	9694.83
500.667	9874.26
501.036	9904.32
501.405	10029.06
501.774	10096.85
502.143	10222.73
502.512	10340.24
502.88	10471.98
503.249	10518.54
503.618	10624.3
503.987	10692.32
504.356	10743.39
504.724	10847.79
505.093	10915.59
505.462	11083.27
505.83	11087.34
506.199	11179.54
506.567	11345.41
506.936	11248.91
507.304	11540.88
507.672	11623.82
508.041	11633.54
508.409	11771.16
508.777	11825.62
509.145	11955.56
509.514	11987.65
509.882	12145.84
510.25	12083.02
510.618	12119.17
510.986	12247.76
511.354	12278.26
511.722	12416.11
512.09	12511.48
512.458	12448.66
512.826	12574.3
513.193	12625.15
513.561	12669.89
513.929	12791.47
514.297	12817.69
514.664	12801.87
515.032	12854.07
515.4	13005.03
515.767	12985.82
516.135	13093.38
516.502	12921.41
516.869	13181.74
517.237	13155.98
517.604	13131.35
517.972	13193.49
518.339	13273.72
518.706	13288.63
519.073	13314.17
519.44	13392.13
519.808	13497.44
520.175	13507.16
520.542	13533.6
520.909	13602.3
521.276	13653.6
521.643	13680.26
522.009	13735.4
522.376	13783.08
522.743	13844.55
523.11	13944.21
523.477	13963.19
523.843	13910.54
524.21	13994.83
524.577	14076.41
524.943	14101.04
525.31	14054.04
525.676	14103.75
526.043	14193.92
526.409	14226.69
526.776	14334.03
527.142	14222.39
527.508	14225.11
527.874	14324.99
528.241	14290.19
528.607	14298.32
528.973	14407.25
529.339	14348.04
529.705	14387.14
530.071	14444.54
530.437	14422.84
530.803	14576.96
531.169	14487.7
531.535	14364.09
531.901	14392.33
532.267	14343.52
532.632	14477.08
532.998	14411.54
533.364	14432.11
533.73	14396.63
534.095	14465.33
534.461	14453.8
534.826	14418.32
535.192	14439.34
535.557	14405.21
535.923	14310.08
536.288	14260.81
536.653	14339
537.019	14268.04
537.384	14226.46
537.749	14289.96
538.114	14242.96
538.479	14145.33
538.845	14154.6
539.21	14122.74
539.575	14130.19
539.94	14031.44
540.305	14198.44
540.67	14037.09
541.034	14043.64
541.399	14006.81
541.764	14015.39
542.129	13983.3
542.494	13920.03
542.858	13887.49
543.223	13906.24
543.587	13870.99
543.952	13868.73
544.316	13767.27
544.681	13688.85
545.045	13678.68
545.41	13706.25
545.774	13655.4
546.138	13630.55
546.503	13614.27
546.867	13475.52
547.231	13572.02
547.595	13482.75
547.959	13530.66
548.324	13461.06
548.688	13428.29
549.052	13452.25
549.416	13307.62
549.779	13279.14
550.143	13316.88
550.507	13341.06
550.871	13199.14
551.235	13235.08
551.599	13210.22
551.962	13200.73
552.326	13221.06
552.689	13167.51
553.053	13088.19
553.417	13007.51
553.78	13146.72
554.143	13002.77
554.507	13084.57
554.87	13088.86
555.234	13079.15
555.597	12958.25
555.96	13040.05
556.323	12999.15
556.686	12918.7
557.05	13006.83
557.413	12969.32
557.776	12977.68
558.139	12972.94
558.502	12889.1
558.865	12956.44
559.228	13012.93
559.59	12978.81
559.953	12907.85
560.316	13009.77
560.679	13017.23
561.041	12981.3
561.404	12963.9
561.767	12984.91
562.129	12948.3
562.492	13085.02
562.854	13027.4
563.217	12956.44
563.579	12964.35
563.941	12980.39
564.304	12948.3
564.666	13070.11
565.028	13036.66
565.39	13013.39
565.753	13029.88
566.115	13039.6
566.477	13132.93
566.839	13021.07
567.201	13129.32
567.563	13136.1
567.925	13164.12
568.287	13150.78
568.648	13100.62
569.01	13190.33
569.372	13339.48
569.734	13186.26
570.095	13271.46
570.457	13251.12
570.819	13295.87
571.18	13286.37
571.542	13360.5
571.903	13259.26
572.265	13336.54
572.626	13275.07
572.987	13304.68
573.349	13355.52
573.71	13366.37
574.071	13385.58
574.432	13341.74
574.794	13422.64
575.155	13393.72
575.516	13399.82
575.877	13414.05
576.238	13288.41
576.599	13443.88
576.96	13473.94
577.32	13385.58
577.681	13456.54
578.042	13429.87
578.403	13469.65
578.763	13423.09
579.124	13492.47
579.485	13466.71
579.845	13469.42
580.206	13498.8
580.566	13438.69
580.927	13469.19
581.287	13539.02
581.648	13437.78
582.008	13492.02
582.368	13422.19
582.728	13458.35
583.089	13449.53
583.449	13544.22
583.809	13456.76
584.169	13495.63
584.529	13401.4
584.889	13539.25
585.249	13453.15
585.609	13382.19
585.969	13393.26
586.329	13379.93
586.688	13408.86
587.048	13421.29
587.408	13374.28
587.768	13356.65
588.127	13358.24
588.487	13260.61
588.846	13307.39
589.206	13280.5
589.565	13310.78
589.925	13379.25
590.284	13287.05
590.643	13353.94
591.003	13289.99
591.362	13303.1
591.721	13317.33
592.08	13268.3
592.44	13314.85
592.799	13259.03
593.158	13258.35
593.517	13224.68
593.876	13252.93
594.235	13183.78
594.593	13167.51
594.952	13242.99
595.311	13211.57
595.67	13172.7
596.029	13265.81
596.387	13205.7
596.746	13223.55
597.104	13208.64
597.463	13165.7
597.822	13252.48
598.18	13210.67
598.538	13212.03
598.897	13229.2
599.255	13162.31
599.613	13284.57
599.972	13170.67
600.33	13194.62
600.688	13182.42
601.046	13192.82
601.404	13268.52
601.762	13185.81
602.12	13233.04
602.478	13214.29
602.836	13173.83
603.194	13124.8
603.552	13174.06
603.91	13179.94
604.268	13200.5
604.625	13158.69
604.983	13145.13
605.341	13100.84
605.698	13222.65
606.056	13250.44
606.413	13252.7
606.771	13260.84
607.128	13309.42
607.485	13195.3
607.843	13193.04
608.2	13273.04
608.557	13300.38
608.914	13185.59
609.272	13318.69
609.629	13364.34
609.986	13357.78
610.343	13275.07
610.7	13287.96
611.057	13351.23
611.414	13343.77
611.771	13294.28
612.127	13335.86
612.484	13388.97
612.841	13394.39
613.198	13340.84
613.554	13363.89
613.911	13438.23
614.267	13449.08
614.624	13437.1
614.98	13377.44
615.337	13448.18
615.693	13495.63
616.05	13421.29
616.406	13567.27
616.762	13435.3
617.118	13539.47
617.475	13536.08
617.831	13588.74
618.187	13524.79
618.543	13539.93
618.899	13654.5
619.255	13582.86
619.611	13595.97
619.967	13608.63
620.323	13609.53
620.678	13569.53
621.034	13545.35
621.39	13489.08
621.746	13507.84
622.101	13726.81
622.457	13562.07
622.812	13539.7
623.168	13661.51
623.523	13593.48
623.879	13616.31
624.234	13551.9
624.589	13597.1
624.945	13605.69
625.3	13534.95
625.655	13552.81
626.01	13544.67
626.365	13623.77
626.72	13577.67
627.075	13498.12
627.43	13583.77
627.785	13586.25
628.14	13514.16
628.495	13577.67
628.85	13542.19
629.205	13530.66
629.559	13569.53
629.914	13506.26
630.269	13528.85
630.623	13458.8
630.978	13466.48
631.332	13513.03
631.687	13648.62
632.041	13466.93
632.396	13441.4
632.75	13460.15
633.104	13373.38
633.459	13425.58
633.813	13408.4
634.167	13419.93
634.521	13410.21
634.875	13444.11
635.229	13341.74
635.583	13311.23
635.937	13312.81
636.291	13301.97
636.645	13364.79
636.999	13221.06
637.352	13317.56
637.706	13168.64
638.06	13270.56
638.413	13181.07
638.767	13152.14
639.121	13205.92
639.474	13056.78
639.828	13101.97
640.181	13155.08
640.534	13187.85
640.888	13076.66
641.241	13013.84
641.594	13075.98
641.947	13046.38
642.301	13076.66
642.654	13097.45
643.007	13064.01
643.36	13052.26
643.713	13016.32
644.066	13155.3
644.419	13003.67
644.771	12895.42
645.124	12854.52
645.477	12747.63
645.83	12798.48
646.182	12678.48
646.535	12637.13
646.888	12655.88
647.24	12587.64
647.593	12661.76
647.945	12646.16
648.298	12568.2
648.65	12482.33
649.002	12586.05
649.355	12597.35
649.707	12570.91
650.059	12657.69
650.411	12760.06
650.763	12757.57
651.115	13015.65
651.467	12835.09
651.819	12880.06
652.171	12865.37
652.523	12733.39
652.875	12875.76
653.227	12809.32
653.578	12896.1
653.93	12897.01
654.282	12752.83
654.633	12780.4
654.985	12762.09
655.337	12786.73
655.688	12866.27
656.039	12929.77
656.391	12770.68
656.742	12787.4
657.094	12867.18
657.445	12947.85
657.796	12909.66
658.147	12872.83
658.498	12807.29
658.849	12807.29
659.2	12774.75
659.551	12838.02
659.902	12848.65
660.253	12825.82
660.604	12926.84
660.955	12857.01
661.306	12836.67
661.656	12850.23
662.007	12837.57
662.358	12977.23
662.708	12883.9
663.059	12938.36
663.409	12831.24
663.76	12973.61
664.11	12877.12
664.461	12895.2
664.811	12913.73
665.161	12903.11
665.511	12861.3
665.862	12937.23
666.212	12946.5
666.562	12927.74
666.912	12881.86
667.262	12885.48
667.612	12961.64
667.962	12929.77
668.312	12866.27
668.662	12913.73
669.011	12885.03
669.361	12799.38
669.711	12763.9
670.06	12782.43
670.41	12794.41
670.76	12822.21
671.109	12779.72
671.459	12890.68
671.808	12843.67
672.157	12749.66
672.507	12732.49
672.856	12784.47
673.205	12719.16
673.554	12798.25
673.904	12816.78
674.253	12851.58
674.602	12767.74
674.951	12538.37
675.3	12560.52
675.649	12711.47
675.998	12763.22
676.346	12705.6
676.695	12764.35
677.044	12683.45
677.393	12718.93
677.741	12682.1
678.09	12617.01
678.438	12664.02
678.787	12603
679.135	12602.55
679.484	12534.08
679.832	12549.9
680.181	12526.17
680.529	12462.44
680.877	12478.49
681.225	12426.96
681.573	12573.4
681.922	12424.48
682.27	12415.21
682.618	12445.72
682.966	12364.36
683.314	12369.11
683.661	12384.48
684.009	12279.85
684.357	12274.87
684.705	12285.95
685.053	12200.53
685.4	12238.27
685.748	12207.98
686.095	12123.69
686.443	12079.63
686.79	12029.01
687.138	12096.12
687.485	12115.56
687.832	11973.41
688.18	12004.37
688.527	11942.23
688.874	12009.35
689.221	11890.93
689.568	11843.47
689.915	11827.88
690.262	11790.59
690.609	11810.71
690.956	11660.65
691.303	11656.81
691.65	11658.85
691.997	11681.67
692.344	11634.44
692.69	11514.89
693.037	11518.28
693.383	11456.59
693.73	11514.67
694.077	11411.62
694.423	11381.79
694.769	11367.33
695.116	11318.74
695.462	11243.94
695.808	11296.37
696.155	11308.8
696.501	11123.49
696.847	11134.11
697.193	11072.42
697.539	11071.97
697.885	11035.13
698.231	10928.7
698.577	10909.94
698.923	10933.44
699.269	10887.79
699.614	10806.21
699.96	10782.71
700.306	10770.51
700.651	10760.11
700.997	10680.57
701.342	10673.34
701.688	10650.51
702.033	10617.29
702.379	10606.67
702.724	10598.31
703.069	10588.14
703.415	10347.24
703.76	10459.78
704.105	10398.09
704.45	10348.15
704.795	10280.35
705.14	10284.87
705.485	10258.66
705.83	10214.82
706.175	10230.41
706.52	10222.5
706.865	10148.6
707.209	10089.4
707.554	10092.11
707.899	10020.7
708.243	9982.96
708.588	9991.09
708.932	9962.17
709.277	9930.76
709.621	9926.91
709.966	9886.01
710.31	9883.3
710.654	9730.54
710.998	9838.33
711.342	9773.02
711.687	9780.25
712.031	9721.27
712.375	9736.18
712.719	9728.73
713.063	9670.2
713.407	9702.29
713.75	9589.07
714.094	9549.97
714.438	9577.32
714.782	9606.92
715.125	9508.17
715.469	9563.53
715.812	9505
716.156	9532.12
716.499	9484.67
716.843	9439.47
717.186	9379.58
717.53	9479.24
717.873	9479.92
718.216	9412.35
718.559	9376.65
718.902	9305.91
719.246	9365.57
719.589	9330.32
719.932	9361.28
720.275	9331.68
720.617	9323.09
720.96	9314.5
721.303	9309.08
721.646	9288.29
721.989	9169.19
722.331	9257.33
722.674	9232.92
723.016	9190.44
723.359	9213.94
723.701	9288.74
724.044	9214.84
724.386	9084.45
724.729	9161.96
725.071	9145.47
725.413	9135.75
725.755	9175.97
726.097	9086.26
726.439	9118.35
726.782	9095.52
727.124	9112.7
727.465	9099.14
727.807	9090.33
728.149	9076.32
728.491	9053.04
728.833	9113.38
729.175	9041.06
729.516	9068.41
729.858	9073.38
730.199	9099.14
730.541	9046.49
730.882	9015.3
731.224	9058.46
731.565	8963.32
731.906	9016.43
732.248	9046.26
732.589	9003.77
732.93	8974.4
733.271	8977.33
733.612	8990.44
733.953	9025.47
734.294	8985.92
734.635	8955.87
734.976	9008.29
735.317	8978.46
735.658	9053.94
735.999	9041.97
736.339	9012.14
736.68	9044.23
737.021	8993.61
737.361	9016.43
737.702	9060.27
738.042	9037.22
738.383	9028.63
738.723	8971.91
739.063	9080.38
739.404	9127.61
739.744	9088.07
740.084	9021.4
740.424	9122.42
740.764	9042.64
741.104	9106.82
741.444	9112.92
741.784	9056.88
742.124	9143.43
742.464	9135.97
742.804	9163.77
743.143	9253.03
743.483	9283.99
743.823	9194.96
744.162	9238.8
744.502	9339.36
744.841	9304.78
745.181	9388.85
745.52	9389.75
745.86	9408.96
746.199	9495.06
746.538	9488.73
746.877	9560.82
747.216	9617.77
747.556	9627.49
747.895	9638.33
748.234	9658.67
748.573	9794.04
748.911	9802.62
749.25	9845.79
749.589	9896.18
749.928	10024.99
750.267	10065.44
750.605	10116.51
750.944	10165.78
751.283	10241.03
751.621	10295.04
751.96	10395.83
752.298	10540.23
752.636	10645.99
752.975	10628.14
753.313	10731.64
753.651	10848.02
753.989	11021.57
754.327	11071.29
754.666	11169.14
755.004	11371.4
755.342	11458.4
755.679	11605.29
756.017	11681.67
756.355	11878.73
756.693	11926.41
757.031	12125.73
757.368	12257.7
757.706	12375.66
758.044	12518.26
758.381	12781.75
