Data from hue_24_FLMS001491_00004.txt Node
Date: Tue Feb 07 17:11:39 GMT 2017
User: dcchb
Spectrometer: FLMS00149
Trigger mode: 0
Integration Time (sec): 2.000000E-2
Scans to average: 10
Electric dark correction enabled: true
Nonlinearity correction enabled: false
Boxcar width: 0
XAxis mode: Wavelengths
Number of Pixels in Spectrum: 2048
>>>>>Begin Spectral Data<<<<<
341.393	-4.97
341.776	-4.97
342.16	-4.97
342.543	-87.23
342.927	-71.86
343.31	-69.38
343.693	-63.95
344.077	-80.45
344.46	-68.7
344.843	-52.2
345.226	-33.45
345.61	-37.29
345.993	-18.08
346.376	-17.17
346.759	2.26
347.142	41.13
347.525	52.2
347.908	50.62
348.291	78.87
348.674	90.85
349.057	124.74
349.44	121.13
349.823	144.63
350.206	150.05
350.588	169.26
350.971	212.2
351.354	238.19
351.737	227.79
352.119	245.42
352.502	264.63
352.884	271.63
353.267	277.28
353.65	285.42
354.032	299.2
354.414	294.68
354.797	324.74
355.179	322.25
355.562	324.29
355.944	332.65
356.326	337.84
356.709	344.85
357.091	327.22
357.473	331.97
357.855	325.42
358.238	349.14
358.62	336.49
359.002	354.34
359.384	342.14
359.766	316.6
360.148	325.87
360.53	340.78
360.912	325.42
361.294	347.79
361.676	326.77
362.057	317.96
362.439	327.45
362.821	333.1
363.203	338.3
363.584	336.49
363.966	312.31
364.348	329.03
364.729	308.69
365.111	310.95
365.493	298.98
365.874	299.88
366.256	341.46
366.637	301.91
367.019	311.63
367.4	313.89
367.781	302.36
368.163	327.9
368.544	318.41
368.925	314.79
369.306	342.59
369.688	324.06
370.069	315.25
370.45	340.33
370.831	320.67
371.212	307.56
371.593	311.18
371.974	316.15
372.355	343.72
372.736	330.84
373.117	300.56
373.498	305.75
373.879	332.65
374.26	330.84
374.641	311.4
375.021	305.08
375.402	309.37
375.783	309.82
376.163	305.3
376.544	337.39
376.925	321.12
377.305	320.9
377.686	326.32
378.066	324.51
378.447	334.68
378.827	331.97
379.208	350.73
379.588	339.2
379.968	351.63
380.349	320.22
380.729	319.77
381.109	361.12
381.489	338.07
381.87	329.71
382.25	355.92
382.63	333.78
383.01	367.45
383.39	345.98
383.77	348.47
384.15	337.17
384.53	331.74
384.91	353.21
385.29	349.14
385.67	337.17
386.049	334
386.429	370.16
386.809	362.93
387.189	354.79
387.568	336.04
387.948	355.02
388.328	360.67
388.707	360.22
389.087	373.1
389.466	373.55
389.846	379.65
390.225	374
390.605	345.3
390.984	378.75
391.363	372.42
391.743	376.71
392.122	354.79
392.501	370.39
392.881	373.32
393.26	376.04
393.639	386.43
394.018	357.28
394.397	387.33
394.776	372.42
395.155	396.15
395.534	378.97
395.913	371.52
396.292	406.32
396.671	399.76
397.05	397.73
397.429	406.54
397.808	387.33
398.186	394.34
398.565	401.12
398.944	387.79
399.323	383.04
399.701	389.14
400.08	406.32
400.458	393.89
400.837	394.11
401.215	392.76
401.594	387.56
401.972	412.64
402.351	428.46
402.729	408.8
403.107	418.29
403.486	412.42
403.864	428.01
404.242	418.75
404.62	411.29
404.999	411.51
405.377	419.2
405.755	428.92
406.133	423.49
406.511	433.89
406.889	402.02
407.267	437.73
407.645	436.82
408.023	440.21
408.401	455.36
408.779	466.2
409.156	449.48
409.534	458.97
409.912	455.81
410.29	449.03
410.667	482.93
411.045	471.63
411.422	479.54
411.8	483.15
412.178	459.65
412.555	454.45
412.933	461
413.31	478.63
413.687	482.02
414.065	488.8
414.442	486.77
414.819	495.35
415.197	492.19
415.574	497.61
415.951	495.81
416.328	504.39
416.705	504.62
417.082	515.47
417.46	506.65
417.837	509.14
418.214	517.27
418.591	519.08
418.967	502.81
419.344	519.08
419.721	516.14
420.098	531.51
420.475	530.16
420.852	510.72
421.228	551.17
421.605	526.31
421.982	531.29
422.358	528.8
422.735	545.3
423.111	539.65
423.488	538.74
423.864	536.71
424.241	552.08
424.617	571.06
424.994	566.31
425.37	551.85
425.746	585.97
426.123	590.94
426.499	598.18
426.875	600.66
427.251	611.28
427.627	593.66
428.003	590.27
428.379	584.39
428.756	626.42
429.132	618.97
429.507	636.37
429.883	623.26
430.259	613.32
430.635	649.47
431.011	651.51
431.387	632.3
431.763	660.55
432.138	635.24
432.514	658.06
432.89	686.08
433.265	658.06
433.641	677.04
434.016	697.61
434.392	703.71
434.767	703.26
435.143	696.93
435.518	703.94
435.894	733.31
436.269	717.5
436.644	719.08
437.02	733.09
437.395	708.23
437.77	707.1
438.145	742.81
438.52	733.99
438.895	752.75
439.271	756.59
439.646	782.58
440.021	768.34
440.395	784.84
440.77	767.66
441.145	786.87
441.52	782.8
441.895	798.85
442.27	812.63
442.645	799.3
443.019	805.63
443.394	796.36
443.769	799.98
444.143	816.7
444.518	811.28
444.892	807.21
445.267	841.11
445.641	847.89
446.016	850.15
446.39	848.34
446.764	859.41
447.139	839.98
447.513	871.84
447.887	867.32
448.262	848.34
448.636	880.43
449.01	890.15
449.384	880.2
449.758	865.97
450.132	900.54
450.506	910.48
450.88	914.78
451.254	907.77
451.628	938.51
452.002	934.66
452.376	926.53
452.75	933.08
453.123	942.12
453.497	937.6
453.871	946.19
454.244	947.09
454.618	997.26
454.992	990.26
455.365	1013.76
455.739	1009.46
456.112	1012.85
456.486	1050.82
456.859	1053.76
457.232	1041.78
457.606	1039.52
457.979	1079.52
458.352	1093.53
458.725	1081.78
459.099	1122.91
459.472	1108.45
459.845	1130.14
460.218	1128.78
460.591	1144.38
460.964	1133.3
461.337	1169.23
461.71	1186.41
462.083	1187.54
462.456	1204.71
462.829	1213.3
463.201	1252.85
463.574	1232.06
463.947	1258.5
464.32	1299.63
464.692	1320.42
465.065	1280.64
465.438	1292.85
465.81	1323.58
466.183	1363.81
466.555	1370.36
466.928	1359.51
467.3	1397.25
467.672	1398.16
468.045	1405.84
468.417	1432.05
468.789	1442.67
469.161	1434.76
469.534	1499.17
469.906	1521.54
470.278	1523.35
470.65	1539.39
471.022	1593.63
471.394	1578.26
471.766	1634.31
472.138	1637.7
472.51	1699.39
472.882	1681.76
473.253	1724.02
473.625	1739.84
473.997	1762.89
474.369	1798.6
474.74	1804.7
475.112	1827.3
475.484	1869.1
475.855	1935.32
476.227	1935.32
476.598	1996.11
476.97	1999.95
477.341	2024.58
477.713	2074.52
478.084	2101.19
478.455	2151.13
478.827	2196.78
479.198	2265.7
479.569	2230.45
479.94	2331.46
480.311	2352.48
480.682	2387.51
481.053	2455.3
481.424	2506.37
481.795	2557.67
482.166	2583.89
482.537	2604.9
482.908	2663.43
483.279	2690.1
483.65	2758.12
484.021	2826.37
484.391	2843.99
484.762	2879.25
485.133	2922.64
485.503	2966.7
485.874	3057.09
486.244	3101.61
486.615	3142.74
486.985	3160.14
487.356	3272.46
487.726	3274.04
488.097	3322.62
488.467	3378.22
488.837	3422.28
489.207	3490.76
489.578	3535.27
489.948	3581.83
490.318	3609.4
490.688	3648.94
491.058	3752.44
491.428	3778.21
491.798	3854.14
492.168	3882.84
492.538	3964.19
492.908	3991.08
493.278	4080.12
493.648	4099.33
494.017	4141.36
494.387	4124.86
494.757	4196.5
495.126	4264.52
495.496	4287.57
495.866	4306.33
496.235	4384.07
496.605	4417.74
496.974	4482.37
497.344	4488.7
497.713	4555.81
498.082	4585.87
498.452	4610.5
498.821	4606.43
499.19	4624.51
499.559	4734.79
499.928	4704.28
500.298	4768.69
500.667	4792.64
501.036	4771.17
501.405	4872.19
501.774	4881.45
502.143	4944.95
502.512	4998.06
502.88	5019.3
503.249	4968
503.618	5052.75
503.987	5089.36
504.356	5139.75
504.724	5123.71
505.093	5165.97
505.462	5143.37
505.83	5160.54
506.199	5255.68
506.567	5296.58
506.936	5335.68
507.304	5356.24
507.672	5356.02
508.041	5371.16
508.409	5405.73
508.777	5506.52
509.145	5518.72
509.514	5516.01
509.882	5523.92
510.25	5558.27
510.618	5610.7
510.986	5587.88
511.354	5670.59
511.722	5672.85
512.09	5768.21
512.458	5767.76
512.826	5791.71
513.193	5778.38
513.561	5794.88
513.929	5866.51
514.297	5814.99
514.664	5923.69
515.032	5874.65
515.4	6026.96
515.767	5996.23
516.135	6022.89
516.502	5965.94
516.869	6061.08
517.237	6100.18
517.604	6102.66
517.972	6160.74
518.339	6181.08
518.706	6128.2
519.073	6200.97
519.44	6168.88
519.808	6266.05
520.175	6334.52
520.542	6351.7
520.909	6365.71
521.276	6351.02
521.643	6441.19
522.009	6475.76
522.376	6494.07
522.743	6481.86
523.11	6591.69
523.477	6637.34
523.843	6639.83
524.21	6725.02
524.577	6762.99
524.943	6719.82
525.31	6743.55
525.676	6850.89
526.043	6907.39
526.409	6947.39
526.776	6963.88
527.142	6948.74
527.508	7004.79
527.874	7058.57
528.241	7130.21
528.607	7108.06
528.973	7215.18
529.339	7157.33
529.705	7242.97
530.071	7278
530.437	7314.16
530.803	7356.42
531.169	7367.04
531.535	7400.26
531.901	7439.8
532.267	7462.18
532.632	7533.14
532.998	7534.04
533.364	7543.53
533.73	7568.61
534.095	7616.75
534.461	7669.63
534.826	7737.88
535.192	7800.92
535.557	7832.34
535.923	7793.24
536.288	7833.47
536.653	7872.34
537.019	7939.23
537.384	7905.55
537.749	7966.8
538.114	7939.45
538.479	8039.34
538.845	8027.59
539.21	8031.65
539.575	8068.04
539.94	8170.18
540.305	8135.38
540.67	8172.67
541.034	8151.65
541.399	8257.64
541.764	8264.19
542.129	8278.43
542.494	8343.06
542.858	8386.22
543.223	8424.64
543.587	8476.39
543.952	8443.62
544.316	8553.67
544.681	8542.15
545.045	8597.51
545.41	8640.68
545.774	8662.15
546.138	8639.32
546.503	8681.13
546.867	8669.15
547.231	8762.03
547.595	8788.02
547.959	8863.95
548.324	8848.58
548.688	8901.91
549.052	8905.3
549.416	8911.86
549.779	8972.87
550.143	8971.52
550.507	8996.15
550.871	9072.98
551.235	9046.99
551.599	9132.19
551.962	9156.6
552.326	9159.99
552.689	9234.11
553.053	9175.35
553.417	9210.15
553.78	9335.8
554.143	9300.09
554.507	9324.05
554.87	9394.1
555.234	9449.24
555.597	9357.95
555.96	9493.76
556.323	9481.33
556.686	9572.4
557.05	9586.64
557.413	9628.9
557.776	9619.41
558.139	9676.58
558.502	9694.66
558.865	9693.76
559.228	9732.85
559.59	9832.74
559.953	9787.99
560.316	9889.68
560.679	9968.1
561.041	9942.79
561.404	9998.16
561.767	10027.98
562.129	9999.51
562.492	10086.29
562.854	10078.61
563.217	10053.29
563.579	10127.42
563.941	10147.08
564.304	10236.34
564.666	10270.46
565.028	10351.37
565.39	10335.55
565.753	10408.54
566.115	10469.56
566.477	10485.6
566.839	10573.28
567.201	10546.16
567.563	10566.5
567.925	10644.69
568.287	10695.09
568.648	10681.75
569.01	10745.48
569.372	10817.12
569.734	10735.54
570.095	10842.65
570.457	10882.2
570.819	10974.85
571.18	10927.85
571.542	11010.11
571.903	11099.82
572.265	11167.39
572.626	11145.02
572.987	11239.7
573.349	11315.41
573.71	11375.52
574.071	11385.46
574.432	11406.03
574.794	11620.03
575.155	11565.35
575.516	11547.49
575.877	11620.71
576.238	11759.69
576.599	11845.34
576.96	11946.13
577.32	11956.97
577.681	12087.59
578.042	12134.14
578.403	12299.56
578.763	12252.33
579.124	12400.58
579.485	12588.82
579.845	12726.45
580.206	12839.66
580.566	12869.72
580.927	13058.19
581.287	13208.69
581.648	13231.06
582.008	13438.29
582.368	13565.75
582.728	13755.8
583.089	13899.52
583.449	13964.15
583.809	14248.21
584.169	14322.11
584.529	14578.37
584.889	14708.54
585.249	14865.15
585.609	15038.02
585.969	15330.9
586.329	15494.51
586.688	15709.42
587.048	15996.42
587.408	16068.05
587.768	16398.89
588.127	16615.16
588.487	16788.26
588.846	17131.07
589.206	17312.99
589.565	17698.52
589.925	17951.39
590.284	18157.49
590.643	18440.42
591.003	18732.16
591.362	19068.43
591.721	19325.59
592.08	19572.59
592.44	19933.71
592.799	20168.96
593.158	20427.03
593.517	20736.86
593.876	21038.32
594.235	21380.68
594.593	21574.57
594.952	22012.98
595.311	22138.4
595.67	22551.27
596.029	22896.8
596.387	23219.28
596.746	23619.49
597.104	23782.65
597.463	24062.87
597.822	24614.27
598.18	24752.34
598.538	25009.96
598.897	25539.22
599.255	25661.7
599.613	26228.91
599.972	26338.29
600.33	26719.3
600.688	26969.46
601.046	27234.99
601.404	27671.36
601.762	27886.72
602.12	28450.55
602.478	28411.46
602.836	28861.61
603.194	28910.88
603.552	29268.61
603.91	29536.85
604.268	29935.48
604.625	30142.03
604.983	30553.09
605.341	30695.69
605.698	30930.03
606.056	31308.1
606.413	31527.31
606.771	31853.63
607.128	32150.34
607.485	32264.69
607.843	32330.22
608.2	32840.94
608.557	33089.3
608.914	33261.72
609.272	33622.62
609.629	33953.91
609.986	34214.24
610.343	34258.08
610.7	34664.17
611.057	34654
611.414	35047.67
611.771	35184.84
612.127	35456.92
612.484	35615.79
612.841	35843.13
613.198	36018.71
613.554	36201.08
613.911	36633.61
614.267	36571.02
614.624	36990.67
614.98	37123.54
615.337	37553.81
615.693	37583.19
616.05	37625
616.406	38133.23
616.762	37935.5
617.118	38118.32
617.475	38081.94
617.831	38540
618.187	38570.06
618.543	38829.71
618.899	39127.33
619.255	39054.11
619.611	39191.06
619.967	39390.6
620.323	39635.34
620.678	39518.06
621.034	39672.4
621.39	39743.81
621.746	39749.69
622.101	40435.32
622.457	40223.8
622.812	40339.5
623.168	40482.55
623.523	40662.66
623.879	40678.25
624.234	40713.73
624.589	40939.94
624.945	41019.94
625.3	41110.33
625.655	41183.1
626.01	41147.84
626.365	41433.94
626.72	41320.5
627.075	41385.8
627.43	41426.71
627.785	41353.94
628.14	41581.96
628.495	41791.9
628.85	41655.85
629.205	41715.74
629.559	41918.9
629.914	41690.43
630.269	41937.65
630.623	41826.02
630.978	41870.99
631.332	41997.31
631.687	42111.44
632.041	41915.28
632.396	42184.2
632.75	41976.98
633.104	42046.35
633.459	41932.23
633.813	42001.38
634.167	42038.44
634.521	42175.39
634.875	42240.7
635.229	42293.35
635.583	42044.77
635.937	42044.32
636.291	42060.59
636.645	42202.96
636.999	42053.81
637.352	42073.24
637.706	42011.55
638.06	42131.55
638.413	42193.24
638.767	42043.19
639.121	42225.56
639.474	41926.58
639.828	41946.24
640.181	42129.51
640.534	42019.69
640.888	41944.89
641.241	41849.75
641.594	41994.6
641.947	42033.7
642.301	41981.04
642.654	42172.45
643.007	42146.01
643.36	42029.86
643.713	41977.2
644.066	42088.61
644.419	41920.93
644.771	41750.99
645.124	41336.54
645.477	41297.45
645.83	41050.9
646.182	40891.13
646.535	40870.56
646.888	40976.32
647.24	40661.3
647.593	40876.21
647.945	40831.47
648.298	40672.15
648.65	40573.62
649.002	40635.09
649.355	40751.92
649.707	40727.97
650.059	40938.58
650.411	41321.4
650.763	41422.19
651.115	41671.9
651.467	41528.63
651.819	41662.41
652.171	41595.97
652.523	41466.03
652.875	41480.72
653.227	41334.51
653.578	41574.73
653.93	41557.78
654.282	41404.11
654.633	41395.75
654.985	41421.74
655.337	41404.11
655.688	41327.27
656.039	41744.21
656.391	41261.29
656.742	41375.64
657.094	41386.93
657.445	41422.64
657.796	41452.92
658.147	41360.49
658.498	41347.84
658.849	41488.63
659.2	41280.72
659.551	41260.38
659.902	41241.63
660.253	41306.03
660.604	41457.67
660.955	41121.18
661.306	41254.06
661.656	41284.79
662.007	41226.26
662.358	41322.08
662.708	41167.51
663.059	41267.39
663.409	40960.73
663.76	41195.3
664.11	41155.75
664.461	41146.71
664.811	41279.82
665.161	41127.28
665.511	41097.9
665.862	41173.15
666.212	41257.67
666.562	41246.6
666.912	41118.47
667.262	41116.66
667.612	41101.74
667.962	41209.99
668.312	41118.47
668.662	41376.09
669.011	41225.36
669.361	41067.85
669.711	41098.13
670.06	41055.64
670.41	40947.62
670.76	40969.09
671.109	41093.61
671.459	41047.06
671.808	40958.7
672.157	40957.12
672.507	40825.82
672.856	40931.58
673.205	40980.39
673.554	41089.77
673.904	40896.1
674.253	41087.96
674.602	40976.78
674.951	40402.78
675.3	40199.17
675.649	40759.61
675.998	40766.61
676.346	40809.1
676.695	40958.7
677.044	40582.21
677.393	40629.67
677.741	40824.69
678.09	40658.14
678.438	40594.19
678.787	40580.4
679.135	40593.51
679.484	40269
679.832	40433.97
680.181	40291.37
680.529	40417.24
680.877	40139.06
681.225	40258.6
681.573	40458.15
681.922	40156.91
682.27	40036.69
682.618	40184.25
682.966	39983.13
683.314	40142.67
683.661	40049.34
684.009	39819.07
684.357	39805.51
684.705	39739.29
685.053	39658.39
685.4	39702.46
685.748	39534.1
686.095	39588.56
686.443	39461.56
686.79	39382.24
687.138	39423.6
687.485	39463.6
687.832	39358.51
688.18	39356.48
688.527	39122.59
688.874	38959.43
689.221	38980.67
689.568	38873.55
689.915	38857.51
690.262	38803.73
690.609	38755.59
690.956	38529.16
691.303	38632.66
691.65	38409.16
691.997	38459.78
692.344	38342.72
692.69	38101.15
693.037	38344.08
693.383	37931.88
693.73	37943.86
694.077	37899.34
694.423	37875.39
694.769	37656.19
695.116	37678.56
695.462	37592.23
695.808	37417.77
696.155	37529.86
696.501	37169.87
696.847	37345.91
697.193	37049.65
697.539	37143.43
697.885	37068.4
698.231	36850.78
698.577	36716.32
698.923	36762.42
699.269	36484.92
699.614	36362.89
699.96	36345.26
700.306	36205.15
700.651	36193.17
700.997	36127.64
701.342	35987.08
701.688	36021.88
702.033	35870.02
702.379	35756.8
702.724	35745.05
703.069	35794.31
703.415	35230.26
703.76	35446.53
704.105	35545.73
704.45	35166.31
704.795	35066.2
705.14	34999.31
705.485	35003.6
705.83	34743.72
706.175	34920.44
706.52	34712.53
706.865	34721.35
707.209	34636.15
707.554	34599.54
707.899	34606.77
708.243	34472.77
708.588	34411.3
708.932	34202.49
709.277	34226.22
709.621	34091.98
709.966	34015.83
710.31	33977.86
710.654	33779
710.998	33846.12
711.342	33754.14
711.687	33712.33
712.031	33647.02
712.375	33413.81
712.719	33560.47
713.063	33553.24
713.407	33420.14
713.75	33285.45
714.094	33371.1
714.438	33188.73
714.782	33242.29
715.125	33016.76
715.469	33094.72
715.812	32905.35
716.156	32816.76
716.499	32857.89
716.843	32831.68
717.186	32598.46
717.53	32768.63
717.873	32810.89
718.216	32686.6
718.559	32451.58
718.902	32290
719.246	32452.93
719.589	32294.74
719.932	31972.72
720.275	32205.93
720.617	32135.65
720.96	32148.53
721.303	32129.32
721.646	32054.52
721.989	31914.42
722.331	31909.22
722.674	31771.59
723.016	31777.92
723.359	31840.97
723.701	31772.27
724.044	31608.43
724.386	31330.48
724.729	31675.78
725.071	31423.35
725.413	31532.96
725.755	31424.48
726.097	31280.53
726.439	31054.55
726.782	31203.93
727.124	31298.39
727.465	31057.49
727.807	31120.09
728.149	30982.91
728.491	30972.97
728.833	31050.03
729.175	30844.39
729.516	30829.7
729.858	30773.2
730.199	30845.97
730.541	30638.06
730.882	30602.36
731.224	30826.76
731.565	30495.24
731.906	30542.47
732.248	30614.79
732.589	30367.11
732.93	30271.07
733.271	30399.88
733.612	30367.34
733.953	30344.96
734.294	30179.77
734.635	30168.25
734.976	30198.98
735.317	30099.55
735.658	30107.46
735.999	29990.85
736.339	29981.81
736.68	30083.73
737.021	29931.19
737.361	29787.24
737.702	30074.69
738.042	29833.57
738.383	29791.08
738.723	29850.51
739.063	29604.42
739.404	29779.1
739.744	29625.21
740.084	29501.15
740.424	29624.53
740.764	29622.27
741.104	29615.94
741.444	29448.72
741.784	29285.78
742.124	29424.76
742.464	29417.31
742.804	29234.03
743.143	29037.43
743.483	29210.98
743.823	29027.94
744.162	29117.43
744.502	29141.15
744.841	28978.22
745.181	29111.78
745.52	28922.4
745.86	28976.41
746.199	28979.35
746.538	28803.99
746.877	28931.67
747.216	28906.36
747.556	28867.04
747.895	28741.17
748.234	28705.23
748.573	28677.44
748.911	28603.77
749.25	28662.75
749.589	28493.49
749.928	28486.48
750.267	28579.59
750.605	28425.69
750.944	28357.22
751.283	28206.04
751.621	28325.36
751.96	28147.06
752.298	28170.33
752.636	28166.04
752.975	28096.66
753.313	28029.77
753.651	28098.47
753.989	28036.55
754.327	27885.14
754.666	27725.37
755.004	27855.99
755.342	27788.2
755.679	27712.04
756.017	27539.16
756.355	27544.36
756.693	27410.13
757.031	27486.06
757.368	27290.58
757.706	27350.47
758.044	27152.05
758.381	27243.35
758.719	27143.69
759.056	27186.4
759.394	26943.7
759.731	26939.63
