Data from hue_330_FLMS001491_78.txt Node
Date: Mon Feb 06 15:45:53 GMT 2017
User: dcchb
Spectrometer: FLMS00149
Trigger mode: 0
Integration Time (sec): 2.000000E-2
Scans to average: 10
Electric dark correction enabled: true
Nonlinearity correction enabled: false
Boxcar width: 0
XAxis mode: Wavelengths
Number of Pixels in Spectrum: 2048
>>>>>Begin Spectral Data<<<<<
341.393	-20.14
341.776	-20.14
342.16	-20.14
342.543	-53.81
342.927	-82.96
343.31	-68.28
343.693	-84.77
344.077	-50.65
344.46	-92.91
344.843	-40.48
345.226	-35.96
345.61	-26.24
345.993	-14.94
346.376	-0.03
346.759	13.08
347.142	-0.25
347.525	45.39
347.908	59.18
348.291	84.04
348.674	85.62
349.057	127.2
349.44	104.38
349.823	137.14
350.206	158.61
350.588	209.23
350.971	210.59
351.354	206.29
351.737	232.96
352.119	224.6
352.502	269.34
352.884	272.51
353.267	268.67
353.65	296.46
354.032	287.87
354.414	300.08
354.797	314.54
355.179	317.48
355.562	308.21
355.944	303.24
356.326	317.93
356.709	324.03
357.091	332.39
357.473	341.21
357.855	326.97
358.238	336.46
358.62	325.84
359.002	322.9
359.384	342.56
359.766	339.4
360.148	333.52
360.53	322.9
360.912	321.32
361.294	323.13
361.676	328.1
362.057	324.71
362.439	335.1
362.821	336.23
363.203	344.14
363.584	319.96
363.966	319.29
364.348	331.49
364.729	320.19
365.111	302.56
365.493	304.14
365.874	322.22
366.256	301.88
366.637	312.96
367.019	295.33
367.4	329.23
367.781	308.21
368.163	293.52
368.544	311.38
368.925	296.01
369.306	307.53
369.688	309.79
370.069	300.98
370.45	295.11
370.831	318.16
371.212	303.92
371.593	296.24
371.974	315.44
372.355	308.66
372.736	275.44
373.117	305.95
373.498	304.82
373.879	288.78
374.26	319.96
374.641	337.14
375.021	322.68
375.402	310.47
375.783	309.12
376.163	338.49
376.544	315.22
376.925	327.65
377.305	332.39
377.686	346.86
378.066	300.08
378.447	317.93
378.827	330.36
379.208	335.78
379.588	334.88
379.968	323.58
380.349	323.35
380.729	328.1
381.109	325.61
381.489	335.1
381.87	327.19
382.25	324.48
382.63	337.82
383.01	340.3
383.39	334.2
383.77	332.84
384.15	331.49
384.53	350.92
384.91	337.59
385.29	354.09
385.67	340.3
386.049	357.7
386.429	334.2
386.809	350.02
387.189	363.8
387.568	340.53
387.948	344.37
388.328	354.54
388.707	356.12
389.087	329.23
389.466	364.71
389.846	349.12
390.225	341.88
390.605	350.25
390.984	350.02
391.363	355.44
391.743	364.26
392.122	375.78
392.501	356.12
392.881	377.14
393.26	380.07
393.639	392.96
394.018	380.98
394.397	361.09
394.776	364.48
395.155	383.24
395.534	366.52
395.913	383.46
396.292	366.06
396.671	376.91
397.05	369.68
397.429	373.3
397.808	373.75
398.186	359.28
398.565	393.41
398.944	381.66
399.323	403.35
399.701	400.64
400.08	396.12
400.458	378.49
400.837	409.45
401.215	419.4
401.594	397.7
401.972	399.06
402.351	407.64
402.729	416.91
403.107	426.4
403.486	414.65
403.864	401.54
404.242	436.8
404.62	421.43
404.999	426.4
405.377	413.07
405.755	438.6
406.133	426.85
406.511	434.99
406.889	441.99
407.267	438.83
407.645	435.21
408.023	475.67
408.401	458.49
408.779	454.42
409.156	481.77
409.534	465.95
409.912	471.82
410.29	472.05
410.667	470.24
411.045	507.98
411.422	498.49
411.8	486.74
412.178	496
412.555	494.65
412.933	510.47
413.31	530.35
413.687	517.47
414.065	514.53
414.442	529.9
414.819	526.06
415.197	553.18
415.574	566.74
415.951	531.48
416.328	547.3
416.705	547.3
417.082	594.76
417.46	575.32
417.837	570.35
418.214	598.83
418.591	576.68
418.967	607.41
419.344	604.02
419.721	609.22
420.098	619.16
420.475	637.7
420.852	639.5
421.228	627.75
421.605	658.71
421.982	639.05
422.358	654.64
422.735	661.42
423.111	680.86
423.488	680.18
423.864	682.89
424.241	676.34
424.617	679.95
424.994	700.74
425.37	692.16
425.746	714.3
426.123	691.25
426.499	705.72
426.875	725.6
427.251	724.7
427.627	757.01
428.003	744.13
428.379	747.3
428.756	776
429.132	770.35
429.507	773.06
429.883	808.54
430.259	778.48
430.635	816.67
431.011	802.44
431.387	853.73
431.763	833.4
432.138	827.97
432.514	859.84
432.89	845.6
433.265	866.39
433.641	855.77
434.016	886.05
434.392	882.89
434.767	891.02
435.143	922.21
435.518	923.11
435.894	950.46
436.269	938.03
436.644	946.61
437.02	944.81
437.395	964.24
437.77	980.06
438.145	982.77
438.52	997.23
438.895	970.79
439.271	997.01
439.646	997.46
440.021	1019.38
440.395	1044.46
440.77	1020.06
441.145	1018.93
441.52	1046.95
441.895	1055.09
442.27	1047.18
442.645	1073.84
443.019	1077.68
443.394	1102.99
443.769	1070.45
444.143	1066.16
444.518	1099.38
444.892	1077.68
445.267	1066.16
445.641	1092.6
446.016	1082.66
446.39	1117.91
446.764	1125.59
447.139	1106.84
447.513	1105.03
447.887	1138.47
448.262	1119.94
448.636	1160.39
449.01	1154.97
449.384	1133.28
449.758	1144.35
450.132	1177.34
450.506	1165.14
450.88	1158.81
451.254	1168.98
451.628	1185.03
452.002	1207.62
452.376	1182.77
452.75	1214.18
453.123	1212.82
453.497	1235.42
453.871	1214.63
454.244	1237.23
454.618	1235.19
454.992	1286.94
455.365	1280.84
455.739	1275.87
456.112	1309.77
456.486	1305.47
456.859	1309.77
457.232	1338.24
457.606	1342.76
457.979	1338.24
458.352	1357.22
458.725	1371.69
459.099	1359.71
459.472	1400.61
459.845	1385.02
460.218	1424.79
460.591	1418.24
460.964	1407.39
461.337	1443.55
461.71	1491.91
462.083	1472.25
462.456	1432.93
462.829	1476.54
463.201	1503.89
463.574	1510.44
463.947	1557.22
464.32	1547.95
464.692	1566.03
465.065	1574.85
465.438	1573.94
465.81	1621.62
466.183	1597.9
466.555	1644
466.928	1620.04
467.3	1646.48
467.672	1643.54
468.045	1700.27
468.417	1693.71
468.789	1707.27
469.161	1714.73
469.534	1752.69
469.906	1784.11
470.278	1812.35
470.65	1817.33
471.022	1837.44
471.394	1860.94
471.766	1863.43
472.138	1910.88
472.51	1909.98
472.882	1924.67
473.253	1953.59
473.625	1982.29
473.997	1988.39
474.369	2020.03
474.74	2034.04
475.112	2075.4
475.484	2090.31
475.855	2135.73
476.227	2130.54
476.598	2164.89
476.97	2217.99
477.341	2211.67
477.713	2226.35
478.084	2264.54
478.455	2340.02
478.827	2350.87
479.198	2406.46
479.569	2415.73
479.94	2456.63
480.311	2460.47
480.682	2520.58
481.053	2563.52
481.424	2600.58
481.795	2587.7
482.166	2660.92
482.537	2679.9
482.908	2704.08
483.279	2737.98
483.65	2765.1
484.021	2830.41
484.391	2871.99
484.762	2872.44
485.133	2904.53
485.503	2940.91
485.874	3021.14
486.244	3007.12
486.615	3069.95
486.985	3059.33
487.356	3155.82
487.726	3157.4
488.097	3204.18
488.467	3212.99
488.837	3262.48
489.207	3316.49
489.578	3342.03
489.948	3379.77
490.318	3424.06
490.688	3387
491.058	3478.75
491.428	3508.13
491.798	3544.29
492.168	3595.81
492.538	3610.27
492.908	3631.06
493.278	3669.25
493.648	3694.34
494.017	3707.22
494.387	3739.31
494.757	3745.41
495.126	3811.85
495.496	3811.17
495.866	3864.73
496.235	3901.79
496.605	3882.36
496.974	3899.08
497.344	3958.29
497.713	3930.72
498.082	3968.23
498.452	4020.88
498.821	4005.29
499.19	4014.1
499.559	4057.04
499.928	4129.81
500.298	4143.37
500.667	4145.63
501.036	4159.18
501.405	4187.43
501.774	4170.03
502.143	4199.18
502.512	4208.45
502.88	4255.91
503.249	4234.89
503.618	4306.53
503.987	4304.72
504.356	4297.94
504.724	4347.43
505.093	4369.8
505.462	4393.75
505.83	4402.34
506.199	4418.61
506.567	4500.64
506.936	4415
507.304	4461.32
507.672	4488.67
508.041	4492.06
508.409	4537.93
508.777	4544.26
509.145	4522.11
509.514	4579.74
509.882	4654.09
510.25	4573.86
510.618	4641.21
510.986	4650.47
511.354	4644.14
511.722	4677.14
512.09	4703.35
512.458	4686.4
512.826	4733.41
513.193	4758.94
513.561	4753.07
513.929	4822.9
514.297	4812.73
514.664	4817.47
515.032	4814.08
515.4	4852.73
515.767	4852.27
516.135	4914.64
516.502	4869
516.869	4912.61
517.237	4944.93
517.604	4945.83
517.972	4939.73
518.339	4975.21
518.706	4983.12
519.073	4961.42
519.44	5043
519.808	5001.42
520.175	5019.27
520.542	5061.99
520.909	5127.07
521.276	5082.55
521.643	5086.39
522.009	5185.15
522.376	5188.31
522.743	5157.8
523.11	5235.99
523.477	5239.61
523.843	5247.52
524.21	5259.04
524.577	5306.72
524.943	5328.19
525.31	5367.74
525.676	5375.88
526.043	5394.41
526.409	5449.09
526.776	5472.37
527.142	5440.96
527.508	5478.47
527.874	5568.64
528.241	5529.54
528.607	5571.58
528.973	5637.56
529.339	5707.62
529.705	5747.84
530.071	5746.26
530.437	5739.71
530.803	5804.34
531.169	5810.44
531.535	5776.09
531.901	5806.37
532.267	5875.75
532.632	5852.93
532.998	5861.06
533.364	5919.82
533.73	5920.49
534.095	5956.88
534.461	5994.16
534.826	6011.11
535.192	6027.16
535.557	6098.57
535.923	6048.85
536.288	6131.56
536.653	6120.26
537.019	6129.08
537.384	6179.47
537.749	6221.05
538.114	6226.7
538.479	6233.25
538.845	6255.85
539.21	6244.55
539.575	6327.04
539.94	6357.32
540.305	6374.04
540.67	6353.93
541.034	6433.93
541.399	6442.29
541.764	6439.58
542.129	6506.69
542.494	6541.72
542.858	6544.43
543.223	6539.91
543.587	6576.3
543.952	6647.48
544.316	6617.42
544.681	6668.5
545.045	6722.05
545.41	6763.41
545.774	6755.27
546.138	6746.24
546.503	6812.22
546.867	6818.1
547.231	6845.44
547.595	6900.58
547.959	6918.66
548.324	6906
548.688	6898.77
549.052	6946.68
549.416	6980.35
549.779	7048.83
550.143	7043.63
550.507	7078.88
550.871	7088.37
551.235	7152.78
551.599	7207.47
551.962	7091.99
552.326	7156.85
552.689	7307.12
553.053	7191.42
553.417	7196.84
553.78	7283.17
554.143	7250.85
554.507	7335.15
554.87	7388.48
555.234	7384.64
555.597	7372.89
555.96	7410.4
556.323	7436.39
556.686	7403.39
557.05	7417.86
557.413	7469.61
557.776	7496.05
558.139	7570.85
558.502	7573.78
558.865	7634.12
559.228	7653.56
559.59	7626.89
559.953	7627.12
560.316	7720.22
560.679	7728.58
561.041	7761.35
561.404	7813.55
561.767	7889.26
562.129	7815.81
562.492	7884.28
562.854	7863.49
563.217	7890.61
563.579	7913.44
563.941	7947.33
564.304	7973.55
564.666	8019.2
565.028	8023.26
565.39	8066.2
565.753	8085.86
566.115	8093.32
566.477	8224.84
566.839	8193.2
567.201	8212.86
567.563	8266.87
567.925	8238.85
568.287	8264.16
568.648	8291.96
569.01	8345.74
569.372	8451.73
569.734	8397.94
570.095	8433.2
570.457	8493.31
570.819	8547.77
571.18	8565.17
571.542	8626.19
571.903	8684.94
572.265	8746.41
572.626	8767.42
572.987	8721.32
573.349	8824.82
573.71	8845.39
574.071	8899.4
574.432	8962.67
574.794	9037.02
575.155	9119.28
575.516	9051.26
575.877	9153.86
576.238	9263.46
576.599	9342.1
576.96	9394.08
577.32	9441.31
577.681	9620.51
578.042	9673.39
578.403	9718.36
578.763	9755.2
579.124	10004
579.485	10024.79
579.845	10163.32
580.206	10244.9
580.566	10366.7
580.927	10499.13
581.287	10661.84
581.648	10772.12
582.008	10930.08
582.368	11016.86
582.728	11216.17
583.089	11333.01
583.449	11509.05
583.809	11736.61
584.169	11939.77
584.529	12095.47
584.889	12299.31
585.249	12478.29
585.609	12572.97
585.969	12924.15
586.329	13089.12
586.688	13300.19
587.048	13582.89
587.408	13738.59
587.768	13917.12
588.127	14217.23
588.487	14424.45
588.846	14706.7
589.206	14867.38
589.565	15107.15
589.925	15429.17
590.284	15733.34
590.643	15932.66
591.003	16218.3
591.362	16576.94
591.721	16725.86
592.08	17077.49
592.44	17460.76
592.799	17626.85
593.158	17923.57
593.517	18214.63
593.876	18503.44
594.235	18739.82
594.593	19124.21
594.952	19390.65
595.311	19643.52
595.67	19931.88
596.029	20372.32
596.387	20596.94
596.746	20879.2
597.104	21120.32
597.463	21425.4
597.822	21809.12
598.18	21889.79
598.538	22233.06
598.897	22644.12
599.255	22586.04
599.613	23315.74
599.972	23431.9
600.33	23693.36
600.688	23837.54
601.046	24277.98
601.404	24640.45
601.762	24806.1
602.12	25237.95
602.478	25352.53
602.836	25712.97
603.194	25792.29
603.552	26018.95
603.91	26276.12
604.268	26582.78
604.625	26790.91
604.983	27214.85
605.341	27193.16
605.698	27567.61
606.056	27855.06
606.413	28024.32
606.771	28368.49
607.128	28549.73
607.485	28706.56
607.843	28927.8
608.2	29278.98
608.557	29468.58
608.914	29650.49
609.272	29933.65
609.629	30125.96
609.986	30471.26
610.343	30481.88
610.7	30908.09
611.057	31047.29
611.414	31307.62
611.771	31487.28
612.127	31622.87
612.484	31907.16
612.841	32170.2
613.198	32086.36
613.554	32234.15
613.911	32649.51
614.267	32614.48
614.624	32833.68
614.98	33002.27
615.337	33308.93
615.693	33458.08
616.05	33452.65
616.406	33903.49
616.762	33758.41
617.118	33912.3
617.475	34054.22
617.831	34354.1
618.187	34535.79
618.543	34564.49
618.899	34793.63
619.255	35043.8
619.611	34952.27
619.967	35246.5
620.323	35312.04
620.678	35255.77
621.034	35250.57
621.39	35395.65
621.746	35522.65
622.101	36046.93
622.457	35807.84
622.812	35928.07
623.168	36148.63
623.523	36125.58
623.879	36426.58
624.234	36136.87
624.589	36571.21
624.945	36527.6
625.3	36641.27
625.655	36669.97
626.01	36833.81
626.365	36882.39
626.72	36871.77
627.075	36984.08
627.43	36969.17
627.785	37060.47
628.14	37209.84
628.495	37332.78
628.85	37220.01
629.205	37177.53
629.559	37374.81
629.914	37358.31
630.269	37486.22
630.623	37376.39
630.978	37336.17
631.332	37534.58
631.687	37559.89
632.041	37438.76
632.396	37608.25
632.75	37449.38
633.104	37558.98
633.459	37551.53
633.813	37577.29
634.167	37629.72
634.521	37638.3
634.875	37666.33
635.229	37757.4
635.583	37437.63
635.937	37543.39
636.291	37568.7
636.645	37693.67
636.999	37681.69
637.352	37767.34
637.706	37492.09
638.06	37618.19
638.413	37660.45
638.767	37428.37
639.121	37617.74
639.474	37364.19
639.828	37583.84
640.181	37402.6
640.534	37632.43
640.888	37446.44
641.241	37367.58
641.594	37536.39
641.947	37619.77
642.301	37448.7
642.654	37549.49
643.007	37535.26
643.36	37540.45
643.713	37540.45
644.066	37593.56
644.419	37290.74
644.771	37255.72
645.124	36860.92
645.477	36815.05
645.83	36673.36
646.182	36493.48
646.535	36423.65
646.888	36484.66
647.24	36322.63
647.593	36632
647.945	36443.08
648.298	36253.93
648.65	36423.65
649.002	36312.69
649.355	36323.99
649.707	36157.67
650.059	36505.23
650.411	36875.61
650.763	36977.76
651.115	37460.91
651.467	37276.96
651.819	37163.06
652.171	37165.1
652.523	37052.78
652.875	37090.3
653.227	36971.65
653.578	37226.56
653.93	37100.24
654.282	36881.04
654.633	36907.48
654.985	36988.15
655.337	36927.14
655.688	36908.15
656.039	37155.83
656.391	36707.93
656.742	36751.1
657.094	36809.17
657.445	37031.77
657.796	36960.58
658.147	36959
658.498	36914.71
658.849	36879
659.2	36786.58
659.551	36839
659.902	36922.84
660.253	36868.83
660.604	36830.87
660.955	36852.11
661.306	36849.17
661.656	36854.37
662.007	36777.31
662.358	36781.6
662.708	36797.42
663.059	36772.11
663.409	36507.03
663.76	36887.36
664.11	36935.72
664.461	36868.15
664.811	36666.8
665.161	36810.76
665.511	36751.55
665.862	36840.13
666.212	36865.22
666.562	36779.57
666.912	36768.72
667.262	36650.31
667.612	36772.11
667.962	36612.57
668.312	36599.91
668.662	36791.77
669.011	36775.05
669.361	36704.77
669.711	36634.94
670.06	36526.92
670.41	36621.16
670.76	36378.68
671.109	36691.44
671.459	36728.72
671.808	36585.9
672.157	36584.55
672.507	36394.72
672.856	36322.18
673.205	36500.93
673.554	36662.06
673.904	36465
674.253	36639.69
674.602	36497.77
674.951	35952.02
675.3	35864.34
675.649	36392.69
675.998	36253.93
676.346	36326.7
676.695	36512.91
677.044	36045.35
677.393	36251.9
677.741	36393.37
678.09	36139.36
678.438	36156.08
678.787	36144.33
679.135	36175.52
679.484	35958.8
679.832	36106.59
680.181	35871.34
680.529	36042.87
680.877	35836.09
681.225	35895.98
681.573	36091.45
681.922	35858.69
682.27	35636.55
682.618	35743.44
682.966	35721.52
683.314	35875.64
683.661	35710.9
684.009	35527.4
684.357	35433.39
684.705	35374.86
685.053	35361.3
685.4	35429.1
685.748	35263
686.095	35222.32
686.443	35086.73
686.79	35087.18
687.138	35232.04
687.485	35208.99
687.832	34975.1
688.18	34985.49
688.527	34743.46
688.874	34863.24
689.221	34749.34
689.568	34670.02
689.915	34556.13
690.262	34585.05
690.609	34409.46
690.956	34355
691.303	34288.11
691.65	34103.48
691.997	34084.5
692.344	33966.08
692.69	33938.06
693.037	34052.41
693.383	33758.18
693.73	33858.06
694.077	33529.03
694.423	33677.05
694.769	33654.68
695.116	33450.39
695.462	33486.32
695.808	33395.25
696.155	33343.5
696.501	33105.09
696.847	33146.22
697.193	32833.01
697.539	32946.45
697.885	32841.14
698.231	32757.53
698.577	32694.48
698.923	32717.98
699.269	32559.34
699.614	32296.52
699.96	32333.58
700.306	32352.34
700.651	32339.69
700.997	32151.22
701.342	32034.61
701.688	32040.03
702.033	32008.17
702.379	32029.19
702.724	31788.74
703.069	31926.14
703.415	31585.36
703.76	31648.41
704.105	31552.59
704.45	31573.6
704.795	31291.8
705.14	31218.36
705.485	31357.57
705.83	31125.71
706.175	31125.03
706.52	30951.93
706.865	31020.63
707.209	30960.51
707.554	30649.11
707.899	30821.08
708.243	30570.92
708.588	30640.07
708.932	30426.97
709.277	30390.36
709.621	30412.73
709.966	30231.27
710.31	30319.85
710.654	30015.91
710.998	30097.03
711.342	30087.77
711.687	29957.6
712.031	29903.59
712.375	29695.69
712.719	29933.2
713.063	29838.51
713.407	29881.67
713.75	29669.7
714.094	29695.01
714.438	29571.62
714.782	29495.92
715.125	29360.78
715.469	29454.56
715.812	29287.11
716.156	29084.18
716.499	29103.16
716.843	29267
717.186	28998.76
717.53	29199.88
717.873	29118.98
718.216	29067
718.559	28893.9
718.902	28740.91
719.246	28828.37
719.589	28770.51
719.932	28592.67
720.275	28604.64
720.617	28581.14
720.96	28551.54
721.303	28521.03
721.646	28476.06
721.989	28387.7
722.331	28362.16
722.674	28345.89
723.016	28383.18
723.359	28266.57
723.701	28266.57
724.044	28063.41
724.386	27881.27
724.729	28056.86
725.071	27990.87
725.413	27882.63
725.755	28002.63
726.097	27775.29
726.439	27691
726.782	27776.19
727.124	27927.6
727.465	27630.21
727.807	27541.62
728.149	27555.18
728.491	27566.93
728.833	27629.3
729.175	27426.14
729.516	27421.62
729.858	27282.42
730.199	27321.97
730.541	27265.47
730.882	27217.34
731.224	27347.05
731.565	27051.46
731.906	27074.51
732.248	27030
732.589	27015.76
732.93	26964.01
733.271	26964.46
733.612	27009.21
733.953	27014.18
734.294	26890.34
734.635	26893.5
734.976	26833.16
735.317	26752.49
735.658	26666.62
735.999	26680.17
736.339	26647.63
736.68	26694.86
737.021	26496.45
737.361	26525.38
737.702	26630.68
738.042	26566.96
738.383	26388.2
738.723	26439.5
739.063	26345.95
739.404	26417.58
739.744	26269.11
740.084	26291.03
740.424	26237.47
740.764	26083.58
741.104	26268.66
741.444	26031.6
741.784	26035.22
742.124	26061.89
742.464	26054.88
742.804	25980.98
743.143	25998.61
743.483	25884.04
743.823	25906.86
744.162	25757.94
744.502	25742.12
744.841	25717.26
745.181	25818.28
745.52	25658.73
745.86	25670.71
746.199	25585.97
746.538	25484.73
746.877	25548
747.216	25532.18
747.556	25415.35
747.895	25423.94
748.234	25346.65
748.573	25221
748.911	25292.41
749.25	25313.43
749.589	25110.72
749.928	25164.06
750.267	25247.9
750.605	25011.97
750.944	25014.23
751.283	24941.91
751.621	25031.18
751.96	24700.57
752.298	24783.05
752.636	24907.79
752.975	24696.72
753.313	24714.12
753.651	24621.47
753.989	24488.59
754.327	24601.36
754.666	24438.43
755.004	24483.85
755.342	24414.25
755.679	24430.52
756.017	24386
756.355	24279.33
756.693	24054.93
757.031	24114.37
757.368	24047.02
757.706	24045.67
758.044	23976.29
758.381	23995.27
758.719	23972.45
759.056	23928.83
759.394	23783.08
759.731	23705.11
760.068	23650.65
760.405	23619.24
