Data from hue_310_FLMS001491_86.txt Node
Date: Mon Feb 06 15:50:20 GMT 2017
User: dcchb
Spectrometer: FLMS00149
Trigger mode: 0
Integration Time (sec): 2.000000E-2
Scans to average: 10
Electric dark correction enabled: true
Nonlinearity correction enabled: false
Boxcar width: 0
XAxis mode: Wavelengths
Number of Pixels in Spectrum: 2048
>>>>>Begin Spectral Data<<<<<
341.393	-5.85
341.776	-5.85
342.16	-5.85
342.543	-50.37
342.927	-60.76
343.31	-76.13
343.693	-63.47
344.077	-66.41
344.46	-38.84
344.843	-68.22
345.226	-58.73
345.61	-26.64
345.993	1.61
346.376	-21.67
346.759	13.14
347.142	42.74
347.525	30.54
347.908	55.62
348.291	74.6
348.674	76.64
349.057	125.22
349.44	161.38
349.823	143.3
350.206	178.78
350.588	194.15
350.971	210.87
351.354	221.94
351.737	236.63
352.119	242.28
352.502	266.01
352.884	256.52
353.267	260.13
353.65	297.42
354.032	293.35
354.414	311.66
354.797	296.07
355.179	310.53
355.562	306.91
355.944	323.41
356.326	307.36
356.709	331.54
357.091	346.23
357.473	346.23
357.855	317.76
358.238	341.04
358.62	320.25
359.002	333.35
359.384	344.65
359.766	344.2
360.148	338.55
360.53	335.61
360.912	331.54
361.294	349.4
361.676	307.14
362.057	322.96
362.439	348.72
362.821	343.07
363.203	320.02
363.584	324.99
363.966	308.49
364.348	315.27
364.729	328.61
365.111	313.47
365.493	318.89
365.874	315.5
366.256	303.52
366.637	310.3
367.019	322.51
367.4	336.06
367.781	310.98
368.163	316.4
368.544	328.38
368.925	323.18
369.306	339.45
369.688	330.87
370.069	291.55
370.45	312.34
370.831	323.86
371.212	323.41
371.593	299
371.974	303.07
372.355	321.6
372.736	361.83
373.117	302.39
373.498	309.62
373.879	315.5
374.26	332.67
374.641	321.83
375.021	321.38
375.402	322.51
375.783	312.79
376.163	319.34
376.544	344.2
376.925	340.81
377.305	343.52
377.686	348.04
378.066	318.89
378.447	323.64
378.827	333.58
379.208	314.37
379.588	339.23
379.968	332.9
380.349	329.51
380.729	342.17
381.109	349.85
381.489	317.99
381.87	345.56
382.25	348.27
382.63	345.33
383.01	334.03
383.39	326.8
383.77	346.46
384.15	339
384.53	354.14
384.91	358.44
385.29	350.75
385.67	344.65
386.049	333.35
386.429	343.75
386.809	358.89
387.189	365.67
387.568	362.5
387.948	359.11
388.328	358.66
388.707	368.61
389.087	348.27
389.466	352.79
389.846	372.22
390.225	397.98
390.605	374.93
390.984	388.49
391.363	375.84
391.743	388.49
392.122	374.03
392.501	381.94
392.881	381.26
393.26	390.75
393.639	387.36
394.018	400.92
394.397	376.74
394.776	392.56
395.155	390.75
395.534	410.64
395.913	390.75
396.292	420.13
396.671	406.57
397.05	428.27
397.429	395.95
397.808	392.33
398.186	401.83
398.565	419
398.944	428.49
399.323	421.26
399.701	410.86
400.08	404.99
400.458	411.77
400.837	427.81
401.215	424.42
401.594	391.43
401.972	422.62
402.351	421.49
402.729	423.97
403.107	444.54
403.486	441.37
403.864	430.75
404.242	456.97
404.62	450.19
404.999	454.71
405.377	474.59
405.755	461.26
406.133	461.71
406.511	444.99
406.889	464.65
407.267	470.52
407.645	487.25
408.023	488.6
408.401	475.95
408.779	480.47
409.156	507.81
409.534	509.39
409.912	531.09
410.29	503.74
410.667	520.01
411.045	518.88
411.422	516.4
411.8	535.61
412.178	540.13
412.555	543.97
412.933	547.58
413.31	561.82
413.687	578.54
414.065	579.67
414.442	581.93
414.819	605.44
415.197	580.58
415.574	609.96
415.951	628.94
416.328	611.54
416.705	642.27
417.082	634.59
417.46	638.88
417.837	660.8
418.214	651.76
418.591	684.76
418.967	669.62
419.344	689.28
419.721	709.16
420.098	692.67
420.475	691.99
420.852	737.18
421.228	748.26
421.605	733.57
421.982	771.76
422.358	751.19
422.735	753.23
423.111	777.63
423.488	806.79
423.864	788.26
424.241	782.38
424.617	805.2
424.994	790.29
425.37	814.7
425.746	836.84
426.123	861.47
426.499	832.55
426.875	852.66
427.251	850.85
427.627	882.72
428.003	902.15
428.379	875.03
428.756	906.67
429.132	894.02
429.507	927.91
429.883	933.79
430.259	929.95
430.635	969.27
431.011	977.86
431.387	993.9
431.763	996.16
432.138	1001.81
432.514	1003.62
432.89	1002.71
433.265	1059.66
433.641	1056.05
434.016	1053.56
434.392	1069.15
434.767	1108.47
435.143	1091.07
435.518	1134.69
435.894	1121.81
436.269	1108.47
436.644	1143.28
437.02	1164.74
437.395	1160.68
437.77	1185.99
438.145	1178.75
438.52	1208.81
438.895	1204.29
439.271	1207
439.646	1231.41
440.021	1213.33
440.395	1236.15
440.77	1235.02
441.145	1259.88
441.52	1288.13
441.895	1271.41
442.27	1272.54
442.645	1257.85
443.019	1309.37
443.394	1299.88
443.769	1299.43
444.143	1293.33
444.518	1330.84
444.892	1324.74
445.267	1330.61
445.641	1339.88
446.016	1330.39
446.39	1343.72
446.764	1363.38
447.139	1350.28
447.513	1357.51
447.887	1327.9
448.262	1383.49
448.636	1371.97
449.01	1405.64
449.384	1387.56
449.758	1385.75
450.132	1419.88
450.506	1414.68
450.88	1402.03
451.254	1427.34
451.628	1434.79
452.002	1480.67
452.376	1452.87
452.75	1471.85
453.123	1460.33
453.497	1479.54
453.871	1482.48
454.244	1522.93
454.618	1490.61
454.992	1524.96
455.365	1539.87
455.739	1570.38
456.112	1544.62
456.486	1564.51
456.859	1572.87
457.232	1571.06
457.606	1563.38
457.979	1595.24
458.352	1630.95
458.725	1648.35
459.099	1666.88
459.472	1673.88
459.845	1674.33
460.218	1673.66
460.591	1692.41
460.964	1692.19
461.337	1737.84
461.71	1728.8
462.083	1783.26
462.456	1758.4
462.829	1766.54
463.201	1815.57
463.574	1797.27
463.947	1794.11
464.32	1848.34
464.692	1876.36
465.065	1871.84
465.438	1893.99
465.81	1890.83
466.183	1908
466.555	1945.06
466.928	1952.07
467.3	1927.44
467.672	2008.11
468.045	2007.89
468.417	2000.43
468.789	2004.95
469.161	2036.81
469.534	2058.73
469.906	2099.18
470.278	2111.84
470.65	2123.59
471.022	2145.73
471.394	2157.03
471.766	2167.65
472.138	2187.54
472.51	2237.48
472.882	2256.69
473.253	2249.46
473.625	2311.38
473.997	2333.98
474.369	2357.48
474.74	2366.97
475.112	2427.76
475.484	2418.95
475.855	2473.86
476.227	2445.84
476.598	2517.7
476.97	2512.5
477.341	2567.19
477.713	2605.16
478.084	2607.64
478.455	2663.01
478.827	2640.64
479.198	2711.82
479.569	2690.13
479.94	2828.65
480.311	2801.99
480.682	2816.68
481.053	2882.21
481.424	2901.19
481.795	2935.77
482.166	2934.19
482.537	2973.96
482.908	3040.4
483.279	3065.03
483.65	3081.53
484.021	3137.35
484.391	3149.32
484.762	3168.08
485.133	3186.61
485.503	3237.68
485.874	3251.24
486.244	3238.59
486.615	3343.67
486.985	3345.25
487.356	3404.46
487.726	3428.64
488.097	3481.97
488.467	3459.15
488.837	3584.11
489.207	3598.35
489.578	3602.87
489.948	3652.59
490.318	3662.76
490.688	3681.74
491.058	3723.09
491.428	3740.27
491.798	3769.87
492.168	3844.22
492.538	3911.56
492.908	3898
493.278	3904.11
493.648	3905.69
494.017	3928.06
494.387	4014.39
494.757	4024.1
495.126	4074.5
495.496	4060.49
495.866	4069.53
496.235	4132.12
496.605	4136.87
496.974	4181.16
497.344	4141.16
497.713	4187.94
498.082	4230.65
498.452	4280.82
498.821	4259.13
499.19	4246.7
499.559	4317.43
499.928	4316.75
500.298	4329.86
500.667	4393.59
501.036	4385.22
501.405	4419.12
501.774	4376.41
502.143	4458.44
502.512	4496.18
502.88	4486.69
503.249	4521.04
503.618	4495.28
503.987	4489.18
504.356	4536.63
504.724	4525.56
505.093	4587.48
505.462	4523.3
505.83	4563.98
506.199	4701.6
506.567	4653.47
506.936	4713.35
507.304	4764.87
507.672	4765.55
508.041	4744.54
508.409	4755.16
508.777	4824.99
509.145	4828.15
509.514	4829.05
509.882	4802.61
510.25	4813.91
510.618	4838.55
510.986	4899.79
511.354	4883.29
511.722	4953.57
512.09	4956.51
512.458	4964.19
512.826	5004.64
513.193	4986.79
513.561	5024.3
513.929	5016.39
514.297	5014.36
514.664	5084.19
515.032	5040.57
515.4	5106.33
515.767	5122.15
516.135	5151.08
516.502	5076.28
516.869	5166.67
517.237	5162.38
517.604	5121.48
517.972	5184.3
518.339	5246.22
518.706	5199.89
519.073	5225.2
519.44	5273.79
519.808	5308.14
520.175	5292.77
520.542	5327.8
520.909	5330.06
521.276	5329.15
521.643	5399.66
522.009	5390.62
522.376	5444.4
522.743	5466.78
523.11	5503.84
523.477	5540.9
523.843	5542.48
524.21	5567.57
524.577	5590.16
524.943	5611.86
525.31	5636.49
525.676	5655.47
526.043	5670.84
526.409	5733.89
526.776	5756.94
527.142	5760.55
527.508	5778.41
527.874	5850.5
528.241	5878.52
528.607	5845.52
528.973	5952.64
529.339	5896.14
529.705	5964.62
530.071	6089.36
530.437	6052.3
530.803	6057.95
531.169	6104.5
531.535	6039.87
531.901	6168.23
532.267	6185.18
532.632	6235.34
532.998	6219.75
533.364	6250.03
533.73	6292.07
534.095	6322.35
534.461	6342.69
534.826	6363.48
535.192	6415
535.557	6429.92
535.923	6413.42
536.288	6419.75
536.653	6437.6
537.019	6440.99
537.384	6535.45
537.749	6582.68
538.114	6617.48
538.479	6575.45
538.845	6640.98
539.21	6577.26
539.575	6607.99
539.94	6639.85
540.305	6673.53
540.67	6703.35
541.034	6784.48
541.399	6777.48
541.764	6744.48
542.129	6863.58
542.494	6853.63
542.858	6871.71
543.223	6892.95
543.587	6952.61
543.952	6940.64
544.316	7009.34
544.681	7008.66
545.045	7066.51
545.41	7106.28
545.774	7160.97
546.138	7147.64
546.503	7168.43
546.867	7156.9
547.231	7208.88
547.595	7273.96
547.959	7289.1
548.324	7298.37
548.688	7323.23
549.052	7344.02
549.416	7359.83
549.779	7399.16
550.143	7393.73
550.507	7467.63
550.871	7446.84
551.235	7445.71
551.599	7577.23
551.962	7572.03
552.326	7603.67
552.689	7641.86
553.053	7516.89
553.417	7595.53
553.78	7703.78
554.143	7650.67
554.507	7713.05
554.87	7708.75
555.234	7804.79
555.597	7730.22
555.96	7777.68
556.323	7843.44
556.686	7824.91
557.05	7864.91
557.413	7893.61
557.776	7922.08
558.139	7988.97
558.502	7940.38
558.865	7933.6
559.228	7986.26
559.59	8030.33
559.953	8072.13
560.316	8149.64
560.679	8114.17
561.041	8167.95
561.404	8145.8
561.767	8190.55
562.129	8246.59
562.492	8308.96
562.854	8220.38
563.217	8316.19
563.579	8307.15
563.941	8381.5
564.304	8366.14
564.666	8397.32
565.028	8456.76
565.39	8505.12
565.753	8506.02
566.115	8522.06
566.477	8535.17
566.839	8633.7
567.201	8586.47
567.563	8629.41
567.925	8658.56
568.287	8695.62
568.648	8654.04
569.01	8753.24
569.372	8843.86
569.734	8739.69
570.095	8867.59
570.457	8938.1
570.819	8888.83
571.18	8935.84
571.542	9066
571.903	9044.08
572.265	9094.25
572.626	9121.37
572.987	9184.19
573.349	9287.24
573.71	9238.43
574.071	9364.08
574.432	9427.35
574.794	9468.03
575.155	9489.27
575.516	9453.56
575.877	9613.33
576.238	9672.77
576.599	9792.54
576.96	9787.57
577.32	9936.94
577.681	10019.43
578.042	10156.6
578.403	10211.06
578.763	10293.99
579.124	10402.92
579.485	10461.67
579.845	10631.39
580.206	10640.88
580.566	10851.95
580.927	10965.62
581.287	11190.24
581.648	11228.21
582.008	11388.66
582.368	11510.23
582.728	11672.04
583.089	11903.44
583.449	12016.89
583.809	12179.82
584.169	12382.53
584.529	12475.18
584.889	12784.1
585.249	12910.65
585.609	13147.71
585.969	13381.15
586.329	13526.23
586.688	13800.12
587.048	14005.08
587.408	14247.56
587.768	14537.27
588.127	14721.68
588.487	14960.31
588.846	15333.18
589.206	15492.73
589.565	15774.75
589.925	16134.75
590.284	16327.73
590.643	16602.53
591.003	16871.45
591.362	17316.64
591.721	17449.74
592.08	17728.83
592.44	18142.83
592.799	18378.75
593.158	18691.29
593.517	19020.55
593.876	19350.03
594.235	19630.7
594.593	19888.54
594.952	20170.12
595.311	20480.85
595.67	20746.6
596.029	21147.72
596.387	21604.88
596.746	21950.19
597.104	22168.94
597.463	22471.75
597.822	22824.51
598.18	23035.58
598.538	23302.69
598.897	23736.81
599.255	23841.66
599.613	24544.69
599.972	24633.5
600.33	24940.39
600.688	25201.85
601.046	25545.35
601.404	25961.83
601.762	26161.15
602.12	26601.14
602.478	26908.93
602.836	27034.57
603.194	27202.02
603.552	27578.74
603.91	27794.1
604.268	28290.36
604.625	28313.86
604.983	28738.93
605.341	28827.74
605.698	29235.64
606.056	29553.83
606.413	29815.97
606.771	29955.62
607.128	30295.05
607.485	30598.55
607.843	30706.57
608.2	31107.01
608.557	31403.95
608.914	31540.22
609.272	31919.64
609.629	32200.99
609.986	32495.45
610.343	32494.77
610.7	32852.72
611.057	32974.75
611.414	33212.26
611.771	33359.38
612.127	33802.08
612.484	33913.49
612.841	34013.82
613.198	34143.76
613.554	34450.87
613.911	34831.2
614.267	34802.95
614.624	35012.44
614.98	35195.94
615.337	35564.06
615.693	35542.37
616.05	35795.92
616.406	36198.85
616.762	36001.57
617.118	36248.57
617.475	36241.11
617.831	36579.63
618.187	36806.52
618.543	36944.59
618.899	37164.47
619.255	37265.26
619.611	37334.64
619.967	37413.51
620.323	37789.54
620.678	37602.66
621.034	37783.89
621.39	37957.9
621.746	38042.19
622.101	38536.19
622.457	38250.1
622.812	38377.78
623.168	38643.53
623.523	38633.81
623.879	38934.37
624.234	38767.14
624.589	38928.27
624.945	38987.7
625.3	39069.96
625.655	39170.07
626.01	39348.82
626.365	39489.39
626.72	39415.94
627.075	39474.7
627.43	39591.76
627.785	39589.04
628.14	39588.14
628.495	39765.76
628.85	39782.26
629.205	39616.39
629.559	40092.31
629.914	39841.01
630.269	40115.81
630.623	39956.27
630.978	39934.12
631.332	40147.22
631.687	40249.59
632.041	40046.66
632.396	40187.22
632.75	40133.66
633.104	40349.25
633.459	40165.75
633.813	40212.76
634.167	40169.37
634.521	40285.52
634.875	40249.59
635.229	40312.87
635.583	40210.95
635.937	40188.35
636.291	40293.21
636.645	40265.86
636.999	40217.5
637.352	40336.37
637.706	40205.52
638.06	40271.51
638.413	40136.83
638.767	40238.52
639.121	40181.8
639.474	39997.62
639.828	40030.16
640.181	40182.7
640.534	40176.82
640.888	40032.65
641.241	40011.86
641.594	40134.57
641.947	40350.15
642.301	40024.74
642.654	40236.48
643.007	40124.4
643.36	40254.34
643.713	40074.23
644.066	40278.07
644.419	39892.99
644.771	39723.5
645.124	39496.62
645.477	39315.83
645.83	39062.28
646.182	39068.15
646.535	38743.42
646.888	39113.35
647.24	38829.74
647.593	39044.43
647.945	38970.3
648.298	38769.4
648.65	38597.66
649.002	38571.22
649.355	38758.56
649.707	38750.87
650.059	38899.57
650.411	39303.63
650.763	39318.54
651.115	39744.97
651.467	39747.68
651.819	39664.07
652.171	39586.56
652.523	39467.01
652.875	39533.45
653.227	39368.94
653.578	39603.96
653.93	39534.36
654.282	39468.14
654.633	39334.59
654.985	39489.84
655.337	39456.17
655.688	39365.55
656.039	39622.26
656.391	39263.4
656.742	39295.27
657.094	39427.69
657.445	39398.31
657.796	39313.57
658.147	39386.56
658.498	39277.64
658.849	39293.23
659.2	39427.01
659.551	39197.87
659.902	39364.64
660.253	39329.62
660.604	39325.55
660.955	39105.21
661.306	39310.63
661.656	39324.64
662.007	39291.88
662.358	39301.14
662.708	39378.65
663.059	39254.36
663.409	38986.8
663.76	39302.5
664.11	39190.18
664.461	39303.63
664.811	39256.17
665.161	39059.11
665.511	39094.37
665.862	39227.02
666.212	39176.4
666.562	39238.32
666.912	39206.91
667.262	39146.8
667.612	39118.55
667.962	39257.98
668.312	38960.13
668.662	39232.44
669.011	39193.57
669.361	38986.57
669.711	38925.11
670.06	38886.69
670.41	38953.81
670.76	38860.02
671.109	39033.35
671.459	38968.72
671.808	38866.8
672.157	39019.12
672.507	38724.66
672.856	38757.88
673.205	38833.81
673.554	38865.67
673.904	38839.91
674.253	39024.31
674.602	38870.64
674.951	38309.76
675.3	38234.5
675.649	38726.69
675.998	38721.72
676.346	38755.17
676.695	38809.18
677.044	38503.2
677.393	38712.68
677.741	38575.74
678.09	38623.42
678.438	38463.65
678.787	38620.26
679.135	38488.96
679.484	38433.37
679.832	38401.05
680.181	38329.87
680.529	38397.66
680.877	38269.3
681.225	38089.87
681.573	38413.71
681.922	38171
682.27	38153.15
682.618	38089.87
682.966	37996.54
683.314	37944.12
683.661	37964.91
684.009	37937.11
684.357	37850.11
684.705	37753.84
685.053	37674.97
685.4	37690.56
685.748	37484.24
686.095	37486.5
686.443	37465.03
686.79	37410.34
687.138	37470.68
687.485	37405.15
687.832	37246.05
688.18	37289.9
688.527	36988.66
688.874	37021.88
689.221	36876.12
689.568	36886.06
689.915	36886.74
690.262	36834.54
690.609	36817.59
690.956	36464.83
691.303	36530.82
691.65	36472.97
691.997	36380.09
692.344	36155.91
692.69	36239.53
693.037	36189.36
693.383	35909.37
693.73	36023.49
694.077	35865.3
694.423	35857.39
694.769	35726.55
695.116	35632.76
695.462	35570.84
695.808	35517.74
696.155	35570.84
696.501	35186.9
696.847	35269.38
697.193	35091.99
697.539	35189.16
697.885	34880.92
698.231	34844.54
698.577	34891.54
698.923	34725.89
699.269	34666.01
699.614	34417.88
699.96	34397.09
700.306	34442.74
700.651	34259.92
700.997	34322.52
701.342	34262.18
701.688	34108.06
702.033	34032.58
702.379	33962.98
702.724	33894.5
703.069	33886.14
703.415	33543.55
703.76	33632.14
704.105	33662.65
704.45	33564.12
704.795	33321.41
705.14	33318.02
705.485	33211.58
705.83	33085.94
706.175	33075.99
706.52	33055.88
706.865	32987.18
707.209	32891.82
707.554	32790.8
707.899	32832.61
708.243	32569.34
708.588	32522.56
708.932	32400.76
709.277	32347.2
709.621	32397.14
709.966	32107.66
710.31	32360.08
710.654	31975.68
710.998	31997.83
711.342	32073.99
711.687	31966.87
712.031	31851.62
712.375	31748.12
712.719	31725.52
713.063	31670.61
713.407	31784.05
713.75	31536.6
714.094	31504.51
714.438	31418.19
714.782	31414.12
715.125	31277.62
715.469	31326.66
715.812	31143.84
716.156	31014.13
716.499	31080.11
716.843	31192.2
717.186	30883.96
717.53	31071.08
717.873	30888.48
718.216	30947.69
718.559	30843.51
718.902	30560.58
719.246	30670.18
719.589	30645.32
719.932	30326.46
720.275	30469.28
720.617	30479.9
720.96	30472.67
721.303	30239.23
721.646	30358.33
721.989	30061.38
722.331	30042.63
722.674	30228.84
723.016	30121.5
723.359	30029.97
723.701	30104.1
724.044	29957.88
724.386	29829.75
724.729	29857.77
725.071	29662.53
725.413	29644.45
725.755	29780.49
726.097	29678.57
726.439	29512.7
726.782	29474.06
727.124	29563.77
727.465	29371.46
727.807	29301.18
728.149	29272.03
728.491	29240.16
728.833	29290.56
729.175	29158.13
729.516	29121.07
729.858	29173.5
730.199	28988.42
730.541	29079.04
730.882	28960.17
731.224	29089.43
731.565	28893.73
731.906	28887.4
732.248	28871.59
732.589	28720.4
732.93	28642.89
733.271	28610.35
733.612	28741.65
733.953	28649.9
734.294	28564.7
734.635	28391.6
734.976	28543.68
735.317	28344.37
735.658	28391.37
735.999	28333.52
736.339	28137.82
736.68	28404.25
737.021	28310.47
737.361	28115.45
737.702	28197.48
738.042	28097.82
738.383	27939.63
738.723	28182.56
739.063	28059.4
739.404	28035.45
739.744	27970.82
740.084	27863.93
740.424	27936.02
740.764	27835.23
741.104	27944.15
741.444	27706.19
741.784	27597.04
742.124	27676.81
742.464	27678.85
742.804	27485.18
743.143	27539.87
743.483	27527.44
743.823	27426.65
744.162	27408.8
744.502	27453.77
744.841	27266.88
745.181	27280.89
745.52	27312.53
745.86	27288.8
746.199	27158.64
746.538	27179.88
746.877	27284.28
747.216	27209.48
747.556	26982.14
747.895	27063.72
748.234	26926.78
748.573	26970.84
748.911	26770.17
749.25	26920
749.589	26764.75
749.928	26846.55
750.267	26661.7
750.605	26620.8
750.944	26576.96
751.283	26486.79
751.621	26574.7
751.96	26308.49
752.298	26411.76
752.636	26322.95
752.975	26182.62
753.313	26075.95
753.651	26187.59
753.989	26014.49
754.327	26068.04
754.666	25826.02
755.004	25931.78
755.342	25811.78
755.679	25866.24
756.017	25724.1
756.355	25817.43
756.693	25669.41
757.031	25776.98
757.368	25568.17
757.706	25388.51
758.044	25467.16
758.381	25421.05
758.719	25312.81
759.056	25311
759.394	25225.13
