Data from hue_240_FLMS001491_00018.txt Node
Date: Tue Feb 07 16:35:07 GMT 2017
User: dcchb
Spectrometer: FLMS00149
Trigger mode: 0
Integration Time (sec): 2.000000E-2
Scans to average: 10
Electric dark correction enabled: true
Nonlinearity correction enabled: false
Boxcar width: 0
XAxis mode: Wavelengths
Number of Pixels in Spectrum: 2048
>>>>>Begin Spectral Data<<<<<
341.393	-23.16
341.776	-23.16
342.16	-23.16
342.543	-44.86
342.927	-67.91
343.31	-70.85
343.693	-62.48
344.077	-53.9
344.46	-70.62
344.843	-49.83
345.226	-54.8
345.61	-31.75
345.993	-21.13
346.376	19.55
346.759	22.03
347.142	17.97
347.525	45.08
347.908	46.67
348.291	66.78
348.674	88.47
349.057	108.81
349.44	117.17
349.823	128.25
350.206	165.31
350.588	185.64
350.971	217.06
351.354	226.1
351.737	213.89
352.119	237.85
352.502	239.65
352.884	254.34
353.267	266.77
353.65	288.02
354.032	308.35
354.414	296.83
354.797	307.68
355.179	301.12
355.562	308.58
355.944	306.32
356.326	323.49
356.709	316.49
357.091	328.24
357.473	332.53
357.855	331.18
358.238	327.79
358.62	349.03
359.002	330.73
359.384	316.71
359.766	351.97
360.148	316.26
360.53	322.82
360.912	316.94
361.294	323.95
361.676	324.17
362.057	325.08
362.439	323.95
362.821	316.26
363.203	327.11
363.584	327.79
363.966	311.97
364.348	309.26
364.729	297.73
365.111	299.99
365.493	310.39
365.874	305.19
366.256	309.48
366.637	302.93
367.019	322.14
367.4	314.23
367.781	301.8
368.163	323.95
368.544	311.52
368.925	313.1
369.306	303.16
369.688	303.83
370.069	306.55
370.45	304.74
370.831	290.27
371.212	301.8
371.593	315.36
371.974	313.55
372.355	320.78
372.736	328.47
373.117	310.39
373.498	304.06
373.879	297.28
374.26	314.46
374.641	322.36
375.021	296.83
375.402	288.24
375.783	316.71
376.163	323.95
376.544	314.68
376.925	317.84
377.305	322.82
377.686	324.62
378.066	307.9
378.447	332.99
378.827	331.18
379.208	338.64
379.588	330.73
379.968	326.66
380.349	333.89
380.729	339.09
381.109	330.05
381.489	328.69
381.87	331.4
382.25	317.84
382.63	307.45
383.01	328.47
383.39	337.28
383.77	345.41
384.15	343.38
384.53	337.73
384.91	343.83
385.29	341.12
385.67	332.08
386.049	347.67
386.429	353.1
386.809	346.54
387.189	350.16
387.568	354
387.948	349.93
388.328	353.55
388.707	361.01
389.087	362.82
389.466	356.04
389.846	369.14
390.225	377.05
390.605	347.22
390.984	379.31
391.363	352.42
391.743	373.44
392.122	356.26
392.501	358.07
392.881	377.96
393.26	365.98
393.639	358.07
394.018	388.13
394.397	372.31
394.776	365.53
395.155	381.12
395.534	385.41
395.913	386.54
396.292	382.25
396.671	390.39
397.05	410.27
397.429	387.67
397.808	386.77
398.186	409.14
398.565	375.92
398.944	390.39
399.323	388.13
399.701	400.33
400.08	384.28
400.458	407.33
400.837	409.82
401.215	396.49
401.594	409.37
401.972	402.36
402.351	403.49
402.729	399.2
403.107	427.9
403.486	434.68
403.864	438.97
404.242	424.73
404.62	432.42
404.999	417.73
405.377	433.77
405.755	449.82
406.133	434
406.511	440.55
406.889	448.01
407.267	475.13
407.645	486.65
408.023	456.6
408.401	447.78
408.779	482.13
409.156	476.94
409.534	479.65
409.912	492.08
410.29	492.08
410.667	491.63
411.045	511.51
411.422	504.28
411.8	518.52
412.178	535.69
412.555	537.95
412.933	537.95
413.31	543.83
413.687	537.05
414.065	533.66
414.442	535.69
414.819	533.88
415.197	575.01
415.574	580.44
415.951	580.44
416.328	565.97
416.705	594.22
417.082	566.43
417.46	585.41
417.837	613.2
418.214	613.88
418.591	626.76
418.967	605.07
419.344	645.97
419.721	630.6
420.098	615.01
420.475	642.13
420.852	654.79
421.228	676.25
421.605	655.01
421.982	694.78
422.358	692.75
422.735	678.06
423.111	670.38
423.488	706.31
423.864	732.75
424.241	756.7
424.617	735.91
424.994	736.59
425.37	739.98
425.746	781.11
426.123	771.17
426.499	792.41
426.875	793.99
427.251	801.9
427.627	785.18
428.003	826.08
428.379	860.2
428.756	845.97
429.132	852.29
429.507	859.07
429.883	879.86
430.259	861.33
430.635	888.45
431.011	911.28
431.387	890.94
431.763	920.31
432.138	923.93
432.514	943.37
432.89	943.14
433.265	963.03
433.641	981.78
434.016	984.49
434.392	1010.48
434.767	1023.36
435.143	1044.38
435.518	1049.58
435.894	1053.64
436.269	1069.01
436.644	1080.31
437.02	1115.79
437.395	1098.39
437.77	1154.66
438.145	1153.53
438.52	1144.49
438.895	1175.68
439.271	1188.1
439.646	1241.89
440.021	1203.92
440.395	1244.37
440.77	1229.01
441.145	1270.36
441.52	1272.62
441.895	1268.78
442.27	1269.01
442.645	1309.91
443.019	1302.68
443.394	1310.59
443.769	1330.02
444.143	1337.03
444.518	1348.55
444.892	1334.32
445.267	1359.4
445.641	1367.76
446.016	1382
446.39	1412.28
446.764	1387.2
447.139	1373.41
447.513	1425.39
447.887	1428.55
448.262	1423.13
448.636	1441.21
449.01	1461.54
449.384	1454.54
449.758	1471.94
450.132	1497.93
450.506	1469
450.88	1489.11
451.254	1530.02
451.628	1558.49
452.002	1550.58
452.376	1560.75
452.75	1568.89
453.123	1574.99
453.497	1597.59
453.871	1630.58
454.244	1624.25
454.618	1651.14
454.992	1634.87
455.365	1677.81
455.739	1716.68
456.112	1729.11
456.486	1744.7
456.859	1760.07
457.232	1770.01
457.606	1779.28
457.979	1780.86
458.352	1847.07
458.725	1859.5
459.099	1872.61
459.472	1880.29
459.845	1919.61
460.218	1904.7
460.591	1923.23
460.964	1955.32
461.337	1979.27
461.71	1990.8
462.083	2028.31
462.456	2017.69
462.829	2054.52
463.201	2049.55
463.574	2070.34
463.947	2103.11
464.32	2157.12
464.692	2162.32
465.065	2163.67
465.438	2179.72
465.81	2240.73
466.183	2240.05
466.555	2293.61
466.928	2320.28
467.3	2326.83
467.672	2341.07
468.045	2401.86
468.417	2366.15
468.789	2395.53
469.161	2465.58
469.534	2480.5
469.906	2522.76
470.278	2574.28
470.65	2595.75
471.022	2615.19
471.394	2655.86
471.766	2656.54
472.138	2671
472.51	2752.58
472.882	2792.13
473.253	2836.2
473.625	2818.57
473.997	2924.56
474.369	2896.31
474.74	2901.73
475.112	2985.8
475.484	3020.15
475.855	3092.01
476.227	3075.51
476.598	3191.44
476.97	3178.11
477.341	3272.34
477.713	3258.78
478.084	3287.03
478.455	3393.24
478.827	3419.68
479.198	3471.43
479.569	3485.9
479.94	3588.49
480.311	3581.26
480.682	3681.82
481.053	3736.96
481.424	3766.57
481.795	3820.58
482.166	3882.95
482.537	3912.78
482.908	3955.26
483.279	4029.61
483.65	4072.32
484.021	4126.11
484.391	4202.71
484.762	4269.38
485.133	4269.61
485.503	4280.9
485.874	4402.71
486.244	4407.23
486.615	4508.7
486.985	4550.05
487.356	4592.08
487.726	4611.07
488.097	4676.83
488.467	4743.94
488.837	4770.38
489.207	4823.71
489.578	4892.64
489.948	4916.14
490.318	4997.5
490.688	4999.53
491.058	5088.34
491.428	5121.11
491.798	5199.52
492.168	5256.47
492.538	5299.86
492.908	5315.68
493.278	5371.05
493.648	5394.32
494.017	5458.05
494.387	5481.78
494.757	5502.79
495.126	5606.75
495.496	5607.65
495.866	5598.84
496.235	5677.48
496.605	5713.41
496.974	5713.18
497.344	5740.98
497.713	5789.34
498.082	5815.33
498.452	5866.4
498.821	5902.56
499.19	5904.14
499.559	5983.01
499.928	6018.71
500.298	6031.14
500.667	6093.74
501.036	6045.15
501.405	6133.51
501.774	6111.59
502.143	6210.57
502.512	6219.16
502.88	6214.64
503.249	6258.03
503.618	6268.2
503.987	6261.87
504.356	6286.73
504.724	6329.89
505.093	6326.73
505.462	6387.06
505.83	6406.72
506.199	6397.68
506.567	6443.56
506.936	6505.48
507.304	6480.17
507.672	6534.63
508.041	6540.96
508.409	6570.34
508.777	6681.97
509.145	6701.63
509.514	6617.57
509.882	6688.52
510.25	6667.51
510.618	6754.96
510.986	6766.49
511.354	6753.83
511.722	6803.78
512.09	6862.53
512.458	6868.86
512.826	6837.22
513.193	6881.51
513.561	6849.65
513.929	6908.86
514.297	6997.44
514.664	6998.35
515.032	7013.94
515.4	7063.2
515.767	7044.67
516.135	7081.28
516.502	7023.88
516.869	7102.3
517.237	7102.53
517.604	7106.14
517.972	7186.59
518.339	7201.05
518.706	7162.86
519.073	7224.1
519.44	7231.56
519.808	7268.62
520.175	7260.26
520.542	7303.65
520.909	7329.19
521.276	7352.69
521.643	7374.61
522.009	7395.4
522.376	7402.63
522.743	7448.96
523.11	7415.29
523.477	7479.92
523.843	7492.12
524.21	7547.94
524.577	7570.08
524.943	7634.94
525.31	7662.74
525.676	7631.1
526.043	7702.28
526.409	7644.66
526.776	7775.05
527.142	7730.98
527.508	7741.15
527.874	7759.91
528.241	7809.63
528.607	7797.2
528.973	7904.54
529.339	7820.25
529.705	7850.3
530.071	7840.13
530.437	7950.41
530.803	7890.75
531.169	7979.11
531.535	7921.71
531.901	7988.83
532.267	7973.46
532.632	8006
532.998	7915.84
533.364	8017.53
533.73	7937.53
534.095	8045.55
534.461	8021.6
534.826	7948.6
535.192	8011.43
535.557	8034.03
535.923	8030.86
536.288	8083.97
536.653	8049.17
537.019	8029.28
537.384	8021.82
537.749	8027.25
538.114	8051.2
538.479	7999
538.845	8063.4
539.21	8029.05
539.575	8072.9
539.94	8084.42
540.305	8027.25
540.67	7989.28
541.034	7919.23
541.399	8027.7
541.764	8035.38
542.129	7980.47
542.494	7994.93
542.858	8017.76
543.223	7989.28
543.587	8031.31
543.952	7995.38
544.316	8058.43
544.681	8032.22
545.045	8012.78
545.41	8075.15
545.774	8056.62
546.138	7984.76
546.503	7971.2
546.867	7995.83
547.231	8061.37
547.595	8061.6
547.959	7996.96
548.324	8000.35
548.688	7956.06
549.052	7999.68
549.416	7986.8
549.779	8069.51
550.143	8026.34
550.507	7996.96
550.871	7974.14
551.235	7968.04
551.599	8007.81
551.962	8032.22
552.326	8009.39
552.689	7954.25
553.053	7936.85
553.417	7951.99
553.78	8069.05
554.143	7986.8
554.507	8080.35
554.87	8030.86
555.234	8063.86
555.597	7991.77
555.96	7976.63
556.323	8082.16
556.686	8074.7
557.05	8096.62
557.413	8092.56
557.776	8119.22
558.139	8097.98
558.502	8122.61
558.865	8090.3
559.228	8121.48
559.59	8141.82
559.953	8133.01
560.316	8223.85
560.679	8212.55
561.041	8184.76
561.404	8235.38
561.767	8314.47
562.129	8246.45
562.492	8288.71
562.854	8296.17
563.217	8274.47
563.579	8277.86
563.941	8335.71
564.304	8317.86
564.666	8373.9
565.028	8412.32
565.39	8412.1
565.753	8367.12
566.115	8468.14
566.477	8488.7
566.839	8490.74
567.201	8537.74
567.563	8477.86
567.925	8527.12
568.287	8537.97
568.648	8605.76
569.01	8641.47
569.372	8710.17
569.734	8595.37
570.095	8623.84
570.457	8761.01
570.819	8702.03
571.18	8692.31
571.542	8672.88
571.903	8761.24
572.265	8806.21
572.626	8818.64
572.987	8828.58
573.349	8838.98
573.71	8922.82
574.071	8937.96
574.432	8880.11
574.794	8976.83
575.155	8935.47
575.516	8924.17
575.877	9042.81
576.238	9039.65
576.599	9057.5
576.96	9015.92
577.32	9075.13
577.681	9043.04
578.042	9069.25
578.403	9138.18
578.763	9059.31
579.124	9107.44
579.485	9178.18
579.845	9245.97
580.206	9179.08
580.566	9229.93
580.927	9165.52
581.287	9275.12
581.648	9209.14
582.008	9292.52
582.368	9256.82
582.728	9271.96
583.089	9227.67
583.449	9299.08
583.809	9321.9
584.169	9281.45
584.529	9286.65
584.889	9394.44
585.249	9322.58
585.609	9354.9
585.969	9340.43
586.329	9384.5
586.688	9317.38
587.048	9417.94
587.408	9346.99
587.768	9330.94
588.127	9418.4
588.487	9372.3
588.846	9491.39
589.206	9380.43
589.565	9412.75
589.925	9480.99
590.284	9460.43
590.643	9514.89
591.003	9471.73
591.362	9558.51
591.721	9483.93
592.08	9459.3
592.44	9447.77
592.799	9603.25
593.158	9534.33
593.517	9566.42
593.876	9483.93
594.235	9491.84
594.593	9558.73
594.952	9517.83
595.311	9545.62
595.67	9556.02
596.029	9680.76
596.387	9615.23
596.746	9654.1
597.104	9605.28
597.463	9624.94
597.822	9629.69
598.18	9526.19
598.538	9594.44
598.897	9660.65
599.255	9589.92
599.613	9673.76
599.972	9723.93
600.33	9716.92
600.688	9652.29
601.046	9703.36
601.404	9738.39
601.762	9736.81
602.12	9778.84
602.478	9725.51
602.836	9734.09
603.194	9749.46
603.552	9763.92
603.91	9693.64
604.268	9704.26
604.625	9727.31
604.983	9720.08
605.341	9688.22
605.698	9758.05
606.056	9753.08
606.413	9748.78
606.771	9771.38
607.128	9752.17
607.485	9777.26
607.843	9794.66
608.2	9812.74
608.557	9847.76
608.914	9772.74
609.272	9911.49
609.629	9852.96
609.986	9956.91
610.343	9845.05
610.7	9967.76
611.057	9909
611.414	9931.6
611.771	9923.24
612.127	9946.07
612.484	9953.75
612.841	9998.72
613.198	9936.8
613.554	9964.14
613.911	10004.37
614.267	9929.34
614.624	9919.63
614.98	10041.88
615.337	10017.02
615.693	10027.65
616.05	10013.41
616.406	10070.81
616.762	9954.88
617.118	10007.31
617.475	10072.39
617.831	10017.25
618.187	10023.8
618.543	10037.82
618.899	10185.61
619.255	10071.94
619.611	10066.97
619.967	10136.8
620.323	10132.28
620.678	10041.88
621.034	10043.46
621.39	10040.53
621.746	9961.66
622.101	10103.58
622.457	10096.8
622.812	10150.35
623.168	10167.98
623.523	10057.25
623.879	10158.94
624.234	10061.32
624.589	10152.61
624.945	10046.63
625.3	10045.27
625.655	10098.38
626.01	10093.63
626.365	10080.53
626.72	10078.27
627.075	10099.96
627.43	10106.74
627.785	10028.78
628.14	10090.47
628.495	10108.55
628.85	10026.29
629.205	9996.69
629.559	10071.49
629.914	10045.05
630.269	10046.63
630.623	9985.61
630.978	9954.88
631.332	10094.99
631.687	10025.16
632.041	9968.66
632.396	10012.96
632.75	9995.56
633.104	9950.81
633.459	10006.18
633.813	9865.62
634.167	9951.49
634.521	9926.86
634.875	9981.32
635.229	9786.97
635.583	9853.64
635.937	9860.64
636.291	9831.27
636.645	9810.7
636.999	9843.24
637.352	9875.56
637.706	9809.35
638.06	9798.05
638.413	9757.14
638.767	9753.75
639.121	9765.73
639.474	9752.4
639.828	9731.61
640.181	9764.15
640.534	9730.7
640.888	9638.5
641.241	9702.46
641.594	9690.03
641.947	9698.62
642.301	9622.68
642.654	9682.12
643.007	9647.32
643.36	9639.63
643.713	9643.25
644.066	9585.85
644.419	9601.67
644.771	9501.11
645.124	9413.65
645.477	9469.69
645.83	9410.49
646.182	9335.91
646.535	9299.76
646.888	9337.95
647.24	9198.74
647.593	9370.71
647.945	9309.92
648.298	9279.42
648.65	9244.16
649.002	9254.33
649.355	9226.09
649.707	9298.85
650.059	9304.05
650.411	9402.58
650.763	9401.67
651.115	9474.44
651.467	9459.75
651.819	9455.23
652.171	9452.07
652.523	9423.37
652.875	9444.38
653.227	9422.24
653.578	9486.64
653.93	9456.14
654.282	9350.83
654.633	9409.36
654.985	9383.6
655.337	9421.33
655.688	9339.08
656.039	9442.35
656.391	9302.47
656.742	9331.39
657.094	9417.72
657.445	9424.5
657.796	9348.12
658.147	9372.75
658.498	9383.14
658.849	9359.87
659.2	9399.41
659.551	9369.13
659.902	9378.62
660.253	9410.71
660.604	9386.53
660.955	9389.24
661.306	9406.42
661.656	9401.9
662.007	9385.63
662.358	9356.7
662.708	9405.29
663.059	9409.13
663.409	9368.68
663.76	9353.09
664.11	9384.72
664.461	9421.33
664.811	9468.11
665.161	9399.64
665.511	9354.44
665.862	9326.2
666.212	9408.91
666.562	9358.96
666.912	9417.72
667.262	9368.45
667.612	9426.53
667.962	9459.3
668.312	9395.35
668.662	9380.88
669.011	9343.37
669.361	9363.48
669.711	9344.5
670.06	9329.13
670.41	9342.92
670.76	9353.54
671.109	9319.87
671.459	9285.52
671.808	9321
672.157	9363.71
672.507	9323.48
672.856	9231.06
673.205	9286.65
673.554	9295.69
673.904	9295.01
674.253	9343.6
674.602	9228.57
674.951	9095.69
675.3	9080.78
675.649	9308.79
675.998	9213.66
676.346	9242.81
676.695	9215.46
677.044	9162.13
677.393	9168.01
677.741	9212.3
678.09	9187.44
678.438	9131.17
678.787	9148.57
679.135	9193.09
679.484	9051.63
679.832	9126.2
680.181	9104.51
680.529	9075.13
680.877	9089.37
681.225	9030.16
681.573	9098.4
681.922	9090.5
682.27	9029.25
682.618	8993.77
682.966	8980.44
683.314	8951.97
683.661	8973.89
684.009	8935.7
684.357	8875.13
684.705	8846.89
685.053	8868.35
685.4	8799.43
685.748	8802.14
686.095	8818.64
686.443	8755.14
686.79	8837.62
687.138	8739.77
687.485	8777.96
687.832	8730.73
688.18	8730.28
688.527	8652.77
688.874	8624.29
689.221	8707.45
689.568	8633.78
689.915	8562.15
690.262	8549.27
690.609	8561.47
690.956	8462.26
691.303	8467.69
691.65	8462.26
691.997	8513.79
692.344	8475.82
692.69	8430.17
693.037	8381.14
693.383	8360.57
693.73	8313.11
694.077	8313.11
694.423	8336.39
694.769	8237.86
695.116	8229.28
695.462	8191.31
695.808	8178.43
696.155	8242.16
696.501	8133.01
696.847	8121.26
697.193	8063.63
697.539	8074.7
697.885	8035.61
698.231	7971.43
698.577	8017.98
698.923	8047.59
699.269	7919.68
699.614	7890.53
699.96	7886.91
700.306	7903.63
700.651	7814.82
700.997	7833.13
701.342	7801.04
701.688	7831.09
702.033	7747.93
702.379	7767.82
702.724	7749.29
703.069	7750.42
703.415	7610.99
703.76	7629.06
704.105	7599.46
704.45	7549.07
704.795	7526.69
705.14	7480.59
705.485	7544.55
705.83	7528.5
706.175	7468.62
706.52	7432.91
706.865	7461.39
707.209	7405.57
707.554	7367.83
707.899	7460.03
708.243	7361.5
708.588	7391.11
708.932	7301.62
709.277	7264.55
709.621	7269.75
709.966	7263.88
710.31	7264.1
710.654	7228.17
710.998	7199.47
711.342	7253.26
711.687	7158.79
712.031	7148.85
712.375	7150.43
712.719	7122.64
713.063	7125.35
713.407	7070.21
713.75	7054.62
714.094	7086.03
714.438	7065.46
714.782	7054.62
715.125	7022.3
715.469	7016.43
715.812	7041.06
716.156	6995.41
716.499	6980.04
716.843	6982.75
717.186	6913.6
717.53	6925.35
717.873	6964.9
718.216	6903.89
718.559	6930.78
718.902	6875.86
719.246	6876.99
719.589	6800.39
719.932	6821.85
720.275	6808.52
720.617	6788.18
720.96	6792.02
721.303	6828.18
721.646	6825.24
721.989	6791.12
722.331	6820.27
722.674	6723.1
723.016	6793.38
723.359	6745.7
723.701	6787.96
724.044	6746.83
724.386	6714.06
724.729	6783.21
725.071	6678.36
725.413	6726.94
725.755	6730.56
726.097	6707.73
726.439	6654.4
726.782	6679.03
727.124	6684.01
727.465	6679.49
727.807	6614.4
728.149	6630.45
728.491	6586.15
728.833	6702.54
729.175	6624.57
729.516	6651.69
729.858	6659.6
730.199	6646.27
730.541	6637.23
730.882	6623.22
731.224	6695.76
731.565	6589.77
731.906	6659.82
732.248	6650.11
732.589	6566.95
732.93	6594.06
733.271	6559.71
733.612	6593.84
733.953	6580.96
734.294	6559.04
734.635	6595.87
734.976	6634.74
735.317	6585.7
735.658	6606.72
735.999	6596.32
736.339	6587.51
736.68	6628.64
737.021	6584.8
737.361	6544.57
737.702	6587.96
738.042	6524.24
738.383	6574.18
738.723	6572.37
739.063	6576.21
739.404	6526.95
739.744	6520.62
740.084	6576.89
740.424	6573.73
740.764	6569.43
741.104	6615.31
741.444	6591.58
741.784	6574.18
742.124	6623.89
742.464	6611.01
742.804	6607.4
743.143	6648.53
743.483	6607.4
743.823	6624.57
744.162	6645.14
744.502	6671.8
744.841	6685.59
745.181	6686.04
745.52	6731.24
745.86	6721.97
746.199	6777.56
746.538	6733.95
746.877	6826.83
747.216	6830.44
747.556	6818.69
747.895	6866.15
748.234	6851.91
748.573	6928.29
748.911	6921.29
749.25	6997.22
749.589	6992.47
749.928	7046.26
750.267	7055.07
750.605	7103.43
750.944	7166.03
751.283	7201.73
751.621	7201.05
751.96	7234.95
752.298	7367.15
752.636	7340.26
752.975	7394.49
753.313	7485.79
753.651	7553.59
753.989	7578.22
754.327	7623.42
754.666	7726.01
755.004	7813.47
755.342	7824.54
755.679	7938.66
756.017	7940.02
756.355	8076.28
756.693	8117.64
757.031	8210.07
757.368	8282.16
757.706	8362.83
758.044	8387.92
758.381	8552.2
758.719	8576.84
759.056	8687.79
759.394	8753.1
759.731	8780.45
760.068	8897.96
760.405	9028.12
760.743	9049.14
761.08	9179.08
761.417	9259.3
761.754	9295.91
762.091	9475.8
762.428	9485.74
762.765	9585.4
763.102	9740.2
763.438	9782
763.775	9786.52
764.112	9983.13
764.449	10008.21
764.785	10094.54
765.122	10146.51
765.458	10179.05
765.795	10309.22
766.131	10417.69
766.467	10540.17
766.804	10487.75
767.14	10504.47
767.476	10648.42
767.812	10700.17
768.148	10785.14
768.485	10801.64
