Data from hue_320_FLMS001491_81.txt Node
Date: Mon Feb 06 15:47:49 GMT 2017
User: dcchb
Spectrometer: FLMS00149
Trigger mode: 0
Integration Time (sec): 2.000000E-2
Scans to average: 10
Electric dark correction enabled: true
Nonlinearity correction enabled: false
Boxcar width: 0
XAxis mode: Wavelengths
Number of Pixels in Spectrum: 2048
>>>>>Begin Spectral Data<<<<<
341.393	5.99
341.776	5.99
342.16	5.99
342.543	-44.86
342.927	-44.41
343.31	-73.33
343.693	-66.33
344.077	-66.78
344.46	-60
344.843	-40.56
345.226	-48.25
345.61	-18.42
345.993	-30.17
346.376	-12.99
346.759	-2.82
347.142	25.2
347.525	37.4
347.908	78.75
348.291	85.53
348.674	93.44
349.057	99.32
349.44	121.92
349.823	161.92
350.206	169.6
350.588	217.96
350.971	216.6
351.354	237.17
351.737	228.36
352.119	230.16
352.502	254.12
352.884	259.09
353.267	270.16
353.65	304.96
354.032	326.66
354.414	323.04
354.797	305.42
355.179	311.52
355.562	314.68
355.944	324.62
356.326	330.05
356.709	357.17
357.091	316.26
357.473	341.8
357.855	322.36
358.238	333.21
358.62	340.44
359.002	332.31
359.384	337.96
359.766	356.71
360.148	337.05
360.53	339.31
360.912	344.06
361.294	336.6
361.676	315.58
362.057	323.72
362.439	331.86
362.821	324.4
363.203	336.15
363.584	315.13
363.966	312.42
364.348	311.97
364.729	359.2
365.111	332.08
365.493	325.53
365.874	332.99
366.256	312.65
366.637	317.84
367.019	311.74
367.4	301.8
367.781	311.97
368.163	328.47
368.544	315.13
368.925	339.77
369.306	305.87
369.688	303.61
370.069	310.16
370.45	314.46
370.831	339.99
371.212	322.36
371.593	305.64
371.974	303.61
372.355	310.61
372.736	319.2
373.117	330.95
373.498	323.27
373.879	319.88
374.26	304.96
374.641	313.1
375.021	320.78
375.402	315.36
375.783	332.08
376.163	332.53
376.544	310.84
376.925	325.08
377.305	305.64
377.686	316.26
378.066	317.39
378.447	323.72
378.827	340.67
379.208	327.79
379.588	326.66
379.968	338.18
380.349	333.21
380.729	325.3
381.109	333.44
381.489	328.24
381.87	328.92
382.25	360.33
382.63	333.66
383.01	330.95
383.39	344.74
383.77	339.77
384.15	346.09
384.53	359.65
384.91	347.45
385.29	340.44
385.67	362.14
386.049	353.78
386.429	360.56
386.809	336.15
387.189	369.59
387.568	349.71
387.948	350.39
388.328	355.36
388.707	379.09
389.087	366.88
389.466	372.08
389.846	368.69
390.225	372.31
390.605	372.53
390.984	367.79
391.363	359.43
391.743	384.28
392.122	362.59
392.501	374.79
392.881	381.8
393.26	368.24
393.639	393.77
394.018	382.48
394.397	366.88
394.776	378.86
395.155	376.6
395.534	383.15
395.913	396.71
396.292	370.27
396.671	382.02
397.05	399.88
397.429	388.35
397.808	386.77
398.186	394
398.565	400.33
398.944	398.07
399.323	391.74
399.701	387
400.08	401.68
400.458	410.5
400.837	411.63
401.215	405.07
401.594	416.37
401.972	406.2
402.351	428.12
402.729	420.67
403.107	427.45
403.486	426.99
403.864	418.86
404.242	433.55
404.62	421.57
404.999	424.96
405.377	441.46
405.755	411.18
406.133	425.86
406.511	455.47
406.889	461.57
407.267	444.62
407.645	467.22
408.023	477.39
408.401	461.34
408.779	449.37
409.156	469.25
409.534	478.74
409.912	470.84
410.29	498.86
410.667	478.07
411.045	488.24
411.422	504.73
411.8	506.31
412.178	493.89
412.555	509.03
412.933	502.02
413.31	532.53
413.687	549.25
414.065	530.95
414.442	535.92
414.819	530.04
415.197	561.45
415.574	543.83
415.951	554.9
416.328	573.88
416.705	570.72
417.082	589.02
417.46	595.13
417.837	601.23
418.214	578.63
418.591	606.65
418.967	623.37
419.344	627.44
419.721	633.09
420.098	633.32
420.475	659.08
420.852	653.2
421.228	655.46
421.605	681.68
421.982	682.35
422.358	681
422.735	698.85
423.111	680.32
423.488	675.35
423.864	701.56
424.241	720.77
424.617	739.08
424.994	726.87
425.37	715.57
425.746	731.62
426.123	753.54
426.499	748.79
426.875	745.4
427.251	780.43
427.627	769.13
428.003	764.39
428.379	807.1
428.756	776.82
429.132	781.56
429.507	826.53
429.883	845.51
430.259	860.2
430.635	840.32
431.011	831.5
431.387	866.08
431.763	886.42
432.138	865.85
432.514	885.51
432.89	882.58
433.265	880.77
433.641	926.19
434.016	938.39
434.392	929.13
434.767	944.72
435.143	960.99
435.518	946.53
435.894	943.14
436.269	972.97
436.644	968.45
437.02	1014.55
437.395	996.47
437.77	1014.55
438.145	1002.8
438.52	1037.6
438.895	1049.58
439.271	1033.08
439.646	1036.24
440.021	1061.55
440.395	1073.76
440.77	1064.72
441.145	1077.15
441.52	1100.88
441.895	1090.03
442.27	1076.69
442.645	1070.59
443.019	1121.67
443.394	1132.96
443.769	1120.54
444.143	1108.33
444.518	1167.54
444.892	1149.01
445.267	1151.04
445.641	1152.4
446.016	1144.26
446.39	1141.55
446.764	1173.19
447.139	1164.38
447.513	1177.26
447.887	1205.28
448.262	1181.55
448.636	1176.35
449.01	1186.3
449.384	1185.17
449.758	1205.28
450.132	1224.26
450.506	1193.53
450.88	1232.85
451.254	1218.84
451.628	1251.15
452.002	1241.21
452.376	1223.58
452.75	1270.14
453.123	1259.97
453.497	1266.97
453.871	1273.3
454.244	1295.45
454.618	1290.25
454.992	1293.41
455.365	1301.77
455.739	1367.53
456.112	1316.91
456.486	1330.02
456.859	1338.61
457.232	1371.6
457.606	1374.77
457.979	1363.02
458.352	1390.13
458.725	1425.16
459.099	1402.79
459.472	1438.95
459.845	1415.67
460.218	1450.92
460.591	1468.1
460.964	1485.95
461.337	1474.88
461.71	1501.77
462.083	1536.57
462.456	1527.3
462.829	1533.63
463.201	1518.27
463.574	1564.14
463.947	1565.5
464.32	1566.4
464.692	1613.18
465.065	1614.76
465.438	1631.03
465.81	1647.3
466.183	1660.86
466.555	1662.67
466.928	1685.94
467.3	1687.98
467.672	1710.58
468.045	1734.53
468.417	1747.41
468.789	1731.59
469.161	1764.13
469.534	1768.88
469.906	1790.8
470.278	1832.61
470.65	1869.22
471.022	1862.21
471.394	1893.85
471.766	1900.63
472.138	1927.29
472.51	1945.37
472.882	1972.49
473.253	1984.92
473.625	1979.95
473.997	2041.19
474.369	2045.93
474.74	2048.65
475.112	2102.2
475.484	2075.76
475.855	2139.49
476.227	2127.51
476.598	2182.65
476.97	2215.2
477.341	2237.34
477.713	2286.15
478.084	2275.53
478.455	2347.17
478.827	2323.89
479.198	2367.73
479.569	2382.42
479.94	2428.07
480.311	2444.12
480.682	2502.42
481.053	2565.7
481.424	2582.19
481.795	2599.37
482.166	2600.04
482.537	2664.68
482.908	2689.08
483.279	2677.33
483.65	2748.74
484.021	2775.41
484.391	2800.27
484.762	2806.37
485.133	2837.1
485.503	2880.26
485.874	2904.67
486.244	2890.43
486.615	2977.89
486.985	2999.36
487.356	3008.62
487.726	3032.12
488.097	3112.8
488.467	3117.09
488.837	3164.32
489.207	3214.94
489.578	3251.1
489.948	3282.74
490.318	3289.74
490.688	3299.01
491.058	3348.27
491.428	3355.28
491.798	3424.88
492.168	3463.3
492.538	3460.59
492.908	3479.34
493.278	3523.64
493.648	3535.16
494.017	3590.98
494.387	3584.43
494.757	3632.79
495.126	3702.61
495.496	3652.9
495.866	3688.83
496.235	3710.52
496.605	3743.97
496.974	3759.11
497.344	3754.36
497.713	3767.7
498.082	3823.06
498.452	3830.52
498.821	3847.02
499.19	3873.68
499.559	3931.99
499.928	3872.55
500.298	3900.58
500.667	3981.25
501.036	3957.98
501.405	4009.05
501.774	4007.47
502.143	4054.47
502.512	4014.47
502.88	4094.69
503.249	4067.58
503.618	4064.19
503.987	4126.33
504.356	4138.76
504.724	4147.35
505.093	4191.19
505.462	4173.34
505.83	4207.01
506.199	4172.21
506.567	4229.15
506.936	4217.4
507.304	4288.14
507.672	4335.37
508.041	4292.88
508.409	4349.38
508.777	4374.46
509.145	4378.08
509.514	4330.62
509.882	4414.23
510.25	4416.72
510.618	4395.7
510.986	4411.07
511.354	4461.69
511.722	4473.89
512.09	4503.27
512.458	4514.34
512.826	4477.51
513.193	4529.71
513.561	4496.27
513.929	4549.82
514.297	4614.45
514.664	4619.65
515.032	4669.14
515.4	4652.19
515.767	4651.97
516.135	4699.42
516.502	4622.36
516.869	4707.33
517.237	4716.83
517.604	4714.11
517.972	4741.01
518.339	4752.98
518.706	4755.02
519.073	4813.77
519.44	4776.03
519.808	4858.52
520.175	4833.66
520.542	4882.7
520.909	4841.79
521.276	4832.53
521.643	4936.71
522.009	4924.96
522.376	4910.72
522.743	4967.89
523.11	4983.26
523.477	5063.48
523.843	5061.67
524.21	5111.62
524.577	5130.6
524.943	5180.09
525.31	5207.21
525.676	5229.13
526.043	5189.58
526.409	5241.33
526.776	5285.85
527.142	5284.27
527.508	5352.97
527.874	5378.73
528.241	5384.6
528.607	5393.64
528.973	5454.21
529.339	5463.92
529.705	5464.83
530.071	5569.01
530.437	5562.23
530.803	5599.74
531.169	5616.01
531.535	5590.25
531.901	5665.05
532.267	5688.33
532.632	5676.8
532.998	5700.53
533.364	5742.33
533.73	5762.9
534.095	5810.36
534.461	5775.78
534.826	5877.92
535.192	5880.18
535.557	5894.87
535.923	5892.39
536.288	5926.06
536.653	5987.53
537.019	5950.01
537.384	6022.55
537.749	6005.38
538.114	6022.33
538.479	6035.66
538.845	6092.61
539.21	6094.64
539.575	6108.2
539.94	6185.71
540.305	6177.35
540.67	6163.11
541.034	6224.58
541.399	6220.51
541.764	6279.27
542.129	6311.59
542.494	6298.03
542.858	6292.83
543.223	6366.5
543.587	6401.3
543.952	6422.77
544.316	6450.56
544.681	6498.7
545.045	6493.95
545.41	6521.07
545.774	6526.04
546.138	6507.74
546.503	6597.68
546.867	6604.01
547.231	6651.46
547.595	6652.59
547.959	6719.26
548.324	6625.25
548.688	6705.02
549.052	6711.12
549.416	6776.88
549.779	6805.13
550.143	6771.01
550.507	6836.09
550.871	6883.32
551.235	6891.68
551.599	6933.26
551.962	6923.32
552.326	6907.73
552.689	6999.7
553.053	6952.7
553.417	7009.87
553.78	7100.04
554.143	7010.55
554.507	7050.32
554.87	7101.4
555.234	7187.49
555.597	7159.7
555.96	7183.43
556.323	7168.51
556.686	7239.02
557.05	7238.11
557.413	7278.11
557.776	7245.12
558.139	7305.23
558.502	7309.98
558.865	7354.27
559.228	7371.44
559.59	7444.21
559.953	7472.46
560.316	7489.18
560.679	7510.65
561.041	7475.85
561.404	7552.68
561.767	7565.79
562.129	7559.91
562.492	7639.69
562.854	7640.36
563.217	7665
563.579	7705.45
563.941	7703.41
564.304	7761.49
564.666	7810.98
565.028	7784.09
565.39	7829.96
565.753	7807.82
566.115	7841.26
566.477	7984.54
566.839	7971.43
567.201	8034.7
567.563	7960.81
567.925	8057.75
568.287	8026.57
568.648	8034.03
569.01	8101.14
569.372	8151.31
569.734	8159.22
570.095	8246.9
570.457	8206.45
570.819	8276.28
571.18	8255.72
571.542	8381.81
571.903	8404.86
572.265	8426.11
572.626	8440.57
572.987	8509.27
573.349	8558.08
573.71	8577.29
574.071	8645.76
574.432	8730.05
574.794	8758.07
575.155	8777.96
575.516	8831.07
575.877	8911.29
576.238	8946.54
576.599	9042.36
576.96	9068.58
577.32	9176.59
577.681	9200.55
578.042	9307.44
578.403	9344.73
578.763	9492.97
579.124	9583.59
579.485	9741.55
579.845	9786.97
580.206	9816.13
580.566	9986.07
580.927	10105.84
581.287	10171.82
581.648	10245.72
582.008	10427.18
582.368	10517.35
582.728	10734.97
583.089	10730.23
583.449	10986.94
583.809	11128.18
584.169	11317.56
584.529	11433.03
584.889	11620.82
585.249	11850.42
585.609	11879.35
585.969	12228.04
586.329	12300.58
586.688	12522.5
587.048	12713.68
587.408	12931.98
587.768	13117.96
588.127	13352.53
588.487	13572.86
588.846	13833.42
589.206	14026.18
589.565	14359.06
589.925	14520.18
590.284	14788.42
590.643	15028.87
591.003	15347.51
591.362	15625.69
591.721	15898.23
592.08	16117.66
592.44	16428.83
592.799	16668.83
593.158	16919.67
593.517	17243.5
593.876	17528.24
594.235	17793.77
594.593	18133.2
594.952	18616.12
595.311	18732.05
595.67	18905.83
596.029	19366.38
596.387	19644.12
596.746	19945.58
597.104	20212.91
597.463	20304.21
597.822	20803.18
598.18	21042.72
598.538	21169.95
598.897	21715.25
599.255	21701.24
599.613	22353.88
599.972	22429.58
600.33	22793.86
600.688	22911.83
601.046	23360.85
601.404	23703.44
601.762	23867.96
602.12	24270.44
602.478	24592.46
602.836	24810.08
603.194	24847.14
603.552	25274.48
603.91	25441.48
604.268	25664.3
604.625	25980.9
604.983	26315.13
605.341	26523.71
605.698	26825.17
606.056	27058.61
606.413	27300.19
606.771	27649.33
607.128	27819.27
607.485	27966.38
607.843	28226.72
608.2	28540.38
608.557	28799.36
608.914	28960.26
609.272	29420.81
609.629	29526.57
609.986	29769.73
610.343	29816.5
610.7	30327.9
611.057	30338.98
611.414	30628.23
611.771	30653.54
612.127	31063.48
612.484	31284.94
612.841	31434.99
613.198	31462.34
613.554	31712.95
613.911	31957.01
614.267	32176.67
614.624	32312.94
614.98	32386.38
615.337	32877.67
615.693	32871.57
616.05	32998.57
616.406	33339.12
616.762	33475.62
617.118	33470.19
617.475	33644.2
617.831	33956.51
618.187	34026.79
618.543	34200.57
618.899	34414.58
619.255	34499.77
619.611	34405.08
619.967	34829.25
620.323	35065.63
620.678	35004.62
621.034	34993.54
621.39	35166.87
621.746	35183.14
622.101	35635.33
622.457	35513.76
622.812	35722.79
623.168	35857.93
623.523	35985.38
623.879	36060.18
624.234	35970.92
624.589	36176.34
624.945	36137.92
625.3	36377.24
625.655	36405.26
626.01	36471.92
626.365	36427.86
626.72	36510.79
627.075	36672.6
627.43	36688.87
627.785	36689.77
628.14	36867.62
628.495	36999.82
628.85	36918.92
629.205	36914.62
629.559	37093.6
629.914	37068.29
630.269	37084.34
630.623	37159.59
630.978	36933.83
631.332	37360.03
631.687	37203.65
632.041	37229.19
632.396	37310.77
632.75	37329.07
633.104	37381.05
633.459	37175.63
633.813	37177.21
634.167	37248.63
634.521	37372.69
634.875	37427.6
635.229	37405.68
635.583	37290.21
635.937	37350.09
636.291	37343.09
636.645	37190.77
636.999	37270.32
637.352	37453.59
637.706	37200.49
638.06	37342.86
638.413	37420.37
638.767	37277.32
639.121	37250.43
639.474	37205.01
639.828	37196.88
640.181	37375.18
640.534	37333.37
640.888	37262.64
641.241	37228.29
641.594	37335.4
641.947	37295.63
642.301	37205.69
642.654	37340.83
643.007	37310.77
643.36	37220.38
643.713	37252.47
644.066	37311.67
644.419	37156.42
644.771	36873.72
645.124	36704.23
645.477	36662.2
645.83	36418.14
646.182	36259.5
646.535	36239.84
646.888	36204.36
647.24	35995.55
647.593	36440.06
647.945	36345.6
648.298	36020.18
648.65	36015.44
649.002	35937.02
649.355	36085.94
649.707	36039.17
650.059	36184.25
650.411	36564.35
650.763	36528.87
651.115	36927.96
651.467	36865.58
651.819	36883.89
652.171	36737.68
652.523	36701.75
652.875	36812.48
653.227	36473.73
653.578	36834.17
653.93	36837.34
654.282	36569.55
654.633	36659.71
654.985	36590.11
655.337	36713.05
655.688	36627.85
656.039	36753.95
656.391	36402.77
656.742	36478.02
657.094	36577.23
657.445	36657.23
657.796	36645.25
658.147	36540.62
658.498	36569.55
658.849	36613.84
659.2	36476.89
659.551	36517.12
659.902	36636.21
660.253	36583.56
660.604	36556.67
660.955	36440.96
661.306	36609.55
661.656	36374.52
662.007	36553.5
662.358	36524.12
662.708	36368.65
663.059	36495.42
663.409	36306.95
663.76	36476.89
664.11	36557.34
664.461	36486.39
664.811	36445.48
665.161	36393.51
665.511	36494.29
665.862	36411.13
666.212	36536.78
666.562	36535.65
666.912	36347.41
667.262	36293.62
667.612	36500.4
667.962	36365.03
668.312	36246.39
668.662	36607.74
669.011	36435.31
669.361	36242.55
669.711	36244.81
670.06	36303.57
670.41	36257.92
670.76	36221.99
671.109	36283
671.459	36255.43
671.808	36157.58
672.157	36365.94
672.507	36066.96
672.856	36119.84
673.205	36208.43
673.554	36179.73
673.904	36029.67
674.253	36361.19
674.602	36150.35
674.951	35670.81
675.3	35480.99
675.649	36086.62
675.998	36107.64
676.346	36010.01
676.695	36151.48
677.044	35904.71
677.393	35963.69
677.741	36071.93
678.09	35908.1
678.438	35851.83
678.787	35902.45
679.135	36021.76
679.484	35656.12
679.832	35892.5
680.181	35500.42
680.529	35860.86
680.877	35592.85
681.225	35643.92
681.573	35833.3
681.922	35549.69
682.27	35443.02
682.618	35447.99
682.966	35311.73
683.314	35383.82
683.661	35338.84
684.009	35197.83
684.357	35008.91
684.705	35029.02
685.053	35181.11
685.4	35058.4
685.748	34791.06
686.095	34838.52
686.443	34767.33
686.79	34803.27
687.138	34815.69
687.485	34690.05
687.832	34547.91
688.18	34736.15
688.527	34386.78
688.874	34374.8
689.221	34301.81
689.568	34377.06
689.915	34156.5
690.262	34137.52
690.609	34018.65
690.956	34060.46
691.303	34019.11
691.65	33795.61
691.997	33775.04
692.344	33620.47
692.69	33591.32
693.037	33656.63
693.383	33369.18
693.73	33559.23
694.077	33406.47
694.423	33345
694.769	33129.64
695.116	33142.07
695.462	33134.83
695.808	32987.49
696.155	33058
696.501	32795.86
696.847	32888.51
697.193	32481.52
697.539	32684.23
697.885	32519.03
698.231	32287.85
698.577	32298.47
698.923	32338.92
699.269	32143.45
699.614	31974.87
699.96	31960.18
700.306	31907.75
700.651	31850.8
700.997	31750.01
701.342	31562.9
701.688	31631.82
702.033	31587.08
702.379	31597.93
702.724	31387.08
703.069	31488.32
703.415	31155.9
703.76	31169.69
704.105	31062.57
704.45	31190.03
704.795	30924.05
705.14	30810.38
705.485	30840.43
705.83	30732.86
706.175	30697.16
706.52	30580.55
706.865	30433.21
707.209	30414.45
707.554	30384.62
707.899	30374.46
708.243	30275.93
708.588	30219.21
708.932	30028.48
709.277	30060.79
709.621	29997.52
709.966	29886.33
710.31	29856.96
710.654	29555.49
710.998	29560.69
711.342	29648.37
711.687	29624.87
712.031	29411.32
712.375	29470.52
712.719	29496.51
713.063	29421.26
713.407	29239.34
713.75	29186.69
714.094	29203.64
714.438	29106.01
714.782	29089.07
715.125	28995.06
715.469	28827.6
715.812	28813.37
716.156	28786.47
716.499	28783.54
716.843	28685.69
717.186	28556.65
717.53	28778.57
717.873	28694.27
718.216	28578.57
718.559	28543.54
718.902	28331.57
719.246	28436.43
719.589	28320.72
719.932	28178.36
720.275	28301.06
720.617	28137.45
720.96	28110.56
721.303	28111.01
721.646	28125.02
721.989	27808.87
722.331	28033.5
722.674	27882.77
723.016	27853.62
723.359	27902.88
723.701	27859.27
724.044	27708.31
724.386	27486.4
724.729	27737.24
725.071	27654.3
725.413	27645.71
725.755	27456.11
726.097	27403.91
726.439	27225.16
726.782	27255.89
727.124	27460.86
727.465	27199.62
727.807	27255.89
728.149	27264.03
728.491	27127.31
728.833	27256.35
729.175	27008.22
729.516	27104.94
729.858	27059.29
730.199	26977.26
730.541	26956.47
730.882	26949.69
731.224	26956.47
731.565	26756.02
731.906	26815.68
732.248	26822.68
732.589	26617.27
732.93	26511.05
733.271	26638.73
733.612	26709.24
733.953	26598.74
734.294	26603.48
734.635	26438.06
734.976	26455.91
735.317	26401.9
735.658	26389.48
735.999	26421.79
736.339	26233.32
736.68	26414.11
737.021	26261.57
737.361	26101.35
737.702	26224.06
738.042	26153.55
738.383	26106.09
738.723	26126.21
739.063	25949.71
739.404	26059.99
739.744	25874.01
740.084	25773.22
740.424	25869.04
740.764	25740.23
741.104	25866.1
741.444	25685.99
741.784	25615.48
742.124	25747.46
742.464	25620
742.804	25555.83
743.143	25544.3
743.483	25514.47
743.823	25361.93
744.162	25423.17
744.502	25433.57
744.841	25340.69
745.181	25480.57
745.52	25475.83
745.86	25357.19
746.199	25311.54
746.538	25309.05
746.877	25271.99
747.216	25315.38
747.556	25194.03
747.895	25133.46
748.234	25144.08
748.573	24924.66
748.911	25041.49
749.25	25025.67
749.589	24794.49
749.928	24884.2
750.267	24862.51
750.605	24753.81
750.944	24778.22
751.283	24657.77
751.621	24803.3
751.96	24513.14
752.298	24673.59
752.636	24453.03
752.975	24468.17
753.313	24379.13
753.651	24440.37
753.989	24320.6
754.327	24318.12
754.666	24254.39
755.004	24152.25
755.342	24117.9
755.679	24071.12
756.017	23962.19
756.355	24108.41
756.693	23932.82
757.031	23941.86
757.368	23805.81
757.706	23738.47
758.044	23702.31
758.381	23629.32
758.719	23691.47
759.056	23597.23
759.394	23502.32
759.731	23380.06
