Data from hue_28_FLMS001491_00092.txt Node
Date: Tue Feb 07 17:18:03 GMT 2017
User: dcchb
Spectrometer: FLMS00149
Trigger mode: 0
Integration Time (sec): 2.000000E-2
Scans to average: 10
Electric dark correction enabled: true
Nonlinearity correction enabled: false
Boxcar width: 0
XAxis mode: Wavelengths
Number of Pixels in Spectrum: 2048
>>>>>Begin Spectral Data<<<<<
341.393	-21.24
341.776	-21.24
342.16	-21.24
342.543	-56.95
342.927	-67.79
343.31	-61.24
343.693	-68.47
344.077	-71.64
344.46	-67.57
344.843	-37.06
345.226	-49.04
345.61	-31.19
345.993	-20.56
346.376	-5.65
346.759	2.03
347.142	30.96
347.525	51.75
347.908	65.54
348.291	72.31
348.674	89.49
349.057	100.34
349.44	111.41
349.823	124.52
350.206	152.54
350.588	185.98
350.971	200.22
351.354	226.89
351.737	233.21
352.119	245.19
352.502	262.37
352.884	277.96
353.267	270.95
353.65	277.51
354.032	294
354.414	299.43
354.797	294.68
355.179	314.34
355.562	314.57
355.944	317.73
356.326	329.71
356.709	340.1
357.091	330.61
357.473	324.51
357.855	355.92
358.238	338.75
358.62	345.98
359.002	332.19
359.384	333.78
359.766	350.95
360.148	326.09
360.53	331.52
360.912	349.14
361.294	322.25
361.676	329.93
362.057	330.16
362.439	330.16
362.821	322.25
363.203	318.18
363.584	316.38
363.966	338.75
364.348	335.36
364.729	325.87
365.111	318.41
365.493	318.86
365.874	310.73
366.256	317.73
366.637	324.51
367.019	323.83
367.4	314.34
367.781	298.75
368.163	306.88
368.544	310.27
368.925	320.44
369.306	305.53
369.688	339.65
370.069	325.64
370.45	285.19
370.831	322.48
371.212	317.28
371.593	311.18
371.974	304.85
372.355	308.47
372.736	296.49
373.117	293.78
373.498	322.7
373.879	325.64
374.26	320.67
374.641	303.95
375.021	309.37
375.402	305.08
375.783	304.4
376.163	333.55
376.544	336.04
376.925	339.43
377.305	305.98
377.686	315.47
378.066	332.65
378.447	327.45
378.827	307.34
379.208	322.7
379.588	334.68
379.968	319.77
380.349	324.96
380.729	328.35
381.109	355.47
381.489	337.39
381.87	348.24
382.25	339.65
382.63	356.37
383.01	340.56
383.39	340.33
383.77	351.86
384.15	331.29
384.53	339.65
384.91	342.36
385.29	345.53
385.67	332.65
386.049	341.91
386.429	329.03
386.809	348.69
387.189	364.28
387.568	353.89
387.948	360.67
388.328	365.87
388.707	334.91
389.087	346.66
389.466	358.86
389.846	364.96
390.225	362.93
390.605	355.24
390.984	360.67
391.363	360.22
391.743	361.35
392.122	351.63
392.501	380.33
392.881	377.62
393.26	371.52
393.639	382.59
394.018	387.56
394.397	358.86
394.776	355.47
395.155	358.63
395.534	378.07
395.913	374.23
396.292	395.7
396.671	422.36
397.05	395.92
397.429	378.3
397.808	386.2
398.186	394.34
398.565	386.88
398.944	400.89
399.323	370.84
399.701	411.29
400.08	391.63
400.458	392.76
400.837	391.18
401.215	405.87
401.594	391.4
401.972	402.25
402.351	399.54
402.729	404.96
403.107	414.9
403.486	410.84
403.864	390.27
404.242	421.91
404.62	400.89
404.999	398.63
405.377	426.66
405.755	409.71
406.133	426.66
406.511	429.59
406.889	390.5
407.267	425.98
407.645	437.05
408.023	438.41
408.401	426.43
408.779	426.43
409.156	447.22
409.534	445.86
409.912	443.38
410.29	424.17
410.667	453.77
411.045	461.46
411.422	444.28
411.8	444.73
412.178	461.23
412.555	460.33
412.933	495.35
413.31	472.98
413.687	489.7
414.065	475.24
414.442	498.52
414.819	473.43
415.197	485.18
415.574	469.82
415.951	484.73
416.328	482.7
416.705	495.81
417.082	507.78
417.46	482.93
417.837	494.9
418.214	514.56
418.591	496.26
418.967	518.18
419.344	541
419.721	519.99
420.098	521.12
420.475	542.58
420.852	518.18
421.228	534.22
421.605	530.16
421.982	516.14
422.358	542.13
422.735	543.94
423.111	537.39
423.488	529.25
423.864	570.15
424.241	570.83
424.617	560.21
424.994	557.95
425.37	553.66
425.746	557.05
426.123	570.38
426.499	556.82
426.875	557.5
427.251	567.89
427.627	574.22
428.003	590.49
428.379	603.15
428.756	594.11
429.132	594.33
429.507	597.95
429.883	614.45
430.259	618.06
430.635	618.97
431.011	611.74
431.387	645.41
431.763	618.51
432.138	625.97
432.514	652.64
432.89	635.24
433.265	677.04
433.641	666.2
434.016	672.52
434.392	663.26
434.767	682.47
435.143	676.14
435.518	688.12
435.894	682.69
436.269	695.57
436.644	690.6
437.02	700.09
437.395	701.22
437.77	719.76
438.145	723.6
438.52	736.48
438.895	745.07
439.271	730.83
439.646	734.22
440.021	753.43
440.395	737.38
440.77	755.69
441.145	750.71
441.52	764.73
441.895	776.48
442.27	797.04
442.645	776.25
443.019	770.6
443.394	771.96
443.769	788.23
444.143	802.01
444.518	784.61
444.892	820.09
445.267	801.11
445.641	819.19
446.016	804.72
446.39	827.1
446.764	797.27
447.139	827.1
447.513	807.21
447.887	838.85
448.262	847.66
448.636	823.71
449.01	857.6
449.384	846.53
449.758	846.76
450.132	849.24
450.506	850.37
450.88	857.15
451.254	873.2
451.628	864.84
452.002	886.53
452.376	907.77
452.75	918.85
453.123	928.11
453.497	938.28
453.871	933.08
454.244	939.64
454.618	941.22
454.992	948
455.365	951.61
455.739	982.12
456.112	975.79
456.486	985.96
456.859	1015.79
457.232	1035.23
457.606	990.93
457.979	1021.44
458.352	1042.46
458.725	1049.69
459.099	1058.5
459.472	1045.4
459.845	1091.95
460.218	1076.13
460.591	1069.12
460.964	1126.07
461.337	1119.97
461.71	1146.86
462.083	1124.26
462.456	1159.07
462.829	1181.66
463.201	1161.1
463.574	1201.1
463.947	1201.1
464.32	1201.1
464.692	1217.14
465.065	1256.69
465.438	1242.23
465.81	1279.06
466.183	1300.53
466.555	1307.99
466.928	1320.64
467.3	1322.45
467.672	1337.59
468.045	1380.53
468.417	1370.36
468.789	1398.61
469.161	1417.59
469.534	1435.44
469.906	1463.92
470.278	1448.1
470.65	1478.61
471.022	1531.71
471.394	1539.17
471.766	1560.64
472.138	1581.43
472.51	1612.84
472.882	1656.68
473.253	1656.45
473.625	1675.89
473.997	1756.34
474.369	1749.56
474.74	1738.94
475.112	1778.94
475.484	1782.33
475.855	1879.5
476.227	1888.99
476.598	1924.47
476.97	1949.33
477.341	2019.83
477.713	2007.18
478.084	2021.87
478.455	2112.26
478.827	2122.2
479.198	2175.31
479.569	2216.66
479.94	2309.32
480.311	2295.08
480.682	2373.27
481.053	2431.8
481.424	2485.36
481.795	2491.01
482.166	2535.3
482.537	2591.12
482.908	2638.35
483.279	2701.4
483.65	2745.01
484.021	2779.59
484.391	2875.18
484.762	2884.22
485.133	2906.36
485.503	3004.89
485.874	3084.21
486.244	3119.24
486.615	3183.87
486.985	3220.93
487.356	3305.9
487.726	3349.97
488.097	3402.4
488.467	3448.5
488.837	3506.57
489.207	3578.21
489.578	3628.38
489.948	3677.42
490.318	3754.93
490.688	3787.47
491.058	3862.05
491.428	3893.46
491.798	3958.99
492.168	4056.16
492.538	4109.04
492.908	4152.21
493.278	4202.6
493.648	4229.95
494.017	4289.83
494.387	4333.45
494.757	4420.67
495.126	4474.23
495.496	4506.1
495.866	4513.1
496.235	4588.58
496.605	4659.99
496.974	4692.53
497.344	4729.82
497.713	4778.63
498.082	4768.24
498.452	4884.39
498.821	4919.64
499.19	4903.6
499.559	5016.14
499.928	5053.65
500.298	5092.52
500.667	5104.05
501.036	5183.82
501.405	5211.61
501.774	5210.03
502.143	5190.6
502.512	5284.61
502.88	5337.71
503.249	5372.97
503.618	5404.15
503.987	5360.09
504.356	5442.57
504.724	5523.7
505.093	5499.52
505.462	5531.38
505.83	5579.29
506.199	5624.03
506.567	5679.85
506.936	5674.43
507.304	5753.75
507.672	5763.24
508.041	5774.54
508.409	5853.41
508.777	5892.95
509.145	5903.12
509.514	5898.83
509.882	5977.47
510.25	5996.23
510.618	6019.95
510.986	6028.99
511.354	6047.98
511.722	6138.37
512.09	6101.76
512.458	6126.84
512.826	6203
513.193	6244.58
513.561	6250.01
513.929	6323.9
514.297	6321.87
514.664	6381.08
515.032	6347.63
515.4	6401.64
515.767	6409.55
516.135	6492.26
516.502	6444.35
516.869	6558.02
517.237	6593.95
517.604	6561.86
517.972	6590.11
518.339	6626.27
518.706	6618.58
519.073	6677.34
519.44	6734.51
519.808	6773.61
520.175	6744.68
520.542	6852.93
520.909	6871.23
521.276	6873.04
521.643	6906.26
522.009	6961.85
522.376	6996.88
522.743	7004.56
523.11	7064.45
523.477	7111
523.843	7147.83
524.21	7234.61
524.577	7251.56
524.943	7270.54
525.31	7288.85
525.676	7349.86
526.043	7355.29
526.409	7388.51
526.776	7555.28
527.142	7512.57
527.508	7545.79
527.874	7565
528.241	7611.55
528.607	7685.22
528.973	7732.68
529.339	7791.89
529.705	7825.33
530.071	7853.13
530.437	7875.95
530.803	7916.4
531.169	7977.64
531.535	7944.88
531.901	8008.38
532.267	8075.49
532.632	8073.91
532.998	8142.84
533.364	8162.95
533.73	8227.35
534.095	8232.78
534.461	8238.65
534.826	8348.03
535.192	8353.68
535.557	8427.35
535.923	8425.32
536.288	8450.85
536.653	8469.61
537.019	8508.25
537.384	8520.45
537.749	8513.67
538.114	8618.76
538.479	8621.24
538.845	8649.49
539.21	8660.34
539.575	8652.2
539.94	8699.66
540.305	8809.49
540.67	8804.97
541.034	8850.61
541.399	8931.06
541.764	8840.22
542.129	8910.05
542.494	8959.09
542.858	9062.81
543.223	9069.82
543.587	9133.55
543.952	9107.11
544.316	9143.26
544.681	9191.4
545.045	9223.49
545.41	9259.42
545.774	9273.2
546.138	9341.9
546.503	9345.74
546.867	9429.58
547.231	9454.21
547.595	9463.93
547.959	9532.4
548.324	9506.19
548.688	9536.47
549.052	9578.05
549.416	9655.79
549.779	9682.01
550.143	9675
550.507	9804.49
550.871	9727.88
551.235	9791.61
551.599	9843.81
551.962	9879.06
552.326	9891.49
552.689	9949.57
553.053	9930.36
553.417	9938.72
553.78	10005.16
554.143	10037.7
554.507	10053.97
554.87	10065.72
555.234	10132.84
555.597	10162.67
555.96	10170.35
556.323	10216.68
556.686	10193.4
557.05	10287.19
557.413	10307.07
557.776	10340.07
558.139	10466.39
558.502	10376.68
558.865	10367.41
559.228	10489.22
559.59	10456.22
559.953	10547.75
560.316	10670.45
560.679	10646.5
561.041	10746.16
561.404	10732.15
561.767	10800.62
562.129	10772.82
562.492	10882.88
562.854	10833.61
563.217	10920.16
563.579	10882.2
563.941	10938.7
564.304	11028.64
564.666	11085.81
565.028	11059.82
565.39	11133.27
565.753	11202.64
566.115	11193.15
566.477	11292.36
566.839	11258.69
567.201	11395.18
567.563	11281.51
567.925	11470.88
568.287	11427.04
568.648	11494.39
569.01	11602.41
569.372	11677.21
569.734	11606.93
570.095	11725.79
570.457	11809.18
570.819	11771.44
571.18	11775.06
571.542	11919.01
571.903	11940.7
572.265	11929.63
572.626	12016.18
572.987	12034.03
573.349	12191.09
573.71	12195.16
574.071	12256.85
574.432	12291.2
574.794	12425.44
575.155	12496.39
575.516	12475.15
575.877	12584.75
576.238	12700.46
576.599	12801.02
576.96	12829.04
577.32	12878.08
577.681	13100.67
578.042	13083.95
578.403	13141.35
578.763	13348.35
579.124	13534.11
579.485	13597.83
579.845	13702.46
580.206	13866.3
580.566	13966.64
580.927	14051.83
581.287	14283.69
581.648	14345.84
582.008	14641.87
582.368	14616.34
582.728	14844.58
583.089	14977.23
583.449	15119.15
583.809	15362.53
584.169	15558.69
584.529	15666.93
584.889	15976.3
585.249	16057.43
585.609	16228.73
585.969	16525.22
586.329	16731.09
586.688	17063.96
587.048	17166.1
587.408	17451.29
587.768	17606.09
588.127	17856.71
588.487	18082.69
588.846	18522
589.206	18618.49
589.565	18845.15
589.925	19280.62
590.284	19468.87
590.643	19748.41
591.003	20030.66
591.362	20407.82
591.721	20569.85
592.08	20796.97
592.44	21209.84
592.799	21320.12
593.158	21661.13
593.517	22073.54
593.876	22285.29
594.235	22629.69
594.593	22762.34
594.952	23141.99
595.311	23405.71
595.67	23708.08
596.029	24118.24
596.387	24465.8
596.746	24769.29
597.104	24952.34
597.463	25225.55
597.822	25615.82
598.18	25816.95
598.538	26029.37
598.897	26497.61
599.255	26611.5
599.613	27260.53
599.972	27298.94
600.33	27639.73
600.688	27843.79
601.046	28295.3
601.404	28664.11
601.762	28772.35
602.12	29260.7
602.478	29438.77
602.836	29722.38
603.194	29755.15
603.552	30105.2
603.91	30312.42
604.268	30681
604.625	30851.17
604.983	31208.44
605.341	31167.99
605.698	31643.46
606.056	31997.35
606.413	32184.24
606.771	32405.48
607.128	32670.33
607.485	32779.7
607.843	33015.18
608.2	33393.47
608.557	33762.5
608.914	33725.89
609.272	34070.74
609.629	34374.46
609.986	34526.55
610.343	34510.73
610.7	34996.14
611.057	35007.89
611.414	35351.61
611.771	35427.54
612.127	35806.29
612.484	35903.01
612.841	36223.91
613.198	36273.62
613.554	36503.9
613.911	36830.9
614.267	36871.57
614.624	36944.11
614.98	37345.91
615.337	37458.68
615.693	37520.37
616.05	37687.14
616.406	38143.4
616.762	37938.21
617.118	38096.4
617.475	38179.34
617.831	38475.6
618.187	38617.97
618.543	38658.64
618.899	38961.24
619.255	39018.41
619.611	39101.12
619.967	39304.05
620.323	39513.99
620.678	39368.46
621.034	39385.18
621.39	39597.38
621.746	39705.17
622.101	40183.8
622.457	39842.57
622.812	40028.55
623.168	40186.51
623.523	40234.42
623.879	40436
624.234	40221.77
624.589	40580.85
624.945	40624.24
625.3	40751.24
625.655	40754.18
626.01	40955.76
626.365	40934.29
626.72	41068.07
627.075	41122.08
627.43	41126.15
627.785	40995.31
628.14	41240.72
628.495	41209.09
628.85	41377.22
629.205	41221.74
629.559	41527.04
629.914	41425.35
630.269	41434.16
630.623	41434.62
630.978	41427.61
631.332	41575.86
631.687	41710.77
632.041	41685.68
632.396	41715.74
632.75	41575.63
633.104	41695.85
633.459	41647.94
633.813	41679.58
634.167	41659.92
634.521	41628.51
634.875	41719.58
635.229	41664.22
635.583	41542.41
635.937	41612.69
636.291	41735.63
636.645	41774.27
636.999	41697.89
637.352	41741.5
637.706	41499.7
638.06	41773.36
638.413	41567.04
638.767	41510.77
639.121	41727.49
639.474	41444.33
639.828	41543.77
640.181	41439.59
640.534	41719.58
640.888	41530.89
641.241	41486.37
641.594	41550.09
641.947	41631.22
642.301	41545.12
642.654	41503.32
643.007	41566.59
643.36	41557.1
643.713	41464.9
644.066	41678
644.419	41259.03
644.771	41180.61
645.124	40905.14
645.477	40814.07
645.83	40543.11
646.182	40239.85
646.535	40196.23
646.888	40276.23
647.24	40105.39
647.593	40430.58
647.945	40337.02
648.298	40008.44
648.65	40044.82
649.002	40014.54
649.355	40232.61
649.707	40100.19
650.059	40277.36
650.411	40922.54
650.763	40941.3
651.115	41259.25
651.467	41113.95
651.819	41113.72
652.171	41068.98
652.523	41103.55
652.875	41072.37
653.227	40702.43
653.578	41111.01
653.93	40956.21
654.282	40953.5
654.633	40750.79
654.985	40814.07
655.337	40763
655.688	40871.47
656.039	40980.84
656.391	40673.51
656.742	40809.1
657.094	40840.51
657.445	40915.31
657.796	40867.85
658.147	40737.23
658.498	40680.96
658.849	40680.29
659.2	40802.77
659.551	40612.04
659.902	40721.64
660.253	40723.45
660.604	40852.94
660.955	40708.53
661.306	40758.48
661.656	40801.19
662.007	40658.59
662.358	40708.53
662.708	40770.23
663.059	40745.37
663.409	40429.67
663.76	40798.02
664.11	40770.91
664.461	40734.75
664.811	40842.54
665.161	40697.69
665.511	40533.17
665.862	40706.05
666.212	40850.23
666.562	40694.52
666.912	40680.51
667.262	40545.6
667.612	40672.6
667.962	40721.87
668.312	40683.22
668.662	40757.8
669.011	40592.15
669.361	40625.6
669.711	40401.88
670.06	40587.18
670.41	40430.8
670.76	40555.32
671.109	40680.96
671.459	40440.29
671.808	40404.59
672.157	40560.29
672.507	40274.42
672.856	40149
673.205	40473.51
673.554	40539.95
673.904	40321.88
674.253	40496.11
674.602	40343.57
674.951	39952.4
675.3	39552.18
675.649	40264.03
675.998	40204.37
676.346	40232.84
676.695	40410.24
677.044	40032.62
677.393	40277.59
677.741	40207.3
678.09	40157.14
678.438	39915.11
678.787	40035.33
679.135	40235.33
679.484	39867.65
679.832	39993.52
680.181	39803.7
680.529	39941.77
680.877	39872.4
681.225	39833.75
681.573	39963.02
681.922	39659.97
682.27	39652.52
682.618	39597.83
682.966	39528.68
683.314	39789.69
683.661	39589.69
684.009	39341.79
684.357	39348.34
684.705	39274.45
685.053	39164.17
685.4	39170.5
685.748	38963.27
686.095	39075.58
686.443	38862.03
686.79	38809.38
687.138	38809.83
687.485	38908.13
687.832	38634.01
688.18	38695.03
688.527	38517.86
688.874	38643.73
689.221	38484.41
689.568	38485.32
689.915	38382.27
690.262	38304.53
690.609	38192.22
690.956	38140.24
691.303	38094.37
691.65	37766.46
691.997	37761.49
692.344	37536.87
692.69	37695.28
693.037	37701.38
693.383	37272.92
693.73	37497.77
694.077	37291
694.423	37425.23
694.769	37307.04
695.116	37221.17
695.462	37002.42
695.808	36994.73
696.155	36959.25
696.501	36752.71
696.847	36757.45
697.193	36512.94
697.539	36670
697.885	36358.82
698.231	36318.82
698.577	36310.68
698.923	36173.51
699.269	36022.1
699.614	35766.74
699.96	35848.77
700.306	35821.66
700.651	35702.56
700.997	35465.73
701.342	35541.66
701.688	35511.38
702.033	35385.28
702.379	35429.58
702.724	35230.94
703.069	35416.7
703.415	34957.72
703.76	34988.23
704.105	35044.28
704.45	34974.9
704.795	34812.42
705.14	34527.91
705.485	34607
705.83	34402.03
706.175	34489.04
706.52	34284.75
706.865	34271.42
707.209	34132.66
707.554	34237.52
707.899	34214.92
708.243	33947.13
708.588	33998.43
708.932	33688.38
709.277	33728.38
709.621	33654.71
709.966	33448.61
710.31	33489.51
710.654	33217.88
710.998	33219.92
711.342	33318.45
711.687	33294.49
712.031	33002.07
712.375	33084.33
712.719	33041.62
713.063	33050.88
713.407	33181.95
713.75	33059.02
714.094	32898.57
714.438	32635.53
714.782	32808.4
715.125	32626.71
715.469	32636.88
715.812	32588.3
716.156	32471.91
716.499	32391.01
716.843	32495.42
717.186	32195.54
717.53	32365.02
717.873	32265.59
718.216	32215.88
718.559	32179.94
718.902	31824.02
719.246	32080.74
719.589	31851.37
719.932	31814.76
720.275	31661.31
720.617	31649.34
720.96	31736.57
721.303	31626.06
721.646	31584.71
721.989	31473.07
722.331	31572.28
722.674	31353.98
723.016	31558.49
723.359	31421.09
723.701	31407.76
724.044	31261.55
724.386	31141.55
724.729	31273.53
725.071	31318.72
725.413	31162.34
725.755	31018.39
726.097	30920.99
726.439	30695.69
726.782	30822.24
727.124	30953.31
727.465	30695.46
727.807	30752.19
728.149	30606.2
728.491	30695.69
728.833	30553.32
729.175	30581.79
729.516	30435.36
729.858	30416.38
730.199	30405.3
730.541	30375.7
730.882	30286.89
731.224	30332.31
731.565	30057.51
731.906	30113.33
732.248	30185.42
732.589	30048.7
732.93	29902.04
733.271	29914.47
733.612	29936.84
733.953	30000.34
734.294	29874.47
734.635	29895.94
734.976	29816.84
735.317	29652.55
735.658	29645.77
735.999	29617.53
736.339	29553.12
736.68	29714.92
737.021	29467.7
737.361	29443.75
737.702	29567.36
738.042	29537.3
738.383	29430.41
738.723	29391.09
739.063	29352
739.404	29314.94
739.744	29204.2
740.084	29215.73
740.424	29210.76
740.764	29095.96
741.104	29105.9
741.444	29006.02
741.784	28954.94
742.124	29035.85
742.464	28958.33
742.804	28829.07
743.143	28907.94
743.483	28809.19
743.823	28680.38
744.162	28667.27
744.502	28771.9
744.841	28460.72
745.181	28734.84
745.52	28628.85
745.86	28674.73
746.199	28525.35
746.538	28466.14
746.877	28529.65
747.216	28568.06
747.556	28409.87
747.895	28414.85
748.234	28159.03
748.573	28302.08
748.911	28166.94
749.25	28165.59
749.589	28144.34
749.928	28132.82
750.267	28120.16
750.605	27961.75
750.944	27987.06
751.283	27903.9
751.621	27929.89
751.96	27869.32
752.298	27760.17
752.636	27692.61
752.975	27627.07
753.313	27598.6
753.651	27768.08
753.989	27464.59
754.327	27521.99
754.666	27327.42
755.004	27379.85
755.342	27432.5
755.679	27237.25
756.017	27221.66
756.355	27288.55
756.693	27110.47
757.031	27097.59
757.368	27085.16
757.706	27060.76
758.044	26862.12
758.381	26845.62
758.719	26902.57
759.056	26920.65
759.394	26744.83
759.731	26590.94
