Data from hue_200_FLMS001491_00003.txt Node
Date: Tue Feb 07 16:42:44 GMT 2017
User: dcchb
Spectrometer: FLMS00149
Trigger mode: 0
Integration Time (sec): 2.000000E-2
Scans to average: 10
Electric dark correction enabled: true
Nonlinearity correction enabled: false
Boxcar width: 0
XAxis mode: Wavelengths
Number of Pixels in Spectrum: 2048
>>>>>Begin Spectral Data<<<<<
341.393	-20.62
341.776	-20.62
342.16	-20.62
342.543	-50.22
342.927	-64.91
343.31	-70.11
343.693	-91.13
344.077	-63.33
344.46	-49.32
344.843	-59.72
345.226	-23.11
345.61	-24.01
345.993	-37.34
346.376	-14.52
346.759	-4.12
347.142	34.52
347.525	45.37
347.908	63.67
348.291	68.64
348.674	88.75
349.057	135.76
349.44	114.52
349.823	161.75
350.206	166.72
350.588	203.33
350.971	209.66
351.354	227.28
351.737	238.81
352.119	248.52
352.502	262.08
352.884	270.44
353.267	268.41
353.65	296.66
354.032	303.89
354.414	310.9
354.797	313.83
355.179	300.73
355.562	318.81
355.944	315.42
356.326	325.13
356.709	320.39
357.091	327.84
357.473	357.45
357.855	340.27
358.238	343.89
358.62	335.3
359.002	323.1
359.384	331.01
359.766	333.27
360.148	345.7
360.53	335.98
360.912	359.93
361.294	336.43
361.676	326.04
362.057	337.11
362.439	312.48
362.821	325.13
363.203	324.23
363.584	328.75
363.966	328.97
364.348	312.7
364.729	321.52
365.111	305.92
365.493	338.47
365.874	342.53
366.256	331.91
366.637	302.76
367.019	313.83
367.4	298.01
367.781	331.69
368.163	319.03
368.544	322.87
368.925	318.35
369.306	303.44
369.688	320.39
370.069	310.67
370.45	310.9
370.831	318.35
371.212	304.79
371.593	319.03
371.974	319.26
372.355	314.96
372.736	312.25
373.117	327.39
373.498	310.22
373.879	318.81
374.26	318.13
374.641	322.65
375.021	307.05
375.402	317.68
375.783	326.04
376.163	326.04
376.544	330.33
376.925	312.93
377.305	344.79
377.686	321.74
378.066	330.33
378.447	330.56
378.827	336.66
379.208	314.51
379.588	331.46
379.968	339.6
380.349	314.74
380.729	335.3
381.109	359.93
381.489	358.58
381.87	336.66
382.25	336.21
382.63	342.99
383.01	366.94
383.39	340.95
383.77	354.96
384.15	342.53
384.53	357.22
384.91	361.29
385.29	355.41
385.67	362.87
386.049	360.84
386.429	349.76
386.809	349.76
387.189	356.32
387.568	345.47
387.948	380.27
388.328	371.01
388.707	387.28
389.087	366.04
389.466	383.44
389.846	382.08
390.225	374.4
390.605	366.04
390.984	368.75
391.363	369.43
391.743	380.05
392.122	371.46
392.501	390.22
392.881	384.79
393.26	398.35
393.639	398.58
394.018	389.99
394.397	382.53
394.776	422.53
395.155	398.8
395.534	408.29
395.913	381.85
396.292	385.02
396.671	420.27
397.05	419.82
397.429	431.12
397.808	418.01
398.186	398.13
398.565	429.76
398.944	409.88
399.323	431.12
399.701	425.47
400.08	435.41
400.458	432.25
400.837	442.64
401.215	431.57
401.594	429.76
401.972	446.03
402.351	435.64
402.729	449.42
403.107	442.19
403.486	465.02
403.864	464.34
404.242	473.83
404.62	465.92
404.999	467.28
405.377	478.35
405.755	475.19
406.133	485.58
406.511	472.02
406.889	504.56
407.267	533.94
407.645	517.67
408.023	515.18
408.401	545.92
408.779	529.2
409.156	530.78
409.534	566.26
409.912	555.86
410.29	553.6
410.667	576.43
411.045	579.36
411.422	596.54
411.8	607.61
412.178	643.32
412.555	610.77
412.933	634.73
413.31	641.28
413.687	665.91
414.065	673.37
414.442	658.91
414.819	664.56
415.197	701.17
415.574	685.35
415.951	721.96
416.328	719.92
416.705	741.17
417.082	707.72
417.46	733.03
417.837	754.05
418.214	771.22
418.591	759.25
418.967	779.13
419.344	804.67
419.721	822.75
420.098	812.8
420.475	838.79
420.852	835.18
421.228	849.41
421.605	883.99
421.982	882.86
422.358	907.04
422.735	919.92
423.111	926.25
423.488	959.01
423.864	978.9
424.241	992.69
424.617	985.23
424.994	1022.74
425.37	1041.27
425.746	1065
426.123	1066.58
426.499	1076.98
426.875	1079.01
427.251	1122.63
427.627	1122.85
428.003	1152
428.379	1159.24
428.756	1176.86
429.132	1202.62
429.507	1219.57
429.883	1204.21
430.259	1229.74
430.635	1249.18
431.011	1270.87
431.387	1270.64
431.763	1331.66
432.138	1353.13
432.514	1351.55
432.89	1352.9
433.265	1397.19
433.641	1449.4
434.016	1458.44
434.392	1502.05
434.767	1506.57
435.143	1530.07
435.518	1565.78
435.894	1618.88
436.269	1642.84
436.644	1644.42
437.02	1692.55
437.395	1683.29
437.77	1717.86
438.145	1770.74
438.52	1789.95
438.895	1812.33
439.271	1822.72
439.646	1877.86
440.021	1902.27
440.395	1894.81
440.77	1885.77
441.145	1941.36
441.52	1989.95
441.895	1978.2
442.27	2062.71
442.645	2053.9
443.019	2102.94
443.394	2085.31
443.769	2164.18
444.143	2126.44
444.518	2187.91
444.892	2204.41
445.267	2258.64
445.641	2244.4
446.016	2253.44
446.39	2261.35
446.764	2296.61
447.139	2302.93
447.513	2331.41
447.887	2350.62
448.262	2344.97
448.636	2379.09
449.01	2430.16
449.384	2404.4
449.758	2456.38
450.132	2494.34
450.506	2511.97
450.88	2521.46
451.254	2503.61
451.628	2610.27
452.002	2578.18
452.376	2632.87
452.75	2652.76
453.123	2669.48
453.497	2723.04
453.871	2735.92
454.244	2757.84
454.618	2777.95
454.992	2842.35
455.365	2807.55
455.739	2951.05
456.112	2961.22
456.486	2948.34
456.859	2991.96
457.232	3063.14
457.606	3072.86
457.979	3096.59
458.352	3141.78
458.725	3167.09
459.099	3212.29
459.472	3230.59
459.845	3306.07
460.218	3349.46
460.591	3358.27
460.964	3360.53
461.337	3446.41
461.71	3454.77
462.083	3549
462.456	3572.73
462.829	3588.55
463.201	3657.7
463.574	3668.32
463.947	3712.61
464.32	3826.51
464.692	3794.19
465.065	3859.28
465.438	3908.54
465.81	3961.87
466.183	3982.66
466.555	4069.22
466.928	4126.84
467.3	4092.72
467.672	4209.55
468.045	4282.32
468.417	4279.15
468.789	4284.58
469.161	4397.12
469.534	4410.67
469.906	4516.89
470.278	4548.3
470.65	4569.31
471.022	4640.05
471.394	4763.66
471.766	4781.29
472.138	4833.71
472.51	4982.41
472.882	4993.71
473.253	5062.41
473.625	5121.62
473.997	5295.4
474.369	5254.27
474.74	5324.55
475.112	5439.57
475.484	5496.75
475.855	5599.8
476.227	5632.11
476.598	5789.17
476.97	5813.35
477.341	5951.65
477.713	6054.7
478.084	5995.04
478.455	6178.31
478.827	6216.5
479.198	6408.81
479.569	6430.06
479.94	6630.05
480.311	6662.82
480.682	6749.37
481.053	6877.73
481.424	6963.15
481.795	7003.38
482.166	7190.71
482.537	7176.25
482.908	7374.44
483.279	7426.41
483.65	7555.9
484.021	7677.71
484.391	7815.11
484.762	7811.94
485.133	7913.41
485.503	8009
485.874	8173.29
486.244	8178.94
486.615	8288.99
486.985	8441.08
487.356	8613.5
487.726	8625.48
488.097	8788.19
488.467	8869.99
488.837	8992.7
489.207	9069.76
489.578	9153.15
489.948	9268.63
490.318	9366.02
490.688	9362.41
491.058	9558.34
491.428	9551.33
491.798	9724.66
492.168	9758.56
492.538	9893.24
492.908	9965.33
493.278	10053.01
493.648	10032.45
494.017	10205.32
494.387	10323.74
494.757	10348.6
495.126	10447.58
495.496	10499.55
495.866	10497.75
496.235	10607.8
496.605	10707.46
496.974	10714.24
497.344	10804.86
497.713	10828.13
498.082	10850.28
498.452	10983.61
498.821	10973.89
499.19	11011.86
499.559	11115.36
499.928	11064.96
500.298	11184.96
500.667	11277.84
501.036	11253.43
501.405	11361.9
501.774	11360.32
502.143	11378.85
502.512	11454.33
502.88	11560.32
503.249	11481.9
503.618	11488.23
503.987	11639.64
504.356	11620.43
504.724	11644.16
505.093	11696.59
505.462	11697.94
505.83	11842.12
506.199	11904.94
506.567	11968.89
506.936	11953.98
507.304	12108.55
507.672	12010.02
508.041	12055.67
508.409	12156.69
508.777	12048.44
509.145	12180.19
509.514	12197.59
509.882	12273.97
510.25	12271.26
510.618	12254.08
510.986	12220.19
511.354	12368.66
511.722	12407.07
512.09	12552.83
512.458	12318.26
512.826	12458.15
513.193	12529.11
513.561	12476.45
513.929	12581.99
514.297	12578.82
514.664	12680.29
515.032	12632.83
515.4	12710.57
515.767	12724.81
516.135	12752.83
516.502	12620.63
516.869	12817.46
517.237	12810.91
517.604	12697.46
517.972	12817.01
518.339	12833.05
518.706	12811.58
519.073	12834.63
519.44	12840.74
519.808	12930.22
520.175	12867.63
520.542	12898.59
520.909	12971.58
521.276	12954.18
521.643	13040.73
522.009	12986.49
522.376	13059.26
522.743	13051.13
523.11	13097.9
523.477	13167.05
523.843	13131.35
524.21	13308.07
524.577	13282.08
524.943	13212.93
525.31	13224.45
525.676	13314.62
526.043	13310.1
526.409	13259.48
526.776	13369.54
527.142	13354.85
527.508	13378.8
527.874	13436.43
528.241	13360.27
528.607	13325.02
528.973	13415.18
529.339	13330.21
529.705	13407.95
530.071	13546.48
530.437	13469.87
530.803	13476.43
531.169	13448.18
531.535	13333.38
531.901	13354.17
532.267	13291.12
532.632	13351.91
532.998	13332.93
533.364	13378.8
533.73	13312.36
534.095	13281.18
534.461	13279.14
534.826	13341.51
535.192	13207.96
535.557	13297
535.923	13185.36
536.288	13203.89
536.653	13161.41
537.019	13042.54
537.384	13039.15
537.749	12988.98
538.114	12983.56
538.479	13000.51
538.845	12941.98
539.21	12893.62
539.575	12819.27
539.94	12880.51
540.305	12834.86
540.67	12753.73
541.034	12764.13
541.399	12708.99
541.764	12649.1
542.129	12593.51
542.494	12580.4
542.858	12600.29
543.223	12530.91
543.587	12502.21
543.952	12490.91
544.316	12426.06
544.681	12286.4
545.045	12370.92
545.41	12329.56
545.774	12276.68
546.138	12226.51
546.503	12236.46
546.867	12059.51
547.231	12163.92
547.595	12132.28
547.959	12007.99
548.324	12017.03
548.688	11846.64
549.052	11908.33
549.416	11830.14
549.779	11781.33
550.143	11778.62
550.507	11789.92
550.871	11733.65
551.235	11685.06
551.599	11708.79
551.962	11551.96
552.326	11575.46
552.689	11665.17
553.053	11523.71
553.417	11500.66
553.78	11577.94
554.143	11467.66
554.507	11431.28
554.87	11422.47
555.234	11432.41
555.597	11324.84
555.96	11331.4
556.323	11321
556.686	11332.75
557.05	11324.39
557.413	11246.2
557.776	11314
558.139	11303.83
558.502	11249.59
558.865	11169.37
559.228	11229.25
559.59	11190.16
559.953	11227.44
560.316	11250.72
560.679	11215.02
561.041	11172.53
561.404	11157.62
561.767	11227.9
562.129	11112.19
562.492	11185.19
562.854	11163.27
563.217	11098.18
563.579	11163.94
563.941	11135.02
564.304	11148.58
564.666	11144.51
565.028	11119.2
565.39	11216.37
565.753	11187.45
566.115	11186.09
566.477	11192.42
566.839	11218.86
567.201	11237.39
567.563	11246.2
567.925	11230.83
568.287	11189.71
568.648	11158.75
569.01	11170.27
569.372	11284.84
569.734	11205.98
570.095	11223.6
570.457	11214.34
570.819	11212.98
571.18	11222.47
571.542	11283.49
571.903	11315.35
572.265	11327.56
572.626	11307.89
572.987	11378.85
573.349	11343.6
573.71	11371.17
574.071	11349.02
574.432	11299.31
574.794	11381.34
575.155	11370.49
575.516	11317.84
575.877	11362.36
576.238	11384.5
576.599	11325.3
576.96	11366.2
577.32	11368.23
577.681	11403.49
578.042	11415.91
578.403	11356.71
578.763	11437.38
579.124	11408.91
579.485	11431.73
579.845	11408.46
580.206	11365.97
580.566	11448.46
580.927	11349.7
581.287	11469.47
581.648	11396.48
582.008	11443.94
582.368	11378.4
582.728	11459.08
583.089	11416.59
583.449	11381.57
583.809	11480.55
584.169	11380.66
584.529	11334.79
584.889	11427.89
585.249	11411.85
585.609	11317.84
585.969	11471.96
586.329	11455.91
586.688	11357.61
587.048	11331.62
587.408	11361.23
587.768	11396.93
588.127	11320.55
588.487	11361.23
588.846	11377.5
589.206	11359.87
589.565	11278.07
589.925	11353.32
590.284	11290.49
590.643	11310.83
591.003	11418.4
591.362	11401
591.721	11323.94
592.08	11320.32
592.44	11383.6
592.799	11318.52
593.158	11286.65
593.517	11316.26
593.876	11404.39
594.235	11209.14
594.593	11238.29
594.952	11246.2
595.311	11206.43
595.67	11208.91
596.029	11335.24
596.387	11276.26
596.746	11296.14
597.104	11250.04
597.463	11311.96
597.822	11322.13
598.18	11228.57
598.538	11271.51
598.897	11287.1
599.255	11225.86
599.613	11329.59
599.972	11205.75
600.33	11255.69
600.688	11217.5
601.046	11215.47
601.404	11287.56
601.762	11257.27
602.12	11332.53
602.478	11343.37
602.836	11189.93
603.194	11172.76
603.552	11286.2
603.91	11210.27
604.268	11184.28
604.625	11156.03
604.983	11222.25
605.341	11185.86
605.698	11154
606.056	11230.83
606.413	11189.25
606.771	11277.39
607.128	11227.9
607.485	11192.87
607.843	11236.48
608.2	11236.94
608.557	11317.84
608.914	11152.19
609.272	11266.09
609.629	11342.24
609.986	11343.15
610.343	11258.86
610.7	11414.56
611.057	11305.86
611.414	11298.63
611.771	11297.5
612.127	11369.14
612.484	11354.9
612.841	11342.47
613.198	11356.03
613.554	11357.84
613.911	11448.46
614.267	11453.2
614.624	11363.03
614.98	11386.76
615.337	11445.74
615.693	11464.5
616.05	11422.69
616.406	11515.12
616.762	11389.02
617.118	11412.98
617.475	11411.85
617.831	11509.7
618.187	11511.28
618.543	11436.25
618.899	11562.58
619.255	11462.92
619.611	11481
619.967	11437.16
620.323	11529.13
620.678	11487.55
621.034	11411.39
621.39	11485.74
621.746	11412.52
622.101	11475.12
622.457	11467.21
622.812	11433.77
623.168	11463.6
623.523	11466.76
623.879	11522.8
624.234	11504.27
624.589	11424.05
624.945	11511.51
625.3	11485.29
625.655	11457.5
626.01	11533.65
626.365	11459.76
626.72	11428.57
627.075	11416.82
627.43	11465.18
627.785	11386.76
628.14	11386.76
628.495	11570.26
628.85	11485.97
629.205	11377.95
629.559	11462.02
629.914	11419.53
630.269	11363.03
630.623	11351.28
630.978	11376.82
631.332	11335.92
631.687	11325.97
632.041	11323.26
632.396	11260.21
632.75	11320.1
633.104	11316.48
633.459	11256.82
633.813	11251.4
634.167	11231.29
634.521	11236.48
634.875	11238.52
635.229	11303.83
635.583	11221.34
635.937	11165.3
636.291	11082.59
636.645	11162.59
636.999	11144.96
637.352	11100.22
637.706	10967.11
638.06	11053.44
638.413	11048.47
638.767	11057.73
639.121	11099.99
639.474	11017.28
639.828	11056.83
640.181	11006.21
640.534	10988.36
640.888	11006.89
641.241	10981.8
641.594	10974.34
641.947	11036.04
642.301	10978.41
642.654	10995.81
643.007	11003.95
643.36	10913.55
643.713	10911.07
644.066	10947.45
644.419	10873.1
644.771	10880.34
645.124	10779.55
645.477	10695.26
645.83	10675.82
646.182	10603.51
646.535	10622.94
646.888	10613.68
647.24	10499.33
647.593	10574.81
647.945	10556.5
648.298	10470.85
648.65	10457.52
649.002	10477.63
649.355	10500.23
649.707	10547.46
650.059	10592.66
650.411	10693.45
650.763	10675.6
651.115	10794.24
651.467	10768.47
651.819	10767.34
652.171	10828.13
652.523	10744.29
652.875	10764.86
653.227	10697.97
653.578	10779.32
653.93	10744.07
654.282	10667.91
654.633	10685.31
654.985	10669.95
655.337	10726.89
655.688	10703.84
656.039	10803.95
656.391	10653.67
656.742	10704.75
657.094	10676.5
657.445	10752.88
657.796	10730.06
658.147	10711.53
658.498	10721.92
658.849	10782.26
659.2	10714.46
659.551	10775.03
659.902	10719.89
660.253	10774.8
660.604	10748.59
660.955	10738.87
661.306	10776.16
661.656	10759.66
662.007	10810.05
662.358	10765.99
662.708	10819.32
663.059	10770.73
663.409	10649.83
663.76	10802.37
664.11	10774.12
664.461	10729.83
664.811	10892.54
665.161	10786.55
665.511	10772.77
665.862	10749.49
666.212	10820.9
666.562	10775.25
666.912	10738.64
667.262	10823.16
667.612	10807.12
667.962	10849.83
668.312	10822.26
668.662	10806.67
669.011	10822.48
669.361	10730.96
669.711	10819.09
670.06	10777.06
670.41	10714.01
670.76	10813.9
671.109	10698.65
671.459	10786.1
671.808	10691.64
672.157	10738.42
672.507	10731.86
672.856	10636.5
673.205	10655.71
673.554	10674.47
673.904	10745.65
674.253	10703.84
674.602	10712.66
674.951	10476.28
675.3	10453
675.649	10653.9
675.998	10611.87
676.346	10616.84
676.695	10588.59
677.044	10590.63
677.393	10563.28
677.741	10511.76
678.09	10561.93
678.438	10477.86
678.787	10567.8
679.135	10475.15
679.484	10413.23
679.832	10509.27
680.181	10422.95
680.529	10488.93
680.877	10408.48
681.225	10345.66
681.573	10489.61
681.922	10382.95
682.27	10242.84
682.618	10344.76
682.966	10380.91
683.314	10306.79
683.661	10219.11
684.009	10225.21
684.357	10242.39
684.705	10184.31
685.053	10184.99
685.4	10200.58
685.748	10133.46
686.095	10163.52
686.443	10070.41
686.79	10015.73
687.138	10050.98
687.485	10073.35
687.832	9995.16
688.18	9955.39
688.527	9924.88
688.874	9997.19
689.221	9921.94
689.568	9853.24
689.915	9845.56
690.262	9874.03
690.609	9903.86
690.956	9790.87
691.303	9705.68
691.65	9649.86
691.997	9710.87
692.344	9613.48
692.69	9593.14
693.037	9652.12
693.383	9509.75
693.73	9460.94
694.077	9430.88
694.423	9392.69
694.769	9415.97
695.116	9387.27
695.462	9392.69
695.808	9326.7
696.155	9316.31
696.501	9214.16
696.847	9271.34
697.193	9170.78
697.539	9155.86
697.885	9075.64
698.231	9084.22
698.577	9077.44
698.923	9063.21
699.269	8925.58
699.614	8854.63
699.96	8885.81
700.306	8873.83
700.651	8896.66
700.997	8820.05
701.342	8781.18
701.688	8787.06
702.033	8685.59
702.379	8726.49
702.724	8727.4
703.069	8686.95
703.415	8599.94
703.76	8588.87
704.105	8585.25
704.45	8592.26
704.795	8498.48
705.14	8443.34
705.485	8521.08
705.83	8439.04
706.175	8487.4
706.52	8434.98
706.865	8384.58
707.209	8330.35
707.554	8310.23
707.899	8331.48
708.243	8253.96
708.588	8223
708.932	8225.04
709.277	8139.84
709.621	8113.63
709.966	8148.2
710.31	8126.06
710.654	8029.79
710.998	8089
711.342	8021.43
711.687	8002.22
712.031	8018.94
712.375	7928.1
712.719	7981.88
713.063	7940.07
713.407	7985.27
713.75	7931.49
714.094	7938.72
714.438	7908.44
714.782	7899.85
715.125	7849.91
715.469	7922.45
715.812	7816.46
716.156	7818.72
716.499	7802.68
716.843	7709.57
717.186	7796.12
717.53	7770.81
717.873	7766.52
718.216	7714.99
718.559	7707.09
718.902	7709.57
719.246	7729.23
719.589	7684.04
719.932	7624.15
720.275	7639.74
720.617	7645.39
720.96	7569.91
721.303	7644.04
721.646	7667.31
721.989	7525.85
722.331	7651.49
722.674	7591.16
723.016	7604.04
723.359	7589.35
723.701	7556.13
724.044	7517.71
724.386	7517.03
724.729	7562
725.071	7547.32
725.413	7545.73
725.755	7481.78
726.097	7497.37
726.439	7462.57
726.782	7499.41
727.124	7503.7
727.465	7506.86
727.807	7514.1
728.149	7409.92
728.491	7484.27
728.833	7503.48
729.175	7419.86
729.516	7423.03
729.858	7452.4
730.199	7451.5
730.541	7468.45
730.882	7404.49
731.224	7437.49
731.565	7472.52
731.906	7401.56
732.248	7418.28
732.589	7401.33
732.93	7413.08
733.271	7325.85
733.612	7450.6
733.953	7458.05
734.294	7416.02
734.635	7430.48
734.976	7446.75
735.317	7400.43
735.658	7463.25
735.999	7400.2
736.339	7432.97
736.68	7416.47
737.021	7437.04
737.361	7449.92
737.702	7533.53
738.042	7445.62
738.383	7445.4
738.723	7515.9
739.063	7496.47
739.404	7524.27
739.744	7488.56
740.084	7501.67
740.424	7515.68
740.764	7551.84
741.104	7580.99
741.444	7505.28
741.784	7512.97
742.124	7552.29
742.464	7602.68
742.804	7587.99
743.143	7608.78
743.483	7683.13
743.823	7649.23
744.162	7652.17
744.502	7697.37
744.841	7752.96
745.181	7788.89
745.52	7814.65
745.86	7822.79
746.199	7862.11
746.538	7925.16
746.877	7979.39
747.216	8025.95
747.556	8005.16
747.895	8052.84
748.234	8057.81
748.573	8152.95
748.911	8216
749.25	8267.52
749.589	8290.35
749.928	8458.48
750.267	8529.66
750.605	8566.72
750.944	8590.23
751.283	8666.83
751.621	8815.76
751.96	8837.23
752.298	8919.03
752.636	9024.34
752.975	9107.05
753.313	9243.09
753.651	9381.62
753.989	9468.17
754.327	9559.01
754.666	9665.68
755.004	9804.66
755.342	9914.71
755.679	10043.52
756.017	10097.98
756.355	10372.78
756.693	10464.53
757.031	10584.3
757.368	10682.6
757.706	10964.4
758.044	11029.71
758.381	11214.56
