Data from hue_120_FLMS001491_00031.txt Node
Date: Tue Feb 07 16:59:16 GMT 2017
User: dcchb
Spectrometer: FLMS00149
Trigger mode: 0
Integration Time (sec): 2.000000E-2
Scans to average: 10
Electric dark correction enabled: true
Nonlinearity correction enabled: false
Boxcar width: 0
XAxis mode: Wavelengths
Number of Pixels in Spectrum: 2048
>>>>>Begin Spectral Data<<<<<
341.393	-13.54
341.776	-13.54
342.16	-13.54
342.543	-58.29
342.927	-63.04
343.31	-63.94
343.693	-58.29
344.077	-77.5
344.46	-85.86
344.843	-70.94
345.226	-38.18
345.61	-27.33
345.993	-14.9
346.376	-4.28
346.759	-13.77
347.142	34.36
347.525	53.35
347.908	63.06
348.291	78.43
348.674	97.64
349.057	128.15
349.44	122.04
349.823	139.67
350.206	156.62
350.588	189.84
350.971	214.92
351.354	226
351.737	268.26
352.119	261.48
352.502	257.41
352.884	278.42
353.267	272.32
353.65	302.61
354.032	283.85
354.414	307.58
354.797	316.16
355.179	325.66
355.562	339.21
355.944	319.55
356.326	334.24
356.709	353
357.091	327.92
357.473	344.64
357.855	321.36
358.238	350.51
358.62	331.08
359.002	338.31
359.384	346.22
359.766	329.95
360.148	355.71
360.53	331.08
360.912	329.95
361.294	344.41
361.676	328.37
362.057	332.89
362.439	333.79
362.821	327.46
363.203	303.96
363.584	327.24
363.966	318.42
364.348	321.81
364.729	310.74
365.111	301.02
365.493	338.08
365.874	327.01
366.256	313.45
366.637	317.52
367.019	319.33
367.4	318.2
367.781	295.6
368.163	324.07
368.544	304.64
368.925	321.81
369.306	315.71
369.688	331.98
370.069	321.14
370.45	304.19
370.831	320.91
371.212	306.67
371.593	308.03
371.974	302.38
372.355	311.64
372.736	308.25
373.117	315.94
373.498	317.29
373.879	322.04
374.26	309.84
374.641	314.58
375.021	320.46
375.402	313.45
375.783	315.49
376.163	305.09
376.544	336.28
376.925	312.1
377.305	331.98
377.686	330.85
378.066	335.37
378.447	305.09
378.827	336.73
379.208	314.13
379.588	326.11
379.968	322.27
380.349	335.6
380.729	351.87
381.109	324.53
381.489	349.61
381.87	347.58
382.25	318.65
382.63	343.51
383.01	348.71
383.39	352.55
383.77	335.6
384.15	340.12
384.53	348.71
384.91	353.9
385.29	357.97
385.67	369.72
386.049	368.14
386.429	364.3
386.809	370.17
387.189	360.91
387.568	350.97
387.948	357.97
388.328	370.4
388.707	365.2
389.087	368.59
389.466	382.15
389.846	372.66
390.225	369.72
390.605	360.46
390.984	369.72
391.363	364.3
391.743	362.72
392.122	359.78
392.501	376.73
392.881	374.24
393.26	389.61
393.639	397.74
394.018	396.84
394.397	386.44
394.776	374.02
395.155	374.47
395.534	403.39
395.913	391.87
396.292	410.17
396.671	398.87
397.05	398.65
397.429	399.1
397.808	382.15
398.186	406.78
398.565	408.59
398.944	396.16
399.323	391.42
399.701	398.87
400.08	401.59
400.458	395.71
400.837	437.06
401.215	419.44
401.594	418.31
401.972	436.16
402.351	397.07
402.729	425.54
403.107	448.36
403.486	417.18
403.864	429.83
404.242	434.8
404.62	422.83
404.999	437.74
405.377	455.37
405.755	450.17
406.133	407.91
406.511	447.23
406.889	452.66
407.267	442.26
407.645	444.97
408.023	459.21
408.401	445.43
408.779	463.73
409.156	447.46
409.534	471.41
409.912	466.67
410.29	461.24
410.667	477.74
411.045	479.32
411.422	487.01
411.8	493.56
412.178	489.94
412.555	510.51
412.933	492.2
413.31	517.06
413.687	511.19
414.065	494.92
414.442	496.05
414.819	524.97
415.197	519.32
415.574	512.32
415.951	531.3
416.328	528.81
416.705	537.63
417.082	509.38
417.46	555.25
417.837	555.48
418.214	543.73
418.591	542.37
418.967	543.05
419.344	566.55
419.721	562.03
420.098	545.31
420.475	560.9
420.852	565.2
421.228	568.36
421.605	558.42
421.982	596.61
422.358	575.14
422.735	571.3
423.111	568.13
423.488	589.6
423.864	596.38
424.241	612.2
424.617	598.19
424.994	627.12
425.37	620.56
425.746	609.26
426.123	631.86
426.499	615.37
426.875	628.25
427.251	642.26
427.627	649.04
428.003	660.79
428.379	662.37
428.756	662.6
429.132	646.1
429.507	663.73
429.883	670.73
430.259	661.24
430.635	685.87
431.011	693.33
431.387	707.57
431.763	694.91
432.138	709.6
432.514	708.7
432.89	714.8
433.265	718.87
433.641	736.72
434.016	729.94
434.392	756.15
434.767	752.54
435.143	767.23
435.518	762.25
435.894	786.43
436.269	769.94
436.644	792.76
437.02	792.54
437.395	792.76
437.77	798.86
438.145	805.19
438.52	816.72
438.895	822.82
439.271	817.39
439.646	838.86
440.021	835.47
440.395	839.09
440.77	839.31
441.145	842.25
441.52	880.89
441.895	864.85
442.27	866.43
442.645	879.09
443.019	869.82
443.394	903.95
443.769	907.56
444.143	911.4
444.518	914.11
444.892	916.15
445.267	926.54
445.641	920.22
446.016	912.53
446.39	939.42
446.764	926.77
447.139	931.29
447.513	930.39
447.887	965.19
448.262	948.01
448.636	990.04
449.01	986.43
449.384	990.95
449.758	964.51
450.132	988.91
450.506	1002.02
450.88	1001.8
451.254	1009.93
451.628	1031.17
452.002	1058.74
452.376	1020.78
452.75	1055.81
453.123	1071.85
453.497	1060.33
453.871	1085.18
454.244	1081.34
454.618	1116.37
454.992	1126.31
455.365	1132.19
455.739	1169.02
456.112	1164.05
456.486	1164.05
456.859	1180.77
457.232	1217.38
457.606	1198.4
457.979	1207.21
458.352	1257.83
458.725	1236.14
459.099	1256.03
459.472	1287.66
459.845	1296.25
460.218	1321.34
460.591	1319.08
460.964	1330.15
461.337	1361.56
461.71	1375.8
462.083	1411.73
462.456	1415.8
462.829	1439.75
463.201	1438.39
463.574	1464.38
463.947	1481.56
464.32	1521.33
464.692	1545.28
465.065	1510.71
465.438	1554.1
465.81	1597.49
466.183	1564.27
466.555	1640.2
466.928	1646.52
467.3	1648.11
467.672	1724.04
468.045	1743.92
468.417	1738.27
468.789	1769.46
469.161	1789.12
469.534	1826.63
469.906	1868.44
470.278	1887.42
470.65	1904.82
471.022	1943.92
471.394	2006.06
471.766	2015.78
472.138	2095.33
472.51	2115.66
472.882	2153.4
473.253	2195.66
473.625	2210.58
473.997	2271.59
474.369	2297.81
474.74	2346.62
475.112	2385.94
475.484	2464.58
475.855	2528.76
476.227	2560.4
476.598	2661.19
476.97	2681.98
477.341	2788.42
477.713	2860.96
478.084	2861.63
478.455	2966.72
478.827	3046.49
479.198	3174.85
479.569	3193.6
479.94	3279.93
480.311	3405.35
480.682	3487.38
481.053	3565.12
481.424	3698.22
481.795	3785
482.166	3851.21
482.537	3955.39
482.908	4096.86
483.279	4142.05
483.65	4337.75
484.021	4429.5
484.391	4561.48
484.762	4568.71
485.133	4698.42
485.503	4829.27
485.874	4982.71
486.244	5117.62
486.615	5269.03
486.985	5328.24
487.356	5514.22
487.726	5644.39
488.097	5782.46
488.467	5867.2
488.837	6017.26
489.207	6186.29
489.578	6351.71
489.948	6486.17
490.318	6636
490.688	6734.53
491.058	6856.11
491.428	7038.93
491.798	7162.09
492.168	7412.93
492.538	7492.92
492.908	7647.5
493.278	7761.84
493.648	7815.4
494.017	8032.57
494.387	8211.32
494.757	8299.23
495.126	8487.47
495.496	8561.6
495.866	8641.14
496.235	8824.41
496.605	8919.78
496.974	9131.75
497.344	9198.42
497.713	9348.69
498.082	9400.9
498.452	9529.48
498.821	9666.43
499.19	9795.91
499.559	9949.13
499.928	10014.89
500.298	10095.34
500.667	10241.55
501.036	10276.58
501.405	10445.16
501.774	10510.47
502.143	10709.56
502.512	10677.25
502.88	10853.51
503.249	10909.11
503.618	10940.07
503.987	11034.75
504.356	11209.66
504.724	11223.67
505.093	11295.54
505.462	11351.58
505.83	11461.63
506.199	11611.01
506.567	11698.24
506.936	11772.13
507.304	11922.19
507.672	11922.86
508.041	12012.13
508.409	12095.97
508.777	12189.3
509.145	12307.71
509.514	12338.9
509.882	12300.93
510.25	12441.95
510.618	12554.71
510.986	12554.94
511.354	12664.54
511.722	12753.13
512.09	12792.67
512.458	12845.1
512.826	12873.8
513.193	12986.11
513.561	13007.81
513.929	13130.52
514.297	13166
514.664	13194.47
515.032	13261.81
515.4	13347.46
515.767	13397.85
516.135	13410.51
516.502	13309.04
516.869	13596.04
517.237	13549.71
517.604	13511.98
517.972	13667.23
518.339	13668.58
518.706	13597.85
519.073	13730.5
519.44	13760.56
519.808	13785.64
520.175	13843.04
520.542	13975.24
520.909	14005.75
521.276	13910.38
521.643	13984.05
522.009	14111.06
522.376	14123.26
522.743	14213.65
523.11	14232.86
523.477	14377.49
523.843	14437.83
524.21	14447.32
524.577	14571.16
524.943	14502.68
525.31	14516.47
525.676	14682.79
526.043	14612.96
526.409	14673.75
526.776	14683.24
527.142	14676.01
527.508	14729.12
527.874	14716.01
528.241	14778.61
528.607	14750.59
528.973	14887.98
529.339	14792.62
529.705	14863.35
530.071	14990.13
530.437	14925.5
530.803	14938.6
531.169	15017.92
531.535	14905.38
531.901	14911.49
532.267	15035.1
532.632	15070.35
532.998	14965.5
533.364	14913.75
533.73	14887.98
534.095	15032.61
534.461	15019.96
534.826	15039.39
535.192	14924.37
535.557	15028.77
535.923	14924.37
536.288	14877.14
536.653	14955.55
537.019	14881.88
537.384	14859.51
537.749	14936.57
538.114	14854.99
538.479	14819.29
538.845	14772.96
539.21	14744.03
539.575	14751.26
539.94	14742
540.305	14715.79
540.67	14617.71
541.034	14657.71
541.399	14634.21
541.764	14583.13
542.129	14576.81
542.494	14535.9
542.858	14612.74
543.223	14596.69
543.587	14567.77
543.952	14486.41
544.316	14471.05
544.681	14386.3
545.045	14459.52
545.41	14502.46
545.774	14370.94
546.138	14409.58
546.503	14313.08
546.867	14283.71
547.231	14339.52
547.595	14278.51
547.959	14205.29
548.324	14158.74
548.688	14259.53
549.052	14216.14
549.416	14120.77
549.779	14080.1
550.143	14144.95
550.507	14115.8
550.871	14098.63
551.235	13970.04
551.599	14039.42
551.962	13980.66
552.326	13914.45
552.689	13954
553.053	13754.68
553.417	13897.05
553.78	13918.52
554.143	13897.05
554.507	13804.17
554.87	13779.31
555.234	13958.74
555.597	13726.21
555.96	13869.03
556.323	13808.24
556.686	13758.07
557.05	13783.83
557.413	13765.75
557.776	13727.79
558.139	13815.24
558.502	13707.9
558.865	13688.47
559.228	13737.28
559.59	13819.09
559.953	13777.96
560.316	13817.28
560.679	13820.44
561.041	13799.2
561.404	13875.36
561.767	13792.19
562.129	13726.88
562.492	13883.49
562.854	13877.84
563.217	13830.61
563.579	13831.97
563.941	13968.46
564.304	13932.98
564.666	13937.73
565.028	13970.72
565.39	13915.81
565.753	13970.95
566.115	14062.02
566.477	14024.73
566.839	14021.57
567.201	14072.41
567.563	14032.41
567.925	14114.22
568.287	14146.76
568.648	14109.25
569.01	14126.42
569.372	14155.12
569.734	14110.38
570.095	14165.74
570.457	14163.48
570.819	14201.67
571.18	14177.27
571.542	14276.93
571.903	14226.53
572.265	14257.27
572.626	14318.06
572.987	14280.09
573.349	14303.59
573.71	14363.48
574.071	14386.75
574.432	14284.16
574.794	14426.98
575.155	14333.87
575.516	14347.43
575.877	14344.27
576.238	14353.99
576.599	14415.68
576.96	14378.17
577.32	14395.57
577.681	14398.73
578.042	14404.38
578.403	14403.25
578.763	14361.44
579.124	14418.17
579.485	14421.56
579.845	14556.24
580.206	14449.58
580.566	14463.14
580.927	14465.17
581.287	14512.17
581.648	14450.26
582.008	14454.1
582.368	14445.96
582.728	14500.42
583.089	14403.93
583.449	14451.84
583.809	14460.88
584.169	14440.76
584.529	14394.89
584.889	14449.13
585.249	14377.72
585.609	14360.31
585.969	14448.67
586.329	14352.41
586.688	14384.72
587.048	14385.62
587.408	14295.23
587.768	14292.75
588.127	14325.51
588.487	14267.44
588.846	14356.7
589.206	14332.74
589.565	14259.07
589.925	14282.58
590.284	14274.44
590.643	14295.91
591.003	14318.96
591.362	14217.27
591.721	14246.87
592.08	14258.17
592.44	14258.4
592.799	14240.32
593.158	14138.85
593.517	14312.86
593.876	14307.66
594.235	14244.39
594.593	14175.69
594.952	14246.42
595.311	14193.99
595.67	14168.68
596.029	14278.73
596.387	14197.61
596.746	14250.03
597.104	14131.85
597.463	14153.77
597.822	14226.76
598.18	14123.71
598.538	14082.81
598.897	14150.15
599.255	14058.85
599.613	14261.33
599.972	14236.02
600.33	14265.18
600.688	14096.37
601.046	14246.65
601.404	14212.97
601.762	14190.15
602.12	14274.44
602.478	14215.23
602.836	14294.78
603.194	14089.59
603.552	14156.03
603.91	14158.74
604.268	14249.36
604.625	14152.64
604.983	14132.3
605.341	14164.84
605.698	14152.41
606.056	14208.68
606.413	14135.01
606.771	14259.53
607.128	14241
607.485	14164.39
607.843	14169.81
608.2	14253.2
608.557	14304.04
608.914	14260.43
609.272	14274.89
609.629	14295.23
609.986	14294.78
610.343	14221.34
610.7	14360.77
611.057	14268.79
611.414	14325.29
611.771	14379.98
612.127	14469.24
612.484	14350.82
612.841	14555.56
613.198	14451.84
613.554	14393.31
613.911	14399.41
614.267	14428.34
614.624	14415.68
614.98	14445.28
615.337	14529.12
615.693	14526.64
616.05	14506.53
616.406	14533.19
616.762	14531.61
617.118	14502.01
617.475	14570.48
617.831	14562.57
618.187	14568.67
618.543	14586.52
618.899	14621.1
619.255	14730.25
619.611	14588.11
619.967	14619.29
620.323	14672.62
620.678	14575.45
621.034	14602.57
621.39	14567.99
621.746	14578.16
622.101	14747.87
622.457	14663.58
622.812	14649.57
623.168	14706.29
623.523	14712.85
623.879	14746.29
624.234	14565.28
624.589	14652.51
624.945	14643.92
625.3	14632.4
625.655	14650.02
626.01	14621.55
626.365	14627.43
626.72	14694.32
627.075	14664.49
627.43	14609.8
627.785	14614.55
628.14	14575.45
628.495	14550.37
628.85	14602.34
629.205	14536.13
629.559	14559.41
629.914	14545.17
630.269	14567.31
630.623	14506.53
630.978	14431.05
631.332	14596.01
631.687	14627.65
632.041	14513.3
632.396	14513.53
632.75	14439.86
633.104	14490.48
633.459	14375.23
633.813	14397.83
634.167	14464.04
634.521	14364.61
634.875	14398.51
635.229	14418.84
635.583	14356.7
635.937	14309.47
636.291	14275.34
636.645	14301.78
636.999	14346.98
637.352	14332.97
637.706	14233.31
638.06	14288.68
638.413	14196.93
638.767	14183.14
639.121	14256.81
639.474	14034.67
639.828	14133.65
640.181	14084.62
640.534	14052.53
640.888	14105.86
641.241	14082.58
641.594	14075.8
641.947	14071.96
642.301	14087.33
642.654	14066.54
643.007	14106.99
643.36	14057.5
643.713	14078.51
644.066	14052.07
644.419	13972.53
644.771	13914
645.124	13753.78
645.477	13739.77
645.83	13731.4
646.182	13629.26
646.535	13572.76
646.888	13620.45
647.24	13546.1
647.593	13540.9
647.945	13561.92
648.298	13507.91
648.65	13412.54
649.002	13479.89
649.355	13532.31
649.707	13478.76
650.059	13593.78
650.411	13728.47
650.763	13766.88
651.115	13800.1
651.467	13789.93
651.819	13782.25
652.171	13872.87
652.523	13849.37
652.875	13746.77
653.227	13725.08
653.578	13811.85
653.93	13804.85
654.282	13728.47
654.633	13704.96
654.985	13735.47
655.337	13789.93
655.688	13784.51
656.039	13864.06
656.391	13827.67
656.742	13798.52
657.094	13740.9
657.445	13857.73
657.796	13755.36
658.147	13725.08
658.498	13776.38
658.849	13868.58
659.2	13777.5
659.551	13764.4
659.902	13810.05
660.253	13822.48
660.604	13782.25
660.955	13735.47
661.306	13764.4
661.656	13789.93
662.007	13711.74
662.358	13739.31
662.708	13817.5
663.059	13777.96
663.409	13712.87
663.76	13818.86
664.11	13803.49
664.461	13866.99
664.811	13855.47
665.161	13804.4
665.511	13797.17
665.862	13801.91
666.212	13869.71
666.562	13944.05
666.912	13818.63
667.262	13789.93
667.612	13882.59
667.962	13795.81
668.312	13788.13
668.662	13846.2
669.011	13784.51
669.361	13792.42
669.711	13891.63
670.06	13846.88
670.41	13754
670.76	13680.56
671.109	13800.78
671.459	13824.96
671.808	13750.16
672.157	13739.09
672.507	13674.46
672.856	13693.44
673.205	13762.82
673.554	13800.33
673.904	13703.16
674.253	13767.11
674.602	13734.57
674.951	13480.79
675.3	13476.5
675.649	13639.88
675.998	13606.21
676.346	13543.61
676.695	13641.46
677.044	13510.62
677.393	13528.7
677.741	13525.31
678.09	13484.18
678.438	13522.6
678.787	13485.08
679.135	13517.62
679.484	13489.6
679.832	13503.39
680.181	13417.29
680.529	13412.09
680.877	13356.5
681.225	13358.31
681.573	13412.99
681.922	13356.95
682.27	13199.22
682.618	13339.1
682.966	13240.12
683.314	13290.06
683.661	13168.93
684.009	13142.27
684.357	13024.3
684.705	13060.46
685.053	13092.33
685.4	13037.64
685.748	13092.1
686.095	12937.08
686.443	12991.54
686.79	12991.54
687.138	12968.94
687.485	12991.76
687.832	12827.47
688.18	12981.37
688.527	12777.31
688.874	12817.3
689.221	12752.9
689.568	12687.36
689.915	12722.17
690.262	12678.1
690.609	12677.19
690.956	12537.31
691.303	12618.89
691.65	12470.65
691.997	12490.76
692.344	12439.69
692.69	12397.43
693.037	12340.03
693.383	12248.96
693.73	12340.03
694.077	12233.59
694.423	12208.96
694.769	12241.95
695.116	12149.75
695.462	12109.3
695.808	12061.17
696.155	12054.39
696.501	11952.69
696.847	11948.63
697.193	11841.74
697.539	11886.26
697.885	11796.77
698.231	11718.58
698.577	11753.15
698.923	11735.52
699.269	11654.17
699.614	11612.14
699.96	11574.85
700.306	11571.01
700.651	11494.4
700.997	11424.57
701.342	11425.48
701.688	11458.7
702.033	11288.3
702.379	11310.23
702.724	11357.91
703.069	11357.91
703.415	11152.94
703.76	11137.12
704.105	11126.05
704.45	11087.86
704.795	10982.78
705.14	11023.23
705.485	11008.76
705.83	10941.65
706.175	10977.35
706.52	10991.36
706.865	10810.58
707.209	10924.25
707.554	10770.35
707.899	10798.6
708.243	10715.21
708.588	10703.01
708.932	10652.16
709.277	10638.6
709.621	10642.45
709.966	10565.39
710.31	10526.07
710.654	10523.81
710.998	10546.86
711.342	10497.82
711.687	10404.94
712.031	10428.44
712.375	10359.06
712.719	10385.73
713.063	10359.29
713.407	10378.27
713.75	10305.73
714.094	10333.75
714.438	10231.84
714.782	10223.93
715.125	10175.34
715.469	10284.94
715.812	10149.35
716.156	10178.96
716.499	10082.23
716.843	10118.62
717.186	10031.16
717.53	10103.93
717.873	10114.32
718.216	10192.74
718.559	10076.36
718.902	9959.07
719.246	9994.1
719.589	10050.15
719.932	9971.5
720.275	9979.41
720.617	9942.13
720.96	9915.23
721.303	9928.11
721.646	9939.19
721.989	9953.88
722.331	9857.61
722.674	9872.3
723.016	9868.23
723.359	9783.49
723.701	9943.93
724.044	9863.71
724.386	9763.15
724.729	9835.46
725.071	9797.5
725.413	9804.5
725.755	9829.81
726.097	9749.59
726.439	9691.06
726.782	9716.82
727.124	9726.09
727.465	9736.71
727.807	9729.02
728.149	9713.43
728.491	9663.04
728.833	9740.77
729.175	9643.15
729.516	9630.04
729.858	9636.14
730.199	9757.72
730.541	9672.53
730.882	9637.95
731.224	9654.9
731.565	9618.07
731.906	9604.96
732.248	9654.68
732.589	9545.98
732.93	9608.35
733.271	9587.11
733.612	9637.95
733.953	9663.71
734.294	9545.3
734.635	9514.57
734.976	9627.56
735.317	9587.78
735.658	9622.13
735.999	9615.81
736.339	9614.45
736.68	9672.98
737.021	9606.77
737.361	9510.27
737.702	9672.53
738.042	9615.35
738.383	9624.85
738.723	9643.6
739.063	9546.43
739.404	9661.91
739.744	9596.6
740.084	9611.96
740.424	9616.48
740.764	9587.56
741.104	9697.84
741.444	9647.67
741.784	9661.23
742.124	9698.97
742.464	9753.2
742.804	9801.56
743.143	9779.87
743.483	9740.1
743.823	9728.35
744.162	9817.61
744.502	9835.01
744.841	9815.8
745.181	9885.18
745.52	9895.57
745.86	9909.81
746.199	9995.01
746.538	10047.66
746.877	10094.44
747.216	10123.82
747.556	10175.79
747.895	10223.02
748.234	10160.88
748.573	10319.97
748.911	10289.24
749.25	10363.81
749.589	10418.72
749.928	10522.22
750.267	10670.47
750.605	10628.66
750.944	10738.04
751.283	10768.32
751.621	10858.94
751.96	10911.59
752.298	11011.7
752.636	11106.16
752.975	11203.56
753.313	11243.33
753.651	11390.22
753.989	11460.96
754.327	11583.44
754.666	11609.43
755.004	11763.32
755.342	11987.04
755.679	12039.25
756.017	12054.61
756.355	12350.42
756.693	12403.98
757.031	12613.47
757.368	12619.8
757.706	12844.87
