Data from hue_220_FLMS001491_00054.txt Node
Date: Tue Feb 07 16:39:39 GMT 2017
User: dcchb
Spectrometer: FLMS00149
Trigger mode: 0
Integration Time (sec): 2.000000E-2
Scans to average: 10
Electric dark correction enabled: true
Nonlinearity correction enabled: false
Boxcar width: 0
XAxis mode: Wavelengths
Number of Pixels in Spectrum: 2048
>>>>>Begin Spectral Data<<<<<
341.393	-18.9
341.776	-18.9
342.16	-18.9
342.543	-67.26
342.927	-58.67
343.31	-55.28
343.693	-61.16
344.077	-55.28
344.46	-63.19
344.843	-43.08
345.226	-53.93
345.61	-26.58
345.993	-10.54
346.376	-1.95
346.759	7.77
347.142	28.11
347.525	31.5
347.908	46.41
348.291	64.04
348.674	102.68
349.057	90.48
349.44	129.35
349.823	121.89
350.206	154.66
350.588	213.86
350.971	187.42
351.354	226.75
351.737	227.2
352.119	245.5
352.502	261.77
352.884	277.14
353.267	290.92
353.65	278.72
354.032	271.94
354.414	301.77
354.797	296.35
355.179	324.37
355.562	319.17
355.944	331.15
356.326	335.9
356.709	325.5
357.091	304.26
357.473	340.41
357.855	317.82
358.238	343.58
358.62	341.54
359.002	343.35
359.384	320.75
359.766	337.25
360.148	327.31
360.53	325.5
360.912	330.47
361.294	322.79
361.676	308.33
362.057	318.27
362.439	322.34
362.821	315.78
363.203	329.79
363.584	322.11
363.966	297.03
364.348	314.43
364.729	302.9
365.111	328.89
365.493	323.24
365.874	304.48
366.256	313.07
366.637	310.36
367.019	320.53
367.4	313.3
367.781	319.17
368.163	311.49
368.544	297.48
368.925	296.12
369.306	334.77
369.688	309
370.069	329.79
370.45	309.46
370.831	306.29
371.212	310.13
371.593	318.27
371.974	309.23
372.355	306.07
372.736	311.71
373.117	323.24
373.498	296.57
373.879	299.74
374.26	301.55
374.641	297.7
375.021	302.45
375.402	296.57
375.783	290.25
376.163	316.46
376.544	310.81
376.925	296.8
377.305	307.65
377.686	305.16
378.066	318.27
378.447	326.86
378.827	315.78
379.208	301.32
379.588	328.21
379.968	314.2
380.349	336.35
380.729	321.66
381.109	331.83
381.489	327.53
381.87	336.12
382.25	339.51
382.63	338.83
383.01	312.84
383.39	334.31
383.77	320.3
384.15	340.41
384.53	349.68
384.91	342.67
385.29	339.06
385.67	342.67
386.049	342.22
386.429	346.29
386.809	350.81
387.189	353.97
387.568	349
387.948	365.5
388.328	344.48
388.707	356.23
389.087	322.34
389.466	369.57
389.846	323.24
390.225	355.56
390.605	355.1
390.984	366.85
391.363	369.34
391.743	360.75
392.122	355.56
392.501	357.82
392.881	385.39
393.26	356.23
393.639	372.73
394.018	363.92
394.397	384.03
394.776	371.37
395.155	378.61
395.534	357.36
395.913	348.32
396.292	381.54
396.671	402.56
397.05	404.37
397.429	369.79
397.808	369.34
398.186	387.19
398.565	391.49
398.944	388.55
399.323	372.5
399.701	385.16
400.08	377.48
400.458	394.42
400.837	402.33
401.215	419.06
401.594	408.21
401.972	423.35
402.351	397.81
402.729	413.63
403.107	431.03
403.486	414.54
403.864	412.96
404.242	429.23
404.62	439.4
404.999	429.68
405.377	430.13
405.755	468.55
406.133	458.83
406.511	451.37
406.889	473.97
407.267	450.24
407.645	457.47
408.023	480.3
408.401	463.8
408.779	474.2
409.156	488.89
409.534	488.89
409.912	475.55
410.29	482.78
410.667	485.27
411.045	517.81
411.422	519.62
411.8	506.96
412.178	508.55
412.555	532.27
412.933	541.31
413.31	580.63
413.687	562.56
414.065	580.41
414.442	575.89
414.819	588.32
415.197	569.34
415.574	601.42
415.951	606.62
416.328	596.45
416.705	591.48
417.082	626.73
417.46	635.77
417.837	639.16
418.214	656.11
418.591	636
418.967	664.25
419.344	692.95
419.721	672.16
420.098	691.82
420.475	689.78
420.852	683.23
421.228	711.25
421.605	707.41
421.982	737.47
422.358	754.42
422.735	722.33
423.111	773.62
423.488	774.75
423.864	811.36
424.241	781.08
424.617	804.81
424.994	831.93
425.37	818.14
425.746	836.9
426.123	855.2
426.499	871.7
426.875	886.39
427.251	884.58
427.627	933.85
428.003	910.57
428.379	934.52
428.756	927.74
429.132	955.54
429.507	992.38
429.883	997.8
430.259	967.52
430.635	995.31
431.011	1001.41
431.387	1023.11
431.763	1037.57
432.138	1044.8
432.514	1054.07
432.89	1084.8
433.265	1081.19
433.641	1128.42
434.016	1113.95
434.392	1139.49
434.767	1181.52
435.143	1199.6
435.518	1214.74
435.894	1222.2
436.269	1257.45
436.644	1277.79
437.02	1314.4
437.395	1304.46
437.77	1296.1
438.145	1366.6
438.52	1370.9
438.895	1380.84
439.271	1396.43
439.646	1433.04
440.021	1436.43
440.395	1498.58
440.77	1469.88
441.145	1484.34
441.52	1519.59
441.895	1522.3
442.27	1564.34
442.645	1569.54
443.019	1581.51
443.394	1584.68
443.769	1614.51
444.143	1612.02
444.518	1625.13
444.892	1638.46
445.267	1668.97
445.641	1713.71
446.016	1684.56
446.39	1708.51
446.764	1742.19
447.139	1690.44
447.513	1696.99
447.887	1754.61
448.262	1783.77
448.636	1767.5
449.01	1803.43
449.384	1789.64
449.758	1802.52
450.132	1829.87
450.506	1846.59
450.88	1855.86
451.254	1852.47
451.628	1873.71
452.002	1916.42
452.376	1923.2
452.75	1962.07
453.123	1958.23
453.497	1975.85
453.871	2003.87
454.244	2026.92
454.618	2026.25
454.992	2089.75
455.365	2076.64
455.739	2103.08
456.112	2131.1
456.486	2136.53
456.859	2153.47
457.232	2184.21
457.606	2172.91
457.979	2202.51
458.352	2255.39
458.725	2308.95
459.099	2307.59
459.472	2358.21
459.845	2341.04
460.218	2389.4
460.591	2361.15
460.964	2388.27
461.337	2423.98
461.71	2442.05
462.083	2510.75
462.456	2500.58
462.829	2496.29
463.201	2577.42
463.574	2575.61
463.947	2604.99
464.32	2683.4
464.692	2671.65
465.065	2683.4
465.438	2696.06
465.81	2740.8
466.183	2774.25
466.555	2823.97
466.928	2828.26
467.3	2880.46
467.672	2889.05
468.045	2959.78
468.417	2967.01
468.789	2993
469.161	3011.08
469.534	3035.94
469.906	3134.24
470.278	3123.39
470.65	3162.94
471.022	3195.71
471.394	3269.6
471.766	3295.59
472.138	3304.86
472.51	3355.48
472.882	3387.57
473.253	3417.85
473.625	3498.52
473.997	3529.26
474.369	3591.63
474.74	3626.88
475.112	3643.38
475.484	3715.47
475.855	3748.01
476.227	3743.04
476.598	3912.75
476.97	3932.41
477.341	3992.3
477.713	4000.43
478.084	4046.98
478.455	4143.25
478.827	4163.37
479.198	4284.04
479.569	4282.01
479.94	4356.58
480.311	4402.23
480.682	4474.77
481.053	4583.47
481.424	4632.96
481.795	4634.99
482.166	4737.59
482.537	4765.61
482.908	4820.07
483.279	4920.18
483.65	4979.61
484.021	5046.05
484.391	5049.9
484.762	5076.56
485.133	5135.99
485.503	5223
485.874	5297.35
486.244	5321.98
486.615	5488.98
486.985	5463.44
487.356	5508.19
487.726	5550.9
488.097	5660.5
488.467	5701.63
488.837	5790.67
489.207	5808.97
489.578	5923.09
489.948	5982.3
490.318	6015.52
490.688	6051.9
491.058	6065.91
491.428	6204.89
491.798	6252.58
492.168	6360.82
492.538	6401.5
492.908	6367.83
493.278	6421.84
493.648	6448.5
494.017	6533.7
494.387	6544.09
494.757	6601.49
495.126	6677.42
495.496	6689.4
495.866	6669.06
496.235	6727.37
496.605	6798.32
496.974	6805.78
497.344	6849.17
497.713	6860.24
498.082	6986.34
498.452	6905.89
498.821	6978.66
499.19	7028.83
499.559	7067.24
499.928	7119.67
500.298	7109.5
500.667	7167.13
501.036	7142.27
501.405	7210.06
501.774	7210.52
502.143	7271.08
502.512	7247.8
502.88	7286.22
503.249	7296.39
503.618	7303.4
503.987	7314.69
504.356	7365.31
504.724	7373.22
505.093	7329.61
505.462	7409.61
505.83	7442.83
506.199	7468.81
506.567	7501.36
506.936	7517.85
507.304	7618.19
507.672	7604.18
508.041	7591.52
508.409	7632.88
508.777	7638.53
509.145	7679.66
509.514	7692.09
509.882	7723.5
510.25	7636.27
510.618	7791.07
510.986	7671.75
511.354	7734.34
511.722	7782.25
512.09	7811.63
512.458	7787
512.826	7862.02
513.193	7862.7
513.561	7845.53
513.929	7885.75
514.297	7922.81
514.664	7907.45
515.032	7897.96
515.4	7906.32
515.767	8025.64
516.135	7896.6
516.502	7919.88
516.869	8017.28
517.237	7986.09
517.604	7913.77
517.972	7982.47
518.339	7986.54
518.706	7921.46
519.073	7942.47
519.44	8051.17
519.808	8077.61
520.175	7975.92
520.542	8032.42
520.909	8060.44
521.276	7950.84
521.643	8077.16
522.009	8027.9
522.376	8115.8
522.743	8066.09
523.11	8098.18
523.477	8153.54
523.843	8186.54
524.21	8164.16
524.577	8221.56
524.943	8212.3
525.31	8207.1
525.676	8233.54
526.043	8206.65
526.409	8156.48
526.776	8271.28
527.142	8236.7
527.508	8237.38
527.874	8297.27
528.241	8258.17
528.607	8276.93
528.973	8316.93
529.339	8261.56
529.705	8252.75
530.071	8301.11
530.437	8295.69
530.803	8274.22
531.169	8291.39
531.535	8235.35
531.901	8212.75
532.267	8208.91
532.632	8235.35
532.998	8248.68
533.364	8232.41
533.73	8241.22
534.095	8222.24
534.461	8163.71
534.826	8226.31
535.192	8219.98
535.557	8211.17
535.923	8135.92
536.288	8157.16
536.653	8204.16
537.019	8088.46
537.384	8066.31
537.749	8105.63
538.114	8159.19
538.479	8036.94
538.845	8010.27
539.21	8038.74
539.575	8040.55
539.94	7996.03
540.305	8052.75
540.67	7977.05
541.034	7971.4
541.399	7978.41
541.764	7881.69
542.129	7997.61
542.494	7927.79
542.858	7887.56
543.223	7907.45
543.587	7825.64
543.952	7861.35
544.316	7841.46
544.681	7800.11
545.045	7808.47
545.41	7799.88
545.774	7689.15
546.138	7719.2
546.503	7739.77
546.867	7642.14
547.231	7672.2
547.595	7690.96
547.959	7672.65
548.324	7570.28
548.688	7599.43
549.052	7540.68
549.416	7539.77
549.779	7540.45
550.143	7509.72
550.507	7563.05
550.871	7521.47
551.235	7473.79
551.599	7515.14
551.962	7500.23
552.326	7420.23
552.689	7431.3
553.053	7357.86
553.417	7364.64
553.78	7477.4
554.143	7408.7
554.507	7415.26
554.87	7455.93
555.234	7413.45
555.597	7309.05
555.96	7294.36
556.323	7359.89
556.686	7373.9
557.05	7358.76
557.413	7281.25
557.776	7283.06
558.139	7316.5
558.502	7272.21
558.865	7288.25
559.228	7316.05
559.59	7337.52
559.953	7292.32
560.316	7286.67
560.679	7338.2
561.041	7346.56
561.404	7343.85
561.767	7361.47
562.129	7342.72
562.492	7387.24
562.854	7312.89
563.217	7345.88
563.579	7345.65
563.941	7400.12
564.304	7378.87
564.666	7419.1
565.028	7424.07
565.39	7404.86
565.753	7396.73
566.115	7483.73
566.477	7427.46
566.839	7483.28
567.201	7519.21
567.563	7441.7
567.925	7520.56
568.287	7532.32
568.648	7478.76
569.01	7579.77
569.372	7545.2
569.734	7506.33
570.095	7549.26
570.457	7592.88
570.819	7604.86
571.18	7572.09
571.542	7638.08
571.903	7606.89
572.265	7605.99
572.626	7681.69
572.987	7634.46
573.349	7691.63
573.71	7681.69
574.071	7657.96
574.432	7720.33
574.794	7794.68
575.155	7769.82
575.516	7762.59
575.877	7763.04
576.238	7777.73
576.599	7866.77
576.96	7827
577.32	7855.7
577.681	7886.66
578.042	7821.35
578.403	7866.54
578.763	7895.7
579.124	7911.29
579.485	7957.16
579.845	8024.73
580.206	7984.28
580.566	7971.4
580.927	8020.44
581.287	8087.56
581.648	8015.92
582.008	8034.9
582.368	8051.85
582.728	8056.6
583.089	8051.85
583.449	8073.09
583.809	8064.73
584.169	8123.71
584.529	8064.05
584.889	8224.5
585.249	8117.39
585.609	8088.69
585.969	8173.43
586.329	8100.44
586.688	8209.36
587.048	8217.95
587.408	8195.58
587.768	8219.98
588.127	8217.27
588.487	8232.18
588.846	8255.69
589.206	8262.01
589.565	8234.44
589.925	8373.88
590.284	8300.21
590.643	8302.47
591.003	8380.43
591.362	8395.57
591.721	8349.02
592.08	8330.49
592.44	8433.54
592.799	8407.1
593.158	8400.09
593.517	8350.6
593.876	8425.85
594.235	8368.23
594.593	8410.49
594.952	8462.24
595.311	8406.64
595.67	8459.52
596.029	8507.43
596.387	8537.04
596.746	8459.75
597.104	8445.74
597.463	8484.61
597.822	8530.93
598.18	8516.92
598.538	8542.68
598.897	8563.93
599.255	8488.22
599.613	8611.16
599.972	8498.39
600.33	8552.4
600.688	8492.52
601.046	8560.99
601.404	8553.08
601.762	8609.58
602.12	8639.41
602.478	8666.52
602.836	8640.76
603.194	8610.71
603.552	8576.13
603.91	8534.32
604.268	8607.32
604.625	8606.86
604.983	8591.5
605.341	8563.7
605.698	8624.49
606.056	8624.49
606.413	8607.32
606.771	8674.88
607.128	8686.86
607.485	8686.41
607.843	8664.04
608.2	8714.66
608.557	8765.96
608.914	8699.07
609.272	8685.51
609.629	8731.38
609.986	8751.49
610.343	8764.37
610.7	8772.51
611.057	8757.37
611.414	8772.51
611.771	8782.68
612.127	8780.87
612.484	8812.73
612.841	8732.06
613.198	8823.36
613.554	8774.77
613.911	8811.38
614.267	8816.12
614.624	8764.6
614.98	8847.08
615.337	8891.83
615.693	8824.49
616.05	8831.49
616.406	8893.18
616.762	8855.9
617.118	8939.96
617.475	8849.12
617.831	8987.19
618.187	8937.7
618.543	8919.85
618.899	8982.67
619.255	8897.25
619.611	8982.9
619.967	8962.33
620.323	9004.82
620.678	8946.06
621.034	8932.51
621.39	8947.42
621.746	8942.67
622.101	8994.88
622.457	8909.23
622.812	8955.1
623.168	8963.92
623.523	8961.21
623.879	8989.23
624.234	8895.9
624.589	9035.33
624.945	8993.52
625.3	8993.75
625.655	8962.11
626.01	8944.26
626.365	9004.14
626.72	9008.44
627.075	8943.58
627.43	8905.16
627.785	8937.93
628.14	8869.68
628.495	8944.93
628.85	8955.56
629.205	8889.57
629.559	8959.85
629.914	8952.39
630.269	8887.99
630.623	8866.74
630.978	8877.14
631.332	8831.72
631.687	8883.47
632.041	8920.08
632.396	8867.42
632.75	8792.17
633.104	8840.53
633.459	8802.79
633.813	8817.71
634.167	8801.89
634.521	8818.38
634.875	8787.65
635.229	8808.21
635.583	8728.67
635.937	8689.12
636.291	8725.96
636.645	8742.23
636.999	8711.04
637.352	8678.05
637.706	8684.83
638.06	8719.86
638.413	8695.22
638.767	8613.64
639.121	8687.77
639.474	8639.18
639.828	8658.61
640.181	8643.25
640.534	8614.32
640.888	8594.44
641.241	8617.49
641.594	8632.17
641.947	8613.64
642.301	8615.9
642.654	8619.97
643.007	8564.15
643.36	8590.14
643.713	8538.39
644.066	8598.5
644.419	8546.07
644.771	8480.77
645.124	8393.31
645.477	8377.49
645.83	8342.01
646.182	8325.06
646.535	8313.09
646.888	8261.34
647.24	8268.12
647.593	8291.39
647.945	8266.99
648.298	8252.3
648.65	8200.32
649.002	8195.35
649.355	8254.33
649.707	8182.47
650.059	8337.94
650.411	8435.8
650.763	8392.63
651.115	8489.58
651.467	8469.47
651.819	8454.33
652.171	8450.48
652.523	8468.56
652.875	8416.36
653.227	8444.38
653.578	8492.29
653.93	8410.03
654.282	8335.23
654.633	8397.15
654.985	8387.89
655.337	8400.99
655.688	8463.59
656.039	8480.99
656.391	8408
656.742	8383.14
657.094	8406.19
657.445	8469.47
657.796	8449.13
658.147	8418.39
658.498	8493.65
658.849	8463.14
659.2	8427.43
659.551	8485.29
659.902	8454.55
660.253	8402.8
660.604	8483.25
660.955	8495.68
661.306	8433.76
661.656	8438.05
662.007	8463.14
662.358	8474.44
662.708	8497.71
663.059	8497.94
663.409	8495.45
663.76	8492.74
664.11	8470.82
664.461	8485.51
664.811	8536.81
665.161	8448
665.511	8469.69
665.862	8558.73
666.212	8523.25
666.562	8520.76
666.912	8531.16
667.262	8467.21
667.612	8469.69
667.962	8516.92
668.312	8564.38
668.662	8601.67
669.011	8499.75
669.361	8487.77
669.711	8460.2
670.06	8473.31
670.41	8410.03
670.76	8440.31
671.109	8433.76
671.459	8505.85
671.808	8460.2
672.157	8406.87
672.507	8351.5
672.856	8470.82
673.205	8414.55
673.554	8394.89
673.904	8411.16
674.253	8462.01
674.602	8356.7
674.951	8260.88
675.3	8229.25
675.649	8341.11
675.998	8353.09
676.346	8363.48
676.695	8348.11
677.044	8368.68
677.393	8298.85
677.741	8317.61
678.09	8357.61
678.438	8260.88
678.787	8351.96
679.135	8323.26
679.484	8311.5
679.832	8376.36
680.181	8268.79
680.529	8224.95
680.877	8208.91
681.225	8242.35
681.573	8269.92
681.922	8191.28
682.27	8193.32
682.618	8182.02
682.966	8188.12
683.314	8130.04
683.661	8039.87
684.009	8052.98
684.357	8059.53
684.705	8044.62
685.053	8034.45
685.4	7994
685.748	7971.85
686.095	8005.07
686.443	7906.54
686.79	7910.61
687.138	7881.69
687.485	7985.64
687.832	7892.31
688.18	7918.97
688.527	7914
688.874	7892.76
689.221	7758.52
689.568	7767.34
689.915	7722.37
690.262	7858.41
690.609	7697.28
690.956	7712.65
691.303	7666.32
691.65	7615.93
691.997	7629.04
692.344	7576.38
692.69	7544.07
693.037	7629.49
693.383	7521.02
693.73	7558.98
694.077	7511.3
694.423	7447.12
694.769	7460.91
695.116	7459.55
695.462	7404.18
695.808	7433.56
696.155	7397.86
696.501	7280.57
696.847	7294.58
697.193	7306.56
697.539	7302.27
697.885	7206.9
698.231	7197.86
698.577	7173.68
698.923	7147.69
699.269	7143.17
699.614	7113.34
699.96	7072.67
700.306	7051.42
700.651	7051.88
700.997	7057.53
701.342	7002.61
701.688	6977.98
702.033	6934.14
702.379	6937.53
702.724	6864.99
703.069	6913.58
703.415	6842.84
703.76	6835.61
704.105	6769.17
704.45	6796.29
704.795	6778.89
705.14	6744.54
705.485	6701.6
705.83	6702.28
706.175	6703.19
706.52	6710.64
706.865	6609.4
707.209	6634.03
707.554	6622.51
707.899	6629.29
708.243	6604.43
708.588	6576.63
708.932	6517.65
709.277	6508.84
709.621	6521.72
709.966	6476.52
710.31	6510.87
710.654	6422.51
710.998	6411.67
711.342	6437.2
711.687	6376.41
712.031	6438.56
712.375	6360.6
712.719	6435.62
713.063	6329.41
713.407	6385.45
713.75	6346.13
714.094	6314.72
714.438	6332.57
714.782	6334.61
715.125	6298.45
715.469	6270.43
715.812	6255.74
716.156	6233.14
716.499	6225.68
716.843	6235.85
717.186	6202.86
717.53	6247.38
717.873	6249.86
718.216	6197.89
718.559	6149.53
718.902	6168.28
719.246	6148.85
719.589	6123.77
719.932	6139.13
720.275	6058.46
720.617	6078.57
720.96	6114.05
721.303	6090.55
721.646	6160.83
721.989	6048.97
722.331	6153.14
722.674	6051.23
723.016	6122.86
723.359	6063.65
723.701	6063.65
724.044	6111.34
724.386	6059.36
724.729	6102.75
725.071	6058.46
725.413	6025.46
725.755	6015.97
726.097	6027.5
726.439	5985.92
726.782	6032.47
727.124	6048.06
727.465	6009.87
727.807	5966.71
728.149	5959.93
728.491	6045.12
728.833	6030.43
729.175	6022.75
729.516	6024.11
729.858	6026.14
730.199	6021.62
730.541	5946.6
730.882	5937.33
731.224	6001.28
731.565	5965.13
731.906	5999.48
732.248	5975.97
732.589	5976.2
732.93	5987.05
733.271	6008.74
733.612	5991.79
733.953	5980.49
734.294	6018.91
734.635	5944.79
734.976	5986.59
735.317	5928.97
735.658	5956.31
735.999	6025.92
736.339	6009.64
736.68	5976.65
737.021	6027.5
737.361	5967.84
737.702	6018.01
738.042	5983.66
738.383	5933.94
738.723	6027.27
739.063	6051.23
739.404	6065.46
739.744	6034.95
740.084	6002.19
740.424	6059.59
740.764	6076.31
741.104	6072.69
741.444	6149.53
741.784	6128.74
742.124	6086.03
742.464	6121.96
742.804	6166.48
743.143	6150.43
743.483	6191.79
743.823	6205.12
744.162	6151.11
744.502	6205.12
744.841	6249.86
745.181	6279.69
745.52	6336.42
745.86	6340.48
746.199	6348.84
746.538	6395.4
746.877	6370.76
747.216	6427.71
747.556	6477.2
747.895	6555.17
748.234	6571.66
748.573	6653.24
748.911	6676.29
749.25	6704.32
749.589	6794.48
749.928	6827.7
750.267	6930.98
750.605	6929.17
750.944	6988.83
751.283	7043.97
751.621	7218.43
751.96	7170.52
752.298	7301.81
752.636	7428.59
752.975	7428.14
753.313	7539.32
753.651	7631.75
753.989	7714.23
754.327	7830.16
754.666	7937.05
755.004	8062.92
755.342	8177.27
755.679	8251.17
756.017	8382.24
756.355	8534.78
756.693	8642.12
757.031	8800.31
757.368	8869.23
757.706	9022.22
758.044	9163.01
758.381	9321.42
758.719	9424.7
759.056	9606.84
759.394	9736.55
759.731	9882.31
760.068	10058.35
760.405	10165.02
760.743	10332.47
761.08	10576.98
761.417	10660.82
761.754	10829.18
762.091	11006.35
762.428	11108.04
762.765	11276.4
763.102	11387.13
763.438	11708.25
763.775	11807.01
764.112	11985.53
764.449	12164.51
764.785	12316.37
765.122	12403.15
765.458	12622.58
765.795	12724.72
766.131	12934.89
766.467	13124.03
766.804	13226.86
767.14	13300.07
767.476	13489.22
767.812	13617.13
768.148	13801.98
768.485	13876.78
768.821	13988.19
769.157	14160.39
