Data from hue_160_FLMS001491_00078.txt Node
Date: Tue Feb 07 16:51:41 GMT 2017
User: dcchb
Spectrometer: FLMS00149
Trigger mode: 0
Integration Time (sec): 2.000000E-2
Scans to average: 10
Electric dark correction enabled: true
Nonlinearity correction enabled: false
Boxcar width: 0
XAxis mode: Wavelengths
Number of Pixels in Spectrum: 2048
>>>>>Begin Spectral Data<<<<<
341.393	-11.81
341.776	-11.81
342.16	-11.81
342.543	-68.08
342.927	-73.73
343.31	-68.08
343.693	-79.15
344.077	-73.73
344.46	-58.59
344.843	-48.42
345.226	-62.2
345.61	-31.24
345.993	-13.16
346.376	8.98
346.759	10.56
347.142	25.93
347.525	52.37
347.908	59.15
348.291	69.09
348.674	108.19
349.057	100.28
349.44	121.75
349.823	125.82
350.206	180.73
350.588	193.84
350.971	218.02
351.354	240.39
351.737	253.5
352.119	242.87
352.502	248.07
352.884	279.26
353.267	301.4
353.65	302.08
354.032	280.84
354.414	318.13
354.797	308.41
355.179	318.35
355.562	294.85
355.944	317.22
356.326	326.94
356.709	345.92
357.091	336.43
357.473	328.52
357.855	358.13
358.238	321.74
358.62	342.99
359.002	356.32
359.384	335.3
359.766	328.07
360.148	326.26
360.53	330.78
360.912	329.43
361.294	338.01
361.676	325.58
362.057	328.75
362.439	322.42
362.821	319.03
363.203	328.52
363.584	326.26
363.966	308.41
364.348	321.52
364.729	301.4
365.111	313.61
365.493	325.13
365.874	336.43
366.256	301.4
366.637	308.86
367.019	325.81
367.4	331.23
367.781	323.1
368.163	306.83
368.544	302.99
368.925	311.8
369.306	315.42
369.688	308.18
370.069	302.08
370.45	308.41
370.831	320.61
371.212	303.89
371.593	310.67
371.974	336.88
372.355	302.99
372.736	319.26
373.117	314.96
373.498	325.58
373.879	317.22
374.26	304.34
374.641	317.22
375.021	314.06
375.402	316.55
375.783	321.74
376.163	326.49
376.544	319.94
376.925	320.61
377.305	320.39
377.686	330.78
378.066	335.08
378.447	322.87
378.827	330.56
379.208	334.62
379.588	314.51
379.968	318.13
380.349	314.96
380.729	352.93
381.109	336.21
381.489	329.65
381.87	337.56
382.25	329.2
382.63	341.4
383.01	333.72
383.39	340.73
383.77	328.97
384.15	355.19
384.53	344.57
384.91	352.25
385.29	346.38
385.67	332.36
386.049	365.58
386.429	343.89
386.809	332.82
387.189	363.55
387.568	352.93
387.948	352.25
388.328	345.02
388.707	345.92
389.087	343.44
389.466	363.32
389.846	361.74
390.225	344.79
390.605	369.88
390.984	335.75
391.363	389.76
391.743	385.7
392.122	361.74
392.501	372.59
392.881	381.63
393.26	379.37
393.639	377.11
394.018	352.93
394.397	355.41
394.776	382.98
395.155	383.66
395.534	378.01
395.913	374.17
396.292	392.7
396.671	386.37
397.05	386.15
397.429	391.57
397.808	387.05
398.186	395.41
398.565	374.62
398.944	383.44
399.323	367.62
399.701	399.71
400.08	387.73
400.458	382.08
400.837	395.41
401.215	409.88
401.594	404
401.972	405.36
402.351	404.23
402.729	401.74
403.107	406.71
403.486	426.15
403.864	427.05
404.242	424.57
404.62	423.44
404.999	449.42
405.377	410.55
405.755	434.06
406.133	423.21
406.511	411.91
406.889	435.86
407.267	426.6
407.645	425.02
408.023	432.7
408.401	449.88
408.779	444.23
409.156	449.42
409.534	436.54
409.912	450.78
410.29	460.95
410.667	447.62
411.045	442.87
411.422	463.21
411.8	473.83
412.178	469.08
412.555	463.89
412.933	475.86
413.31	484.22
413.687	476.32
414.065	486.94
414.442	493.04
414.819	488.07
415.197	510.21
415.574	508.63
415.951	505.69
416.328	509.76
416.705	513.15
417.082	507.27
417.46	509.76
417.837	530.78
418.214	525.35
418.591	534.84
418.967	532.13
419.344	530.78
419.721	556.31
420.098	548.63
420.475	541.4
420.852	532.58
421.228	527.61
421.605	557.89
421.982	564.67
422.358	535.3
422.735	571
423.111	571.23
423.488	583.21
423.864	582.75
424.241	582.53
424.617	573.04
424.994	580.27
425.37	589.98
425.746	595.18
426.123	575.75
426.499	597.89
426.875	613.03
427.251	587.95
427.627	601.06
428.003	619.81
428.379	634.28
428.756	625.24
429.132	630.66
429.507	638.34
429.883	647.38
430.259	629.98
430.635	697.33
431.011	676.54
431.387	682.64
431.763	683.32
432.138	688.74
432.514	676.54
432.89	700.72
433.265	707.95
433.641	729.19
434.016	709.53
434.392	749.75
434.767	737.33
435.143	745.91
435.518	724.9
435.894	719.92
436.269	742.52
436.644	777.55
437.02	759.02
437.395	772.8
437.77	780.94
438.145	790.43
438.52	798.34
438.895	794.27
439.271	816.42
439.646	802.86
440.021	808.96
440.395	842.86
440.77	834.5
441.145	833.59
441.52	841.73
441.895	834.95
442.27	856.64
442.645	874.27
443.019	876.3
443.394	868.4
443.769	884.44
444.143	875.17
444.518	893.71
444.892	877.89
445.267	879.69
445.641	926.92
446.016	916.76
446.39	940.71
446.764	914.04
447.139	948.39
447.513	928.05
447.887	931.44
448.262	940.26
448.636	966.47
449.01	960.37
449.384	980.03
449.758	980.03
450.132	985.23
450.506	970.77
450.88	982.52
451.254	1006.7
451.628	1035.4
452.002	1048.73
452.376	1032.46
452.75	1038.56
453.123	1054.15
453.497	1049.41
453.871	1063.19
454.244	1077.43
454.618	1081.95
454.992	1094.38
455.365	1111.33
455.739	1136.64
456.112	1155.85
456.486	1156.07
456.859	1175.05
457.232	1190.87
457.606	1190.42
457.979	1217.09
458.352	1238.78
458.725	1241.27
459.099	1242.17
459.472	1293.69
459.845	1302.06
460.218	1289.18
460.591	1329.63
460.964	1322.39
461.337	1344.09
461.71	1349.74
462.083	1392.22
462.456	1370.53
462.829	1392
463.201	1443.52
463.574	1432.22
463.947	1449.85
464.32	1504.99
464.692	1514.48
465.065	1551.54
465.438	1525.1
465.81	1587.25
466.183	1586.79
466.555	1637.87
466.928	1661.14
467.3	1631.31
467.672	1671.99
468.045	1723.97
468.417	1744.53
468.789	1748.37
469.161	1800.12
469.534	1828.82
469.906	1831.99
470.278	1858.2
470.65	1927.35
471.022	1948.59
471.394	1981.13
471.766	2039.89
472.138	2049.61
472.51	2102.49
472.882	2161.24
473.253	2179.77
473.625	2206.67
473.997	2281.92
474.369	2347.45
474.74	2358.98
475.112	2415.93
475.484	2492.76
475.855	2546.09
476.227	2590.61
476.598	2688.91
476.97	2728.46
477.341	2771.17
477.713	2826.31
478.084	2900.21
478.455	3033.76
478.827	3050.71
479.198	3123.48
479.569	3187.66
479.94	3319.63
480.311	3396.24
480.682	3491.6
481.053	3570.25
481.424	3695.67
481.795	3731.14
482.166	3842.1
482.537	3913.51
482.908	4064.92
483.279	4087.75
483.65	4262.66
484.021	4367.74
484.391	4395.53
484.762	4545.36
485.133	4626.49
485.503	4777.45
485.874	4938.12
486.244	4961.62
486.615	5109.41
486.985	5209.07
487.356	5314.15
487.726	5426.02
488.097	5660.36
488.467	5746.91
488.837	5865.33
489.207	6023.06
489.578	6145.09
489.948	6232.55
490.318	6412.66
490.688	6455.82
491.058	6634.12
491.428	6697.85
491.798	6896.26
492.168	7065.52
492.538	7143.71
492.908	7288.11
493.278	7419.64
493.648	7520.65
494.017	7612.85
494.387	7811.49
494.757	7845.84
495.126	8013.52
495.496	8084.25
495.866	8247.18
496.235	8305.49
496.605	8482.21
496.974	8603.11
497.344	8695.53
497.713	8741.41
498.082	8871.35
498.452	8997.22
498.821	9106.37
499.19	9153.83
499.559	9338
499.928	9328.74
500.298	9446.25
500.667	9574.16
501.036	9646.24
501.405	9788.84
501.774	9780.93
502.143	9903.19
502.512	9944.54
502.88	10097.08
503.249	10108.83
503.618	10218.66
503.987	10293.91
504.356	10373.46
504.724	10410.74
505.093	10563.51
505.462	10546.56
505.83	10609.61
506.199	10663.84
506.567	10793.56
506.936	10809.38
507.304	11016.15
507.672	10980.45
508.041	11020.67
508.409	11159.88
508.777	11260.44
509.145	11319.19
509.514	11291.85
509.882	11352.19
510.25	11371.17
510.618	11507.66
510.986	11411.39
511.354	11639.41
511.722	11699.75
512.09	11746.3
512.458	11706.98
512.826	11824.72
513.193	11805.06
513.561	11926.41
513.929	11905.62
514.297	12052.51
514.664	12086.63
515.032	12115.78
515.4	12191.49
515.767	12210.47
516.135	12225.38
516.502	12161.43
516.869	12318.49
517.237	12338.38
517.604	12351.71
517.972	12388.77
518.339	12442.55
518.706	12425.61
519.073	12423.12
519.44	12527.75
519.808	12571.82
520.175	12501.76
520.542	12636.67
520.909	12648.42
521.276	12649.55
521.643	12741.08
522.009	12780.62
522.376	12769.1
522.743	12824.69
523.11	12847.97
523.477	12974.74
523.843	12857.46
524.21	13115.76
524.577	13063.78
524.943	13158.92
525.31	13063.55
525.676	13202.31
526.043	13168.18
526.409	13306.49
526.776	13288.41
527.142	13284.57
527.508	13315.07
527.874	13296.54
528.241	13253.38
528.607	13336.54
528.973	13339.93
529.339	13313.04
529.705	13366.37
530.071	13355.3
530.437	13403.66
530.803	13446.82
531.169	13426.03
531.535	13337.45
531.901	13360.72
532.267	13325.47
532.632	13371.34
532.998	13380.83
533.364	13411.34
533.73	13295.19
534.095	13325.02
534.461	13345.36
534.826	13395.98
535.192	13316.88
535.557	13324.79
535.923	13192.36
536.288	13333.83
536.653	13334.06
537.019	13224
537.384	13202.31
537.749	13219.03
538.114	13099.71
538.479	13100.39
538.845	13057.23
539.21	13040.73
539.575	13052.48
539.94	13014.97
540.305	13047.96
540.67	12922.99
541.034	12932.26
541.399	12911.69
541.764	12930
542.129	12831.47
542.494	12798.7
542.858	12894.52
543.223	12704.24
543.587	12808.42
543.952	12725.71
544.316	12696.78
544.681	12636.67
545.045	12672.15
545.41	12631.48
545.774	12595.09
546.138	12530.24
546.503	12463.12
546.867	12529.78
547.231	12508.32
547.595	12458.82
547.959	12475.32
548.324	12351.26
548.688	12383.12
549.052	12357.58
549.416	12304.03
549.779	12275.55
550.143	12216.57
550.507	12249.56
550.871	12226.74
551.235	12088.44
551.599	12128.21
551.962	12141.77
552.326	12094.31
552.689	12140.64
553.053	12052.28
553.417	12062.23
553.78	12040.76
554.143	11958.05
554.507	11998.95
554.87	12044.6
555.234	12048.21
555.597	11899.07
555.96	11891.83
556.323	11890.03
556.686	11781.1
557.05	11852.97
557.413	11896.81
557.776	11812.06
558.139	11894.77
558.502	11841.67
558.865	11817.03
559.228	11836.69
559.59	11841.67
559.953	11775.45
560.316	11899.74
560.679	11851.16
561.041	11831.04
561.404	11839.18
561.767	11921.44
562.129	11782.91
562.492	11878.05
562.854	11930.7
563.217	11843.02
563.579	11816.58
563.941	11816.13
564.304	11949.46
564.666	11956.69
565.028	11914.66
565.39	11860.42
565.753	11944.26
566.115	11845.73
566.477	11968.44
566.839	11970.25
567.201	11978.61
567.563	11984.26
567.925	11998.72
568.287	12008.44
568.648	11924.6
569.01	11994.2
569.372	11912.85
569.734	12046.41
570.095	12065.84
570.457	12096.35
570.819	12129.57
571.18	12048.44
571.542	12067.87
571.903	12222.22
572.265	12230.81
572.626	12153.3
572.987	12145.61
573.349	12109.91
573.71	12191.94
574.071	12238.94
574.432	12174.09
574.794	12267.87
575.155	12216.12
575.516	12182.67
575.877	12190.81
576.238	12213.41
576.599	12293.86
576.96	12217.02
577.32	12240.75
577.681	12235.33
578.042	12233.52
578.403	12316.91
578.763	12156.01
579.124	12251.15
579.485	12340.41
579.845	12330.47
580.206	12261.09
580.566	12245.05
580.927	12228.1
581.287	12316.23
581.648	12225.84
582.008	12292.73
582.368	12197.14
582.728	12293.86
583.089	12215.44
583.449	12226.97
583.809	12201.43
584.169	12264.48
584.529	12127.99
584.889	12280.3
585.249	12239.4
585.609	12102.9
585.969	12193.75
586.329	12151.26
586.688	12137.25
587.048	12127.08
587.408	12004.15
587.768	12125.73
588.127	12037.14
588.487	12096.35
588.846	12217.25
589.206	12039.85
589.565	12069.91
589.925	12179.96
590.284	12066.74
590.643	12144.48
591.003	12122.56
591.362	12076.91
591.721	12120.53
592.08	12036.92
592.44	12121.66
592.799	12058.16
593.158	12036.46
593.517	12046.86
593.876	12084.37
594.235	11964.37
594.593	12066.07
594.952	11964.15
595.311	11987.2
595.67	11926.18
596.029	11913.75
596.387	11966.63
596.746	12034.66
597.104	11976.58
597.463	11915.34
597.822	12007.54
598.18	11904.94
598.538	11903.36
598.897	11995.56
599.255	11908.56
599.613	11991.49
599.972	11888.22
600.33	12042.56
600.688	11970.25
601.046	12016.35
601.404	11947.43
601.762	11968.89
602.12	12009.35
602.478	11981.32
602.836	12055.67
603.194	11959.63
603.552	11993.53
603.91	11962.79
604.268	12059.97
604.625	11996.01
604.983	12014.54
605.341	11944.71
605.698	12000.53
606.056	11958.73
606.413	11957.82
606.771	12066.74
607.128	11957.14
607.485	11948.56
607.843	11967.31
608.2	12022.9
608.557	12008.22
608.914	11985.84
609.272	12012.96
609.629	12038.95
609.986	12035.11
610.343	11988.33
610.7	12109.91
611.057	12098.61
611.414	12051.15
611.771	12081.21
612.127	12099.96
612.484	12070.36
612.841	12118.27
613.198	12088.67
613.554	12137.48
613.911	12189.68
614.267	12171.37
614.624	12163.47
614.98	12148.1
615.337	12188.78
615.693	12215.67
616.05	12190.13
616.406	12292.5
616.762	12162.79
617.118	12250.02
617.475	12163.24
617.831	12250.92
618.187	12245.72
618.543	12279.39
618.899	12365.04
619.255	12237.81
619.611	12314.42
619.967	12267.64
620.323	12343.35
620.678	12334.08
621.034	12288.43
621.39	12252.05
621.746	12230.13
622.101	12422.22
622.457	12290.92
622.812	12282.11
623.168	12333.4
623.523	12278.26
623.879	12360.3
624.234	12323.46
624.589	12291.6
624.945	12337.47
625.3	12306.51
625.655	12340.41
626.01	12264.25
626.365	12286.63
626.72	12262.9
627.075	12185.16
627.43	12240.75
627.785	12208.66
628.14	12299.06
628.495	12241.2
628.85	12239.62
629.205	12191.26
629.559	12300.19
629.914	12221.09
630.269	12234.2
630.623	12228.77
630.978	12183.35
631.332	12237.36
631.687	12243.24
632.041	12118.95
632.396	12108.78
632.75	12111.94
633.104	12153.52
633.459	12050.25
633.813	12076.46
634.167	12082.79
634.521	12036.46
634.875	12127.99
635.229	12050.93
635.583	12004.6
635.937	11954.43
636.291	11910.59
636.645	11927.54
636.999	11987.65
637.352	12025.62
637.706	11934.09
638.06	11910.14
638.413	11931.38
638.767	11943.36
639.121	11919.63
639.474	11893.42
639.828	11846.19
640.181	11827.66
640.534	11820.42
640.888	11817.71
641.241	11791.95
641.594	11819.52
641.947	11852.51
642.301	11810.93
642.654	11744.72
643.007	11802.8
643.36	11794.66
643.713	11737.94
644.066	11799.18
644.419	11722.35
644.771	11661.33
645.124	11552.41
645.477	11624.72
645.83	11533.43
646.182	11415.46
646.535	11402.81
646.888	11389.02
647.24	11329.36
647.593	11365.52
647.945	11323.26
648.298	11347.67
648.65	11269.25
649.002	11326.2
649.355	11309.48
649.707	11363.71
650.059	11330.72
650.411	11518.51
650.763	11487.1
651.115	11662.46
651.467	11572.07
651.819	11615.46
652.171	11578.85
652.523	11546.08
652.875	11564.39
653.227	11525.06
653.578	11582.46
653.93	11539.08
654.282	11593.76
654.633	11493.2
654.985	11561.9
655.337	11594.89
655.688	11561.9
656.039	11591.73
656.391	11503.82
656.742	11526.65
657.094	11518.51
657.445	11627.66
657.796	11577.94
658.147	11536.59
658.498	11606.87
658.849	11591.05
659.2	11589.47
659.551	11531.39
659.902	11619.07
660.253	11575.01
660.604	11668.34
660.955	11621.78
661.306	11615.68
661.656	11609.13
662.007	11565.29
662.358	11635.12
662.708	11615.23
663.059	11617.04
663.409	11540.88
663.76	11669.24
664.11	11685.29
664.461	11701.33
664.811	11623.14
665.161	11649.81
665.511	11613.42
665.862	11690.94
666.212	11720.31
666.562	11624.04
666.912	11641.67
667.262	11609.58
667.612	11662.46
667.962	11641.67
668.312	11566.65
668.662	11633.54
669.011	11571.62
669.361	11599.19
669.711	11630.82
670.06	11537.27
670.41	11546.53
670.76	11616.59
671.109	11605.74
671.459	11526.65
671.808	11528.68
672.157	11631.28
672.507	11448.23
672.856	11502.69
673.205	11521.22
673.554	11509.7
673.904	11517.83
674.253	11579.07
674.602	11531.39
674.951	11340.66
675.3	11230.38
675.649	11520.54
675.998	11500.66
676.346	11502.47
676.695	11478.51
677.044	11385.86
677.393	11398.51
677.741	11447.33
678.09	11452.98
678.438	11385.63
678.787	11405.07
679.135	11423.82
679.484	11330.49
679.832	11324.17
680.181	11306.54
680.529	11315.58
680.877	11260.89
681.225	11184.28
681.573	11245.07
681.922	11265.18
682.27	11274.22
682.618	11188.35
682.966	11121.23
683.314	11213.21
683.661	11165.75
684.009	11048.69
684.357	11090.27
684.705	11022.93
685.053	11025.19
685.4	11040.56
685.748	10998.3
686.095	10927.34
686.443	10968.02
686.79	10879.43
687.138	10953.78
687.485	10862.03
687.832	10860
688.18	10859.77
688.527	10789.72
688.874	10745.2
689.221	10783.84
689.568	10666.56
689.915	10659.1
690.262	10709.94
690.609	10577.52
690.956	10565.54
691.303	10622.49
691.65	10474.47
691.997	10507.24
692.344	10469.72
692.69	10417.3
693.037	10427.24
693.383	10303.18
693.73	10384.53
694.077	10240.8
694.423	10260.01
694.769	10228.6
695.116	10210.07
695.462	10207.13
695.808	10133.91
696.155	10209.84
696.501	10082.39
696.847	10083.29
697.193	9958.33
697.539	10002.17
697.885	9957.42
698.231	9860.93
698.577	9952.68
698.923	9855.28
699.269	9721.72
699.614	9727.6
699.96	9719.46
700.306	9663.19
700.651	9678.33
700.997	9622.97
701.342	9571.9
701.688	9615.28
702.033	9533.03
702.379	9533.25
702.724	9555.85
703.069	9519.69
703.415	9419.13
703.76	9381.62
704.105	9395.85
704.45	9325.8
704.795	9293.94
705.14	9272.24
705.485	9199.93
705.83	9136.65
706.175	9158.35
706.52	9223.2
706.865	9115.64
707.209	9061.85
707.554	9062.08
707.899	9100.5
708.243	8988.18
708.588	9041.74
708.932	8928.07
709.277	8945.47
709.621	8955.19
709.966	8855.53
710.31	8953.61
710.654	8816.66
710.998	8785.48
711.342	8754.74
711.687	8734.63
712.031	8707.29
712.375	8699.38
712.719	8707.29
713.063	8710
713.407	8751.35
713.75	8693.5
714.094	8665.7
714.438	8687.85
714.782	8624.58
715.125	8554.97
715.469	8613.73
715.812	8574.18
716.156	8525.37
716.499	8554.52
716.843	8513.39
717.186	8452.38
717.53	8528.31
717.873	8423.22
718.216	8444.24
718.559	8508.19
718.902	8445.37
719.246	8481.75
719.589	8382.1
719.932	8370.12
720.275	8382.77
720.617	8359.5
720.96	8350.01
721.303	8325.83
721.646	8350.91
721.989	8314.53
722.331	8314.98
722.674	8274.98
723.016	8314.75
723.359	8324.47
723.701	8297.8
724.044	8293.06
724.386	8279.73
724.729	8301.87
725.071	8210.35
725.413	8181.2
725.755	8227.52
726.097	8240.4
726.439	8159.73
726.782	8213.96
727.124	8245.15
727.465	8196.11
727.807	8161.54
728.149	8156.57
728.491	8184.81
728.833	8202.21
729.175	8152.05
729.516	8171.71
729.858	8161.54
730.199	8182.78
730.541	8079.96
730.882	8121.76
731.224	8120.63
731.565	8133.97
731.906	8136.23
732.248	8129.9
732.589	8148.88
732.93	7994.31
733.271	8133.74
733.612	8159.05
733.953	8128.32
734.294	8089.22
734.635	8013.52
734.976	8070.92
735.317	8080.63
735.658	8116.34
735.999	8096
736.339	8145.27
736.68	8152.5
737.021	8102.33
737.361	8110.92
737.702	8101.43
738.042	8158.83
738.383	8168.77
738.723	8142.33
739.063	8078.15
739.404	8160.63
739.744	8153.18
740.084	8192.27
740.424	8244.25
740.764	8213.29
741.104	8232.72
741.444	8228.2
741.784	8146.4
742.124	8226.17
742.464	8274.08
742.804	8261.87
743.143	8299.16
743.483	8315.88
743.823	8219.39
744.162	8288.99
744.502	8401.53
744.841	8444.02
745.181	8401.98
745.52	8451.25
745.86	8468.87
746.199	8480.4
746.538	8542.32
746.877	8535.76
747.216	8646.04
747.556	8634.97
747.895	8678.13
748.234	8714.29
748.573	8753.39
748.911	8794.97
749.25	8902.76
749.589	8946.83
749.928	9061.17
750.267	9071.12
750.605	9129.87
750.944	9207.16
751.283	9299.59
751.621	9276.31
751.96	9423.2
752.298	9489.41
752.636	9612.35
752.975	9650.31
753.313	9768.27
753.651	9835.39
753.989	9914.94
754.327	10014.14
754.666	10068.15
755.004	10260.01
755.342	10432.21
755.679	10460.23
756.017	10664.97
756.355	10774.58
756.693	10782.48
757.031	11008.92
757.368	11064.51
757.706	11244.62
758.044	11355.13
758.381	11531.39
758.719	11614.78
759.056	11863.59
