Data from hue_300_FLMS001491_00086.txt Node
Date: Tue Feb 07 15:51:20 GMT 2017
User: dcchb
Spectrometer: FLMS00149
Trigger mode: 0
Integration Time (sec): 2.000000E-2
Scans to average: 10
Electric dark correction enabled: true
Nonlinearity correction enabled: false
Boxcar width: 0
XAxis mode: Wavelengths
Number of Pixels in Spectrum: 2048
>>>>>Begin Spectral Data<<<<<
341.393	-9.89
341.776	-9.89
342.16	-9.89
342.543	-74.29
342.927	-58.25
343.31	-67.29
343.693	-59.6
344.077	-86.04
344.46	-57.12
344.843	-40.17
345.226	-38.81
345.61	-34.97
345.993	-24.8
346.376	0.73
346.759	39.6
347.142	25.82
347.525	30.79
347.908	56.1
348.291	82.31
348.674	68.98
349.057	104.46
349.44	128.41
349.823	137.68
350.206	178.81
350.588	200.05
350.971	208.41
351.354	223.1
351.737	236.89
352.119	245.02
352.502	254.06
352.884	275.3
353.267	273.72
353.65	284.34
354.032	303.55
354.414	290.9
354.797	309.65
355.179	321.18
355.562	326.15
355.944	313.72
356.326	336.32
356.709	294.51
357.091	332.25
357.473	356.88
357.855	338.35
358.238	341.97
358.62	336.77
359.002	352.59
359.384	336.32
359.766	333.38
360.148	344
360.53	334.74
360.912	325.02
361.294	339.26
361.676	329.99
362.057	341.52
362.439	334.51
362.821	332.93
363.203	340.61
363.584	344.68
363.966	313.49
364.348	337.9
364.729	349.88
365.111	332.93
365.493	331.57
365.874	325.47
366.256	318.47
366.637	287.96
367.019	315.53
367.4	326.38
367.781	320.95
368.163	325.02
368.544	319.82
368.925	313.27
369.306	308.75
369.688	315.98
370.069	317.79
370.45	321.86
370.831	315.53
371.212	316.88
371.593	316.66
371.974	306.49
372.355	318.01
372.736	338.35
373.117	343.1
373.498	340.16
373.879	324.34
374.26	318.92
374.641	320.27
375.021	330.9
375.402	325.7
375.783	322.76
376.163	317.11
376.544	338.35
376.925	329.54
377.305	337.45
377.686	327.05
378.066	326.83
378.447	348.75
378.827	349.2
379.208	334.28
379.588	337.9
379.968	338.58
380.349	350.56
380.729	339.48
381.109	336.09
381.489	338.8
381.87	323.89
382.25	336.54
382.63	345.36
383.01	343.78
383.39	343.1
383.77	358.69
384.15	343.55
384.53	336.77
384.91	365.47
385.29	382.19
385.67	349.2
386.049	386.71
386.429	352.82
386.809	378.58
387.189	358.24
387.568	389.65
387.948	366.83
388.328	364.34
388.707	389.42
389.087	359.37
389.466	362.98
389.846	377.22
390.225	386.49
390.605	382.19
390.984	388.29
391.363	385.81
391.743	376.09
392.122	406.83
392.501	386.04
392.881	395.75
393.26	388.52
393.639	422.64
394.018	415.41
394.397	415.19
394.776	401.18
395.155	417.45
395.534	398.01
395.913	407.73
396.292	413.83
396.671	419.93
397.05	413.15
397.429	428.07
397.808	439.59
398.186	421.97
398.565	419.71
398.944	418.58
399.323	416.77
399.701	424.9
400.08	417.22
400.458	471.23
400.837	449.76
401.215	469.65
401.594	438.46
401.972	459.93
402.351	452.02
402.729	464
403.107	460.61
403.486	474.17
403.864	460.38
404.242	479.59
404.62	472.13
404.999	478.24
405.377	499.7
405.755	494.96
406.133	521.17
406.511	488.18
406.889	498.57
407.267	520.27
407.645	538.8
408.023	532.47
408.401	560.72
408.779	545.58
409.156	544
409.534	579.7
409.912	537.9
410.29	552.36
410.667	606.37
411.045	564.56
411.422	608.4
411.8	611.79
412.178	619.02
412.555	617.22
412.933	637.33
413.31	653.15
413.687	649.98
414.065	676.65
414.442	668.74
414.819	667.61
415.197	699.47
415.574	727.04
415.951	684.56
416.328	733.37
416.705	722.75
417.082	746.93
417.46	754.39
417.837	761.84
418.214	771.34
418.591	763.43
418.967	785.35
419.344	781.28
419.721	826.48
420.098	815.63
420.475	832.58
420.852	842.97
421.228	842.97
421.605	849.75
421.982	874.16
422.358	866.7
422.735	889.52
423.111	936.3
423.488	899.47
423.864	931.33
424.241	930.2
424.617	964.78
424.994	962.29
425.37	955.29
425.746	962.29
426.123	981.27
426.499	986.47
426.875	1016.75
427.251	1023.53
427.627	1040.71
428.003	1034.15
428.379	1064.21
428.756	1100.59
429.132	1129.07
429.507	1110.08
429.883	1098.56
430.259	1144.21
430.635	1115.06
431.011	1137.43
431.387	1162.51
431.763	1205.45
432.138	1188.73
432.514	1214.49
432.89	1227.59
433.265	1246.58
433.641	1294.03
434.016	1276.86
434.392	1319.12
434.767	1307.82
435.143	1330.19
435.518	1334.71
435.894	1353.92
436.269	1386.23
436.644	1383.3
437.02	1357.31
437.395	1379.68
437.77	1413.35
438.145	1450.87
438.52	1438.21
438.895	1469.62
439.271	1499
439.646	1474.82
440.021	1515.27
440.395	1487.48
440.77	1520.69
441.145	1522.5
441.52	1552.78
441.895	1535.16
442.27	1542.84
442.645	1563.41
443.019	1561.15
443.394	1558.21
443.769	1589.62
444.143	1592.11
444.518	1605.66
444.892	1582.84
445.267	1624.42
445.641	1604.99
446.016	1644.31
446.39	1624.65
446.764	1636.62
447.139	1641.14
447.513	1651.09
447.887	1626.45
448.262	1650.41
448.636	1658.32
449.01	1679.11
449.384	1669.39
449.758	1689.96
450.132	1721.37
450.506	1735.38
450.88	1708.03
451.254	1740.12
451.628	1725.89
452.002	1771.08
452.376	1750.07
452.75	1786
453.123	1774.25
453.497	1807.01
453.871	1815.6
454.244	1810.86
454.618	1844.08
454.992	1865.54
455.365	1856.5
455.739	1882.04
456.112	1888.37
456.486	1920.46
456.859	1931.08
457.232	1946.67
457.606	1963.62
457.979	1964.98
458.352	2002.26
458.725	2000.23
459.099	2002.49
459.472	2055.14
459.845	2048.14
460.218	2091.75
460.591	2069.83
460.964	2099.66
461.337	2135.82
461.71	2161.13
462.083	2159.55
462.456	2154.8
462.829	2149.38
463.201	2183.5
463.574	2196.83
463.947	2233.44
464.32	2248.13
464.692	2253.1
465.065	2295.59
465.438	2300.33
465.81	2314.57
466.183	2333.78
466.555	2371.29
466.928	2423.27
467.3	2392.54
467.672	2434.12
468.045	2456.72
468.417	2469.6
468.789	2496.71
469.161	2536.26
469.534	2502.59
469.906	2576.49
470.278	2553.66
470.65	2568.35
471.022	2613.55
471.394	2673.21
471.766	2698.52
472.138	2676.37
472.51	2738.74
472.882	2771.51
473.253	2766.09
473.625	2825.74
473.997	2859.42
474.369	2889.02
474.74	2885.18
475.112	2953.2
475.484	2983.25
475.855	3013.54
476.227	3024.84
476.598	3080.65
476.97	3085.17
477.341	3183.02
477.713	3141.89
478.084	3158.39
478.455	3269.58
478.827	3281.33
479.198	3341.66
479.569	3361.32
479.94	3374.66
480.311	3413.53
480.682	3468.21
481.053	3514.54
481.424	3577.36
481.795	3602.22
482.166	3640.64
482.537	3686.06
482.908	3759.05
483.279	3735.55
483.65	3781.65
484.021	3851.93
484.391	3847.64
484.762	3911.82
485.133	3905.49
485.503	3925.6
485.874	4021.65
486.244	4059.84
486.615	4055.09
486.985	4134.64
487.356	4167.63
487.726	4211.25
488.097	4265.71
488.467	4258.25
488.837	4378.7
489.207	4343.9
489.578	4455.98
489.948	4475.87
490.318	4496.89
490.688	4489.43
491.058	4520.84
491.428	4604.91
491.798	4614.17
492.168	4745.69
492.538	4699.37
492.908	4808.29
493.278	4775.07
493.648	4797.22
494.017	4844.45
494.387	4879.02
494.757	4894.84
495.126	4962.41
495.496	4954.05
495.866	4966.71
496.235	5000.38
496.605	5062.97
496.974	5015.97
497.344	5109.3
497.713	5114.95
498.082	5148.62
498.452	5203.99
498.821	5225.46
499.19	5190.88
499.559	5289.18
499.928	5278.34
500.298	5282.63
500.667	5319.01
501.036	5299.35
501.405	5383.64
501.774	5373.47
502.143	5412.57
502.512	5429.74
502.88	5407.15
503.249	5460.93
503.618	5529.18
503.987	5470.87
504.356	5518.33
504.724	5554.49
505.093	5572.57
505.462	5585.22
505.83	5627.71
506.199	5637.87
506.567	5681.72
506.936	5676.74
507.304	5730.98
507.672	5763.97
508.041	5718.1
508.409	5825.21
508.777	5791.32
509.145	5829.96
509.514	5867.02
509.882	5830.86
510.25	5902.73
510.618	5926
510.986	5905.44
511.354	5897.98
511.722	5930.07
512.09	5998.32
512.458	5974.81
512.826	6058.88
513.193	6048.03
513.561	6054.36
513.929	6096.39
514.297	6130.52
514.664	6165.32
515.032	6183.85
515.4	6210.74
515.767	6183.17
516.135	6205.09
516.502	6224.53
516.869	6278.31
517.237	6289.61
517.604	6294.13
517.972	6309.95
518.339	6351.3
518.706	6348.82
519.073	6368.48
519.44	6406.22
519.808	6403.73
520.175	6415.71
520.542	6500.45
520.909	6491.41
521.276	6489.6
521.643	6526.21
522.009	6550.17
522.376	6619.09
522.743	6638.98
523.11	6630.39
523.477	6703.61
523.843	6753.33
524.21	6757.17
524.577	6808.47
524.943	6820.67
525.31	6849.37
525.676	6898.63
526.043	6955.58
526.409	6954.45
526.776	7017.95
527.142	7061.57
527.508	7043.94
527.874	7116.25
528.241	7149.25
528.607	7187.66
528.973	7214.1
529.339	7191.73
529.705	7290.94
530.071	7324.38
530.437	7325.97
530.803	7372.52
531.169	7436.7
531.535	7383.14
531.901	7454.1
532.267	7476.02
532.632	7534.55
532.998	7501.55
533.364	7624.49
533.73	7648.67
534.095	7648.22
534.461	7716.92
534.826	7718.95
535.192	7794.2
535.557	7820.64
535.923	7896.35
536.288	7798.04
536.653	7851.38
537.019	7926.63
537.384	7916.46
537.749	8017.47
538.114	7958.94
538.479	8044.82
538.845	8046.85
539.21	8021.99
539.575	8066.74
539.94	8129.11
540.305	8165.49
540.67	8165.94
541.034	8209.33
541.399	8278.71
541.764	8280.52
542.129	8361.87
542.494	8327.97
542.858	8390.34
543.223	8444.35
543.587	8454.52
543.952	8450
544.316	8445.94
544.681	8527.06
545.045	8593.05
545.41	8631.47
545.774	8658.36
546.138	8685.93
546.503	8748.08
546.867	8699.26
547.231	8795.76
547.595	8751.01
547.959	8847.96
548.324	8847.73
548.688	8803.89
549.052	8890.22
549.416	8943.1
549.779	8973.38
550.143	8968.86
550.507	9064
550.871	9045.47
551.235	9115.75
551.599	9148.06
551.962	9163.88
552.326	9121.62
552.689	9252.24
553.053	9155.97
553.417	9198.91
553.78	9352.13
554.143	9259.02
554.507	9308.06
554.87	9321.39
555.234	9468.51
555.597	9373.82
555.96	9498.79
556.323	9443.2
556.686	9408.85
557.05	9550.99
557.413	9567.04
557.776	9543.53
558.139	9686.36
558.502	9627.37
558.865	9635.51
559.228	9722.96
559.59	9753.25
559.953	9720.7
560.316	9789.4
560.679	9784.21
561.041	9870.08
561.404	9958.44
561.767	9989.62
562.129	9946.69
562.492	10055.84
562.854	10023.07
563.217	10024.2
563.579	10037.31
563.941	10120.02
564.304	10095.38
564.666	10201.37
565.028	10157.98
565.39	10214.25
565.753	10297.41
566.115	10351.42
566.477	10331.08
566.839	10376.28
567.201	10415.83
567.563	10430.52
567.925	10558.42
568.287	10493.57
568.648	10531.76
569.01	10609.95
569.372	10647.69
569.734	10701.24
570.095	10788.47
570.457	10801.58
570.819	10874.57
571.18	10865.31
571.542	10936.04
571.903	10968.81
572.265	10968.81
572.626	11079.31
572.987	11105.53
573.349	11126.77
573.71	11275.24
574.071	11347.78
574.432	11354.33
574.794	11547.32
575.155	11604.72
575.516	11522.69
575.877	11722.01
576.238	11725.17
576.599	11892.85
576.96	11855.34
577.32	12012.62
577.681	12128.33
578.042	12332.16
578.403	12334.65
578.763	12410.58
579.124	12577.13
579.485	12754.07
579.845	12826.84
580.206	13025.02
580.566	13121.75
580.927	13284.23
581.287	13439.25
581.648	13610.55
582.008	13812.35
582.368	13977.54
582.728	14276.07
583.089	14311.54
583.449	14569.62
583.809	14726.9
584.169	14983.62
584.529	15151.07
584.889	15524.39
585.249	15607.1
585.609	15848.91
585.969	16177.03
586.329	16441.66
586.688	16620.18
587.048	16961.19
587.408	17210.23
587.768	17445.7
588.127	17684.79
588.487	18000.94
588.846	18384.88
589.206	18519.34
589.565	18925.21
589.925	19279.1
590.284	19591.63
590.643	19898.74
591.003	20183.03
591.362	20644.26
591.721	20834.76
592.08	21301.87
592.44	21647.85
592.799	21971.46
593.158	22309.98
593.517	22572.34
593.876	22999.45
594.235	23151.54
594.593	23581.81
594.952	23985.64
595.311	24186.99
595.67	24642.57
596.029	25028.78
596.387	25526.16
596.746	25850.45
597.104	26143.55
597.463	26283.43
597.822	26858.56
598.18	27067.82
598.538	27302.62
598.897	27818.31
599.255	27794.81
599.613	28623.71
599.972	28896.47
600.33	29137.37
600.688	29280.42
601.046	29820.74
601.404	30103.22
601.762	30491.91
602.12	30815.29
602.478	31086.7
602.836	31475.61
603.194	31474.26
603.552	32010.74
603.91	32091.64
604.268	32650.72
604.625	32757.61
604.983	33087.55
605.341	33113.76
605.698	33513.3
606.056	34040.07
606.413	34175.66
606.771	34528.87
607.128	34682.99
607.485	34787.16
607.843	35135.86
608.2	35555.73
608.557	35906.68
608.914	36059.9
609.272	36439.55
609.629	36626.89
609.986	37049.93
610.343	36886.54
610.7	37467.09
611.057	37447.43
611.414	37617.6
611.771	38115.89
612.127	38336.45
612.484	38404.92
612.841	38649.44
613.198	38606.05
613.554	38726.5
613.911	39205.35
614.267	39337.78
614.624	39444.67
614.98	39646.47
615.337	39972.56
615.693	40086.01
616.05	40209.85
616.406	40541.14
616.762	40539.1
617.118	40756.95
617.475	40812.54
617.831	41138.41
618.187	41133.66
618.543	41332.98
618.899	41597.61
619.255	41721.45
619.611	41712.86
619.967	41995.11
620.323	42138.84
620.678	42265.16
621.034	42104.26
621.39	42319.85
621.746	42405.95
622.101	42979.04
622.457	42588.99
622.812	42788.76
623.168	43046.16
623.523	43122.76
623.879	43293.38
624.234	42982.2
624.589	43265.36
624.945	43420.84
625.3	43503.09
625.655	43633.94
626.01	43719.13
626.365	43686.14
626.72	43842.75
627.075	43952.8
627.43	43814.5
627.785	43941.95
628.14	44115.05
628.495	44219.23
628.85	43932.01
629.205	44007.03
629.559	44228.5
629.914	44204.09
630.269	44222.62
630.623	44360.7
630.978	44121.83
631.332	44447.48
631.687	44430.07
632.041	44288.61
632.396	44486.12
632.75	44319.57
633.104	44335.61
633.459	44168.84
633.813	44225.56
634.167	44278.44
634.521	44337.65
634.875	44362.05
635.229	44438.89
635.583	44152.57
635.937	44176.3
636.291	44258.33
636.645	44340.81
636.999	44273.02
637.352	44416.52
637.706	44141.49
638.06	44502.62
638.413	44218.1
638.767	44152.79
639.121	44338.33
639.474	44067.15
639.828	44126.13
640.181	44226.69
640.534	44384.43
640.888	44100.82
641.241	44019.46
641.594	44106.24
641.947	44281.38
642.301	44041.38
642.654	44105.79
643.007	44172.23
643.36	43963.19
643.713	44056.98
644.066	44262.85
644.419	43908.51
644.771	43705.35
645.124	43215.87
645.477	43266.04
645.83	43076.66
646.182	42933.84
646.535	42938.81
646.888	42925.03
647.24	42756.22
647.593	42960.96
647.945	42995.31
648.298	42757.12
648.65	42698.37
649.002	42719.39
649.355	42864.01
649.707	42785.82
650.059	43044.8
650.411	43337.45
650.763	43440.27
651.115	43793.48
651.467	43748.74
651.819	43756.19
652.171	43575.18
652.523	43576.99
652.875	43638.23
653.227	43517.1
653.578	43657.89
653.93	43641.17
654.282	43468.97
654.633	43429.42
654.985	43505.58
655.337	43551.68
655.688	43577.67
656.039	43706.25
656.391	43360.95
656.742	43423.55
657.094	43458.8
657.445	43478.69
657.796	43353.27
658.147	43330.89
658.498	43446.82
658.849	43482.3
659.2	43431
659.551	43230.78
659.902	43339.26
660.253	43346.04
660.604	43374.96
660.955	43207.96
661.306	43393.04
661.656	43247.73
662.007	43302.42
662.358	43286.6
662.708	43293.61
663.059	43158.47
663.409	43033.28
663.76	43347.84
664.11	43052.26
664.461	43332.93
664.811	43288.41
665.161	43168.64
665.511	43160.96
665.862	43261.52
666.212	43281.18
666.562	43315.53
666.912	43186.72
667.262	43161.18
667.612	43143.33
667.962	43277.34
668.312	43162.99
668.662	43359.37
669.011	43200.5
669.361	43100.39
669.711	42993.95
670.06	43021.75
670.41	42960.28
670.76	42891.13
671.109	43141.97
671.459	43087.51
671.808	42940.62
672.157	43042.77
672.507	42793.51
672.856	42729.33
673.205	42989.66
673.554	42882.09
673.904	42731.36
674.253	43081.64
674.602	42924.13
674.951	42190.13
675.3	42076.01
675.649	42690.91
675.998	42833.05
676.346	42656.34
676.695	42779.72
677.044	42474.87
677.393	42574.76
677.741	42527.75
678.09	42545.6
678.438	42456.34
678.787	42565.04
679.135	42520.07
679.484	42207.31
679.832	42420.18
680.181	42095.67
680.529	42374.99
680.877	42196.46
681.225	42116.24
681.573	42361.88
681.922	42081.21
682.27	41930.93
682.618	42030.14
682.966	42051.15
683.314	41950.82
683.661	41876.92
684.009	41648.45
684.357	41684.38
684.705	41562.81
685.053	41615.23
685.4	41543.37
685.748	41300.67
686.095	41353.77
686.443	41128.01
686.79	41108.58
687.138	41260.21
687.485	41162.82
687.832	41112.42
688.18	41019.77
688.527	40830.4
688.874	40804.86
689.221	40825.42
689.568	40627.01
689.915	40574.13
690.262	40678.99
690.609	40288.71
690.956	40370.75
691.303	40249.17
691.65	40147.93
691.997	40150.41
692.344	39937.31
692.69	39876.97
693.037	39864.55
693.383	39606.02
693.73	39683.98
694.077	39520.15
694.423	39535.51
694.769	39418.46
695.116	39208.74
695.462	39194.96
695.808	39077.67
696.155	39257.78
696.501	38966.72
696.847	38875.19
697.193	38509.55
697.539	38673.39
697.885	38528.53
698.231	38328.09
698.577	38405.6
698.923	38318.37
699.269	38131.03
699.614	37943.01
699.96	37871.38
700.306	37887.42
700.651	37678.16
700.997	37708.22
701.342	37523.36
701.688	37469.13
702.033	37332.18
702.379	37377.6
702.724	37203.37
703.069	37328.34
703.415	36900.1
703.76	36992.08
704.105	36899.2
704.45	36832.31
704.795	36517.97
705.14	36444.97
705.485	36538.53
705.83	36300.57
706.175	36306.9
706.52	36179.67
706.865	36157.07
707.209	36203.4
707.554	35942.84
707.899	36000.24
708.243	35759.34
708.588	35783.3
708.932	35572
709.277	35626.69
709.621	35500.37
709.966	35310.31
710.31	35373.82
710.654	35175.18
710.998	35191.45
711.342	35242.52
711.687	35071.22
712.031	34875.75
712.375	34769.99
712.719	34877.56
713.063	34867.16
713.407	34957.56
713.75	34693.38
714.094	34526.83
714.438	34532.48
714.782	34630.33
715.125	34441.86
715.469	34414.74
715.812	34287.97
716.156	34079.84
716.499	34032.16
716.843	34047.52
717.186	33815.44
717.53	34072.61
717.873	33972.04
718.216	33866.74
718.559	33740.41
718.902	33550.81
719.246	33592.17
719.589	33534.99
719.932	33546.29
720.275	33394.43
720.617	33447.54
720.96	33282.12
721.303	33350.59
721.646	33370.7
721.989	33058.62
722.331	33192.4
722.674	33073.31
723.016	33101.56
723.359	33111.5
723.701	32982.01
724.044	32961.45
724.386	32657.95
724.729	32813.43
725.071	32686.2
725.413	32775.92
725.755	32680.33
726.097	32559.88
726.439	32369.6
726.782	32441.69
727.124	32565.98
727.465	32413.89
727.807	32449.82
728.149	32233.79
728.491	32240.11
728.833	32238.98
729.175	32106.56
729.516	32015.03
729.858	32021.14
730.199	31985.43
730.541	32111.08
730.882	31829.05
731.224	32019.33
731.565	31763.06
731.906	31815.27
732.248	31882.38
732.589	31622.05
732.93	31442.17
733.271	31616.4
733.612	31497.08
733.953	31569.17
734.294	31467.03
734.635	31315.39
734.976	31455.73
735.317	31235.17
735.658	31274.94
735.999	31249.4
736.339	31328.95
736.68	31187.94
737.021	31084.21
737.361	30985.68
737.702	31153.81
738.042	31097.54
738.383	31088.28
738.723	30980.26
739.063	31010.99
739.404	31007.15
739.744	30827.95
740.084	30780.94
740.424	30815.52
740.764	30764.9
741.104	30750.43
741.444	30698.68
741.784	30572.81
742.124	30763.32
742.464	30627.27
742.804	30558.58
743.143	30437.22
743.483	30528.07
743.823	30308.41
744.162	30273.61
744.502	30443.55
744.841	30176.44
745.181	30219.37
745.52	30243.78
745.86	30298.69
746.199	30152.71
746.538	30128.08
746.877	30152.94
747.216	30182.54
747.556	30034.3
747.895	29988.65
748.234	29935.99
748.573	29943.22
748.911	29937.8
749.25	29901.42
749.589	29794.08
749.928	29759.05
750.267	29823.91
750.605	29708.65
750.944	29704.13
751.283	29597.92
751.621	29720.63
751.96	29535.78
752.298	29533.97
752.636	29566.51
752.975	29420.98
753.313	29231.83
753.651	29506.17
753.989	29448.55
754.327	29318.61
754.666	29169.68
755.004	29226.41
755.342	29282.9
755.679	29239.06
756.017	29029.35
756.355	29007.2
756.693	28985.96
757.031	29027.32
757.368	28840.88
757.706	28857.6
758.044	28743.48
