Data from hue_280_FLMS001491_00059.txt Node
Date: Tue Feb 07 15:55:28 GMT 2017
User: dcchb
Spectrometer: FLMS00149
Trigger mode: 0
Integration Time (sec): 2.000000E-2
Scans to average: 10
Electric dark correction enabled: true
Nonlinearity correction enabled: false
Boxcar width: 0
XAxis mode: Wavelengths
Number of Pixels in Spectrum: 2048
>>>>>Begin Spectral Data<<<<<
341.393	-19.11
341.776	-19.11
342.16	-19.11
342.543	-54.59
342.927	-57.53
343.31	-77.41
343.693	-75.38
344.077	-58.2
344.46	-65.21
344.843	-48.71
345.226	-47.36
345.61	-30.41
345.993	5.97
346.376	-3.29
346.759	-3.06
347.142	26.76
347.525	48.69
347.908	49.82
348.291	71.28
348.674	96.37
349.057	110.15
349.44	127.78
349.823	141.79
350.206	142.02
350.588	189.92
350.971	187.89
351.354	206.2
351.737	222.01
352.119	231.51
352.502	252.52
352.884	256.82
353.267	250.49
353.65	274.89
354.032	289.81
354.414	289.36
354.797	313.99
355.179	325.29
355.562	302.46
355.944	323.71
356.326	320.99
356.709	328
357.091	344.27
357.473	338.4
357.855	335.46
358.238	340.65
358.62	335.23
359.002	325.29
359.384	349.02
359.766	339.98
360.148	342.69
360.53	329.81
360.912	343.82
361.294	336.36
361.676	329.58
362.057	340.65
362.439	334.1
362.821	313.76
363.203	325.29
363.584	314.89
363.966	313.31
364.348	323.93
364.729	332.07
365.111	313.54
365.493	314.89
365.874	303.59
366.256	303.59
366.637	340.88
367.019	314.21
367.4	318.96
367.781	313.99
368.163	304.5
368.544	316.7
368.925	314.44
369.306	321.22
369.688	318.28
370.069	323.48
370.45	322.8
370.831	311.96
371.212	320.99
371.593	311.96
371.974	318.06
372.355	310.15
372.736	298.85
373.117	302.92
373.498	318.96
373.879	305.63
374.26	301.11
374.641	318.73
375.021	338.4
375.402	328.9
375.783	324.61
376.163	332.52
376.544	335.23
376.925	315.12
377.305	325.06
377.686	342.24
378.066	347.43
378.447	341.78
378.827	356.47
379.208	340.88
379.588	313.08
379.968	333.65
380.349	328.9
380.729	306.98
381.109	336.81
381.489	348.34
381.87	361.9
382.25	340.43
382.63	342.69
383.01	347.89
383.39	325.29
383.77	334.33
384.15	335.01
384.53	350.82
384.91	348.11
385.29	350.82
385.67	351.05
386.049	356.02
386.429	372.29
386.809	366.64
387.189	358.28
387.568	362.35
387.948	358.73
388.328	373.2
388.707	348.34
389.087	377.26
389.466	385.17
389.846	383.37
390.225	351.95
390.605	400.09
390.984	377.72
391.363	377.04
391.743	389.47
392.122	397.6
392.501	380.43
392.881	400.77
393.26	398.51
393.639	391.95
394.018	384.95
394.397	399.41
394.776	410.26
395.155	389.47
395.534	396.47
395.913	409.58
396.292	407.55
396.671	405.06
397.05	396.92
397.429	389.24
397.808	404.83
398.186	423.82
398.565	425.85
398.944	416.36
399.323	410.71
399.701	436.02
400.08	401.67
400.458	416.81
400.837	431.5
401.215	436.7
401.594	434.44
401.972	447.32
402.351	443.93
402.729	450.26
403.107	453.19
403.486	442.12
403.864	444.61
404.242	455.45
404.62	479.18
404.999	485.96
405.377	457.94
405.755	470.82
406.133	479.41
406.511	482.57
406.889	495.45
407.267	507.88
407.645	493.65
408.023	502.91
408.401	496.58
408.779	500.65
409.156	511.27
409.534	530.03
409.912	537.03
410.29	523.02
410.667	527.09
411.045	542.01
411.422	545.62
411.8	546.98
412.178	575.22
412.555	572.74
412.933	577.71
413.31	575.22
413.687	606.86
414.065	582.46
414.442	598.73
414.819	589.24
415.197	635.79
415.574	622.46
415.951	648.44
416.328	641.66
416.705	649.57
417.082	649.8
417.46	658.39
417.837	677.6
418.214	648.9
418.591	700.65
418.967	694.54
419.344	690.25
419.721	725.5
420.098	724.6
420.475	751.94
420.852	754.43
421.228	716.92
421.605	734.09
421.982	758.27
422.358	783.58
422.735	777.93
423.111	782
423.488	814.99
423.864	822.45
424.241	838.49
424.617	833.52
424.994	842.56
425.37	847.53
425.746	864.71
426.123	856.57
426.499	876.46
426.875	869.45
427.251	901.54
427.627	930.02
428.003	928.44
428.379	916.91
428.756	949
429.132	968.66
429.507	925.72
429.883	984.25
430.259	978.83
430.635	995.55
431.011	1007.53
431.387	1024.48
431.763	1052.5
432.138	1050.24
432.514	1054.08
432.89	1069
433.265	1074.19
433.641	1100.18
434.016	1139.96
434.392	1121.43
434.767	1132.72
435.143	1159.16
435.518	1179.05
435.894	1203.46
436.269	1239.16
436.644	1223.57
437.02	1241.65
437.395	1236.22
437.77	1261.31
438.145	1254.76
438.52	1297.92
438.895	1300.63
439.271	1327.3
439.646	1353.74
440.021	1320.29
440.395	1374.3
440.77	1339.95
441.145	1373.4
441.52	1425.6
441.895	1392.6
442.27	1430.12
442.645	1443.45
443.019	1426.05
443.394	1454.3
443.769	1455.2
444.143	1445.26
444.518	1477.12
444.892	1486.84
445.267	1480.51
445.641	1521.19
446.016	1515.77
446.39	1526.84
446.764	1542.88
447.139	1489.33
447.513	1528.87
447.887	1562.32
448.262	1534.3
448.636	1568.87
449.01	1580.85
449.384	1576.33
449.758	1580.4
450.132	1621.98
450.506	1621.98
450.88	1634.18
451.254	1624.46
451.628	1656.33
452.002	1647.06
452.376	1679.38
452.75	1647.74
453.123	1706.27
453.497	1699.04
453.871	1702.88
454.244	1737.45
454.618	1769.32
454.992	1739.71
455.365	1760.73
455.739	1823.1
456.112	1834.63
456.486	1822.65
456.859	1851.58
457.232	1904.68
457.606	1852.71
457.979	1886.83
458.352	1944
458.725	1948.07
459.099	1957.56
459.472	1956.88
459.845	1975.64
460.218	2014.28
460.591	2035.07
460.964	2038.01
461.337	2073.26
461.71	2081.63
462.083	2114.85
462.456	2105.81
462.829	2147.61
463.201	2190.55
463.574	2138.12
463.947	2177.22
464.32	2238.23
464.692	2221.96
465.065	2237.33
465.438	2296.99
465.81	2285.46
466.183	2311.45
466.555	2346.7
466.928	2391
467.3	2368.17
467.672	2391.67
468.045	2447.94
468.417	2438.23
468.789	2446.14
469.161	2474.16
469.534	2511.45
469.906	2606.58
470.278	2570.88
470.65	2588.05
471.022	2619.69
471.394	2690.88
471.766	2674.15
472.138	2720.71
472.51	2769.07
472.882	2803.41
473.253	2818.56
473.625	2833.47
473.997	2883.41
474.369	2894.03
474.74	2918.44
475.112	2952.56
475.484	3016.29
475.855	3077.31
476.227	3087.48
476.598	3141.26
476.97	3159.11
477.341	3220.81
477.713	3247.02
478.084	3254.25
478.455	3348.71
478.827	3367.92
479.198	3464.41
479.569	3417.18
479.94	3492.66
480.311	3523.85
480.682	3610.4
481.053	3665.09
481.424	3690.62
481.795	3716.39
482.166	3778.08
482.537	3837.29
482.908	3892.43
483.279	3903.27
483.65	3965.42
484.021	4079.31
484.391	4055.36
484.762	4027.79
485.133	4112.99
485.503	4146.88
485.874	4205.19
486.244	4220.78
486.615	4299.19
486.985	4340.55
487.356	4436.14
487.726	4428.68
488.097	4503.48
488.467	4497.38
488.837	4570.15
489.207	4623.03
489.578	4678.39
489.948	4733.31
490.318	4806.3
490.688	4770.37
491.058	4908.22
491.428	4877.26
491.798	4960.19
492.168	5024.37
492.538	5038.84
492.908	5036.35
493.278	5150.47
493.648	5122.9
494.017	5170.81
494.387	5221.43
494.757	5273.63
495.126	5298.26
495.496	5325.38
495.866	5343.01
496.235	5379.17
496.605	5413.52
496.974	5442.67
497.344	5567.18
497.713	5507.98
498.082	5493.74
498.452	5586.62
498.821	5543.68
499.19	5646.05
499.559	5657.8
499.928	5680.4
500.298	5682.21
500.667	5729.89
501.036	5698.71
501.405	5820.96
501.774	5739.16
502.143	5813.51
502.512	5811.92
502.88	5926.5
503.249	5912.26
503.618	5979.6
503.987	5968.98
504.356	6009.88
504.724	5990
505.093	6001.07
505.462	6026.16
505.83	6050.56
506.199	6088.98
506.567	6132.82
506.936	6163.55
507.304	6219.14
507.672	6200.39
508.041	6227.96
508.409	6242.65
508.777	6270.89
509.145	6305.7
509.514	6294.62
509.882	6342.3
510.25	6359.25
510.618	6390.89
510.986	6400.16
511.354	6497.78
511.722	6471.79
512.09	6563.54
512.458	6511.11
512.826	6604.67
513.193	6594.28
513.561	6571.68
513.929	6621.85
514.297	6592.69
514.664	6707.72
515.032	6644.9
515.4	6752.46
515.767	6702.07
516.135	6803.31
516.502	6704.56
516.869	6845.57
517.237	6834.27
517.604	6811.67
517.972	6886.7
518.339	6860.71
518.706	6841.95
519.073	6930.99
519.44	6933.93
519.808	6979.8
520.175	6968.73
520.542	7078.56
520.909	7070.65
521.276	7111.32
521.643	7105
522.009	7143.41
522.376	7220.02
522.743	7252.79
523.11	7280.36
523.477	7348.83
523.843	7369.62
524.21	7406.23
524.577	7444.42
524.943	7395.38
525.31	7447.36
525.676	7503.63
526.043	7557.41
526.409	7551.31
526.776	7621.14
527.142	7636.06
527.508	7678.99
527.874	7762.61
528.241	7726.22
528.607	7731.87
528.973	7823.17
529.339	7791.31
529.705	7928.7
530.071	7883.73
530.437	7968.48
530.803	7914.02
531.169	8018.42
531.535	7996.72
531.901	8061.58
532.267	8014.58
532.632	8076.95
532.998	8063.16
533.364	8095.25
533.73	8173.9
534.095	8282.14
534.461	8241.69
534.826	8184.74
535.192	8291.41
535.557	8328.24
535.923	8342.48
536.288	8337.73
536.653	8382.7
537.019	8398.07
537.384	8344.29
537.749	8366.66
538.114	8409.82
538.479	8426.54
538.845	8440.33
539.21	8474.9
539.575	8485.98
539.94	8482.81
540.305	8557.39
540.67	8586.77
541.034	8597.61
541.399	8640.55
541.764	8608.46
542.129	8678.06
542.494	8713.99
542.858	8698.63
543.223	8619.31
543.587	8692.53
543.952	8808.91
544.316	8791.05
544.681	8801.9
545.045	8793.09
545.41	8911.28
545.774	8926.64
546.138	8852.75
546.503	8878.51
546.867	8837.83
547.231	9024.04
547.595	8951.05
547.959	8919.64
548.324	9021.56
548.688	8951.28
549.052	8981.56
549.416	8982.01
549.779	9050.71
550.143	9068.34
550.507	9141.33
550.871	9077.15
551.235	9155.11
551.599	9101.1
551.962	9151.5
552.326	9215.68
552.689	9264.04
553.053	9158.28
553.417	9189.46
553.78	9306.07
554.143	9331.38
554.507	9284.6
554.87	9363.24
555.234	9402.79
555.597	9335.22
555.96	9415.9
556.323	9377.71
556.686	9466.74
557.05	9523.01
557.413	9447.31
557.776	9484.14
558.139	9554.2
558.502	9521.43
558.865	9598.26
559.228	9636.91
559.59	9681.65
559.953	9677.36
560.316	9747.19
560.679	9747.41
561.041	9829.44
561.404	9836.68
561.767	9920.74
562.129	9865.15
562.492	9957.13
562.854	9925.49
563.217	9949.67
563.579	9966.39
563.941	9991.93
564.304	10078.7
564.666	10144.92
565.028	10120.06
565.39	10139.49
565.753	10281.64
566.115	10275.53
566.477	10251.13
566.839	10322.31
567.201	10356.89
567.563	10392.82
567.925	10374.97
568.287	10436.89
568.648	10406.83
569.01	10546.04
569.372	10581.52
569.734	10589.42
570.095	10671.91
570.457	10600.72
570.819	10745.81
571.18	10695.86
571.542	10750.78
571.903	10791.23
572.265	10821.74
572.626	10854.05
572.987	10866.48
573.349	10910.32
573.71	10946.03
574.071	10996.42
574.432	10988.74
574.794	11127.94
575.155	11172.23
575.516	11183.31
575.877	11246.13
576.238	11306.47
576.599	11331.78
576.96	11273.7
577.32	11360.7
577.681	11355.73
578.042	11489.29
578.403	11513.69
578.763	11551.89
579.124	11555.05
579.485	11666.23
579.845	11708.49
580.206	11708.94
580.566	11701.26
580.927	11815.61
581.287	11895.83
581.648	11862.16
582.008	11907.36
582.368	11966.56
582.728	12043.85
583.089	12083.4
583.449	12096.73
583.809	12143.28
584.169	12262.83
584.529	12302.37
584.889	12438.64
585.249	12384.86
585.609	12437.29
585.969	12547.11
586.329	12550.96
586.688	12646.09
587.048	12627.79
587.408	12718.18
587.768	12776.94
588.127	12826.2
588.487	12917.05
588.846	12910.95
589.206	12993.88
589.565	13030.26
589.925	13178.96
590.284	13154.33
590.643	13225.06
591.003	13324.72
591.362	13440.2
591.721	13465.51
592.08	13557.26
592.44	13661.21
592.799	13703.47
593.158	13729.91
593.517	13811.49
593.876	13905.27
594.235	13914.99
594.593	13981.65
594.952	13984.59
595.311	14005.61
595.67	14105.72
596.029	14241.98
596.387	14249.67
596.746	14410.79
597.104	14416.89
597.463	14477.68
597.822	14537.12
598.18	14464.8
598.538	14550.68
598.897	14697.79
599.255	14545.48
599.613	14801.52
599.972	14817.56
600.33	14858.47
600.688	14892.14
601.046	15011.68
601.404	15021.4
601.762	15049.87
602.12	15125.35
602.478	15164.22
602.836	15263.2
603.194	15146.14
603.552	15297.55
603.91	15324.22
604.268	15380.03
604.625	15330.77
604.983	15420.71
605.341	15436.3
605.698	15570.54
606.056	15569.41
606.413	15613.02
606.771	15635.62
607.128	15710.19
607.485	15589.29
607.843	15670.2
608.2	15843.98
608.557	15847.14
608.914	15844.43
609.272	15866.57
609.629	15903.41
609.986	16020.69
610.343	15921.04
610.7	16035.84
611.057	16059.79
611.414	16064.76
611.771	16082.39
612.127	16153.57
612.484	16107.47
612.841	16277.86
613.198	16273.8
613.554	16331.19
613.911	16296.62
614.267	16429.5
614.624	16410.06
614.98	16447.35
615.337	16491.64
615.693	16470.85
616.05	16492.77
616.406	16585.2
616.762	16437.41
617.118	16616.61
617.475	16591.08
617.831	16569.61
618.187	16639.89
618.543	16689.38
618.899	16709.49
619.255	16730.96
619.611	16711.07
619.967	16803.95
620.323	16705.87
620.678	16805.76
621.034	16803.72
621.39	16794.23
621.746	16776.38
622.101	16983.38
622.457	16781.8
622.812	16808.47
623.168	16901.58
623.523	16937.28
623.879	17052.98
624.234	16896.38
624.589	16917.17
624.945	16867.9
625.3	17086.2
625.655	16950.84
626.01	16962.14
626.365	16959.88
626.72	16985.64
627.075	16918.3
627.43	16916.26
627.785	16888.69
628.14	16962.14
628.495	16931.41
628.85	16998.3
629.205	16935.02
629.559	16977.28
629.914	16915.59
630.269	16918.3
630.623	16824.06
630.978	16870.62
631.332	16997.62
631.687	16982.25
632.041	16896.6
632.396	16882.59
632.75	16813.44
633.104	16885.08
633.459	16784.06
633.813	16777.74
634.167	16864.97
634.521	16753.1
634.875	16837.62
635.229	16894.34
635.583	16710.85
635.937	16791.97
636.291	16753.78
636.645	16763.27
636.999	16601.7
637.352	16703.16
637.706	16661.81
638.06	16699.77
638.413	16702.94
638.767	16636.72
639.121	16650.28
639.474	16536.16
639.828	16485.77
640.181	16557.63
640.534	16522.83
640.888	16401.25
641.241	16420.01
641.594	16361.25
641.947	16549.95
642.301	16421.59
642.654	16441.93
643.007	16489.61
643.36	16445.54
643.713	16446.22
644.066	16490.06
644.419	16326.9
644.771	16329.16
645.124	16202.61
645.477	16088.04
645.83	15996.97
646.182	15954.71
646.535	15933.92
646.888	15884.2
647.24	15838.33
647.593	15977.08
647.945	15860.02
648.298	15820.93
648.65	15827.93
649.002	15802.85
649.355	15805.11
649.707	15869.06
650.059	15904.54
650.411	16094.36
650.763	16254.81
651.115	16368.93
651.467	16281.93
651.819	16314.7
652.171	16254.36
652.523	16303.85
652.875	16104.08
653.227	16196.06
653.578	16291.65
653.93	16232.21
654.282	16170.97
654.633	16126.45
654.985	16224.08
655.337	16228.6
655.688	16240.35
656.039	16338.43
656.391	16145.66
656.742	16323.51
657.094	16198.99
657.445	16317.41
657.796	16181.37
658.147	16179.11
658.498	16194.7
658.849	16238.99
659.2	16278.54
659.551	16195.61
659.902	16292.78
660.253	16181.14
660.604	16318.77
660.955	16294.81
661.306	16314.25
661.656	16243.97
662.007	16336.17
662.358	16270.63
662.708	16219.33
663.059	16400.35
663.409	16183.18
663.76	16287.13
664.11	16267.47
664.461	16320.12
664.811	16273.34
665.161	16292.55
665.511	16165.78
665.862	16224.76
666.212	16333.45
666.562	16356.5
666.912	16325.55
667.262	16312.89
667.612	16336.39
667.962	16384.98
668.312	16345.21
668.662	16352.44
669.011	16320.35
669.361	16273.8
669.711	16269.73
670.06	16192.89
670.41	16270.18
670.76	16169.62
671.109	16341.59
671.459	16248.26
671.808	16235.15
672.157	16240.58
672.507	16194.7
672.856	16177.07
673.205	16229.05
673.554	16294.13
673.904	16215.94
674.253	16211.65
674.602	16120.8
674.951	15968.72
675.3	15883.75
675.649	16157.19
675.998	16022.5
676.346	16112.44
676.695	16057.98
677.044	16024.99
677.393	16053.91
677.741	16048.94
678.09	16041.26
678.438	15999.45
678.787	15993.8
679.135	15992.67
679.484	15865.44
679.832	15941.15
680.181	15845.78
680.529	15900.47
680.877	15869.74
681.225	15728.5
681.573	15905.67
681.922	15729.18
682.27	15683.53
682.618	15779.12
682.966	15626.58
683.314	15635.62
683.661	15564.44
684.009	15586.13
684.357	15494.61
684.705	15511.33
685.053	15483.31
685.4	15511.56
685.748	15353.82
686.095	15437.66
686.443	15309.98
686.79	15302.52
687.138	15227.95
687.485	15387.49
687.832	15143.2
688.18	15267.27
688.527	15102.98
688.874	15180.04
689.221	15011.91
689.568	15040.61
689.915	14904.34
690.262	14986.37
690.609	14915.41
690.956	14919.03
691.303	14838.58
691.65	14833.38
691.997	14768.98
692.344	14743.89
692.69	14718.58
693.037	14626.83
693.383	14557.68
693.73	14543.9
694.077	14438.14
694.423	14506.16
694.769	14402.43
695.116	14338.03
695.462	14403.56
695.808	14332.38
696.155	14341.19
696.501	14136.45
696.847	14236.11
697.193	14077.02
697.539	14129.44
697.885	13974.19
698.231	13923.35
698.577	14014.87
698.923	13945.49
699.269	13815.55
699.614	13694.65
699.96	13650.14
700.306	13690.59
700.651	13554.77
700.997	13583.92
701.342	13479.29
701.688	13414.21
702.033	13338.51
702.379	13336.7
702.724	13345.96
703.069	13333.99
703.415	13188
703.76	13141
704.105	13192.52
704.45	13099.87
704.795	13021
705.14	12999.31
705.485	12939.19
705.83	12910.49
706.175	12911.17
706.52	12839.76
706.865	12883.15
707.209	12819.87
707.554	12715.47
707.899	12758.86
708.243	12757.96
708.588	12731.74
708.932	12588.02
709.277	12548.92
709.621	12576.04
709.966	12454.23
710.31	12499.21
710.654	12417.85
710.998	12448.59
711.342	12456.49
711.687	12409.26
712.031	12300.34
712.375	12343.5
712.719	12345.31
713.063	12222.38
713.407	12327.23
713.75	12244.75
714.094	12148.93
714.438	12245.88
714.782	12251.53
715.125	12116.84
715.469	12085.2
715.812	12012.89
716.156	11975.83
716.499	11971.31
716.843	11972.89
717.186	11934.47
717.53	11996.17
717.873	11947.36
718.216	11988.94
718.559	11888.83
718.902	11797.53
719.246	11921.59
719.589	11802.73
719.932	11750.3
720.275	11813.8
720.617	11793.91
720.96	11667.59
721.303	11766.34
721.646	11726.57
721.989	11674.82
722.331	11735.38
722.674	11618.32
723.016	11717.08
723.359	11613.35
723.701	11635.5
724.044	11568.61
724.386	11490.64
724.729	11633.01
725.071	11496.75
725.413	11553.92
725.755	11569.74
726.097	11516.86
726.439	11450.42
726.782	11479.12
727.124	11492.45
727.465	11450.87
727.807	11405.67
728.149	11484.32
728.491	11425.79
728.833	11517.99
729.175	11447.03
729.516	11376.07
729.858	11425.11
730.199	11405.22
730.541	11393.47
730.882	11352.57
731.224	11516.63
731.565	11380.82
731.906	11449.06
732.248	11418.33
732.589	11401.38
732.93	11300.59
733.271	11404.54
733.612	11369.07
733.953	11376.52
734.294	11368.61
734.635	11369.74
734.976	11369.29
735.317	11357.77
735.658	11405.45
735.999	11339.69
736.339	11312.12
736.68	11398.9
737.021	11316.41
737.361	11381.27
737.702	11450.42
738.042	11424.21
738.383	11347.82
738.723	11375.39
739.063	11388.73
739.404	11446.35
739.744	11424.66
740.084	11300.82
740.424	11449.52
740.764	11441.38
741.104	11490.19
741.444	11484.09
741.784	11468.5
742.124	11529.06
742.464	11439.35
742.804	11506.69
743.143	11547.82
743.483	11504.66
743.823	11599.79
744.162	11485.22
744.502	11616.74
744.841	11655.39
745.181	11640.92
745.52	11632.11
745.86	11703.75
746.199	11785.1
746.538	11811.09
746.877	11852.89
747.216	11949.62
747.556	11897.87
747.895	11976.28
748.234	11979.44
748.573	12056.73
748.911	12114.36
749.25	12105.54
749.589	12216.73
749.928	12273.67
750.267	12342.6
750.605	12408.13
750.944	12496.72
751.283	12555.25
751.621	12602.93
751.96	12731.97
752.298	12860.33
752.636	12877.73
752.975	12978.74
753.313	13023.03
753.651	13179.87
753.989	13261.22
754.327	13334.89
754.666	13416.24
755.004	13633.64
755.342	13779.62
755.679	13882.67
756.017	13924.03
756.355	14131.03
756.693	14212.61
757.031	14372.6
757.368	14386.39
757.706	14622.77
758.044	14714.06
758.381	14766.04
