Data from hue_290_FLMS001491_00060.txt Node
Date: Tue Feb 07 15:52:56 GMT 2017
User: dcchb
Spectrometer: FLMS00149
Trigger mode: 0
Integration Time (sec): 2.000000E-2
Scans to average: 10
Electric dark correction enabled: true
Nonlinearity correction enabled: false
Boxcar width: 0
XAxis mode: Wavelengths
Number of Pixels in Spectrum: 2048
>>>>>Begin Spectral Data<<<<<
341.393	-26.24
341.776	-26.24
342.16	-26.24
342.543	-56.98
342.927	-59.24
343.31	-67.37
343.693	-71.44
344.077	-61.27
344.46	-56.75
344.843	-46.58
345.226	-34.83
345.61	-29.86
345.993	-16.75
346.376	-9.29
346.759	-7.26
347.142	25.96
347.525	68.44
347.908	40.2
348.291	74.77
348.674	91.95
349.057	100.08
349.44	123.58
349.823	154.54
350.206	145.28
350.588	201.55
350.971	207.88
351.354	213.75
351.737	241.77
352.119	253.98
352.502	255.11
352.884	259.17
353.267	272.96
353.65	285.39
354.032	286.29
354.414	292.39
354.797	313.41
355.179	306.86
355.562	322.9
355.944	304.6
356.326	317.25
356.709	310.02
357.091	291.94
357.473	329.23
357.855	330.81
358.238	328.78
358.62	303.24
359.002	317.48
359.384	330.36
359.766	334.65
360.148	323.13
360.53	339.85
360.912	318.38
361.294	334.2
361.676	318.61
362.057	329.91
362.439	336.23
362.821	308.21
363.203	300.53
363.584	309.79
363.966	319.29
364.348	299.85
364.729	316.8
365.111	311.15
365.493	305.05
365.874	319.29
366.256	307.31
366.637	302.11
367.019	307.08
367.4	300.3
367.781	318.38
368.163	299.85
368.544	303.47
368.925	294.65
369.306	325.39
369.688	308.44
370.069	311.83
370.45	315.67
370.831	317.48
371.212	308.21
371.593	297.37
371.974	320.19
372.355	295.33
372.736	306.63
373.117	319.74
373.498	293.75
373.879	311.15
374.26	312.51
374.641	295.33
375.021	311.6
375.402	310.02
375.783	324.26
376.163	291.94
376.544	300.08
376.925	322.68
377.305	299.4
377.686	311.15
378.066	318.61
378.447	321.32
378.827	326.06
379.208	315.44
379.588	327.19
379.968	311.6
380.349	326.29
380.729	325.61
381.109	326.06
381.489	336.23
381.87	339.62
382.25	337.59
382.63	320.87
383.01	332.39
383.39	326.74
383.77	318.38
384.15	324.03
384.53	332.39
384.91	331.71
385.29	349.57
385.67	338.27
386.049	340.08
386.429	335.33
386.809	349.12
387.189	350.25
387.568	348.89
387.948	343.01
388.328	344.37
388.707	362.9
389.087	335.56
389.466	353.86
389.846	351.15
390.225	360.64
390.605	356.35
390.984	361.09
391.363	364.26
391.743	341.66
392.122	369.91
392.501	352.73
392.881	379.85
393.26	370.36
393.639	373.97
394.018	377.36
394.397	388.44
394.776	391.15
395.155	378.27
395.534	386.18
395.913	366.06
396.292	382.11
396.671	366.52
397.05	401.77
397.429	370.36
397.808	378.72
398.186	392.73
398.565	396.57
398.944	398.83
399.323	404.03
399.701	395.44
400.08	383.92
400.458	411.49
400.837	393.86
401.215	410.58
401.594	423.01
401.972	412.62
402.351	439.06
402.729	407.64
403.107	412.16
403.486	425.72
403.864	430.24
404.242	422.33
404.62	438.15
404.999	435.89
405.377	432.5
405.755	442.45
406.133	446.06
406.511	449.23
406.889	462.78
407.267	462.11
407.645	460.52
408.023	479.28
408.401	490.35
408.779	469.79
409.156	485.16
409.534	528.32
409.912	492.84
410.29	491.48
410.667	511.14
411.045	520.64
411.422	523.35
411.8	531.26
412.178	527.42
412.555	535.32
412.933	556.57
413.31	577.81
413.687	571.03
414.065	569.22
414.442	573.29
414.819	608.77
415.197	590.69
415.574	590.92
415.951	607.41
416.328	618.94
416.705	611.71
417.082	631.59
417.46	631.82
417.837	625.94
418.214	641.76
418.591	660.29
418.967	664.36
419.344	672.27
419.721	677.69
420.098	697.58
420.475	713.63
420.852	698.48
421.228	725.38
421.605	721.53
421.982	728.54
422.358	729.9
422.735	747.97
423.111	756.34
423.488	744.13
423.864	765.6
424.241	778.71
424.617	773.96
424.994	818.48
425.37	813.28
425.746	806.96
426.123	825.94
426.499	852.6
426.875	840.18
427.251	864.58
427.627	875.2
428.003	874.3
428.379	887.41
428.756	909.1
429.132	907.97
429.507	897.8
429.883	921.76
430.259	915.88
430.635	924.24
431.011	953.84
431.387	961.08
431.763	994.07
432.138	993.39
432.514	999.49
432.89	1011.47
433.265	1024.13
433.641	1073.62
434.016	1043.11
434.392	1054.63
434.767	1056.67
435.143	1086.72
435.518	1114.74
435.894	1133.95
436.269	1136.44
436.644	1150
437.02	1173.73
437.395	1168.98
437.77	1171.92
438.145	1218.02
438.52	1188.42
438.895	1225.93
439.271	1223.89
439.646	1241.97
440.021	1246.72
440.395	1239.04
440.77	1232.48
441.145	1263.44
441.52	1271.35
441.895	1265.02
442.27	1293.5
442.645	1303.67
443.019	1354.74
443.394	1331.24
443.769	1307.51
444.143	1300.73
444.518	1342.76
444.892	1351.35
445.267	1354.51
445.641	1353.16
446.016	1335.76
446.39	1371.24
446.764	1356.32
447.139	1358.35
447.513	1382.99
447.887	1394.51
448.262	1401.06
448.636	1410.33
449.01	1415.53
449.384	1414.62
449.758	1430.22
450.132	1432.7
450.506	1445.58
450.88	1431.12
451.254	1450.56
451.628	1471.8
452.002	1479.48
452.376	1484.45
452.75	1499.37
453.123	1500.5
453.497	1518.58
453.871	1492.36
454.244	1532.81
454.618	1556.54
454.992	1560.16
455.365	1601.29
455.739	1586.82
456.112	1593.83
456.486	1619.14
456.859	1643.09
457.232	1666.59
457.606	1646.03
457.979	1643.32
458.352	1704.33
458.725	1667.5
459.099	1694.39
459.472	1732.58
459.845	1708.85
460.218	1750.89
460.591	1740.94
460.964	1756.76
461.337	1778.23
461.71	1824.78
462.083	1816.2
462.456	1835.18
462.829	1803.31
463.201	1839.47
463.574	1869.53
463.947	1885.12
464.32	1908.85
464.692	1931.9
465.065	1935.06
465.438	1971.45
465.81	1968.96
466.183	1978.45
466.555	2014.61
466.928	2033.59
467.3	2009.86
467.672	2043.53
468.045	2107.26
468.417	2102.06
468.789	2086.02
469.161	2118.79
469.534	2146.13
469.906	2158.79
470.278	2172.8
470.65	2239.91
471.022	2207.15
471.394	2274.94
471.766	2280.59
472.138	2297.31
472.51	2359.91
472.882	2363.3
473.253	2395.61
473.625	2389.29
473.997	2405.78
474.369	2427.03
474.74	2453.47
475.112	2506.12
475.484	2514.48
475.855	2543.63
476.227	2544.99
476.598	2624.99
476.97	2635.38
477.341	2671.77
477.713	2680.35
478.084	2709.05
478.455	2754.02
478.827	2772.1
479.198	2855.94
479.569	2831.54
479.94	2903.85
480.311	2891.42
480.682	2969.84
481.053	3003.73
481.424	3044.19
481.795	3096.39
482.166	3082.83
482.537	3121.47
482.908	3173.22
483.279	3192.2
483.65	3238.53
484.021	3261.58
484.391	3277.17
484.762	3298.64
485.133	3364.86
485.503	3357.4
485.874	3416.15
486.244	3441.69
486.615	3534.34
486.985	3514.46
487.356	3565.53
487.726	3560.78
488.097	3621.8
488.467	3638.07
488.837	3660.44
489.207	3761.68
489.578	3742.7
489.948	3787.89
490.318	3821.34
490.688	3832.64
491.058	3845.75
491.428	3955.12
491.798	3951.05
492.168	3975.69
492.538	3987.21
492.908	4069.47
493.278	4099.52
493.648	4117.15
494.017	4142.24
494.387	4174.78
494.757	4187.21
495.126	4168.22
495.496	4211.39
495.866	4243.25
496.235	4302.91
496.605	4306.98
496.974	4317.37
497.344	4368.44
497.713	4377.03
498.082	4375
498.452	4426.97
498.821	4426.07
499.19	4429.23
499.559	4485.28
499.928	4535.9
500.298	4537.03
500.667	4531.83
501.036	4552.17
501.405	4565.73
501.774	4584.94
502.143	4574.31
502.512	4598.49
502.88	4673.3
503.249	4670.36
503.618	4685.5
503.987	4694.54
504.356	4693.18
504.724	4706.06
505.093	4738.83
505.462	4723.01
505.83	4790.35
506.199	4800.07
506.567	4821.77
506.936	4823.12
507.304	4857.7
507.672	4890.69
508.041	4902.89
508.409	4909
508.777	4974.76
509.145	4950.8
509.514	4928.43
509.882	4959.16
510.25	5005.49
510.618	4957.36
510.986	5031.93
511.354	5036.45
511.722	5069.44
512.09	5071.93
512.458	5065.38
512.826	5131.36
513.193	5132.49
513.561	5160.97
513.929	5179.72
514.297	5177.91
514.664	5252.94
515.032	5214.07
515.4	5255.2
515.767	5266.95
516.135	5235.77
516.502	5229.89
516.869	5295.65
517.237	5272.15
517.604	5323.67
517.972	5346.95
518.339	5325.93
518.706	5339.04
519.073	5333.16
519.44	5396.21
519.808	5405.48
520.175	5390.34
520.542	5461.52
520.909	5468.75
521.276	5449.77
521.643	5519.15
522.009	5513.5
522.376	5554.4
522.743	5522.31
523.11	5586.72
523.477	5639.6
523.843	5672.14
524.21	5666.26
524.577	5661.29
524.943	5700.39
525.31	5676.88
525.676	5793.49
526.043	5789.88
526.409	5768.41
526.776	5876.43
527.142	5864
527.508	5862.19
527.874	5899.03
528.241	5924.56
528.607	5940.83
528.973	5988.51
529.339	5960.27
529.705	6064.22
530.071	6129.53
530.437	6077.78
530.803	6133.14
531.169	6094.73
531.535	6154.61
531.901	6161.84
532.267	6216.31
532.632	6257.89
532.998	6241.84
533.364	6282.07
533.73	6232.35
534.095	6303.99
534.461	6359.8
534.826	6362.52
535.192	6380.82
535.557	6363.42
535.923	6347.83
536.288	6393.48
536.653	6453.59
537.019	6436.86
537.384	6404.32
537.749	6458.56
538.114	6430.09
538.479	6489.74
538.845	6538.33
539.21	6493.36
539.575	6556.64
539.94	6533.36
540.305	6582.4
540.67	6632.79
541.034	6623.53
541.399	6635.05
541.764	6645.45
542.129	6686.58
542.494	6707.59
542.858	6717.54
543.223	6760.92
543.587	6766.35
543.952	6778.32
544.316	6768.16
544.681	6777.42
545.045	6802.5
545.41	6923.18
545.774	6902.84
546.138	6897.87
546.503	6900.58
546.867	6859.23
547.231	6953.91
547.595	6957.98
547.959	6987.36
548.324	6964.31
548.688	6988.04
549.052	6996.62
549.416	7018.77
549.779	7022.16
550.143	7008.83
550.507	7061.26
550.871	7113.68
551.235	7089.28
551.599	7143.74
551.962	7139.9
552.326	7170.4
552.689	7212.66
553.053	7174.7
553.417	7113.91
553.78	7297.18
554.143	7227.8
554.507	7232.78
554.87	7250.63
555.234	7324.07
555.597	7291.53
555.96	7256.96
556.323	7307.35
556.686	7350.51
557.05	7407.91
557.413	7364.07
557.776	7453.56
558.139	7408.59
558.502	7448.36
558.865	7458.08
559.228	7443.39
559.59	7514.58
559.953	7503.5
560.316	7611.75
560.679	7650.17
561.041	7615.59
561.404	7611.52
561.767	7653.1
562.129	7716.15
562.492	7723.16
562.854	7716.83
563.217	7695.14
563.579	7688.81
563.941	7804.96
564.304	7753.44
564.666	7801.57
565.028	7879.09
565.39	7868.01
565.753	7906.66
566.115	7955.69
566.477	8001.8
566.839	7943.27
567.201	8071.62
567.563	7953.43
567.925	8096.26
568.287	8058.29
568.648	8100.1
569.01	8094.67
569.372	8184.84
569.734	8216.48
570.095	8281.11
570.457	8239.3
570.819	8223.94
571.18	8348.9
571.542	8268.68
571.903	8356.81
572.265	8385.29
572.626	8472.74
572.987	8416.02
573.349	8459.64
573.71	8592.51
574.071	8542.35
574.432	8623.02
574.794	8696.24
575.155	8720.42
575.516	8678.16
575.877	8823.02
576.238	8839.74
576.599	8878.61
576.96	8931.94
577.32	9010.36
577.681	9000.64
578.042	9081.99
578.403	9124.48
578.763	9167.41
579.124	9235.44
579.485	9346.17
579.845	9390.01
580.206	9411.48
580.566	9480.17
580.927	9603.34
581.287	9666.38
581.648	9691.02
582.008	9787.96
582.368	9904.12
582.728	10035.64
583.089	10152.02
583.449	10175.52
583.809	10214.17
584.169	10396.08
584.529	10403.09
584.889	10574.61
585.249	10698.67
585.609	10685.34
585.969	10928.5
586.329	10960.36
586.688	11031.55
587.048	11196.29
587.408	11267.7
587.768	11404.19
588.127	11536.62
588.487	11685.31
588.846	11821.13
589.206	11843.73
589.565	12067.23
589.925	12248.92
590.284	12308.8
590.643	12397.16
591.003	12597.83
591.362	12789.47
591.721	12916.69
592.08	13069.46
592.44	13158.27
592.799	13310.13
593.158	13408.21
593.517	13584.02
593.876	13733.4
594.235	13856.78
594.593	13961.19
594.952	14144.91
595.311	14116.21
595.67	14374.06
596.029	14523.88
596.387	14684.33
596.746	14790.77
597.104	14879.35
597.463	14955.06
597.822	15179.01
598.18	15241.6
598.538	15330.64
598.897	15595.95
599.255	15559.56
599.613	15990.74
599.972	15866.45
600.33	16100.79
600.688	16189.6
601.046	16322.48
601.404	16476.83
601.762	16487
602.12	16764.5
602.478	16826.42
602.836	16957.04
603.194	16967.21
603.552	17166.3
603.91	17235
604.268	17254.21
604.625	17279.07
604.983	17449.68
605.341	17569.68
605.698	17618.04
606.056	17744.82
606.413	17834.98
606.771	17936
607.128	17992.04
607.485	18073.85
607.843	18145.26
608.2	18302.54
608.557	18400.39
608.914	18396.78
609.272	18578.01
609.629	18697.79
609.986	18737.56
610.343	18752.7
610.7	18927.84
611.057	18973.26
611.414	18999.25
611.771	19099.58
612.127	19198.56
612.484	19277.43
612.841	19504.09
613.198	19340.93
613.554	19357.2
613.911	19566.46
614.267	19572.34
614.624	19663.41
614.98	19736.4
615.337	19899.34
615.693	19944.31
616.05	19981.37
616.406	19987.02
616.762	20008.71
617.118	20034.47
617.475	20153.11
617.831	20179.78
618.187	20327.8
618.543	20323.05
618.899	20409.6
619.255	20427.68
619.611	20514.23
619.967	20530.73
620.323	20530.28
620.678	20669.71
621.034	20610.05
621.39	20546.1
621.746	20621.35
622.101	20911.06
622.457	20699.77
622.812	20761.01
623.168	21005.3
623.523	20921.23
623.879	20850.04
624.234	20868.12
624.589	20852.08
624.945	21024.73
625.3	21074.9
625.655	21015.69
626.01	21064.28
626.365	21152.86
626.72	21090.72
627.075	21102.24
627.43	21036.71
627.785	21123.94
628.14	21167.78
628.495	21147.89
628.85	21173.88
629.205	21111.73
629.559	21274.89
629.914	21101.79
630.269	21135.24
630.623	21171.39
630.978	21182.92
631.332	21279.41
631.687	21139.3
632.041	21115.12
632.396	21281.22
632.75	21076.25
633.104	21075.8
633.459	20984.28
633.813	21057.27
634.167	21069.02
634.521	21033.09
634.875	21146.08
635.229	21054.33
635.583	21016.14
635.937	20950.38
636.291	20919.65
636.645	20926.2
636.999	20977.5
637.352	21010.04
637.706	20885.52
638.06	20903.83
638.413	20879.42
638.767	20827.67
639.121	20857.28
639.474	20781.8
639.828	20837.84
640.181	20850.95
640.534	20849.37
640.888	20822.02
641.241	20779.54
641.594	20761.46
641.947	20881.23
642.301	20834.68
642.654	20848.01
643.007	20690.28
643.36	20730.95
643.713	20798.97
644.066	20888.91
644.419	20720.33
644.771	20616.83
645.124	20372.32
645.477	20312.66
645.83	20293.22
646.182	20126.9
646.535	20219.55
646.888	20251.19
647.24	20187.01
647.593	20207.58
647.945	20190.63
648.298	20127.58
648.65	20057.3
649.002	20091.65
649.355	20204.86
649.707	20137.3
650.059	20282.38
650.411	20386.1
650.763	20516.72
651.115	20839.88
651.467	20741.35
651.819	20680.78
652.171	20718.3
652.523	20573.89
652.875	20608.7
653.227	20483.95
653.578	20712.65
653.93	20581.58
654.282	20493.44
654.633	20516.49
654.985	20563.5
655.337	20585.87
655.688	20629.94
656.039	20625.64
656.391	20632.42
656.742	20651.18
657.094	20579.77
657.445	20642.59
657.796	20655.7
658.147	20543.61
658.498	20671.29
658.849	20587.23
659.2	20634.01
659.551	20633.1
659.902	20676.04
660.253	20562.82
660.604	20631.97
660.955	20565.08
661.306	20756.94
661.656	20670.16
662.007	20794.45
662.358	20631.75
662.708	20656.6
663.059	20692.08
663.409	20609.6
663.76	20650.05
664.11	20722.14
664.461	20799.42
664.811	20689.37
665.161	20718.75
665.511	20754.23
665.862	20714.91
666.212	20722.82
666.562	20764.85
666.912	20725.75
667.262	20713.33
667.612	20682.14
667.962	20663.61
668.312	20663.16
668.662	20695.25
669.011	20624.29
669.361	20643.27
669.711	20688.47
670.06	20552.65
670.41	20591.07
670.76	20582.71
671.109	20681.01
671.459	20592.65
671.808	20513.1
672.157	20619.09
672.507	20521.01
672.856	20473.33
673.205	20496.16
673.554	20573.22
673.904	20498.42
674.253	20577.74
674.602	20638.98
674.951	20253.9
675.3	20185.66
675.649	20561.01
675.998	20460.45
676.346	20468.13
676.695	20522.37
677.044	20219.55
677.393	20364.63
677.741	20455.25
678.09	20362.15
678.438	20281.02
678.787	20360.57
679.135	20247.35
679.484	20279.66
679.832	20303.62
680.181	20211.64
680.529	20219.1
680.877	20118.76
681.225	20203.96
681.573	20227.01
681.922	20015.49
682.27	20050.74
682.618	19971.42
682.966	19939.56
683.314	19983.4
683.661	19998.09
684.009	19747.7
684.357	19857.75
684.705	19705.67
685.053	19720.58
685.4	19717.19
685.748	19640.36
686.095	19658.66
686.443	19534.6
686.79	19584.09
687.138	19561.04
687.485	19563.75
687.832	19490.08
688.18	19420.48
688.527	19293.48
688.874	19300.71
689.221	19270.65
689.568	19126.93
689.915	19178.68
690.262	19144.1
690.609	19141.16
690.956	19054.84
691.303	18992.92
691.65	18895.52
691.997	18870.89
692.344	18825.24
692.69	18771
693.037	18705.47
693.383	18551.57
693.73	18626.37
694.077	18538.69
694.423	18467.06
694.769	18410.79
695.116	18352.71
695.462	18425.7
695.808	18299.6
696.155	18271.58
696.501	18264.8
696.847	18152.04
697.193	18022.77
697.539	18113.85
697.885	18043.34
698.231	17918.82
698.577	17893.74
698.923	17780.97
699.269	17752.5
699.614	17648.77
699.96	17544.37
700.306	17586.63
700.651	17441.32
700.997	17379.18
701.342	17352.28
701.688	17382.57
702.033	17304.83
702.379	17251.5
702.724	17165.4
703.069	17197.49
703.415	16957.27
703.76	16983.25
704.105	17070.71
704.45	16992.75
704.795	16826.87
705.14	16829.81
705.485	16680.44
705.83	16668.91
706.175	16700.55
706.52	16682.24
706.865	16527.45
707.209	16582.13
707.554	16557.05
707.899	16550.95
708.243	16464.17
708.588	16355.47
708.932	16258.75
709.277	16355.7
709.621	16285.42
709.966	16116.16
710.31	16167.46
710.654	15989.38
710.998	16056.05
711.342	16084.07
711.687	15950.96
712.031	15890.85
712.375	15861.7
712.719	15931.76
713.063	15833.68
713.407	15963.17
713.75	15858.99
714.094	15774.92
714.438	15672.33
714.782	15651.09
715.125	15601.82
715.469	15593.69
715.812	15493.8
716.156	15482.5
716.499	15513.01
716.843	15507.81
717.186	15402.05
717.53	15535.61
717.873	15511.2
718.216	15453.12
718.559	15444.99
718.902	15235.5
719.246	15310.3
719.589	15254.94
719.932	15126.35
720.275	15301.94
720.617	15218.78
720.96	15274.37
721.303	15135.39
721.646	15237.54
721.989	15136.07
722.331	15221.27
722.674	15131.33
723.016	15070.76
723.359	15148.5
723.701	15165.22
724.044	14972.46
724.386	14965
724.729	14954.61
725.071	14979.46
725.413	14962.97
725.755	14959.58
726.097	14980.59
726.439	14917.09
726.782	14805.46
727.124	14873.03
727.465	14876.19
727.807	14907.38
728.149	14779.7
728.491	14820.15
728.833	14848.17
729.175	14791.22
729.516	14783.76
729.858	14689.3
730.199	14773.82
730.541	14733.37
730.882	14726.82
731.224	14755.29
731.565	14685.91
731.906	14691.11
732.248	14703.31
732.589	14640.26
732.93	14623.99
733.271	14701.96
733.612	14731.11
733.953	14597.78
734.294	14667.16
734.635	14625.58
734.976	14646.14
735.317	14517.33
735.658	14584.67
735.999	14566.82
736.339	14607.5
736.68	14688.17
737.021	14550.78
737.361	14497.9
737.702	14697.21
738.042	14646.14
738.383	14655.41
738.723	14674.84
739.063	14560.94
739.404	14647.27
739.744	14634.62
740.084	14570.89
740.424	14623.99
740.764	14576.31
741.104	14681.62
741.444	14635.07
741.784	14621.51
742.124	14699.47
742.464	14697.89
742.804	14633.94
743.143	14656.08
743.483	14724.33
743.823	14668.74
744.162	14673.94
744.502	14812.01
744.841	14778.11
745.181	14874.61
745.52	14887.26
745.86	14913.7
746.199	14928.62
746.538	14972.91
746.877	14960.48
747.216	15080.71
747.556	15038.22
747.895	15121.16
748.234	15180.59
748.573	15182.85
748.911	15224.2
749.25	15308.04
749.589	15390.53
749.928	15428.27
750.267	15536.51
750.605	15562.05
750.944	15588.04
751.283	15616.74
751.621	15666.68
751.96	15713
752.298	15876.16
752.636	15920.46
752.975	16022.83
753.313	16039.32
753.651	16268.7
753.989	16228.92
754.327	16266.44
754.666	16384.85
755.004	16515.02
755.342	16666.88
755.679	16725.41
756.017	16730.38
756.355	16918.4
756.693	16986.64
757.031	17095.79
757.368	17097.15
757.706	17239.97
758.044	17325.84
758.381	17433.86
758.719	17520.64
759.056	17760.63
759.394	17738.49
759.731	17673.18
