Data from hue_20_FLMS001491_70.txt Node
Date: Mon Feb 06 15:34:29 GMT 2017
User: dcchb
Spectrometer: FLMS00149
Trigger mode: 0
Integration Time (sec): 2.000000E-2
Scans to average: 10
Electric dark correction enabled: true
Nonlinearity correction enabled: false
Boxcar width: 0
XAxis mode: Wavelengths
Number of Pixels in Spectrum: 2048
>>>>>Begin Spectral Data<<<<<
341.393	-9.29
341.776	-9.29
342.16	-9.29
342.543	-56.75
342.927	-60.82
343.31	-63.53
343.693	-44.32
344.077	-68.5
344.46	-46.58
344.843	-51.55
345.226	-46.35
345.61	-35.06
345.993	-19.24
346.376	-3.87
346.759	1.78
347.142	39.97
347.525	39.29
347.908	56.92
348.291	53.76
348.674	84.72
349.057	102.57
349.44	128.33
349.823	143.02
350.206	165.62
350.588	189.12
350.971	215.79
351.354	223.69
351.737	238.61
352.119	267.54
352.502	267.31
352.884	259.4
353.267	276.8
353.65	298.04
354.032	287.42
354.414	324.93
354.797	290.81
355.179	313.18
355.562	319.74
355.944	322.22
356.326	330.13
356.709	332.62
357.091	336.23
357.473	341.43
357.855	357.25
358.238	345.5
358.62	343.92
359.002	336.23
359.384	348.21
359.766	335.78
360.148	331.71
360.53	355.67
360.912	341.21
361.294	326.06
361.676	322.68
362.057	327.87
362.439	328.32
362.821	310.02
363.203	325.16
363.584	318.38
363.966	296.91
364.348	310.02
364.729	314.99
365.111	310.02
365.493	340.98
365.874	302.56
366.256	328.1
366.637	318.61
367.019	302.79
367.4	289.23
367.781	312.05
368.163	291.72
368.544	331.04
368.925	311.83
369.306	316.57
369.688	316.8
370.069	323.81
370.45	306.86
370.831	312.05
371.212	312.96
371.593	328.32
371.974	313.86
372.355	283.58
372.736	324.93
373.117	319.51
373.498	303.92
373.879	322.22
374.26	307.31
374.641	318.38
375.021	312.73
375.402	316.8
375.783	327.87
376.163	297.82
376.544	323.58
376.925	325.84
377.305	303.24
377.686	332.84
378.066	333.52
378.447	333.07
378.827	351.6
379.208	336.69
379.588	337.36
379.968	343.47
380.349	310.25
380.729	310.7
381.109	326.74
381.489	344.37
381.87	322.45
382.25	338.72
382.63	331.94
383.01	336.01
383.39	321.55
383.77	334.65
384.15	328.32
384.53	335.56
384.91	346.86
385.29	351.15
385.67	347.76
386.049	365.16
386.429	346.86
386.809	359.06
387.189	351.6
387.568	364.48
387.948	349.79
388.328	353.18
388.707	361.54
389.087	351.37
389.466	362.67
389.846	358.83
390.225	369
390.605	355.22
390.984	340.75
391.363	361.32
391.743	350.02
392.122	373.97
392.501	347.31
392.881	379.4
393.26	364.48
393.639	376.46
394.018	360.87
394.397	373.75
394.776	365.16
395.155	369
395.534	370.36
395.913	386.63
396.292	378.72
396.671	393.18
397.05	380.07
397.429	376.01
397.808	397.48
398.186	379.85
398.565	371.71
398.944	385.95
399.323	383.92
399.701	389.79
400.08	379.62
400.458	378.72
400.837	379.4
401.215	401.09
401.594	382.56
401.972	386.85
402.351	415.1
402.729	380.53
403.107	397.48
403.486	399.74
403.864	395.89
404.242	418.04
404.62	413.07
404.999	405.38
405.377	407.19
405.755	402.45
406.133	412.16
406.511	416.23
406.889	426.18
407.267	429.79
407.645	421.43
408.023	430.47
408.401	431.82
408.779	448.32
409.156	427.31
409.534	410.81
409.912	447.87
410.29	447.42
410.667	445.84
411.045	439.73
411.422	432.05
411.8	453.07
412.178	464.37
412.555	433.86
412.933	423.46
413.31	458.04
413.687	480.19
414.065	480.41
414.442	462.56
414.819	463.91
415.197	476.34
415.574	472.05
415.951	493.52
416.328	476.8
416.705	454.2
417.082	474.54
417.46	477.47
417.837	459.17
418.214	500.07
418.591	472.28
418.967	496.68
419.344	489.22
419.721	486.06
420.098	501.88
420.475	491.71
420.852	495.55
421.228	496.68
421.605	486.96
421.982	500.75
422.358	505.95
422.735	513.18
423.111	509.11
423.488	532.61
423.864	500.07
424.241	526.96
424.617	532.16
424.994	523.8
425.37	525.38
425.746	541.43
426.123	513.18
426.499	545.49
426.875	538.71
427.251	527.19
427.627	552.95
428.003	584.82
428.379	542.78
428.756	566.28
429.132	574.19
429.507	595.66
429.883	585.27
430.259	571.71
430.635	573.06
431.011	580.07
431.387	579.84
431.763	596.34
432.138	594.53
432.514	605.61
432.89	612.16
433.265	609.67
433.641	630.92
434.016	619.62
434.392	649.9
434.767	625.49
435.143	628.43
435.518	628.43
435.894	648.09
436.269	678.6
436.644	664.81
437.02	670.24
437.395	648.54
437.77	649.22
438.145	678.15
438.52	664.36
438.895	689.45
439.271	685.15
439.646	692.61
440.021	716.34
440.395	692.16
440.77	688.09
441.145	705.26
441.52	726.28
441.895	716.56
442.27	722.21
442.645	729.67
443.019	717.47
443.394	713.17
443.769	733.06
444.143	744.58
444.518	753.17
444.892	725.38
445.267	740.97
445.641	736.22
446.016	747.97
446.39	757.92
446.764	754.08
447.139	772.15
447.513	735.77
447.887	752.04
448.262	769.67
448.636	782.78
449.01	777.58
449.384	776
449.758	791.36
450.132	780.74
450.506	799.5
450.88	800.4
451.254	798.82
451.628	802.89
452.002	820.29
452.376	832.27
452.75	827.07
453.123	818.26
453.497	841.76
453.871	859.16
454.244	836.79
454.618	852.83
454.992	865.94
455.365	870.01
455.739	865.71
456.112	901.64
456.486	903
456.859	901.87
457.232	924.24
457.606	926.73
457.979	933.96
458.352	929.89
458.725	936.22
459.099	938.03
459.472	950.68
459.845	975.77
460.218	981.41
460.591	1004.01
460.964	1010.57
461.337	1018.7
461.71	1023
462.083	1008.98
462.456	1024.35
462.829	1026.84
463.201	1037.01
463.574	1061.19
463.947	1068.42
464.32	1100.28
464.692	1084.91
465.065	1103.45
465.438	1118.81
465.81	1148.87
466.183	1135.08
466.555	1162.88
466.928	1181.64
467.3	1181.64
467.672	1180.28
468.045	1241.07
468.417	1227.74
468.789	1225.93
469.161	1237.68
469.534	1291.24
469.906	1279.26
470.278	1307.51
470.65	1297.56
471.022	1331.91
471.394	1355.19
471.766	1359.94
472.138	1408.52
472.51	1385.47
472.882	1425.02
473.253	1423.66
473.625	1421.18
473.997	1486.94
474.369	1489.88
474.74	1514.51
475.112	1527.16
475.484	1560.38
475.855	1611.23
476.227	1609.87
476.598	1636.76
476.97	1614.17
477.341	1685.8
477.713	1708.4
478.084	1729.42
478.455	1745.91
478.827	1785.91
479.198	1829.98
479.569	1871.56
479.94	1911.11
480.311	1923.54
480.682	1963.54
481.053	2015.06
481.424	2059.13
481.795	2061.61
482.166	2086.02
482.537	2119.69
482.908	2192
483.279	2186.81
483.65	2258.22
484.021	2263.64
484.391	2307.03
484.762	2357.2
485.133	2405.33
485.503	2387.48
485.874	2486.69
486.244	2537.53
486.615	2565.1
486.985	2569.85
487.356	2635.83
487.726	2613.01
488.097	2721.48
488.467	2659.11
488.837	2773.68
489.207	2811.88
489.578	2868.37
489.948	2900.91
490.318	2930.74
490.688	2965.09
491.058	3020.91
491.428	3097.52
491.798	3084.64
492.168	3142.04
492.538	3147.69
492.908	3201.02
493.278	3270.85
493.648	3254.35
494.017	3306.55
494.387	3370.28
494.757	3384.52
495.126	3423.84
495.496	3437.62
495.866	3486.21
496.235	3495.02
496.605	3548.8
496.974	3555.13
497.344	3612.31
497.713	3635.36
498.082	3689.37
498.452	3717.16
498.821	3692.76
499.19	3746.77
499.559	3781.34
499.928	3806.88
500.298	3855.92
500.667	3833.77
501.036	3857.05
501.405	3871.28
501.774	3941.79
502.143	3951.96
502.512	3942.69
502.88	4008.68
503.249	4010.26
503.618	4034.44
503.987	4042.58
504.356	4083.93
504.724	4081.9
505.093	4139.07
505.462	4141.33
505.83	4183.36
506.199	4206.19
506.567	4270.82
506.936	4248.67
507.304	4287.99
507.672	4275.79
508.041	4310.82
508.409	4346.07
508.777	4311.04
509.145	4412.29
509.514	4371.61
509.882	4406.41
510.25	4483.7
510.618	4470.59
510.986	4448.89
511.354	4516.69
511.722	4505.84
512.09	4580.42
512.458	4554.65
512.826	4608.44
513.193	4651.15
513.561	4629.23
513.929	4634.88
514.297	4696.35
514.664	4698.61
515.032	4761.43
515.4	4809.56
515.767	4796
516.135	4794.42
516.502	4750.13
516.869	4868.32
517.237	4874.42
517.604	4868.54
517.972	4845.27
518.339	4880.52
518.706	4940.18
519.073	4943.34
519.44	4963.23
519.808	5026.05
520.175	4980.86
520.542	5042.33
520.909	5075.77
521.276	5067.41
521.643	5114.64
522.009	5149.67
522.376	5164.81
522.743	5213.85
523.11	5255.65
523.477	5229.21
523.843	5277.12
524.21	5344.24
524.577	5316.89
524.943	5373.16
525.31	5391.69
525.676	5450
526.043	5477.12
526.409	5486.83
526.776	5542.88
527.142	5577.45
527.508	5556.66
527.874	5666.49
528.241	5626.72
528.607	5644.34
528.973	5754.17
529.339	5673.49
529.705	5784
530.071	5797.79
530.437	5801.4
530.803	5847.05
531.169	5917.56
531.535	5839.37
531.901	5909.65
532.267	5946.71
532.632	5974.73
532.998	5958.23
533.364	6031.23
533.73	6009.76
534.095	6094.95
534.461	6117.78
534.826	6124.56
535.192	6120.71
535.557	6179.24
535.923	6152.13
536.288	6294.72
536.653	6261.73
537.019	6213.37
537.384	6300.82
537.749	6336.75
538.114	6282.29
538.479	6353.48
538.845	6413.81
539.21	6402.29
539.575	6452.91
539.94	6468.95
540.305	6462.17
540.67	6474.38
541.034	6455.4
541.399	6544.21
541.764	6594.15
542.129	6525.45
542.494	6547.14
542.858	6661.27
543.223	6633.24
543.587	6692
543.952	6738.55
544.316	6742.17
544.681	6734.71
545.045	6792.11
545.41	6832.79
545.774	6842.5
546.138	6881.15
546.503	6957.08
546.867	6848.61
547.231	6954.82
547.595	7013.8
547.959	6955.5
548.324	7005.44
548.688	7020.35
549.052	7040.01
549.416	7100.8
549.779	7072.1
550.143	7131.31
550.507	7146.45
550.871	7186.68
551.235	7216.96
551.599	7231.87
551.962	7306.67
552.326	7313
552.689	7281.14
553.053	7252.21
553.417	7312.32
553.78	7385.09
554.143	7356.84
554.507	7457.18
554.87	7447.91
555.234	7565.65
555.597	7430.28
555.96	7532.88
556.323	7609.04
556.686	7599.32
557.05	7648.36
557.413	7612.2
557.776	7627.34
558.139	7703.5
558.502	7651.97
558.865	7697.4
559.228	7770.16
559.59	7854
559.953	7889.48
560.316	7841.12
560.679	7876.15
561.041	7908.46
561.404	7936.94
561.767	7925.87
562.129	8018.74
562.492	8026.88
562.854	8075.47
563.217	8017.61
563.579	8109.59
563.941	8102.58
564.304	8122.47
564.666	8185.29
565.028	8263.71
565.39	8236.37
565.753	8323.14
566.115	8295.57
566.477	8327.21
566.839	8283.82
567.201	8415.57
567.563	8375.57
567.925	8508.9
568.287	8468.22
568.648	8495.34
569.01	8530.14
569.372	8653.53
569.734	8623.7
570.095	8656.69
570.457	8697.37
570.819	8783.7
571.18	8757.26
571.542	8775.11
571.903	8868.67
572.265	8903.92
572.626	8889.68
572.987	8975.55
573.349	9005.16
573.71	9054.42
574.071	9036.12
574.432	9121.77
574.794	9218.03
575.155	9260.75
575.516	9164.7
575.877	9320.63
576.238	9360.18
576.599	9387.97
576.96	9532.6
577.32	9536.22
577.681	9603.56
578.042	9666.84
578.403	9750.9
578.763	9797.91
579.124	9934.63
579.485	10049.2
579.845	10150.89
580.206	10175.52
580.566	10286.71
580.927	10420.94
581.287	10508.4
581.648	10518.57
582.008	10711.78
582.368	10766.47
582.728	10971.66
583.089	11040.81
583.449	11144.31
583.809	11335.04
584.169	11488.26
584.529	11633.79
584.889	11862.94
585.249	11998.75
585.609	12050.95
585.969	12367.78
586.329	12447.33
586.688	12588.34
587.048	12863.36
587.408	12977.03
587.768	13183.13
588.127	13429.9
588.487	13637.58
588.846	13941.3
589.206	14072.82
589.565	14200.05
589.925	14487.73
590.284	14719.81
590.643	14909.86
591.003	15271.21
591.362	15545.1
591.721	15789.61
592.08	15951.87
592.44	16253.33
592.799	16435.47
593.158	16809.47
593.517	16972.41
593.876	17273.42
594.235	17528.55
594.593	17842.44
594.952	18117.46
595.311	18285.37
595.67	18667.28
596.029	19042.63
596.387	19296.19
596.746	19552.45
597.104	19811.43
597.463	20114.7
597.822	20560.56
598.18	20633.55
598.538	20911.06
598.897	21251.39
599.255	21459.07
599.613	22010.69
599.972	22195.32
600.33	22527.52
600.688	22583.11
601.046	23118.91
601.404	23348.28
601.762	23543.99
602.12	23875.28
602.478	24252.67
602.836	24382.16
603.194	24565.2
603.552	24895.36
603.91	25103.72
604.268	25400.43
604.625	25586.64
604.983	25997.25
605.341	26087.65
605.698	26531.25
606.056	26713.62
606.413	27017.79
606.771	27286.03
607.128	27599.25
607.485	27519.93
607.843	27942.74
608.2	28314.48
608.557	28567.81
608.914	28754.47
609.272	29048.02
609.629	29210.28
609.986	29542.25
610.343	29670.83
610.7	29939.52
611.057	30102.68
611.414	30325.28
611.771	30560.98
612.127	30817.47
612.484	31037.35
612.841	31192.6
613.198	31301.3
613.554	31412.25
613.911	31776.99
614.267	31932.01
614.624	31982.63
614.98	32165.45
615.337	32522.28
615.693	32544.88
616.05	32657.19
616.406	32927.92
616.762	32966.11
617.118	33250.85
617.475	33384.4
617.831	33550.5
618.187	33752.98
618.543	33959.3
618.899	34239.75
619.255	34296.25
619.611	34371.72
619.967	34542.79
620.323	34748.89
620.678	34674.77
621.034	34697.36
621.39	34935.1
621.746	34956.57
622.101	35405.14
622.457	35240.85
622.812	35280.85
623.168	35481.3
623.523	35663.89
623.879	35787.73
624.234	35619.83
624.589	35947.28
624.945	36055.07
625.3	36180.49
625.655	36091.45
626.01	36314.27
626.365	36393.37
626.72	36347.72
627.075	36394.27
627.43	36551.78
627.785	36441.05
628.14	36704.54
628.495	36739.34
628.85	36678.56
629.205	36686.69
629.559	36940.47
629.914	36784.77
630.269	36911.54
630.623	36814.82
630.978	36842.39
631.332	36954.71
631.687	37096.85
632.041	36993.8
632.396	37106.57
632.75	36982.05
633.104	37093.23
633.459	36978.21
633.813	37037.64
634.167	37049.17
634.521	37086.68
634.875	37319.44
635.229	37129.84
635.583	37007.36
635.937	37062.5
636.291	37005.78
636.645	37101.82
636.999	37010.98
637.352	37268.82
637.706	37012.11
638.06	37247.81
638.413	37135.49
638.767	37030.41
639.121	37212.1
639.474	36919
639.828	37018.89
640.181	36960.13
640.534	36970.07
640.888	36902.28
641.241	36853.47
641.594	36925.33
641.947	37114.93
642.301	37002.61
642.654	36965.78
643.007	37087.36
643.36	37087.81
643.713	36979.34
644.066	37045.33
644.419	36874.71
644.771	36635.17
645.124	36381.16
645.477	36381.39
645.83	36192.24
646.182	36016.43
646.535	35857.11
646.888	36025.47
647.24	35799.48
647.593	36004.9
647.945	35944.79
648.298	35875.41
648.65	35764.23
649.002	35673.84
649.355	35980.72
649.707	35870.67
650.059	35903.89
650.411	36220.49
650.763	36447.6
651.115	36641.72
651.467	36603.98
651.819	36623.87
652.171	36596.52
652.523	36582.51
652.875	36561.72
653.227	36437.88
653.578	36731.89
653.93	36641.49
654.282	36338.68
654.633	36354.5
654.985	36482.4
655.337	36434.49
655.688	36559.91
656.039	36650.99
656.391	36435.62
656.742	36310.43
657.094	36154.28
657.445	36372.8
657.796	36341.39
658.147	36274.27
658.498	36327.6
658.849	36553.59
659.2	36316.76
659.551	36199.47
659.902	36438.11
660.253	36279.7
660.604	36343.87
660.955	36240.6
661.306	36300.03
661.656	36148.17
662.007	36194.73
662.358	36242.86
662.708	36253.71
663.059	36175.52
663.409	36076.76
663.76	36395.62
664.11	36323.08
664.461	36276.76
664.811	36337.77
665.161	36323.76
665.511	36183.43
665.862	36260.26
666.212	36281.73
666.562	36346.13
666.912	36139.36
667.262	36190.66
667.612	36081.73
667.962	36192.24
668.312	36106.59
668.662	36268.17
669.011	36107.72
669.361	36130.32
669.711	35986.37
670.06	36076.31
670.41	35876.99
670.76	36115.18
671.109	36208.29
671.459	36066.59
671.808	35975.07
672.157	36139.59
672.507	35783.21
672.856	35865.7
673.205	36027.5
673.554	35984.56
673.904	35776.88
674.253	36012.81
674.602	35934.39
674.951	35397.91
675.3	35237.69
675.649	35836.54
675.998	35837.45
676.346	35848.07
676.695	35822.08
677.044	35581.86
677.393	35791.12
677.741	35778.01
678.09	35612.14
678.438	35548.19
678.787	35627.74
679.135	35631.58
679.484	35543.67
679.832	35488.53
680.181	35300.96
680.529	35429.32
680.877	35290.12
681.225	35305.26
681.573	35474.29
681.922	35331.47
682.27	35304.13
682.618	35260.06
682.966	35096.68
683.314	35217.12
683.661	35026.4
684.009	34891.26
684.357	34796.12
684.705	34951.37
685.053	34915.44
685.4	34823.91
685.748	34666.86
686.095	34597.48
686.443	34552.28
686.79	34529.01
687.138	34520.42
687.485	34476.58
687.832	34504.83
688.18	34345.06
688.527	34195.91
688.874	34149.58
689.221	34092.63
689.568	34065.52
689.915	33850.38
690.262	33992.98
690.609	33894.67
690.956	33762.25
691.303	33701.91
691.65	33760.44
691.997	33511.41
692.344	33377.4
692.69	33406.55
693.037	33338.3
693.383	33047.69
693.73	33207.23
694.077	33031.19
694.423	33082.27
694.769	32841.59
695.116	32840.69
695.462	32841.14
695.808	32713.01
696.155	32761.37
696.501	32500.59
696.847	32599.34
697.193	32259.01
697.539	32418.33
697.885	32106.7
698.231	32067.6
698.577	32107.38
698.923	31943.76
699.269	31826.71
699.614	31783.77
699.96	31686.14
700.306	31833.94
700.651	31650.89
700.997	31551.68
701.342	31462.87
701.688	31448.64
702.033	31310.33
702.379	31333.16
702.724	31108.31
703.069	31265.59
703.415	30960.06
703.76	30946.05
704.105	31042.77
704.45	30885.94
704.795	30682.55
705.14	30629
705.485	30536.34
705.83	30497.25
706.175	30605.04
706.52	30470.58
706.865	30362.79
707.209	30197.37
707.554	30073.53
707.899	30096.58
708.243	30051.38
708.588	29941.78
708.932	29806.87
709.277	29730.72
709.621	29692.52
709.966	29532.98
710.31	29662.69
710.654	29365.75
710.998	29343.38
711.342	29437.62
711.687	29357.62
712.031	29214.8
712.375	29225.19
712.719	29299.54
713.063	29155.36
713.407	29209.83
713.75	28960.79
714.094	28946.56
714.438	28827.69
714.782	28933.22
715.125	28754.92
715.469	28831.53
715.812	28651.2
716.156	28507.7
716.499	28523.29
716.843	28517.19
717.186	28383.41
717.53	28676.51
717.873	28545.66
718.216	28458.66
718.559	28372.11
718.902	28179.34
719.246	28240.81
719.589	28127.14
719.932	27916.3
720.275	27964.43
720.617	27956.75
720.96	27815.06
721.303	27916.07
721.646	27908.16
721.989	27695.51
722.331	27706.14
722.674	27790.2
723.016	27803.99
723.359	27616.65
723.701	27730.54
724.044	27499.59
724.386	27344.79
724.729	27599.92
725.071	27369.42
725.413	27500.49
725.755	27422.53
726.097	27322.64
726.439	27071.8
726.782	27111.35
727.124	27244.68
727.465	27064.34
727.807	27081.75
728.149	26975.31
728.491	27011.01
728.833	27001.52
729.175	26826.84
729.516	26811.47
729.858	26745.48
730.199	26818.48
730.541	26715.88
730.882	26639.05
731.224	26850.11
731.565	26497.81
731.906	26538.03
732.248	26620.06
732.589	26508.88
732.93	26387.07
733.271	26525.38
733.612	26414.19
733.953	26438.6
734.294	26226.63
734.635	26266.4
734.976	26315.66
735.317	26124.93
735.658	26169.91
735.999	26160.41
736.339	26118.61
736.68	26158.83
737.021	25962.23
737.361	25989.34
737.702	26114.54
738.042	25933.75
738.383	25907.09
738.723	25888.33
739.063	25820.31
739.404	25907.54
739.744	25726.53
740.084	25734.89
740.424	25626.64
740.764	25513.88
741.104	25691.5
741.444	25598.17
741.784	25430.04
742.124	25664.61
742.464	25577.38
742.804	25409.25
743.143	25324.96
743.483	25371.51
743.823	25345.52
744.162	25336.25
744.502	25372.86
744.841	25250.16
745.181	25284.96
745.52	25150.27
745.86	25309.36
746.199	25239.99
746.538	25153.89
746.877	25254.67
747.216	25043.61
747.556	24981.69
747.895	25028.47
748.234	24940.33
748.573	24890.84
748.911	24917.06
749.25	24822.82
749.589	24672.77
749.928	24796.83
750.267	24773.78
750.605	24635.71
750.944	24760
751.283	24600.23
751.621	24638.65
751.96	24442.49
752.298	24544.19
752.636	24418.31
752.975	24304.87
753.313	24252.67
753.651	24495.15
753.989	24195.27
754.327	24139.68
754.666	24090.19
755.004	24141.94
755.342	24103.74
755.679	24091.54
756.017	24063.75
756.355	24093.35
756.693	23947.59
757.031	23899.91
757.368	23769.97
757.706	23749.4
758.044	23736.52
758.381	23735.39
758.719	23568.39
759.056	23714.15
759.394	23552.8
759.731	23435.97
760.068	23439.36
760.405	23332.69
760.743	23249.76
