Data from hue_270_FLMS001491_00008.txt Node
Date: Tue Feb 07 15:56:42 GMT 2017
User: dcchb
Spectrometer: FLMS00149
Trigger mode: 0
Integration Time (sec): 2.000000E-2
Scans to average: 10
Electric dark correction enabled: true
Nonlinearity correction enabled: false
Boxcar width: 0
XAxis mode: Wavelengths
Number of Pixels in Spectrum: 2048
>>>>>Begin Spectral Data<<<<<
341.393	0.18
341.776	0.18
342.16	0.18
342.543	-59.25
342.927	-60.38
343.31	-54.28
343.693	-54.28
344.077	-60.83
344.46	-70.77
344.843	-33.26
345.226	-49.53
345.61	-41.17
345.993	-10.44
346.376	-9.99
346.759	-11.34
347.142	36.11
347.525	58.71
347.908	41.31
348.291	70.24
348.674	79.05
349.057	110.46
349.44	142.78
349.823	137.58
350.206	178.94
350.588	180.52
350.971	201.99
351.354	219.61
351.737	228.43
352.119	248.31
352.502	248.31
352.884	267.52
353.267	269.78
353.65	279.95
354.032	279.27
354.414	307.29
354.797	311.81
355.179	326.95
355.562	314.75
355.944	330.57
356.326	327.18
356.709	335.32
357.091	326.5
357.473	320.63
357.855	341.19
358.238	339.84
358.62	332.15
359.002	305.94
359.384	347.07
359.766	326.5
360.148	317.92
360.53	347.07
360.912	340.74
361.294	334.86
361.676	329.89
362.057	321.98
362.439	324.69
362.821	335.99
363.203	328.08
363.584	334.86
363.966	322.21
364.348	330.34
364.729	314.07
365.111	313.17
365.493	299.84
365.874	307.75
366.256	299.38
366.637	309.55
367.019	292.83
367.4	322.44
367.781	317.46
368.163	298.71
368.544	305.49
368.925	308.42
369.306	315.88
369.688	325.82
370.069	306.16
370.45	302.32
370.831	317.69
371.212	291.48
371.593	305.49
371.974	291.48
372.355	301.87
372.736	319.72
373.117	313.4
373.498	328.76
373.879	304.13
374.26	316.11
374.641	307.29
375.021	316.33
375.402	321.98
375.783	321.98
376.163	319.95
376.544	327.86
376.925	330.34
377.305	323.79
377.686	324.24
378.066	326.05
378.447	339.61
378.827	309.33
379.208	330.12
379.588	305.94
379.968	330.12
380.349	312.04
380.729	328.76
381.109	337.12
381.489	338.03
381.87	312.27
382.25	345.26
382.63	351.81
383.01	340.74
383.39	350
383.77	349.55
384.15	337.58
384.53	359.04
384.91	352.26
385.29	333.06
385.67	345.71
386.049	335.99
386.429	359.27
386.809	357.69
387.189	348.65
387.568	350
387.948	345.71
388.328	350.91
388.707	350.46
389.087	367.41
389.466	369.67
389.846	363.79
390.225	374.64
390.605	371.7
390.984	385.03
391.363	375.77
391.743	380.51
392.122	387.97
392.501	391.59
392.881	354.07
393.26	378.03
393.639	379.38
394.018	377.35
394.397	383.9
394.776	380.74
395.155	392.72
395.534	385.26
395.913	397.24
396.292	413.96
396.671	378.03
397.05	378.93
397.429	411.47
397.808	396.78
398.186	402.21
398.565	388.87
398.944	413.96
399.323	430
399.701	421.19
400.08	415.77
400.458	415.77
400.837	421.87
401.215	426.16
401.594	418.7
401.972	422.77
402.351	417.12
402.729	415.09
403.107	409.21
403.486	444.01
403.864	437.23
404.242	438.36
404.62	460.74
404.999	464.35
405.377	437.91
405.755	449.66
406.133	453.28
406.511	466.39
406.889	482.43
407.267	470.23
407.645	507.51
408.023	481.3
408.401	477.46
408.779	480.4
409.156	503.45
409.534	512.71
409.912	506.16
410.29	522.2
410.667	510
411.045	526.72
411.422	545.71
411.8	550
412.178	550.68
412.555	553.16
412.933	549.32
413.31	564.24
413.687	571.47
414.065	563.56
414.442	593.84
414.819	589.55
415.197	572.15
415.574	624.57
415.951	600.85
416.328	595.2
416.705	621.64
417.082	622.54
417.46	632.48
417.837	656.89
418.214	617.57
418.591	641.3
418.967	659.6
419.344	655.76
419.721	669.54
420.098	635.87
420.475	673.61
420.852	689.66
421.228	705.48
421.605	703.89
421.982	706.38
422.358	725.36
422.735	746.6
423.111	741.41
423.488	772.59
423.864	764.91
424.241	759.49
424.617	787.06
424.994	786.83
425.37	801.52
425.746	815.76
426.123	829.09
426.499	844.46
426.875	862.31
427.251	857.11
427.627	874.51
428.003	879.48
428.379	887.62
428.756	893.49
429.132	917.9
429.507	940.72
429.883	936.2
430.259	941.18
430.635	970.55
431.011	923.78
431.387	958.12
431.763	1000.16
432.138	1034.96
432.514	1007.61
432.89	1027.05
433.265	1052.59
433.641	1065.92
434.016	1058.01
434.392	1083.32
434.767	1086.26
435.143	1113.83
435.518	1104.79
435.894	1129.87
436.269	1161.73
436.644	1169.64
437.02	1191.56
437.395	1185.69
437.77	1225.24
438.145	1247.38
438.52	1253.26
438.895	1264.78
439.271	1307.04
439.646	1324.22
440.021	1330.09
440.395	1337.55
440.77	1335.52
441.145	1338.68
441.52	1366.48
441.895	1376.42
442.27	1402.86
442.645	1404.44
443.019	1417.1
443.394	1401.5
443.769	1453.48
444.143	1439.02
444.518	1470.88
444.892	1452.57
445.267	1472.91
445.641	1489.86
446.016	1499.81
446.39	1495.51
446.764	1528.51
447.139	1518.11
447.513	1501.16
447.887	1547.71
448.262	1534.38
448.636	1558.79
449.01	1588.84
449.384	1589.29
449.758	1584.32
450.132	1588.16
450.506	1623.64
450.88	1632.68
451.254	1622.74
451.628	1652.57
452.002	1687.14
452.376	1650.54
452.75	1672.23
453.123	1697.77
453.497	1706.81
453.871	1730.76
454.244	1770.31
454.618	1747.03
454.992	1816.86
455.365	1796.97
455.739	1828.61
456.112	1815.5
456.486	1823.86
456.859	1857.08
457.232	1921.49
457.606	1906.8
457.979	1927.59
458.352	1937.08
458.725	1978.44
459.099	1967.59
459.472	2007.59
459.845	2012.79
460.218	2016.18
460.591	2059.56
460.964	2033.8
461.337	2109.28
461.71	2107.02
462.083	2170.3
462.456	2196.96
462.829	2154.7
463.201	2208.71
463.574	2202.61
463.947	2226.34
464.32	2292.1
464.692	2290.52
465.065	2306.56
465.438	2302.72
465.81	2348.82
466.183	2377.52
466.555	2440.57
466.928	2426.11
467.3	2401.25
467.672	2456.16
468.045	2498.65
468.417	2532.32
468.789	2513.56
469.161	2548.14
469.534	2577.29
469.906	2612.54
470.278	2622.94
470.65	2649.61
471.022	2684.63
471.394	2739.09
471.766	2743.39
472.138	2801.24
472.51	2836.95
472.882	2853.22
473.253	2881.69
473.625	2954.46
473.997	2929.37
474.369	2965.53
474.74	3011.18
475.112	3118.75
475.484	3128.01
475.855	3158.74
476.227	3178.63
476.598	3244.39
476.97	3277.39
477.341	3306.09
477.713	3360.77
478.084	3389.02
478.455	3466.53
478.827	3481.22
479.198	3543.82
479.569	3543.59
479.94	3613.42
480.311	3659.75
480.682	3730.93
481.053	3785.85
481.424	3828.33
481.795	3814.32
482.166	3873.75
482.537	3937.48
482.908	4011.15
483.279	4078.72
483.65	4057.7
484.021	4183.8
484.391	4224.48
484.762	4243.01
485.133	4270.13
485.503	4279.85
485.874	4348.77
486.244	4425.38
486.615	4503.57
486.985	4474.87
487.356	4625.37
487.726	4601.87
488.097	4654.75
488.467	4692.26
488.837	4778.14
489.207	4822.43
489.578	4862.88
489.948	4871.69
490.318	4915.53
490.688	4934.52
491.058	5046.15
491.428	5053.38
491.798	5135.42
492.168	5201.4
492.538	5212.48
492.908	5244.79
493.278	5336.54
493.648	5300.61
494.017	5362.75
494.387	5375.18
494.757	5471.23
495.126	5471.23
495.496	5507.16
495.866	5519.36
496.235	5540.38
496.605	5637.55
496.974	5653.82
497.344	5693.59
497.713	5659.02
498.082	5690.43
498.452	5775.4
498.821	5791.9
499.19	5763.65
499.559	5851.78
499.928	5873.25
500.298	5903.08
500.667	5929.07
501.036	5896.07
501.405	5985.11
501.774	5981.04
502.143	5988.27
502.512	6057.65
502.88	6065.33
503.249	6089.06
503.618	6101.27
503.987	6119.57
504.356	6129.74
504.724	6159.34
505.093	6172.9
505.462	6232.34
505.83	6242.05
506.199	6198.89
506.567	6349.4
506.936	6285.67
507.304	6361.6
507.672	6349.4
508.041	6395.95
508.409	6364.08
508.777	6389.17
509.145	6441.37
509.514	6508.26
509.882	6554.14
510.25	6461.03
510.618	6519.56
510.986	6519.11
511.354	6565.89
511.722	6628.94
512.09	6602.95
512.458	6583.06
512.826	6618.54
513.193	6661.7
513.561	6623.74
513.929	6737.63
514.297	6801.59
514.664	6768.37
515.032	6761.36
515.4	6827.12
515.767	6811.3
516.135	6818.99
516.502	6762.27
516.869	6856.05
517.237	6879.78
517.604	6812.21
517.972	6884.52
518.339	6921.81
518.706	6942.37
519.073	6887.46
519.44	6924.3
519.808	6986.67
520.175	6940.79
520.542	7024.63
520.909	6986.67
521.276	7052.65
521.643	7149.83
522.009	7154.57
522.376	7125.65
522.743	7168.81
523.11	7171.29
523.477	7220.56
523.843	7266.43
524.21	7313.66
524.577	7290.16
524.943	7352.76
525.31	7374.68
525.676	7453.77
526.043	7404.28
526.409	7476.6
526.776	7496.03
527.142	7513.88
527.508	7564.5
527.874	7524.96
528.241	7518.18
528.607	7568.35
528.973	7597.27
529.339	7638.63
529.705	7675.91
530.071	7636.82
530.437	7686.99
530.803	7699.42
531.169	7780.77
531.535	7726.08
531.901	7707.1
532.267	7749.13
532.632	7795.68
532.998	7789.36
533.364	7844.5
533.73	7841.79
534.095	7860.77
534.461	7882.24
534.826	7874.1
535.192	7877.72
535.557	7897.15
535.923	7935.79
536.288	7908.9
536.653	7999.75
537.019	7975.12
537.384	7997.49
537.749	8034.77
538.114	7994.32
538.479	8013.53
538.845	8023.48
539.21	7949.58
539.575	8062.57
539.94	7988.22
540.305	8069.12
540.67	8017.6
541.034	8090.82
541.399	8133.76
541.764	8061.89
542.129	8122
542.494	8156.58
542.858	8157.48
543.223	8087.88
543.587	8156.81
543.952	8135.34
544.316	8159.07
544.681	8232.28
545.045	8146.41
545.41	8184.83
545.774	8209.91
546.138	8185.51
546.503	8230.7
546.867	8186.18
547.231	8296.46
547.595	8261.44
547.959	8318.61
548.324	8248.78
548.688	8257.82
549.052	8329.46
549.416	8326.74
549.779	8265.73
550.143	8287.88
550.507	8327.87
550.871	8331.94
551.235	8373.07
551.599	8364.03
551.962	8420.3
552.326	8372.17
552.689	8494.42
553.053	8380.75
553.417	8432.05
553.78	8459.85
554.143	8505.5
554.507	8509.56
554.87	8509.56
555.234	8607.64
555.597	8458.27
555.96	8587.08
556.323	8581.88
556.686	8633.18
557.05	8599.73
557.413	8654.19
557.776	8639.28
558.139	8659.39
558.502	8671.37
558.865	8640.18
559.228	8791.14
559.59	8738.03
559.953	8731.48
560.316	8858.26
560.679	8855.32
561.041	8863
561.404	8912.27
561.767	8969.21
562.129	8896.67
562.492	8992.72
562.854	8977.12
563.217	8912.94
563.579	9012.6
563.941	9080.85
564.304	9069.78
564.666	9078.36
565.028	9125.82
565.39	9209.88
565.753	9161.75
566.115	9263.22
566.477	9219.38
566.839	9239.71
567.201	9320.84
567.563	9305.48
567.925	9381.63
568.287	9492.14
568.648	9366.49
569.01	9437.22
569.372	9484.45
569.734	9505.02
570.095	9577.56
570.457	9597.22
570.819	9576.2
571.18	9612.59
571.542	9695.3
571.903	9700.95
572.265	9728.74
572.626	9710.44
572.987	9747.5
573.349	9829.08
573.71	9808.06
574.071	9803.32
574.432	9894.61
574.794	10016.87
575.155	9955.4
575.516	9951.79
575.877	9970.99
576.238	10068.17
576.599	10043.76
576.96	10094.83
577.32	10137.77
577.681	10135.74
578.042	10242.4
578.403	10208.5
578.763	10264.55
579.124	10249.18
579.485	10342.06
579.845	10368.27
580.206	10330.76
580.566	10363.53
580.927	10388.61
581.287	10462.73
581.648	10424.77
582.008	10490.08
582.368	10477.65
582.728	10570.75
583.089	10560.13
583.449	10599.45
583.809	10611.2
584.169	10693.46
584.529	10664.54
584.889	10723.07
585.249	10664.76
585.609	10715.16
585.969	10776.62
586.329	10765.78
586.688	10742.95
587.048	10833.8
587.408	10820.01
587.768	10904.53
588.127	10914.47
588.487	10901.37
588.846	10944.98
589.206	10935.94
589.565	10912.21
589.925	10963.74
590.284	10994.24
590.643	11009.61
591.003	11122.6
591.362	11125.99
591.721	11123.73
592.08	11103.17
592.44	11190.85
592.799	11222.71
593.158	11187.91
593.517	11124.41
593.876	11262.03
594.235	11243.5
594.593	11234.46
594.952	11307.68
595.311	11346.33
595.67	11289.15
596.029	11422.03
596.387	11433.56
596.746	11397.17
597.104	11384.52
597.463	11411.86
597.822	11417.51
598.18	11420.9
598.538	11460
598.897	11521.91
599.255	11404.86
599.613	11576.6
599.972	11480.56
600.33	11549.03
600.688	11550.16
601.046	11613.66
601.404	11627.45
601.762	11576.38
602.12	11599.88
602.478	11608.24
602.836	11589.94
603.194	11583.83
603.552	11658.18
603.91	11664.96
604.268	11648.24
604.625	11643.27
604.983	11684.85
605.341	11551.97
605.698	11669.93
606.056	11755.13
606.413	11714
606.771	11704.28
607.128	11716.71
607.485	11735.92
607.843	11710.38
608.2	11782.92
608.557	11812.53
608.914	11779.99
609.272	11826.09
609.629	11850.72
609.986	11959.87
610.343	11826.09
610.7	11891.85
611.057	11982.02
611.414	11898.4
611.771	11978.17
612.127	11904.28
612.484	11935.69
612.841	11946.54
613.198	11957.84
613.554	12039.19
613.911	12046.19
614.267	12018.62
614.624	11985.41
614.98	12008
615.337	12044.84
615.693	12081
616.05	12043.93
616.406	12120.32
616.762	12097.94
617.118	12128.9
617.475	12057.95
617.831	12087.1
618.187	12111.5
618.543	12063.14
618.899	12159.41
619.255	12188.34
619.611	12170.71
619.967	12297.26
620.323	12211.16
620.678	12190.6
621.034	12231.95
621.39	12176.13
621.746	12149.24
622.101	12342.23
622.457	12227.21
622.812	12273.99
623.168	12252.06
623.523	12274.89
623.879	12311.05
624.234	12236.7
624.589	12251.39
624.945	12196.93
625.3	12298.62
625.655	12148.56
626.01	12285.74
626.365	12182.24
626.72	12193.76
627.075	12152.18
627.43	12193.31
627.785	12165.29
628.14	12261.33
628.495	12168
628.85	12181.33
629.205	12124.84
629.559	12214.78
629.914	12193.31
630.269	12158.06
630.623	12108.79
630.978	12166.42
631.332	12155.57
631.687	12162.58
632.041	12056.36
632.396	12112.41
632.75	12029.02
633.104	12070.37
633.459	12077.38
633.813	12020.43
634.167	11956.25
634.521	12016.59
634.875	12008.23
635.229	12014.56
635.583	11911.28
635.937	11993.31
636.291	11868.35
636.645	11939.08
636.999	11866.09
637.352	11879.87
637.706	11867.22
638.06	11885.29
638.413	11813.88
638.767	11786.77
639.121	11879.42
639.474	11761.23
639.828	11708.58
640.181	11694.11
640.534	11735.24
640.888	11801.91
641.241	11699.09
641.594	11658.63
641.947	11688.69
642.301	11669.26
642.654	11668.13
643.007	11777.5
643.36	11685.75
643.713	11651.4
644.066	11660.67
644.419	11568.47
644.771	11573.44
645.124	11484.85
645.477	11409.6
645.83	11392.65
646.182	11285.76
646.535	11288.93
646.888	11317.85
647.24	11246.22
647.593	11283.95
647.945	11195.37
648.298	11299.1
648.65	11151.3
649.002	11141.59
649.355	11281.02
649.707	11253.9
650.059	11279.44
650.411	11451.63
650.763	11481.69
651.115	11554.46
651.467	11464.29
651.819	11498.41
652.171	11519.2
652.523	11432.88
652.875	11481.01
653.227	11400.34
653.578	11562.37
653.93	11477.17
654.282	11432.65
654.633	11449.6
654.985	11438.3
655.337	11503.16
655.688	11478.3
656.039	11601.23
656.391	11383.16
656.742	11435.36
657.094	11328.25
657.445	11364.86
657.796	11428.58
658.147	11380
658.498	11452.54
658.849	11429.71
659.2	11411.86
659.551	11325.08
659.902	11442.59
660.253	11372.77
660.604	11452.76
660.955	11371.18
661.306	11429.26
661.656	11485.76
662.007	11460
662.358	11422.93
662.708	11417.28
663.059	11389.71
663.409	11295.48
663.76	11436.04
664.11	11443.72
664.461	11488.24
664.811	11408.7
665.161	11444.63
665.511	11465.19
665.862	11427.45
666.212	11399.66
666.562	11413.44
666.912	11467.23
667.262	11459.77
667.612	11417.06
667.962	11498.41
668.312	11474.46
668.662	11463.84
669.011	11494.57
669.361	11473.33
669.711	11425.19
670.06	11407.79
670.41	11390.84
670.76	11342.94
671.109	11356.27
671.459	11386.78
671.808	11354.24
672.157	11416.15
672.507	11275.14
672.856	11378.42
673.205	11306.55
673.554	11337.51
673.904	11276.5
674.253	11357.85
674.602	11281.24
674.951	11203.96
675.3	11132.09
675.649	11239.66
675.998	11274.24
676.346	11255.25
676.695	11255.71
677.044	11233.56
677.393	11233.56
677.741	11235.59
678.09	11123.73
678.438	11128.93
678.787	11196.27
679.135	11122.15
679.484	11045.32
679.832	11084.41
680.181	11073.34
680.529	11028.82
680.877	11009.84
681.225	11038.54
681.573	11052.77
681.922	10975.04
682.27	10958.77
682.618	10965.55
682.966	10982.72
683.314	10929.16
683.661	10943.4
684.009	10970.52
684.357	10855.72
684.705	10827.92
685.053	10855.04
685.4	10851.65
685.748	10811.2
686.095	10826.79
686.443	10704.99
686.79	10752.67
687.138	10639.9
687.485	10662.73
687.832	10617.76
688.18	10602.16
688.527	10551.32
688.874	10559
689.221	10557.19
689.568	10542.73
689.915	10476.52
690.262	10469.51
690.609	10446.01
690.956	10418.21
691.303	10387.26
691.65	10279.69
691.997	10360.36
692.344	10268.16
692.69	10228.84
693.037	10169.86
693.383	10116.08
693.73	10090.99
694.077	10161.05
694.423	10122.63
694.769	10000.6
695.116	9980.26
695.462	9961.28
695.808	9947.27
696.155	10022.29
696.501	9912.24
696.847	9888.51
697.193	9789.3
697.539	9807.16
697.885	9724.22
698.231	9705.24
698.577	9709.31
698.923	9714.73
699.269	9609.87
699.614	9620.72
699.96	9501.18
700.306	9549.09
700.651	9576.65
700.997	9519.71
701.342	9480.61
701.688	9508.86
702.033	9443.33
702.379	9430.9
702.724	9313.39
703.069	9412.82
703.415	9221.64
703.76	9214.4
704.105	9300.96
704.45	9226.61
704.795	9174.41
705.14	9154.97
705.485	9059.15
705.83	9060.74
706.175	9093.05
706.52	9011.92
706.865	9084.24
707.209	8983.9
707.554	8924.02
707.899	9016.67
708.243	8950.68
708.588	8895.77
708.932	8819.61
709.277	8822.55
709.621	8853.28
709.966	8743.46
710.31	8822.32
710.654	8722.89
710.998	8719.5
711.342	8724.02
711.687	8688.99
712.031	8672.95
712.375	8618.94
712.719	8653.97
713.063	8587.75
713.407	8618.04
713.75	8575.78
714.094	8573.29
714.438	8538.26
714.782	8486.51
715.125	8521.32
715.469	8522.67
715.812	8424.14
716.156	8408.78
716.499	8482.22
716.843	8421.88
717.186	8420.75
717.53	8453.07
717.873	8387.08
718.216	8458.94
718.559	8391.38
718.902	8289.91
719.246	8385.95
719.589	8301.43
719.932	8383.92
720.275	8345.05
720.617	8317.93
720.96	8300.98
721.303	8365.61
721.646	8267.99
721.989	8232.96
722.331	8270.47
722.674	8230.93
723.016	8206.75
723.359	8211.49
723.701	8239.97
724.044	8171.49
724.386	8153.64
724.729	8185.51
725.071	8199.97
725.413	8151.38
725.755	8143.47
726.097	8194.09
726.439	8105.28
726.782	8120.42
727.124	8144.15
727.465	8103.93
727.807	8087.43
728.149	8068.9
728.491	8072.06
728.833	8065.28
729.175	8034.55
729.516	8015.11
729.858	8054.89
730.199	8046.98
730.541	8010.37
730.882	8035
731.224	8017.15
731.565	7974.21
731.906	7990.48
732.248	7974.44
732.589	7946.64
732.93	7953.42
733.271	7984.15
733.612	8019.41
733.953	7959.3
734.294	7973.31
734.635	7884.95
734.976	7995
735.317	7947.09
735.658	7964.95
735.999	7969.01
736.339	7986.87
736.68	8005.4
737.021	7957.94
737.361	7995.45
737.702	7951.84
738.042	7957.71
738.383	7919.52
738.723	8001.33
739.063	7965.62
739.404	8009.69
739.744	7965.85
740.084	7931.73
740.424	7957.04
740.764	8030.48
741.104	8032.06
741.444	7997.26
741.784	7974.21
742.124	8016.02
742.464	8007.2
742.804	7995.91
743.143	8047.43
743.483	8070.71
743.823	8040.2
744.162	8038.16
744.502	8119.97
744.841	8098.5
745.181	8147.09
745.52	8173.3
745.86	8184.38
746.199	8180.08
746.538	8270.02
746.877	8288.55
747.216	8359.96
747.556	8359.74
747.895	8364.48
748.234	8416.69
748.573	8475.44
748.911	8516.57
749.25	8525.84
749.589	8528.09
749.928	8687.86
750.267	8746.17
750.605	8750.46
750.944	8780.74
751.283	8840.18
751.621	8970.12
751.96	8921.08
752.298	9033.17
752.636	9179.15
752.975	9213.95
753.313	9267.74
753.651	9424.57
753.989	9494.17
754.327	9493.95
754.666	9529.88
755.004	9702.75
755.342	9780.27
755.679	9926.02
756.017	9987.72
756.355	10208.5
756.693	10202.18
757.031	10407.37
757.368	10472.68
757.706	10626.12
758.044	10725.33
758.381	10855.27
758.719	10974.81
759.056	11180.45
759.394	11240.34
759.731	11373.44
760.068	11553.55
760.405	11646.43
760.743	11782.47
761.08	11943.82
761.417	11982.69
761.754	12258.17
762.091	12307.66
762.428	12454.32
762.765	12630.13
