Data from hue_290_FLMS001491_00023.txt Node
Date: Tue Feb 07 15:52:31 GMT 2017
User: dcchb
Spectrometer: FLMS00149
Trigger mode: 0
Integration Time (sec): 2.000000E-2
Scans to average: 10
Electric dark correction enabled: true
Nonlinearity correction enabled: false
Boxcar width: 0
XAxis mode: Wavelengths
Number of Pixels in Spectrum: 2048
>>>>>Begin Spectral Data<<<<<
341.393	-13.8
341.776	-13.8
342.16	-13.8
342.543	-47.47
342.927	-52.89
343.31	-68.71
343.693	-75.04
344.077	-66.91
344.46	-67.36
344.843	-28.94
345.226	-29.39
345.61	-28.71
345.993	-6.57
346.376	-16.28
346.759	1.12
347.142	23.04
347.525	44.96
347.908	63.26
348.291	69.36
348.674	80.44
349.057	105.75
349.44	122.69
349.823	160.43
350.206	146.65
350.588	180.32
350.971	202.24
351.354	231.84
351.737	242.47
352.119	234.56
352.502	241.79
352.884	269.36
353.267	266.19
353.65	285.18
354.032	305.74
354.414	309.36
354.797	301.45
355.179	311.39
355.562	327.89
355.944	336.93
356.326	315.23
356.709	335.57
357.091	347.32
357.473	342.12
357.855	334.44
358.238	344.38
358.62	314.33
359.002	320.2
359.384	316.14
359.766	318.4
360.148	331.5
360.53	334.67
360.912	335.8
361.294	325.63
361.676	343.03
362.057	355.68
362.439	339.64
362.821	336.47
363.203	317.72
363.584	323.82
363.966	315.01
364.348	323.82
364.729	323.82
365.111	319.98
365.493	326.3
365.874	315.23
366.256	328.79
366.637	315.68
367.019	303.93
367.4	310.26
367.781	300.32
368.163	309.13
368.544	325.85
368.925	298.74
369.306	302.58
369.688	319.07
370.069	325.18
370.45	295.12
370.831	318.17
371.212	318.4
371.593	310.94
371.974	315.01
372.355	322.46
372.736	324.72
373.117	307.32
373.498	316.36
373.879	308.45
374.26	337.6
374.641	323.37
375.021	329.69
375.402	344.84
375.783	311.84
376.163	315.91
376.544	330.6
376.925	315.23
377.305	303.48
377.686	330.6
378.066	317.72
378.447	318.4
378.827	336.93
379.208	338.96
379.588	336.7
379.968	343.48
380.349	338.96
380.729	335.34
381.109	326.08
381.489	332.18
381.87	343.71
382.25	336.25
382.63	334.44
383.01	335.57
383.39	330.37
383.77	325.4
384.15	343.25
384.53	322.92
384.91	351.39
385.29	340.54
385.67	340.99
386.049	338.51
386.429	360.43
386.809	341.22
387.189	366.08
387.568	368.34
387.948	354.1
388.328	357.26
388.707	358.85
389.087	372.41
389.466	357.26
389.846	342.12
390.225	370.82
390.605	368.56
390.984	358.39
391.363	384.61
391.743	380.99
392.122	368.79
392.501	380.09
392.881	343.71
393.26	376.7
393.639	366.53
394.018	383.25
394.397	376.7
394.776	385.96
395.155	381.67
395.534	412.63
395.913	396.59
396.292	395.23
396.671	388.9
397.05	404.5
397.429	389.35
397.808	398.62
398.186	412.63
398.565	413.76
398.944	420.77
399.323	403.59
399.701	404.72
400.08	392.52
400.458	420.77
400.837	435.68
401.215	440.43
401.594	403.82
401.972	417.6
402.351	440.88
402.729	434.32
403.107	417.6
403.486	427.77
403.864	444.95
404.242	445.4
404.62	456.47
404.999	449.92
405.377	468
405.755	451.95
406.133	460.76
406.511	479.52
406.889	482.23
407.267	451.95
407.645	479.97
408.023	497.15
408.401	489.69
408.779	477.26
409.156	477.94
409.534	491.27
409.912	506.41
410.29	531.05
410.667	522.46
411.045	537.15
411.422	530.14
411.8	532.85
412.178	529.46
412.555	561.1
412.933	561.55
413.31	572.17
413.687	585.73
414.065	590.7
414.442	587.09
414.819	607.2
415.197	603.81
415.574	609.91
415.951	627.77
416.328	619.18
416.705	634.32
417.082	613.76
417.46	649.23
417.837	645.62
418.214	663.25
418.591	659.63
418.967	684.71
419.344	680.65
419.721	677.48
420.098	704.15
420.475	699.18
420.852	709.35
421.228	720.19
421.605	725.16
421.982	737.37
422.358	748.67
422.735	762
423.111	770.81
423.488	805.39
423.864	758.16
424.241	783.02
424.617	816.69
424.994	804.48
425.37	838.38
425.746	828.21
426.123	852.84
426.499	858.49
426.875	832.05
427.251	857.59
427.627	906.85
428.003	905.95
428.379	922.45
428.756	909.79
429.132	924.03
429.507	923.58
429.883	932.62
430.259	943.24
430.635	970.36
431.011	950.7
431.387	988.43
431.763	990.47
432.138	1018.04
432.514	1015.55
432.89	1028.21
433.265	1064.59
433.641	1082.67
434.016	1087.19
434.392	1096.91
434.767	1096.23
435.143	1100.75
435.518	1112.5
435.894	1128.09
436.269	1140.07
436.644	1160.86
437.02	1190.69
437.395	1200.41
437.77	1197.92
438.145	1205.15
438.52	1209.67
438.895	1231.82
439.271	1225.26
439.646	1270.91
440.021	1266.62
440.395	1290.35
440.77	1285.83
441.145	1263.46
441.52	1313.85
441.895	1297.35
442.27	1332.61
442.645	1324.92
443.019	1338.71
443.394	1321.08
443.769	1345.71
444.143	1349.78
444.518	1367.18
444.892	1347.75
445.267	1357.92
445.641	1407.18
446.016	1390.23
446.39	1406.05
446.764	1398.14
447.139	1430
447.513	1428.87
447.887	1410.34
448.262	1436.78
448.636	1420.51
449.01	1436.33
449.384	1454.86
449.758	1466.61
450.132	1481.75
450.506	1469.33
450.88	1487.63
451.254	1470
451.628	1497.12
452.002	1507.74
452.376	1523.79
452.75	1511.81
453.123	1543.22
453.497	1561.07
453.871	1574.86
454.244	1567.85
454.618	1580.74
454.992	1635.2
455.365	1610.34
455.739	1625.48
456.112	1630.23
456.486	1636.1
456.859	1637.23
457.232	1681.52
457.606	1681.75
457.979	1692.6
458.352	1738.47
458.725	1708.87
459.099	1706.83
459.472	1743.67
459.845	1801.29
460.218	1814.4
460.591	1817.34
460.964	1802.65
461.337	1833.38
461.71	1841.97
462.083	1862.31
462.456	1884.46
462.829	1869.09
463.201	1883.1
463.574	1895.98
463.947	1939.37
464.32	1999.48
464.692	1985.92
465.065	1999.03
465.438	2000.16
465.81	2004.9
466.183	2036.77
466.555	2033.83
466.928	2060.95
467.3	2070.21
467.672	2100.95
468.045	2160.61
468.417	2132.81
468.789	2170.32
469.161	2139.59
469.534	2178.01
469.906	2215.75
470.278	2258.01
470.65	2248.51
471.022	2272.47
471.394	2294.16
471.766	2317.89
472.138	2339.13
472.51	2400.15
472.882	2410.77
473.253	2414.39
473.625	2443.54
473.997	2491.67
474.369	2513.59
474.74	2519.47
475.112	2525.57
475.484	2576.64
475.855	2624.78
476.227	2618.45
476.598	2717.43
476.97	2676.75
477.341	2739.12
477.713	2792.23
478.084	2747.26
478.455	2838.78
478.827	2837.88
479.198	2895.5
479.569	2921.94
479.94	2984.99
480.311	3023.86
480.682	3059.57
481.053	3101.6
481.424	3124.65
481.795	3119.9
482.166	3133.91
482.537	3189.73
482.908	3249.17
483.279	3283.97
483.65	3324.87
484.021	3371.65
484.391	3380.46
484.762	3423.85
485.133	3423.62
485.503	3441.25
485.874	3513.34
486.244	3538.42
486.615	3573.45
486.985	3615.71
487.356	3656.84
487.726	3667.23
488.097	3739.77
488.467	3784.29
488.837	3794.01
489.207	3838.08
489.578	3862.03
489.948	3878.08
490.318	3974.34
490.688	3942.48
491.058	3972.76
491.428	4004.85
491.798	4064.96
492.168	4145.41
492.538	4117.62
492.908	4137.73
493.278	4252.53
493.648	4216.6
494.017	4257.5
494.387	4287.33
494.757	4311.96
495.126	4325.52
495.496	4358.29
495.866	4366.65
496.235	4398.74
496.605	4432.86
496.974	4434.45
497.344	4499.53
497.713	4464.5
498.082	4534.56
498.452	4572.3
498.821	4568.91
499.19	4561.9
499.559	4670.82
499.928	4639.41
500.298	4671.5
500.667	4720.09
501.036	4644.84
501.405	4673.31
501.774	4705.85
502.143	4781.78
502.512	4748.79
502.88	4813.42
503.249	4778.84
503.618	4808.9
503.987	4829.69
504.356	4916.01
504.724	4873.53
505.093	4873.53
505.462	4878.95
505.83	4894.77
506.199	5009.35
506.567	4984.26
506.936	4925.05
507.304	4989.01
507.672	5051.15
508.041	5038.05
508.409	5116.01
508.777	5106.74
509.145	5110.81
509.514	5101.77
509.882	5132.73
510.25	5164.6
510.618	5192.62
510.986	5220.64
511.354	5233.52
511.722	5257.25
512.09	5262.22
512.458	5302.22
512.826	5370.69
513.193	5287.08
513.561	5338.6
513.929	5336.79
514.297	5347.42
514.664	5401.88
515.032	5413.18
515.4	5421.76
515.767	5432.16
516.135	5464.25
516.502	5447.07
516.869	5496.34
517.237	5461.54
517.604	5477.58
517.972	5525.49
518.339	5555.55
518.706	5520.29
519.073	5566.62
519.44	5595.09
519.808	5617.01
520.175	5614.3
520.542	5654.07
520.909	5652.27
521.276	5615.21
521.643	5743.34
522.009	5733.62
522.376	5765.03
522.743	5763.9
523.11	5812.26
523.477	5832.83
523.843	5889.55
524.21	5927.06
524.577	5923.9
524.943	5940.62
525.31	6002.09
525.676	6051.58
526.043	6013.61
526.409	6057.68
526.776	6114.85
527.142	6104.68
527.508	6160.5
527.874	6150.33
528.241	6185.81
528.607	6208.41
528.973	6312.59
529.339	6202.31
529.705	6267.17
530.071	6310.33
530.437	6328.63
530.803	6325.92
531.169	6401.17
531.535	6405.24
531.901	6408.86
532.267	6422.87
532.632	6461.51
532.998	6466.71
533.364	6550.77
533.73	6532.47
534.095	6556.88
534.461	6607.72
534.826	6575.63
535.192	6599.81
535.557	6638.23
535.923	6631.45
536.288	6706.93
536.653	6703.99
537.019	6656.08
537.384	6719.13
537.749	6740.15
538.114	6744.22
538.479	6730.43
538.845	6814.72
539.21	6808.39
539.575	6784.21
539.94	6832.57
540.305	6807.94
540.67	6849.75
541.034	6907.37
541.399	6968.39
541.764	6912.8
542.129	6953.7
542.494	6922.29
542.858	7051.33
543.223	6960.71
543.587	7101.49
543.952	7058.11
544.316	7111.21
544.681	7125.45
545.045	7169.29
545.41	7146.92
545.774	7160.02
546.138	7187.14
546.503	7186.24
546.867	7200.7
547.231	7221.04
547.595	7265.33
547.959	7335.61
548.324	7273.92
548.688	7277.53
549.052	7313.01
549.416	7381.94
549.779	7335.16
550.143	7389.4
550.507	7448.38
550.871	7463.97
551.235	7424.65
551.599	7451.77
551.962	7433.46
552.326	7480.02
552.689	7460.58
553.053	7460.13
553.417	7459.68
553.78	7635.27
554.143	7574.7
554.507	7572.22
554.87	7546
555.234	7631.42
555.597	7633.23
555.96	7653.8
556.323	7685.21
556.686	7658.54
557.05	7715.04
557.413	7730.86
557.776	7692.21
558.139	7800.01
558.502	7730.86
558.865	7781.93
559.228	7840.23
559.59	7890.63
559.953	7881.59
560.316	7943.51
560.679	8011.3
561.041	8018.31
561.404	8013.79
561.767	8013.11
562.129	7935.37
562.492	8059.43
562.854	8070.51
563.217	8045.65
563.579	8052.66
563.941	8190.73
564.304	8232.54
564.666	8240.22
565.028	8161.35
565.39	8295.36
565.753	8321.35
566.115	8247.45
566.477	8294.01
566.839	8284.29
567.201	8403.38
567.563	8407.22
567.925	8485.86
568.287	8475.92
568.648	8489.71
569.01	8534.22
569.372	8582.13
569.734	8604.51
570.095	8615.13
570.457	8619.87
570.819	8684.05
571.18	8633.88
571.542	8701.68
571.903	8821
572.265	8813.09
572.626	8800.66
572.987	8846.31
573.349	8855.35
573.71	8959.07
574.071	8976.7
574.432	9032.52
574.794	9110.25
575.155	9113.42
575.516	9104.61
575.877	9152.74
576.238	9192.74
576.599	9268.67
576.96	9322.68
577.32	9411.26
577.681	9400.42
578.042	9512.05
578.403	9590.02
578.763	9537.81
579.124	9659.62
579.485	9695.55
579.845	9745.27
580.206	9801.08
580.566	9869.1
580.927	9980.29
581.287	10041.98
581.648	10119.27
582.008	10201.07
582.368	10278.59
582.728	10348.87
583.089	10396.32
583.449	10555.87
583.809	10664.11
584.169	10732.13
584.529	10854.39
584.889	10986.36
585.249	11044.89
585.609	11099.58
585.969	11236.3
586.329	11306.13
586.688	11403.08
587.048	11507.71
587.408	11619.79
587.768	11802.61
588.127	11879.45
588.487	11982.5
588.846	12186.78
589.206	12197.18
589.565	12401.24
589.925	12598.75
590.284	12569.82
590.643	12836.71
591.003	12930.27
591.362	13115.8
591.721	13198.51
592.08	13323.93
592.44	13479.18
592.799	13643.02
593.158	13669.23
593.517	13903.12
593.876	13993.74
594.235	14138.82
594.593	14303.56
594.952	14396.22
595.311	14471.02
595.67	14684.35
596.029	14851.8
596.387	15041.17
596.746	15142.19
597.104	15161.17
597.463	15339.47
597.822	15565.9
598.18	15497.66
598.538	15710.53
598.897	15880.02
599.255	15914.6
599.613	16314.81
599.972	16348.03
600.33	16432.1
600.688	16451.76
601.046	16709.6
601.404	16771.52
601.762	16917.51
602.12	17058.97
602.478	17121.8
602.836	17233.21
603.194	17158.86
603.552	17357.04
603.91	17490.15
604.268	17595.68
604.625	17660.09
604.983	17740.31
605.341	17799.74
605.698	18057.59
606.056	18161.54
606.413	18152.73
606.771	18182.56
607.128	18303.91
607.485	18423
607.843	18395.21
608.2	18580.74
608.557	18737.57
608.914	18846.04
609.272	18906.16
609.629	19058.69
609.986	19128.52
610.343	19158.8
610.7	19322.64
611.057	19358.12
611.414	19382.75
611.771	19476.76
612.127	19612.8
612.484	19605.57
612.841	19755.62
613.198	19720.82
613.554	19785.91
613.911	19905.9
614.267	19981.83
614.624	19916.98
614.98	20146.8
615.337	20154.03
615.693	20285.33
616.05	20363.52
616.406	20424.31
616.762	20450.75
617.118	20421.14
617.475	20421.82
617.831	20595.6
618.187	20671.08
618.543	20666.56
618.899	20822.94
619.255	20870.17
619.611	20776.39
619.967	20982.71
620.323	21033.56
620.678	20954.01
621.034	20982.49
621.39	21010.05
621.746	20934.8
622.101	21227.68
622.457	21098.64
622.812	21153.78
623.168	21248.69
623.523	21260.9
623.879	21404.85
624.234	21256.38
624.589	21265.87
624.945	21445.52
625.3	21401.23
625.655	21332.98
626.01	21481.45
626.365	21439.2
626.72	21484.17
627.075	21475.35
627.43	21495.47
627.785	21482.13
628.14	21528.23
628.495	21527.1
628.85	21523.71
629.205	21438.97
629.559	21600.55
629.914	21530.49
630.269	21512.64
630.623	21526.43
630.978	21395.36
631.332	21495.01
631.687	21491.17
632.041	21526.65
632.396	21539.76
632.75	21358.07
633.104	21458.18
633.459	21420.21
633.813	21386.77
634.167	21380.67
634.521	21440.1
634.875	21539.08
635.229	21543.6
635.583	21338.41
635.937	21337.28
636.291	21386.54
636.645	21442.13
636.999	21391.74
637.352	21441.91
637.706	21329.59
638.06	21427.22
638.413	21351.29
638.767	21281.23
639.121	21367.11
639.474	21273.1
639.828	21228.58
640.181	21238.3
640.534	21233.55
640.888	21318.07
641.241	21077.62
641.594	21215.02
641.947	21281.01
642.301	21132.99
642.654	21298.41
643.007	21244.4
643.36	21071.07
643.713	21136.83
644.066	21262.03
644.419	21083.95
644.771	20973.22
645.124	20748.59
645.477	20709.95
645.83	20646
646.182	20539.78
646.535	20462.72
646.888	20528.26
647.24	20502.5
647.593	20617.97
647.945	20567.13
648.298	20491.42
648.65	20342.5
649.002	20383.86
649.355	20579.78
649.707	20429.28
650.059	20655.49
650.411	20884.18
650.763	20844.64
651.115	21109.04
651.467	21103.39
651.819	21017.74
652.171	21077.62
652.523	20905.65
652.875	20942.71
653.227	20949.72
653.578	21063.84
653.93	21045.31
654.282	20894.35
654.633	20946.1
654.985	21033.33
655.337	21037.4
655.688	21017.29
656.039	21147.23
656.391	20967.34
656.742	20980.45
657.094	20993.56
657.445	21060.68
657.796	21029.04
658.147	20920.34
658.498	20959.43
658.849	20967.34
659.2	20884.86
659.551	20929.15
659.902	21029.26
660.253	20958.76
660.604	20909.27
660.955	20950.85
661.306	21068.36
661.656	20997.4
662.007	20937.97
662.358	20988.13
662.708	21041.47
663.059	21082.14
663.409	20901.81
663.76	21077.4
664.11	21101.35
664.461	21053.22
664.811	21093.67
665.161	21110.17
665.511	20948.81
665.862	20858.65
666.212	21119.88
666.562	21077.62
666.912	21030.17
667.262	21006.89
667.612	21020.9
667.962	21125.98
668.312	21034.01
668.662	21052.77
669.011	20984.52
669.361	20933.22
669.711	21055.93
670.06	20933.9
670.41	20974.58
670.76	20899.32
671.109	21116.72
671.459	20997.17
671.808	20975.93
672.157	20914.69
672.507	20892.54
672.856	20820.46
673.205	20858.65
673.554	20882.15
673.904	20831.75
674.253	20959.43
674.602	20846.22
674.951	20537.3
675.3	20449.84
675.649	20761.93
675.998	20747.01
676.346	20764.41
676.695	20897.97
677.044	20690.52
677.393	20765.54
677.741	20779.1
678.09	20816.84
678.438	20668.14
678.787	20641.48
679.135	20701.36
679.484	20471.09
679.832	20644.41
680.181	20514.02
680.529	20491.2
680.877	20543.17
681.225	20349.73
681.573	20572.1
681.922	20377.76
682.27	20293.92
682.618	20361.26
682.966	20243.3
683.314	20326.91
683.661	20197.87
684.009	20205.1
684.357	20082.62
684.705	20092.56
685.053	20065.67
685.4	20080.81
685.748	20034.49
686.095	19969.86
686.443	19940.93
686.79	19900.71
687.138	20003.98
687.485	19816.64
687.832	19770.09
688.18	19900.71
688.527	19819.13
688.874	19665.23
689.221	19604.44
689.568	19563.77
689.915	19549.98
690.262	19418.46
690.609	19451
690.956	19372.13
691.303	19266.15
691.65	19253.49
691.997	19234.96
692.344	19029.54
692.69	19108.41
693.037	19077.45
693.383	18910.45
693.73	18993.84
694.077	18866.61
694.423	18823.45
694.769	18760.85
695.116	18619.16
695.462	18672.94
695.808	18562.44
696.155	18607.63
696.501	18463.68
696.847	18503.68
697.193	18315.89
697.539	18342.55
697.885	18203.58
698.231	18141.66
698.577	18164.71
698.923	18087.65
699.269	18013.52
699.614	17865.05
699.96	17733.08
700.306	17862.57
700.651	17746.64
700.997	17719.07
701.342	17682.01
701.688	17534.67
702.033	17634.55
702.379	17529.24
702.724	17380.09
703.069	17486.08
703.415	17357.27
703.76	17278.85
704.105	17359.53
704.45	17187.78
704.795	17178.52
705.14	17104.62
705.485	17060.33
705.83	16891.52
706.175	17002.25
706.52	16880.67
706.865	16796.15
707.209	16790.96
707.554	16697.17
707.899	16769.71
708.243	16696.04
708.588	16578.08
708.932	16527.69
709.277	16450.63
709.621	16478.2
709.966	16405.88
710.31	16424.86
710.654	16302.16
710.998	16300.35
711.342	16266.68
711.687	16283.85
712.031	16178.09
712.375	16108.94
712.719	16215.15
713.063	16079.11
713.407	16132.44
713.75	15964.99
714.094	15942.39
714.438	15892.45
714.782	15969.51
715.125	15884.31
715.469	15922.51
715.812	15884.31
716.156	15740.81
716.499	15743.98
716.843	15718.44
717.186	15650.65
717.53	15811.77
717.873	15793.47
718.216	15633.25
718.559	15639.57
718.902	15469.41
719.246	15556.41
719.589	15531.55
719.932	15416.98
720.275	15445.91
720.617	15429.64
720.96	15420.15
721.303	15480.48
721.646	15374.27
721.989	15427.83
722.331	15437.77
722.674	15376.08
723.016	15340.83
723.359	15315.06
723.701	15327.27
724.044	15336.53
724.386	15155.29
724.729	15332.69
725.071	15206.37
725.413	15176.08
725.755	15233.26
726.097	15206.37
726.439	15022.87
726.782	15020.61
727.124	15181.96
727.465	15112.36
727.807	15079.59
728.149	15059.7
728.491	14977.67
728.833	14990.1
729.175	15094.05
729.516	15111.9
729.858	14923.66
730.199	14990.33
730.541	14984.68
730.882	14951.68
731.224	15064.9
731.565	14886.6
731.906	14902.87
732.248	14927.95
732.589	14951.46
732.93	14784.68
733.271	14913.04
733.612	14935.64
733.953	14981.74
734.294	14867.17
734.635	14913.04
734.976	14923.44
735.317	14828.75
735.658	14782.65
735.999	14848.86
736.339	14836.66
736.68	14875.53
737.021	14857.9
737.361	14774.74
737.702	14863.1
738.042	14821.07
738.383	14814.96
738.723	14899.48
739.063	14881.85
739.404	14863.32
739.744	14832.59
740.084	14840.95
740.424	14920.05
740.764	14737.23
741.104	14979.03
741.444	14861.06
741.784	14778.58
742.124	14894.96
742.464	14975.41
742.804	14935.19
743.143	14845.02
743.483	14960.5
743.823	14964.34
744.162	14991.91
744.502	14953.27
744.841	15005.69
745.181	15037.56
745.52	15067.84
745.86	15078.46
746.199	15087.27
746.538	15245.01
746.877	15214.95
747.216	15254.73
747.556	15270.32
747.895	15307.83
748.234	15414.27
748.573	15444.33
748.911	15448.85
749.25	15526.13
749.589	15541.72
749.928	15628.95
750.267	15765.67
750.605	15875.05
750.944	15836.86
751.283	15897.19
751.621	16072.78
751.96	16116.17
752.298	16181.03
752.636	16272.55
752.975	16235.27
753.313	16343.96
753.651	16546.44
753.989	16503.05
754.327	16696.04
754.666	16728.81
755.004	16781.01
755.342	16903.72
755.679	17063.94
756.017	17050.84
756.355	17239.76
756.693	17345.74
757.031	17470.03
757.368	17403.14
757.706	17650.14
758.044	17726.3
758.381	17877.48
758.719	17846.75
759.056	18037.25
759.394	18009
