Data from hue_60_FLMS001491_6.txt Node
Date: Mon Feb 06 15:11:51 GMT 2017
User: dcchb
Spectrometer: FLMS00149
Trigger mode: 0
Integration Time (sec): 2.000000E-2
Scans to average: 10
Electric dark correction enabled: true
Nonlinearity correction enabled: false
Boxcar width: 0
XAxis mode: Wavelengths
Number of Pixels in Spectrum: 2048
>>>>>Begin Spectral Data<<<<<
341.393	5.97
341.776	5.97
342.16	5.97
342.543	-63.85
342.927	-73.8
343.31	-72.44
343.693	-67.92
344.077	-66.79
344.46	-72.22
344.843	-56.62
345.226	-36.74
345.61	-29.5
345.993	-20.69
346.376	3.94
346.759	19.08
347.142	19.76
347.525	41.91
347.908	47.1
348.291	55.01
348.674	120.55
349.057	115.58
349.44	115.58
349.823	134.78
350.206	175.24
350.588	207.55
350.971	232.86
351.354	210.26
351.737	256.82
352.119	257.04
352.502	273.09
352.884	286.19
353.267	273.76
353.65	305.18
354.032	297.94
354.414	314.21
354.797	309.47
355.179	318.28
355.562	341.78
355.944	349.24
356.326	335.23
356.709	350.6
357.091	313.99
357.473	348.56
357.855	327.55
358.238	367.09
358.62	343.37
359.002	359.86
359.384	370.03
359.766	367.09
360.148	363.25
360.53	341.33
360.912	350.6
361.294	358.73
361.676	351.5
362.057	344.27
362.439	335.68
362.821	336.36
363.203	343.59
363.584	324.84
363.966	317.6
364.348	339.75
364.729	345.85
365.111	351.28
365.493	326.64
365.874	326.87
366.256	325.29
366.637	328.68
367.019	311.5
367.4	313.76
367.781	301.56
368.163	332.75
368.544	309.24
368.925	307.89
369.306	306.53
369.688	296.36
370.069	311.05
370.45	307.66
370.831	330.26
371.212	330.94
371.593	330.49
371.974	328
372.355	320.09
372.736	344.5
373.117	328.23
373.498	326.42
373.879	314.44
374.26	324.84
374.641	316.02
375.021	332.29
375.402	346.53
375.783	320.99
376.163	332.07
376.544	355.57
376.925	342.46
377.305	329.36
377.686	336.59
378.066	349.02
378.447	322.58
378.827	361.67
379.208	347.89
379.588	356.93
379.968	344.04
380.349	335.23
380.729	347.43
381.109	373.65
381.489	360.32
381.87	338.4
382.25	373.87
382.63	343.14
383.01	368.68
383.39	351.28
383.77	348.79
384.15	348.34
384.53	346.76
384.91	342.91
385.29	347.66
385.67	370.94
386.049	370.94
386.429	356.7
386.809	346.98
387.189	356.25
387.568	357.6
387.948	351.95
388.328	354.21
388.707	333.88
389.087	338.4
389.466	372.97
389.846	352.63
390.225	365.06
390.605	377.94
390.984	365.96
391.363	384.5
391.743	383.59
392.122	385.63
392.501	370.03
392.881	368.22
393.26	367.77
393.639	365.29
394.018	375.68
394.397	365.96
394.776	370.94
395.155	393.08
395.534	382.91
395.913	386.3
396.292	388.11
396.671	389.24
397.05	381.56
397.429	392.18
397.808	389.69
398.186	389.69
398.565	387.21
398.944	393.53
399.323	401.9
399.701	403.03
400.08	403.7
400.458	391.95
400.837	389.47
401.215	418.39
401.594	407.32
401.972	404.16
402.351	403.7
402.729	402.12
403.107	415
403.486	411.84
403.864	414.1
404.242	423.36
404.62	441.44
404.999	435.12
405.377	408.68
405.755	427.88
406.133	413.87
406.511	437.83
406.889	417.49
407.267	429.01
407.645	433.31
408.023	427.43
408.401	447.09
408.779	445.96
409.156	427.88
409.534	436.25
409.912	452.74
410.29	448.45
410.667	444.83
411.045	450.26
411.422	457.71
411.8	460.88
412.178	470.14
412.555	466.98
412.933	462.01
413.31	474.21
413.687	457.04
414.065	484.38
414.442	482.12
414.819	475.11
415.197	495.68
415.574	476.47
415.951	497.03
416.328	478.5
416.705	497.03
417.082	487.09
417.46	502.46
417.837	512.4
418.214	497.49
418.591	513.08
418.967	512.85
419.344	511.27
419.721	513.98
420.098	535.68
420.475	539.97
420.852	527.54
421.228	541.55
421.605	535
421.982	536.81
422.358	542.91
422.735	529.8
423.111	553.98
423.488	569.35
423.864	534.77
424.241	578.61
424.617	558.5
424.994	564.15
425.37	547.66
425.746	577.48
426.123	567.99
426.499	564.38
426.875	563.7
427.251	582.91
427.627	576.81
428.003	595.56
428.379	597.6
428.756	601.21
429.132	601.89
429.507	591.5
429.883	602.79
430.259	596.69
430.635	603.7
431.011	623.36
431.387	624.94
431.763	650.48
432.138	646.64
432.514	625.62
432.89	647.99
433.265	663.81
433.641	668.56
434.016	648.44
434.392	673.98
434.767	678.73
435.143	668.56
435.518	695.45
435.894	677.6
436.269	705.17
436.644	693.87
437.02	709.01
437.395	697.26
437.77	698.39
438.145	702.45
438.52	734.09
438.895	722.11
439.271	726.86
439.646	741.77
440.021	723.24
440.395	732.28
440.77	753.07
441.145	725.05
441.52	759.17
441.895	740.19
442.27	764.6
442.645	767.99
443.019	799.63
443.394	802.79
443.769	786.07
444.143	798.27
444.518	802.11
444.892	794.2
445.267	800.08
445.641	805.05
446.016	782.68
446.39	816.8
446.764	827.2
447.139	808.67
447.513	787.65
447.887	835.56
448.262	830.81
448.636	817.48
449.01	845.95
449.384	832.39
449.758	864.71
450.132	841.66
450.506	839.4
450.88	888.21
451.254	838.04
451.628	882.34
452.002	847.76
452.376	905.61
452.75	894.54
453.123	901.54
453.497	906.97
453.871	914.88
454.244	937.93
454.618	920.98
454.992	961.2
455.365	943.35
455.739	980.86
456.112	979.06
456.486	988.77
456.859	965.27
457.232	1027.19
457.606	992.62
457.979	1018.38
458.352	1030.58
458.725	1038.72
459.099	1052.5
459.472	1085.49
459.845	1088.21
460.218	1092.5
460.591	1089.79
460.964	1109
461.337	1113.06
461.71	1139.28
462.083	1179.05
462.456	1155.32
462.829	1141.99
463.201	1176.11
463.574	1184.47
463.947	1222.21
464.32	1242.1
464.692	1244.36
465.065	1244.81
465.438	1274.19
465.81	1259.27
466.183	1307.18
466.555	1323
466.928	1366.62
467.3	1352.83
467.672	1408.42
468.045	1423.79
468.417	1411.14
468.789	1449.55
469.161	1468.31
469.534	1519.61
469.906	1542.21
470.278	1568.65
470.65	1568.42
471.022	1572.26
471.394	1649.77
471.766	1661.07
472.138	1694.52
472.51	1745.36
472.882	1810.67
473.253	1831.69
473.625	1853.38
473.997	1891.35
474.369	1905.81
474.74	1965.47
475.112	2014.06
475.484	2065.36
475.855	2125.01
476.227	2157.33
476.598	2234.84
476.97	2280.94
477.341	2347.61
477.713	2389.87
478.084	2472.58
478.455	2554.38
478.827	2600.93
479.198	2712.8
479.569	2744.89
479.94	2831.89
480.311	2903.07
480.682	3021.94
481.053	3124.76
481.424	3246.12
481.795	3290.18
482.166	3390.29
482.537	3441.59
482.908	3633.22
483.279	3694.47
483.65	3809.04
484.021	3936.04
484.391	4023.27
484.762	4123.61
485.133	4166.09
485.503	4305.3
485.874	4475.24
486.244	4566.98
486.615	4732.63
486.985	4882.46
487.356	5005.17
487.726	5117.7
488.097	5289.68
488.467	5404.48
488.837	5614.64
489.207	5759.72
489.578	5928.3
489.948	6042.88
490.318	6255.75
490.688	6338.01
491.058	6519.93
491.428	6674.5
491.798	6848.05
492.168	7006.69
492.538	7174.15
492.908	7357.42
493.278	7535.95
493.648	7714.02
494.017	7883.96
494.387	8051.64
494.757	8154.01
495.126	8381.57
495.496	8537.73
495.866	8683.94
496.235	8872.86
496.605	9036.7
496.974	9178.61
497.344	9346.52
497.713	9522.79
498.082	9717.81
498.452	9861.99
498.821	10073.05
499.19	10180.62
499.559	10310.79
499.928	10536.32
500.298	10737.22
500.667	10898.34
501.036	10957.78
501.405	11165.68
501.774	11290.65
502.143	11487.93
502.512	11654.26
502.88	11811.31
503.249	11963.85
503.618	12129.95
503.987	12257.4
504.356	12430.28
504.724	12611.07
505.093	12669.6
505.462	12898.52
505.83	13093.99
506.199	13146.19
506.567	13445.62
506.936	13531.49
507.304	13748.21
507.672	13880.19
508.041	13976.91
508.409	14154.3
508.777	14347.07
509.145	14515.42
509.514	14554.07
509.882	14785.47
510.25	14966.71
510.618	15086.03
510.986	15128.97
511.354	15365.8
511.722	15547.26
512.09	15782.06
512.458	15796.07
512.826	15996.51
513.193	16045.1
513.561	16286
513.929	16535.26
514.297	16614.35
514.664	16743.61
515.032	16848.24
515.4	17105.86
515.767	17188.35
516.135	17292.75
516.502	17335.69
516.869	17677.15
517.237	17733.87
517.604	17878.05
517.972	18016.57
518.339	18169.56
518.706	18168.89
519.073	18365.04
519.44	18506.5
519.808	18805.48
520.175	18852.26
520.542	19136.09
520.909	19162.76
521.276	19278.46
521.643	19558.23
522.009	19692.46
522.376	19948.5
522.743	20031.21
523.11	20336.29
523.477	20474.59
523.843	20600.01
524.21	20854.24
524.577	21027.34
524.943	21073.9
525.31	21248.13
525.676	21462.36
526.043	21610.15
526.409	21677.04
526.776	21952.52
527.142	22024.6
527.508	22165.84
527.874	22344.37
528.241	22468.89
528.607	22506.85
528.973	22863.23
529.339	22788.88
529.705	23096.21
530.071	23174.86
530.437	23399.71
530.803	23478.35
531.169	23755.41
531.535	23709.98
531.901	23777.1
532.267	23957.66
532.632	24154.27
532.998	24188.84
533.364	24331.66
533.73	24491.21
534.095	24654.37
534.461	24754.02
534.826	24858.2
535.192	24965.09
535.557	25202.15
535.923	25219.55
536.288	25317.63
536.653	25405.53
537.019	25369.15
537.384	25476.72
537.749	25531.4
538.114	25713.77
538.479	25705.19
538.845	25926.2
539.21	25918.97
539.575	26088.45
539.94	26181.78
540.305	26321.67
540.67	26399.63
541.034	26433.08
541.399	26586.52
541.764	26665.61
542.129	26731.37
542.494	26787.64
542.858	26980.41
543.223	26890.24
543.587	27063.79
543.952	27088.65
544.316	27360.51
544.681	27285.48
545.045	27455.87
545.41	27523.67
545.774	27596.66
546.138	27678.92
546.503	27798.69
546.867	27739.03
547.231	27978.8
547.595	27962.98
547.959	28119.59
548.324	28208.85
548.688	28242.97
549.052	28396.41
549.416	28358.9
549.779	28487.94
550.143	28527.48
550.507	28766.57
550.871	28912.33
551.235	28806.57
551.599	29117.3
551.962	29133.34
552.326	29218.77
552.689	29381.02
553.053	29311.87
553.417	29422.83
553.78	29893.1
554.143	29781.01
554.507	29900.33
554.87	29884.28
555.234	30171.51
555.597	30023.26
555.96	30162.7
556.323	30332.63
556.686	30470.26
557.05	30642.46
557.413	30736.69
557.776	30833.86
558.139	30969
558.502	31019.17
558.865	31112.28
559.228	31325.83
559.59	31508.2
559.953	31416
560.316	32015.75
560.679	31801.75
561.041	32076.77
561.404	32213.49
561.767	32401.28
562.129	32353.37
562.492	32611.22
562.854	32643.31
563.217	32759.69
563.579	32851.44
563.941	32989.74
564.304	33162.62
564.666	33479.22
565.028	33411.2
565.39	33603.06
565.753	33681.93
566.115	33926.89
566.477	33947
566.839	34114.23
567.201	34326.43
567.563	34471.73
567.925	34612.75
568.287	34530.72
568.648	34692.97
569.01	34911.95
569.372	35145.39
569.734	34987.2
570.095	35227.42
570.457	35431.71
570.819	35433.74
571.18	35579.5
571.542	35751.93
571.903	35757.35
572.265	35896.56
572.626	35974.97
572.987	35950.79
573.349	36224.23
573.71	36268.07
574.071	36400.72
574.432	36421.97
574.794	36685.24
575.155	36792.58
575.516	36545.8
575.877	36788.51
576.238	36830.99
576.599	37142.63
576.96	37140.59
577.32	37180.82
577.681	37245.9
578.042	37250.42
578.403	37301.72
578.763	37357.08
579.124	37532.9
579.485	37545.78
579.845	37677.98
580.206	37696.28
580.566	37816.05
580.927	37762.5
581.287	37899.44
581.648	37778.54
582.008	38069.61
582.368	37962.49
582.728	37969.95
583.089	38072.09
583.449	37957.74
583.809	38015.82
584.169	38212.65
584.529	38147.8
584.889	38262.82
585.249	38053.56
585.609	38146.44
585.969	38303.05
586.329	38170.39
586.688	38157.97
587.048	38299.43
587.408	38200.9
587.768	38282.26
588.127	38218.75
588.487	38240.68
588.846	38370.84
589.206	38336.27
589.565	38234.8
589.925	38565.41
590.284	38254.91
590.643	38489.48
591.003	38442.93
591.362	38534.23
591.721	38675.69
592.08	38436.83
592.44	38635.02
592.799	38705.52
593.158	38474.79
593.517	38615.81
593.876	38764.05
594.235	38737.61
594.593	38649.03
594.952	38775.8
595.311	38613.32
595.67	38853.99
596.029	39109.13
596.387	39004.95
596.746	39058.73
597.104	38764.05
597.463	38999.53
597.822	39035.46
598.18	38902.8
598.538	38893.99
598.897	39159.52
599.255	38806.54
599.613	39496.69
599.972	39232.06
600.33	39290.59
600.688	39318.16
601.046	39397.71
601.404	39541.66
601.762	39347.31
602.12	39571.94
602.478	39699.85
602.836	39560.41
603.194	39486.74
603.552	39558.83
603.91	39427.76
604.268	39616.68
604.625	39570.36
604.983	39813.74
605.341	39649
605.698	39827.3
606.056	39959.5
606.413	40038.37
606.771	40228.19
607.128	40228.87
607.485	40012.61
607.843	40150
608.2	40261.87
608.557	40410.56
608.914	40264.8
609.272	40516.1
609.629	40551.35
609.986	40799.03
610.343	40616.66
610.7	40862.75
611.057	40738.01
611.414	40747.28
611.771	40850.1
612.127	41102.29
612.484	41052.13
612.841	41049.64
613.198	41081.5
613.554	41090.09
613.911	41313.36
614.267	41302.52
614.624	41191.11
614.98	41552.23
615.337	41437.88
615.693	41518.78
616.05	41484.88
616.406	41733.24
616.762	41662.05
617.118	41679
617.475	41655.05
617.831	41893.01
618.187	41836.29
618.543	41941.82
618.899	42167.35
619.255	42030.86
619.611	41996.06
619.967	42260
620.323	42238.99
620.678	42096.62
621.034	42166
621.39	42199.44
621.746	42205.99
622.101	42662.25
622.457	42296.39
622.812	42441.02
623.168	42589.26
623.523	42594.91
623.879	42710.61
624.234	42334.35
624.589	42623.38
624.945	42574.35
625.3	42690.73
625.655	42655.02
626.01	42719.65
626.365	42600.11
626.72	42678.52
627.075	42615.48
627.43	42566.44
627.785	42684.85
628.14	42782.7
628.495	42696.83
628.85	42687.11
629.205	42558.53
629.559	42845.75
629.914	42548.36
630.269	42690.05
630.623	42505.42
630.978	42456.38
631.332	42719.43
631.687	42748.35
632.041	42609.37
632.396	42661.8
632.75	42388.14
633.104	42566.21
633.459	42467.46
633.813	42409.83
634.167	42490.73
634.521	42343.62
634.875	42458.64
635.229	42318.53
635.583	42294.35
635.937	42287.57
636.291	42254.36
636.645	42322.83
636.999	42032.21
637.352	42305.43
637.706	42049.84
638.06	42214.81
638.413	42147.47
638.767	42180.68
639.121	42021.37
639.474	41846.68
639.828	42017.98
640.181	42014.81
640.534	42064.3
640.888	41903.18
641.241	41631.32
641.594	41884.42
641.947	41855.5
642.301	41790.86
642.654	41709.06
643.007	41768.27
643.36	41806.68
643.713	41698.89
644.066	41748.83
644.419	41540.02
644.771	41286.02
645.124	40942.07
645.477	40883.32
645.83	40604.91
646.182	40512.48
646.535	40506.15
646.888	40575.98
647.24	40208.76
647.593	40500.5
647.945	40468.19
648.298	40175.31
648.65	40199.04
649.002	39982.78
649.355	40298.47
649.707	40179.83
650.059	40369.88
650.411	40725.58
650.763	40921.73
651.115	41290.54
651.467	41024.56
651.819	41109.75
652.171	40960.6
652.523	40969.42
652.875	40920.38
653.227	40708.86
653.578	40996.31
653.93	40918.8
654.282	40777.33
654.633	40723.32
654.985	40876.99
655.337	40724.9
655.688	40661.18
656.039	40827.73
656.391	40353.16
656.742	40604
657.094	40590.22
657.445	40664.34
657.796	40586.6
658.147	40526.72
658.498	40447.85
658.849	40551.57
659.2	40541.41
659.551	40412.82
659.902	40557.45
660.253	40358.59
660.604	40584.12
660.955	40256.89
661.306	40582.08
661.656	40342.54
662.007	40495.76
662.358	40382.09
662.708	40320.85
663.059	40480.62
663.409	40168.08
663.76	40476.55
664.11	40384.12
664.461	40447.85
664.811	40450.11
665.161	40331.24
665.511	40252.6
665.862	40335.31
666.212	40410.56
666.562	40295.08
666.912	40183.9
667.262	40236.78
667.612	40208.08
667.962	40292.82
668.312	40147.97
668.662	40365.82
669.011	40337.12
669.361	40231.36
669.711	40118.82
670.06	39983.68
670.41	39992.04
670.76	40043.34
671.109	40194.75
671.459	40041.08
671.808	39957.92
672.157	40056.67
672.507	39872.04
672.856	39819.84
673.205	39851.03
673.554	39884.93
673.904	39755.44
674.253	40000.63
674.602	39931.93
674.951	39269.57
675.3	39189.58
675.649	39788.21
675.998	39581.43
676.346	39762.44
676.695	39887.19
677.044	39594.54
677.393	39807.87
677.741	39805.83
678.09	39712.05
678.438	39549.12
678.787	39689.22
679.135	39644.25
679.484	39394.54
679.832	39484.26
680.181	39350.7
680.529	39453.07
680.877	39320.87
681.225	39251.04
681.573	39512.28
681.922	39170.82
682.27	39156.36
682.618	39057.83
682.966	39014.21
683.314	39022.58
683.661	38957.94
684.009	38800.89
684.357	38816.03
684.705	38823.71
685.053	38800.89
685.4	38616.71
685.748	38437.73
686.095	38421.69
686.443	38351.86
686.79	38124.97
687.138	38388.47
687.485	38310.5
687.832	38153.67
688.18	38237.29
688.527	37983.73
688.874	37957.07
689.221	37821.25
689.568	37833.91
689.915	37797.52
690.262	37675.49
690.609	37576.51
690.956	37411.77
691.303	37280.25
691.65	37237.31
691.997	37227.82
692.344	37033.93
692.69	37001.84
693.037	37032.12
693.383	36716.65
693.73	36936.3
694.077	36695.86
694.423	36675.97
694.769	36573.15
695.116	36498.57
695.462	36437.56
695.808	36297.45
696.155	36360.95
696.501	36027.4
696.847	36037.12
697.193	35936.33
697.539	35953.73
697.885	35647.07
698.231	35667.41
698.577	35580.63
698.923	35600.07
699.269	35393.97
699.614	35348.55
699.96	35329.57
700.306	35174.99
700.651	35098.16
700.997	35037.6
701.342	34997.37
701.688	34888.9
702.033	34845.96
702.379	34742.69
702.724	34612.52
703.069	34798.28
703.415	34341.12
703.76	34375.24
704.105	34322.36
704.45	34313.09
704.795	33978.41
705.14	33919.88
705.485	34054.12
705.83	33739.55
706.175	33961.24
706.52	33725.99
706.865	33653.68
707.209	33623.17
707.554	33514.25
707.899	33496.62
708.243	33363.97
708.588	33374.81
708.932	33064.77
709.277	33070.19
709.621	32915.17
709.966	32971.89
710.31	32926.24
710.654	32663.65
710.998	32752.68
711.342	32807.6
711.687	32610.54
712.031	32510.66
712.375	32376.42
712.719	32431.79
713.063	32441.51
713.407	32500.49
713.75	32212.13
714.094	32108.41
714.438	31925.81
714.782	32042.42
715.125	31915.64
715.469	31944.12
715.812	31729.43
716.156	31648.98
716.499	31705.48
716.843	31742.77
717.186	31427.75
717.53	31752.94
717.873	31577.57
718.216	31477.24
718.559	31343.68
718.902	31162.67
719.246	31243.12
719.589	31172.61
719.932	31020.53
720.275	31047.87
720.617	30937.82
720.96	31031.15
721.303	30889.46
721.646	30988.89
721.989	30781.21
722.331	30859.4
722.674	30747.31
723.016	30779.4
723.359	30602.23
723.701	30681.55
724.044	30574.44
724.386	30346.87
724.729	30394.33
725.071	30418.06
725.413	30351.39
725.755	30381.22
726.097	30150.27
726.439	29986.88
726.782	29993.66
727.124	30210.38
727.465	30012.87
727.807	29922.7
728.149	30005.19
728.491	29751.18
728.833	29870.95
729.175	29745.08
729.516	29811.07
729.858	29566.33
730.199	29672.54
730.541	29611.75
730.882	29638.42
731.224	29583.5
731.565	29407.69
731.906	29388.48
732.248	29453.79
732.589	29379.89
732.93	29181.03
733.271	29054.93
733.612	29174.92
733.953	29195.72
734.294	29171.31
734.635	29028.71
734.976	29047.92
735.317	28847.02
735.658	28951.88
735.999	28902.62
736.339	28873.92
736.68	28833.24
737.021	28756.4
737.361	28670.31
737.702	28764.09
738.042	28748.5
738.383	28568.39
738.723	28675.28
739.063	28628.05
739.404	28642.28
739.744	28485
740.084	28319.35
740.424	28427.15
740.764	28282.29
741.104	28426.92
741.444	28263.31
741.784	28113.26
742.124	28186.02
742.464	28090.43
742.804	28048.63
743.143	28101.73
743.483	28054.5
743.823	27941.06
744.162	27865.13
744.502	27938.8
744.841	27667.62
745.181	27811.12
745.52	27720.5
745.86	27690.22
746.199	27592.59
746.538	27612.48
746.877	27606.15
747.216	27614.06
747.556	27442.77
747.895	27521.41
748.234	27232.83
748.573	27241.19
748.911	27272.6
749.25	27254.75
749.589	27153.51
749.928	27226.95
750.267	27169.78
750.605	27037.13
750.944	27007.3
751.283	27052.27
751.621	26961.65
751.96	26874.65
752.298	26815.44
752.636	26803.46
752.975	26621.55
753.313	26538.84
753.651	26676.46
753.989	26588.55
754.327	26588.55
754.666	26393.53
755.004	26437.37
755.342	26436.01
755.679	26363.7
756.017	26197.15
756.355	26261.1
756.693	26109.24
757.031	26090.49
