Data from hue_290_FLMS001491_00041.txt Node
Date: Tue Feb 07 15:52:47 GMT 2017
User: dcchb
Spectrometer: FLMS00149
Trigger mode: 0
Integration Time (sec): 2.000000E-2
Scans to average: 10
Electric dark correction enabled: true
Nonlinearity correction enabled: false
Boxcar width: 0
XAxis mode: Wavelengths
Number of Pixels in Spectrum: 2048
>>>>>Begin Spectral Data<<<<<
341.393	1.02
341.776	1.02
342.16	1.02
342.543	-68.13
342.927	-80.34
343.31	-85.31
343.693	-64.74
344.077	-50.51
344.46	-66.33
344.843	-52.77
345.226	-30.39
345.61	-10.96
345.993	-11.86
346.376	-24.29
346.759	25.42
347.142	1.02
347.525	44.41
347.908	38.53
348.291	89.6
348.674	90.05
349.057	108.13
349.44	127.79
349.823	144.29
350.206	146.1
350.588	175.25
350.971	201.01
351.354	216.38
351.737	245.3
352.119	254.57
352.502	259.77
352.884	263.38
353.267	276.26
353.65	288.02
354.032	305.19
354.414	315.13
354.797	300.22
355.179	302.03
355.562	321.46
355.944	303.61
356.326	333.89
356.709	315.36
357.091	314.91
357.473	329.37
357.855	325.53
358.238	359.65
358.62	341.12
359.002	347.9
359.384	305.19
359.766	320.56
360.148	325.75
360.53	327.34
360.912	324.85
361.294	342.02
361.676	328.92
362.057	311.07
362.439	325.08
362.821	320.78
363.203	317.62
363.584	326.66
363.966	318.07
364.348	333.21
364.729	314.23
365.111	314.68
365.493	334.34
365.874	297.73
366.256	320.56
366.637	317.62
367.019	285.53
367.4	306.09
367.781	305.64
368.163	321.01
368.544	326.66
368.925	290.05
369.306	302.03
369.688	314.91
370.069	301.12
370.45	299.77
370.831	311.07
371.212	318.07
371.593	297.96
371.974	295.7
372.355	300.44
372.736	291.18
373.117	315.13
373.498	308.81
373.879	299.31
374.26	310.61
374.641	328.01
375.021	323.04
375.402	322.59
375.783	311.29
376.163	340.89
376.544	334.12
376.925	336.38
377.305	323.72
377.686	324.85
378.066	340.67
378.447	325.53
378.827	346.09
379.208	319.2
379.588	349.93
379.968	329.37
380.349	356.94
380.729	323.95
381.109	324.85
381.489	342.48
381.87	328.69
382.25	349.26
382.63	335.25
383.01	342.25
383.39	335.92
383.77	341.8
384.15	322.14
384.53	341.35
384.91	349.93
385.29	347.22
385.67	335.25
386.049	339.99
386.429	368.01
386.809	344.74
387.189	350.16
387.568	346.77
387.948	357.84
388.328	350.61
388.707	347.67
389.087	373.44
389.466	362.82
389.846	355.58
390.225	362.14
390.605	371.4
390.984	382.7
391.363	364.62
391.743	400.55
392.122	364.4
392.501	375.24
392.881	395.36
393.26	380.44
393.639	382.02
394.018	394.23
394.397	376.37
394.776	396.71
395.155	365.08
395.534	377.05
395.913	394.45
396.292	422.02
396.671	390.39
397.05	381.8
397.429	395.58
397.808	411.18
398.186	415.02
398.565	421.12
398.944	416.6
399.323	411.63
399.701	405.07
400.08	397.39
400.458	420.89
400.837	415.47
401.215	411.4
401.594	408.69
401.972	432.87
402.351	427.67
402.729	439.65
403.107	427.22
403.486	438.97
403.864	439.42
404.242	458.63
404.62	468.12
404.999	460.67
405.377	468.12
405.755	457.95
406.133	454.11
406.511	476.48
406.889	472.42
407.267	490.27
407.645	490.04
408.023	490.95
408.401	520.78
408.779	482.81
409.156	481.68
409.534	515.13
409.912	528.69
410.29	509.03
410.667	518.29
411.045	538.86
411.422	530.27
411.8	551.28
412.178	546.09
412.555	579.53
412.933	569.59
413.31	584.28
413.687	578.4
414.065	585.86
414.442	609.81
414.819	624.73
415.197	620.44
415.574	622.7
415.951	643.94
416.328	648.46
416.705	667.67
417.082	661.56
417.46	684.84
417.837	679.87
418.214	685.74
418.591	696.14
418.967	693.65
419.344	699.3
419.721	713.99
420.098	734.33
420.475	731.17
420.852	737.04
421.228	749.47
421.605	782.01
421.982	763.93
422.358	775.46
422.735	795.57
423.111	789.24
423.488	817.27
423.864	791.05
424.241	826.76
424.617	831.5
424.994	857.04
425.37	846.87
425.746	877.83
426.123	866.76
426.499	863.82
426.875	896.59
427.251	897.72
427.627	925.06
428.003	909.02
428.379	940.43
428.756	960.54
429.132	946.75
429.507	964.16
429.883	976.81
430.259	969.58
430.635	1014.32
431.011	1010.03
431.387	1025.85
431.763	1052.29
432.138	1064.72
432.514	1041.67
432.89	1073.53
433.265	1113.08
433.641	1110.14
434.016	1113.3
434.392	1136.81
434.767	1165.28
435.143	1136.35
435.518	1187.43
435.894	1158.05
436.269	1184.26
436.644	1209.57
437.02	1200.53
437.395	1242.11
437.77	1243.92
438.145	1278.95
438.52	1255.22
438.895	1281.66
439.271	1328.44
439.646	1335.67
440.021	1322.34
440.395	1319.17
440.77	1353.98
441.145	1327.31
441.52	1364.37
441.895	1380.42
442.27	1384.26
442.645	1361.89
443.019	1412.28
443.394	1387.42
443.769	1448.89
444.143	1410.92
444.518	1433.97
444.892	1409.12
445.267	1417.25
445.641	1440.75
446.016	1480.07
446.39	1445.05
446.764	1470.13
447.139	1474.42
447.513	1508.32
447.887	1494.54
448.262	1496.8
448.636	1525.95
449.01	1504.71
449.384	1535.67
449.758	1523.91
450.132	1547.19
450.506	1507.64
450.88	1563.46
451.254	1552.16
451.628	1579.05
452.002	1581.09
452.376	1592.61
452.75	1609.34
453.123	1586.74
453.497	1662.67
453.871	1631.03
454.244	1658.15
454.618	1695.89
454.992	1710.12
455.365	1711.25
455.739	1711.48
456.112	1749.45
456.486	1757.81
456.859	1774.3
457.232	1795.77
457.606	1760.74
457.979	1791.7
458.352	1819.95
458.725	1848.88
459.099	1836.45
459.472	1883.68
459.845	1909.44
460.218	1847.52
460.591	1905.6
460.964	1904.02
461.337	1953.96
461.71	1971.36
462.083	2006.61
462.456	1997.12
462.829	1991.47
463.201	2050.91
463.574	2043
463.947	2074.63
464.32	2094.75
464.692	2096.1
465.065	2111.02
465.438	2112.6
465.81	2174.52
466.183	2155.99
466.555	2184.46
466.928	2227.63
467.3	2203.67
467.672	2240.28
468.045	2313.5
468.417	2295.65
468.789	2321.41
469.161	2331.58
469.534	2340.39
469.906	2370.67
470.278	2392.14
470.65	2442.08
471.022	2461.07
471.394	2489.77
471.766	2500.39
472.138	2532.25
472.51	2574.73
472.882	2571.34
473.253	2647.28
473.625	2649.53
473.997	2698.35
474.369	2704.22
474.74	2714.84
475.112	2748.06
475.484	2819.47
475.855	2833.48
476.227	2848.63
476.598	2900.38
476.97	2926.14
477.341	2948.06
477.713	3013.14
478.084	3002.75
478.455	3071.44
478.827	3120.26
479.198	3191.22
479.569	3171.33
479.94	3208.39
480.311	3222.18
480.682	3359.8
481.053	3337.2
481.424	3386.24
481.795	3419.23
482.166	3466.91
482.537	3502.17
482.908	3514.14
483.279	3575.84
483.65	3663.07
484.021	3663.29
484.391	3703.52
484.762	3741.26
485.133	3780.13
485.503	3797.3
485.874	3850.86
486.244	3870.75
486.615	3917.98
486.985	3973.57
487.356	4012.44
487.726	4032.32
488.097	4113.68
488.467	4104.41
488.837	4179.66
489.207	4226.22
489.578	4234.8
489.948	4294.69
490.318	4321.58
490.688	4384.63
491.058	4387.12
491.428	4467.11
491.798	4436.83
492.168	4534.46
492.538	4545.53
492.908	4581.01
493.278	4609.26
493.648	4657.62
494.017	4705.07
494.387	4728.12
494.757	4748.24
495.126	4799.08
495.496	4781.91
495.866	4812.87
496.235	4874.34
496.605	4888.12
496.974	4975.12
497.344	4956.59
497.713	4965.41
498.082	4997.5
498.452	5061
498.821	5073.43
499.19	5081.11
499.559	5072.75
499.928	5119.53
500.298	5148.23
500.667	5210.37
501.036	5142.35
501.405	5231.61
501.774	5216.02
502.143	5241.11
502.512	5255.34
502.88	5348.22
503.249	5357.49
503.618	5363.36
503.987	5380.08
504.356	5387.99
504.724	5405.39
505.093	5446.07
505.462	5462.79
505.83	5503.92
506.199	5497.82
506.567	5562.23
506.936	5544.6
507.304	5559.51
507.672	5540.08
508.041	5621.89
508.409	5641.09
508.777	5720.64
509.145	5706.63
509.514	5687.65
509.882	5725.16
510.25	5759.06
510.618	5711.6
510.986	5774.42
511.354	5841.32
511.722	5815.33
512.09	5858.49
512.458	5831.82
512.826	5892.61
513.193	5920.64
513.561	5919.51
513.929	5904.82
514.297	5992.27
514.664	6048.09
515.032	6038.15
515.4	6050.12
515.767	6086.05
516.135	6116.34
516.502	6068.2
516.869	6171.7
517.237	6226.39
517.604	6164.7
517.972	6192.27
518.339	6229.78
518.706	6253.28
519.073	6248.76
519.44	6207.18
519.808	6320.4
520.175	6248.31
520.542	6388.42
520.909	6389.78
521.276	6383.22
521.643	6373.96
522.009	6448.53
522.376	6495.31
522.743	6512.94
523.11	6523.11
523.477	6572.37
523.843	6583.22
524.21	6684.91
524.577	6676.32
524.943	6712.7
525.31	6699.6
525.676	6792.7
526.043	6794.96
526.409	6794.06
526.776	6837.67
527.142	6910.44
527.508	6905.02
527.874	6929.2
528.241	7027.5
528.607	7002.64
528.973	7085.58
529.339	7030.89
529.705	7144.56
530.071	7070.44
530.437	7153.15
530.803	7206.7
531.169	7202.86
531.535	7236.08
531.901	7194.05
532.267	7279.24
532.632	7376.87
532.998	7248.28
533.364	7397.43
533.73	7370.77
534.095	7427.49
534.461	7427.04
534.826	7507.71
535.192	7496.87
535.557	7523.53
535.923	7522.18
536.288	7569.41
536.653	7650.31
537.019	7605.11
537.384	7637.43
537.749	7605.56
538.114	7719.68
538.479	7690.31
538.845	7710.19
539.21	7651.21
539.575	7749.51
539.94	7767.37
540.305	7793.58
540.67	7824.54
541.034	7812.11
541.399	7849.85
541.764	7857.53
542.129	7904.54
542.494	7919.9
542.858	7946.8
543.223	7968.72
543.587	7994.93
543.952	8024.53
544.316	8055.04
544.681	8005.78
545.045	8043.74
545.41	8127.36
545.774	8078.32
546.138	8124.19
546.503	8168.26
546.867	8158.99
547.231	8246.22
547.595	8221.59
547.959	8194.7
548.324	8277.18
548.688	8267.69
549.052	8266.34
549.416	8277.41
549.779	8327.35
550.143	8326.67
550.507	8376.16
550.871	8365.54
551.235	8424.07
551.599	8451.19
551.962	8453.45
552.326	8399.21
552.689	8516.27
553.053	8456.84
553.417	8475.14
553.78	8574.35
554.143	8537.06
554.507	8546.78
554.87	8579.32
555.234	8661.35
555.597	8649.15
555.96	8622.94
556.323	8747
556.686	8693.44
557.05	8749.26
557.413	8792.2
557.776	8747.68
558.139	8761.92
558.502	8801.69
558.865	8834.23
559.228	8846.89
559.59	8904.51
559.953	8893.44
560.316	8977.73
560.679	9010.72
561.041	9069.71
561.404	9016.6
561.767	9072.87
562.129	9071.96
562.492	9195.35
562.854	9145.41
563.217	9125.97
563.579	9181.34
563.941	9254.56
564.304	9259.53
564.666	9302.69
565.028	9326.87
565.39	9385.85
565.753	9398.51
566.115	9385.4
566.477	9412.52
566.839	9489.13
567.201	9485.74
567.563	9528
567.925	9543.14
568.287	9600.31
568.648	9591.5
569.01	9662.01
569.372	9739.74
569.734	9689.35
570.095	9784.94
570.457	9845.28
570.819	9819.52
571.18	9864.26
571.542	9929.12
571.903	9903.58
572.265	9979.51
572.626	9952.39
572.987	10016.35
573.349	10045.5
573.71	10091.83
574.071	10149.45
574.432	10169.11
574.794	10270.13
575.155	10294.76
575.516	10278.71
575.877	10380.86
576.238	10383.12
576.599	10538.59
576.96	10486.84
577.32	10586.5
577.681	10643.9
578.042	10669.89
578.403	10736.1
578.763	10736.78
579.124	10848.64
579.485	10935.87
579.845	11030.11
580.206	11054.96
580.566	11056.09
580.927	11166.83
581.287	11274.17
581.648	11337.67
582.008	11490.43
582.368	11425.35
582.728	11565.01
583.089	11696.53
583.449	11779.24
583.809	11926.81
584.169	11974.49
584.529	12069.63
584.889	12248.38
585.249	12288.83
585.609	12315.95
585.969	12576.73
586.329	12550.07
586.688	12734.69
587.048	12866.67
587.408	12952.77
587.768	13096.94
588.127	13160.44
588.487	13263.27
588.846	13455.13
589.206	13505.52
589.565	13684.95
589.925	13867.54
590.284	13988.45
590.643	14063.25
591.003	14265.73
591.362	14435.67
591.721	14493.74
592.08	14611.03
592.44	14857.58
592.799	14973.28
593.158	15091.69
593.517	15223.44
593.876	15421.63
594.235	15501.85
594.593	15603.77
594.952	15677.44
595.311	15882.86
595.67	15933.71
596.029	16257.09
596.387	16462.73
596.746	16513.58
597.104	16496.4
597.463	16651.2
597.822	16816.39
598.18	16982.27
598.538	17019.55
598.897	17229.26
599.255	17195.14
599.613	17595.13
599.972	17613.89
600.33	17800.32
600.688	17829.02
601.046	17933.2
601.404	18203.48
601.762	18183.82
602.12	18272.17
602.478	18468.78
602.836	18485.28
603.194	18470.36
603.552	18622.22
603.91	18688.44
604.268	18883.46
604.625	18837.36
604.983	19223.11
605.341	19099.95
605.698	19193.51
606.056	19309.66
606.413	19424.91
606.771	19591.46
607.128	19589.43
607.485	19658.81
607.843	19805.92
608.2	19898.12
608.557	19948.06
608.914	20009.53
609.272	20209.98
609.629	20326.58
609.986	20273.7
610.343	20372.68
610.7	20603.64
611.057	20522.06
611.414	20604.32
611.771	20732.22
612.127	20910.07
612.484	20751.88
612.841	20952.56
613.198	20896.96
613.554	20983.74
613.911	21201.36
614.267	21315.03
614.624	21200.01
614.98	21375.14
615.337	21396.16
615.693	21461.24
616.05	21450.62
616.406	21699.66
616.762	21580.56
617.118	21687.45
617.475	21634.8
617.831	21716.15
618.187	21886.77
618.543	21869.14
618.899	22006.31
619.255	21977.39
619.611	22042.92
619.967	22070.49
620.323	22230.04
620.678	22105.29
621.034	22133.54
621.39	22160.21
621.746	22160.89
622.101	22488.34
622.457	22367.89
622.812	22205.18
623.168	22400.88
623.523	22447.21
623.879	22512.29
624.234	22355.23
624.589	22501.44
624.945	22562.91
625.3	22491.72
625.655	22511.84
626.01	22658.73
626.365	22653.53
626.72	22486.08
627.075	22587.09
627.43	22510.26
627.785	22546.19
628.14	22607.65
628.495	22693.98
628.85	22679.29
629.205	22518.39
629.559	22746.86
629.914	22574.66
630.269	22739.4
630.623	22626.18
630.978	22603.81
631.332	22707.31
631.687	22705.96
632.041	22699.4
632.396	22685.84
632.75	22561.55
633.104	22527.2
633.459	22555.68
633.813	22632.51
634.167	22501.89
634.521	22692.17
634.875	22592.97
635.229	22631.61
635.583	22534.89
635.937	22505.74
636.291	22562.68
636.645	22500.31
636.999	22489.01
637.352	22519.97
637.706	22399.98
638.06	22469.8
638.413	22360.43
638.767	22399.98
639.121	22485.62
639.474	22212.41
639.828	22408.56
640.181	22367.43
640.534	22399.98
640.888	22358.62
641.241	22314.78
641.594	22278.17
641.947	22396.59
642.301	22353.65
642.654	22362.46
643.007	22365.4
643.36	22363.59
643.713	22283.59
644.066	22359.3
644.419	22333.09
644.771	22064.84
645.124	21908.24
645.477	21917.05
645.83	21681.8
646.182	21668.47
646.535	21645.42
646.888	21578.98
647.24	21521.81
647.593	21538.3
647.945	21529.94
648.298	21504.86
648.65	21457.18
649.002	21387.57
649.355	21609.49
649.707	21584.4
650.059	21642.26
650.411	21914.11
650.763	21955.47
651.115	22227.55
651.467	22222.81
651.819	22007.22
652.171	22048.8
652.523	22009.7
652.875	21973.55
653.227	21922.25
653.578	21985.98
653.93	22067.33
654.282	21918.86
654.633	21912.76
654.985	21988.69
655.337	21987.56
655.688	22126.54
656.039	22139.19
656.391	21904.62
656.742	21976.26
657.094	22001.34
657.445	22122.02
657.796	22090.83
658.147	22062.58
658.498	22053.09
658.849	22053.54
659.2	22111.4
659.551	22053.77
659.902	22140.1
660.253	21938.97
660.604	22193.43
660.955	22006.54
661.306	22155.91
661.656	22048.35
662.007	22122.02
662.358	22119.53
662.708	22138.97
663.059	22063.49
663.409	22015.13
663.76	22167.89
664.11	22068.69
664.461	22083.15
664.811	22107.33
665.161	22146.2
665.511	21912.31
665.862	22018.52
666.212	22184.39
666.562	22175.35
666.912	22125.41
667.262	22161.79
667.612	22020.32
667.962	22098.51
668.312	22097.84
668.662	22244.95
669.011	22131.73
669.361	22021.45
669.711	22023.94
670.06	21994.11
670.41	22024.84
670.76	21981.46
671.109	22109.14
671.459	22023.71
671.808	21978.74
672.157	21961.57
672.507	21903.49
672.856	21916.37
673.205	21956.82
673.554	21962.02
673.904	21977.39
674.253	22089.25
674.602	21901.01
674.951	21561.35
675.3	21557.29
675.649	21839.54
675.998	21889.71
676.346	21828.92
676.695	21950.27
677.044	21622.82
677.393	21699.66
677.741	21818.3
678.09	21687.23
678.438	21698.75
678.787	21665.08
679.135	21636.15
679.484	21609.26
679.832	21629.37
680.181	21393.22
680.529	21688.36
680.877	21469.38
681.225	21394.35
681.573	21654.01
681.922	21451.07
682.27	21362.49
682.618	21331.98
682.966	21338.99
683.314	21349.83
683.661	21179.67
684.009	21168.6
684.357	21245.88
684.705	21095.6
685.053	21105.77
685.4	21034.36
685.748	20962.73
686.095	20970.18
686.443	20861.71
686.79	20815.61
687.138	20891.99
687.485	20897.87
687.832	20827.59
688.18	20675.95
688.527	20645.67
688.874	20669.85
689.221	20597.31
689.568	20490.42
689.915	20428.5
690.262	20523.87
690.609	20347.37
690.956	20248.39
691.303	20330.65
691.65	20148.51
691.997	20148.51
692.344	19912.13
692.69	19977.67
693.037	19956.88
693.383	19823.09
693.73	19847.05
694.077	19699.71
694.423	19748.75
694.769	19709.65
695.116	19648.18
695.462	19669.65
695.808	19607.06
696.155	19488.64
696.501	19444.35
696.847	19420.39
697.193	19200.96
697.539	19251.81
697.885	19180.63
698.231	19095.66
698.577	19083.45
698.923	18968.2
699.269	18856.79
699.614	18811.14
699.96	18736.12
700.306	18686.85
700.651	18671.49
700.997	18607.76
701.342	18555.78
701.688	18586.97
702.033	18423.13
702.379	18351.95
702.724	18385.84
703.069	18340.65
703.415	18181.1
703.76	18144.95
704.105	18098.62
704.45	18130.94
704.795	17937.72
705.14	17899.53
705.485	17878.96
705.83	17755.35
706.175	17789.48
706.52	17701.12
706.865	17716.26
707.209	17640.33
707.554	17594.68
707.899	17688.01
708.243	17489.14
708.588	17461.12
708.932	17385.64
709.277	17312.43
709.621	17317.17
709.966	17168.7
710.31	17291.64
710.654	17102.49
710.998	17139.78
711.342	17042.15
711.687	17046.44
712.031	16952.66
712.375	16933.91
712.719	16886.9
713.063	16880.57
713.407	16933.91
713.75	16778.43
714.094	16762.16
714.438	16728.71
714.782	16836.96
715.125	16666.79
715.469	16653.69
715.812	16634.25
716.156	16619.79
716.499	16582.05
716.843	16537.76
717.186	16465.22
717.53	16528.72
717.873	16546.8
718.216	16464.09
718.559	16438.32
718.902	16318.1
719.246	16347.93
719.589	16359.23
719.932	16201.27
720.275	16206.47
720.617	16297.99
720.96	16257.99
721.303	16246.69
721.646	16181.61
721.989	16111.1
722.331	16147.03
722.674	16074.94
723.016	16093.48
723.359	16040.37
723.701	16019.8
724.044	15973.48
724.386	15924.67
724.729	16055.51
725.071	15944.33
725.413	15914.5
725.755	15897.1
726.097	15871.11
726.439	15765.35
726.782	15832.69
727.124	15816.42
727.465	15708.63
727.807	15824.56
728.149	15701.4
728.491	15737.1
728.833	15732.35
729.175	15630.89
729.516	15729.64
729.858	15713.15
730.199	15787.95
730.541	15749.08
730.882	15693.94
731.224	15754.95
731.565	15639.48
731.906	15623.88
732.248	15659.14
732.589	15520.61
732.93	15514.73
733.271	15582.08
733.612	15606.26
733.953	15630.66
734.294	15529.2
734.635	15555.64
734.976	15551.34
735.317	15564.68
735.658	15556.77
735.999	15540.72
736.339	15537.11
736.68	15563.32
737.021	15541.4
737.361	15476.77
737.702	15620.95
738.042	15599.93
738.383	15533.72
738.723	15520.38
739.063	15487.16
739.404	15581.4
739.744	15569.2
740.084	15478.35
740.424	15615.52
740.764	15529.65
741.104	15606.03
741.444	15571.23
741.784	15552.92
742.124	15619.36
742.464	15643.54
742.804	15663.88
743.143	15581.62
743.483	15673.83
743.823	15623.43
744.162	15671.57
744.502	15776.87
744.841	15713.6
745.181	15782.3
745.52	15731.68
745.86	15730.09
746.199	15804.9
746.538	15893.93
746.877	15980.26
747.216	15994.04
747.556	16006.92
747.895	15990.2
748.234	16018.67
748.573	16150.65
748.911	16148.61
749.25	16202.62
749.589	16227.03
749.928	16362.39
750.267	16451.21
750.605	16514.03
750.944	16622.27
751.283	16577.76
751.621	16669.28
751.96	16749.73
752.298	16828.15
752.636	16945.88
752.975	17053.45
753.313	16964.64
753.651	17316.04
753.989	17301.58
754.327	17331.63
754.666	17380.45
755.004	17579.54
755.342	17675.35
755.679	17749.7
756.017	17797.39
756.355	17921.45
756.693	18047.32
757.031	18125.51
757.368	18142.23
757.706	18331.61
758.044	18369.57
758.381	18582.9
