Data from hue_290_FLMS001491_00066.txt Node
Date: Tue Feb 07 15:53:05 GMT 2017
User: dcchb
Spectrometer: FLMS00149
Trigger mode: 0
Integration Time (sec): 2.000000E-2
Scans to average: 10
Electric dark correction enabled: true
Nonlinearity correction enabled: false
Boxcar width: 0
XAxis mode: Wavelengths
Number of Pixels in Spectrum: 2048
>>>>>Begin Spectral Data<<<<<
341.393	-18.64
341.776	-18.64
342.16	-18.64
342.543	-52.77
342.927	-40.11
343.31	-68.13
343.693	-64.29
344.077	-60.22
344.46	-52.32
344.843	-68.59
345.226	-38.98
345.61	-44.18
345.993	-30.62
346.376	-2.15
346.759	13.9
347.142	42.82
347.525	37.85
347.908	64.29
348.291	66.33
348.674	97.74
349.057	106.55
349.44	133.44
349.823	142.93
350.206	153.1
350.588	185.42
350.971	205.53
351.354	221.58
351.737	220.45
352.119	251.18
352.502	251.63
352.884	268.13
353.267	261.58
353.65	284.85
354.032	283.95
354.414	301.12
354.797	293.66
355.179	297.73
355.562	317.62
355.944	329.37
356.326	327.56
356.709	317.39
357.091	352.87
357.473	336.15
357.855	334.79
358.238	327.79
358.62	341.8
359.002	325.53
359.384	333.44
359.766	350.61
360.148	322.14
360.53	342.25
360.912	321.23
361.294	318.52
361.676	345.87
362.057	330.73
362.439	332.76
362.821	338.41
363.203	323.49
363.584	309.03
363.966	337.51
364.348	307.9
364.729	325.53
365.111	313.1
365.493	330.95
365.874	326.88
366.256	325.75
366.637	317.17
367.019	318.97
367.4	322.14
367.781	303.16
368.163	299.09
368.544	312.65
368.925	290.5
369.306	313.33
369.688	306.55
370.069	302.48
370.45	294.79
370.831	324.85
371.212	318.97
371.593	280.33
371.974	302.7
372.355	300.22
372.736	318.97
373.117	314
373.498	311.97
373.879	302.93
374.26	323.27
374.641	330.05
375.021	323.04
375.402	312.65
375.783	339.99
376.163	325.98
376.544	334.12
376.925	325.53
377.305	317.84
377.686	314.46
378.066	330.73
378.447	317.17
378.827	325.98
379.208	355.13
379.588	323.49
379.968	333.66
380.349	333.21
380.729	333.89
381.109	350.61
381.489	340.89
381.87	333.66
382.25	340.67
382.63	337.96
383.01	367.56
383.39	347
383.77	369.14
384.15	353.55
384.53	351.06
384.91	346.54
385.29	363.95
385.67	355.81
386.049	373.21
386.429	371.4
386.809	359.65
387.189	354.68
387.568	377.96
387.948	379.31
388.328	377.96
388.707	369.14
389.087	377.05
389.466	365.98
389.846	362.14
390.225	372.31
390.605	385.19
390.984	366.88
391.363	369.37
391.743	387.45
392.122	388.8
392.501	391.06
392.881	382.02
393.26	392.42
393.639	401.46
394.018	381.8
394.397	403.72
394.776	388.13
395.155	390.84
395.534	407.33
395.913	407.11
396.292	410.72
396.671	419.31
397.05	416.15
397.429	431.74
397.808	409.82
398.186	419.31
398.565	426.99
398.944	421.12
399.323	423.83
399.701	430.61
400.08	436.26
400.458	429.25
400.837	438.07
401.215	452.08
401.594	430.38
401.972	434.9
402.351	457.73
402.729	444.85
403.107	469.03
403.486	467.9
403.864	448.91
404.242	485.98
404.62	459.31
404.999	473.09
405.377	482.36
405.755	475.35
406.133	494.11
406.511	481.91
406.889	492.53
407.267	506.31
407.645	502.7
408.023	517.61
408.401	515.13
408.779	521.23
409.156	534.56
409.534	515.81
409.912	531.85
410.29	529.36
410.667	540.44
411.045	571.4
411.422	570.72
411.8	582.92
412.178	588.12
412.555	584.28
412.933	612.07
413.31	601.91
413.687	625.18
414.065	612.3
414.442	618.63
414.819	619.31
415.197	642.81
415.574	640.55
415.951	666.31
416.328	658.85
416.705	667.89
417.082	687.55
417.46	692.3
417.837	714.44
418.214	732.52
418.591	707.67
418.967	706.31
419.344	752.86
419.721	770.94
420.098	742.69
420.475	761.67
420.852	767.55
421.228	771.39
421.605	778.17
421.982	807.55
422.358	822.01
422.735	800.54
423.111	800.54
423.488	845.06
423.864	834.67
424.241	865.17
424.617	865.4
424.994	879.41
425.37	913.08
425.746	887.32
426.123	910.82
426.499	934.1
426.875	946.08
427.251	947.43
427.627	971.84
428.003	966.87
428.379	968.45
428.756	985.62
429.132	1006.87
429.507	1023.59
429.883	1043.02
430.259	1032.63
430.635	1069.01
431.011	1074.21
431.387	1071.95
431.763	1124.6
432.138	1106.75
432.514	1107.88
432.89	1134.55
433.265	1155.79
433.641	1162.57
434.016	1174.55
434.392	1201.21
434.767	1224.26
435.143	1210.93
435.518	1240.76
435.894	1266.75
436.269	1294.09
436.644	1282.11
437.02	1290.25
437.395	1295.67
437.77	1326.63
438.145	1340.19
438.52	1361.43
438.895	1372.05
439.271	1408.44
439.646	1408.44
440.021	1416.12
440.395	1403.92
440.77	1413.64
441.145	1403.47
441.52	1463.35
441.895	1461.77
442.27	1445.27
442.645	1467.42
443.019	1462.45
443.394	1480.98
443.769	1491.37
444.143	1493.86
444.518	1525.5
444.892	1503.58
445.267	1512.39
445.641	1540.64
446.016	1563.69
446.39	1552.39
446.764	1579.51
447.139	1550.58
447.513	1571.15
447.887	1592.39
448.262	1586.74
448.636	1589.22
449.01	1598.94
449.384	1623.12
449.758	1594.42
450.132	1647.3
450.506	1632.84
450.88	1659.28
451.254	1642.78
451.628	1686.4
452.002	1684.59
452.376	1694.31
452.75	1720.07
453.123	1715.32
453.497	1732.5
453.871	1727.75
454.244	1767.3
454.618	1779.28
454.992	1817.92
455.365	1796.68
455.739	1833.96
456.112	1832.61
456.486	1827.41
456.859	1852.72
457.232	1870.12
457.606	1908.99
457.979	1907.18
458.352	1925.94
458.725	1935.66
459.099	1961.42
459.472	1996.9
459.845	2031.92
460.218	2020.85
460.591	2055.2
460.964	2004.81
461.337	2069.21
461.71	2089.32
462.083	2129.32
462.456	2108.98
462.829	2165.25
463.201	2155.31
463.574	2154.18
463.947	2180.39
464.32	2236.66
464.692	2251.81
465.065	2259.71
465.438	2284.8
465.81	2303.56
466.183	2295.42
466.555	2344.68
466.928	2390.11
467.3	2366.15
467.672	2403.67
468.045	2438.01
468.417	2458.58
468.789	2494.96
469.161	2464.68
469.534	2499.93
469.906	2568.86
470.278	2576.54
470.65	2604.79
471.022	2641.85
471.394	2642.53
471.766	2661.29
472.138	2698.57
472.51	2767.95
472.882	2790.1
473.253	2770.89
473.625	2779.93
473.997	2865.8
474.369	2892.69
474.74	2896.08
475.112	2937.66
475.484	2967.49
475.855	3063.31
476.227	3055.4
476.598	3081.84
476.97	3106.47
477.341	3170.65
477.713	3241.84
478.084	3250.42
478.455	3328.61
478.827	3329.29
479.198	3392.34
479.569	3402.96
479.94	3449.51
480.311	3478.21
480.682	3494.48
481.053	3614.48
481.424	3650.64
481.795	3719.56
482.166	3710.98
482.537	3756.62
482.908	3802.95
483.279	3788.94
483.65	3877.3
484.021	3911.42
484.391	4005.21
484.762	4032.55
485.133	4044.53
485.503	4132.89
485.874	4188.93
486.244	4217.63
486.615	4232.09
486.985	4287.23
487.356	4347.57
487.726	4334.24
488.097	4432.54
488.467	4435.25
488.837	4485.64
489.207	4537.39
489.578	4603.16
489.948	4663.49
490.318	4660.1
490.688	4698.52
491.058	4722.93
491.428	4802.92
491.798	4810.38
492.168	4897.16
492.538	4911.4
492.908	4960.21
493.278	5007.21
493.648	4989.13
494.017	5078.85
494.387	5086.08
494.757	5137.38
495.126	5183.48
495.496	5228.22
495.866	5210.82
496.235	5236.36
496.605	5313.42
496.974	5298.96
497.344	5349.58
497.713	5390.03
498.082	5427.09
498.452	5490.36
498.821	5533.98
499.19	5503.92
499.559	5523.58
499.928	5550.48
500.298	5490.82
500.667	5610.36
501.036	5631.83
501.405	5668.44
501.774	5684.48
502.143	5647.2
502.512	5691.49
502.88	5755.89
503.249	5780.53
503.618	5789.57
503.987	5819.85
504.356	5856.23
504.724	5846.96
505.093	5898.26
505.462	5910.24
505.83	5969.9
506.199	6020.07
506.567	6043.12
506.936	6042.21
507.304	6086.28
507.672	6095.55
508.041	6119.95
508.409	6070.91
508.777	6183.91
509.145	6176.22
509.514	6201.98
509.882	6264.81
510.25	6226.84
510.618	6250.8
510.986	6250.8
511.354	6419.38
511.722	6358.82
512.09	6415.09
512.458	6374.41
512.826	6467.74
513.193	6444.92
513.561	6423.22
513.929	6437.01
514.297	6512.26
514.664	6562.2
515.032	6600.62
515.4	6621.18
515.767	6624.57
516.135	6664.8
516.502	6634.97
516.869	6727.85
517.237	6696.66
517.604	6686.04
517.972	6844.68
518.339	6788.64
518.706	6822.98
519.073	6759.71
519.44	6828.41
519.808	6940.04
520.175	6881.97
520.542	6873.83
520.909	7006.93
521.276	6964.45
521.643	7039.48
522.009	6987.95
522.376	7100.94
522.743	7090.32
523.11	7153.37
523.477	7222.07
523.843	7293.03
524.21	7251
524.577	7326.7
524.943	7273.37
525.31	7396.3
525.676	7434.04
526.043	7440.6
526.409	7497.54
526.776	7509.97
527.142	7551.1
527.508	7673.13
527.874	7622.51
528.241	7660.7
528.607	7643.08
528.973	7781.6
529.339	7740.7
529.705	7797.2
530.071	7806.46
530.437	7883.3
530.803	7882.17
531.169	7915.84
531.535	7930.3
531.901	7926.46
532.267	7998.09
532.632	7985.67
532.998	8075.61
533.364	8107.7
533.73	8112.22
534.095	8173.01
534.461	8213.23
534.826	8201.03
535.192	8274.47
535.557	8231.08
535.923	8219.11
536.288	8314.24
536.653	8369.38
537.019	8319.44
537.384	8389.5
537.749	8405.32
538.114	8422.94
538.479	8457.07
538.845	8479.89
539.21	8450.06
539.575	8510.62
539.94	8476.73
540.305	8587.46
540.67	8627
541.034	8606.44
541.399	8660.45
541.764	8683.27
542.129	8764.4
542.494	8758.98
542.858	8756.72
543.223	8815.47
543.587	8791.07
543.952	8841.91
544.316	8816.6
544.681	8808.47
545.045	8912.42
545.41	8881.46
545.774	8914
546.138	8980.22
546.503	8993.55
546.867	8958.97
547.231	9059.31
547.595	9078.52
547.959	9095.92
548.324	9112.19
548.688	9119.2
549.052	9162.36
549.416	9136.37
549.779	9167.56
550.143	9148.57
550.507	9285.29
550.871	9222.24
551.235	9270.38
551.599	9325.97
551.962	9325.74
552.326	9351.51
552.689	9386.31
553.053	9372.07
553.417	9434.67
553.78	9520.99
554.143	9504.5
554.507	9460.66
554.87	9503.37
555.234	9641.89
555.597	9518.96
555.96	9564.61
556.323	9594.44
556.686	9617.49
557.05	9720.54
557.413	9733.87
557.776	9723.25
558.139	9776.81
558.502	9713.08
558.865	9773.87
559.228	9798.5
559.59	9853.87
559.953	9855.22
560.316	9912.39
560.679	9934.54
561.041	10021.32
561.404	10042.79
561.767	10076.23
562.129	10055.89
562.492	10112.16
562.854	10127.76
563.217	10094.76
563.579	10233.06
563.941	10276.23
564.304	10280.97
564.666	10403.91
565.028	10349.22
565.39	10333.63
565.753	10386.73
566.115	10489.1
566.477	10506.96
566.839	10529.1
567.201	10602.32
567.563	10529.78
567.925	10648.42
568.287	10672.37
568.648	10650
569.01	10767.06
569.372	10816.33
569.734	10694.3
570.095	10878.25
570.457	10930.67
570.819	11007.28
571.18	10972.93
571.542	11007.06
571.903	11026.04
572.265	11095.87
572.626	11138.35
572.987	11147.16
573.349	11170.67
573.71	11212.47
574.071	11228.52
574.432	11323.88
574.794	11447.5
575.155	11447.72
575.516	11463.54
575.877	11498.12
576.238	11681.61
576.599	11669.86
576.96	11795.28
577.32	11767.26
577.681	11815.85
578.042	11898.56
578.403	11925.68
578.763	12075.95
579.124	12099
579.485	12151.21
579.845	12269.85
580.206	12246.12
580.566	12396.85
580.927	12448.6
581.287	12477.75
581.648	12555.72
582.008	12711.19
582.368	12759.1
582.728	12740.12
583.089	13017.17
583.449	12942.6
583.809	13083.16
584.169	13242.02
584.529	13338.29
584.889	13535.8
585.249	13530.38
585.609	13630.04
585.969	13880.65
586.329	13900.54
586.688	14033.87
587.048	14097.6
587.408	14254.2
587.768	14393.86
588.127	14498.04
588.487	14513.86
588.846	14807.63
589.206	14822.1
589.565	14994.75
589.925	15242.65
590.284	15321.07
590.643	15496.65
591.003	15641.28
591.362	15833.37
591.721	15967.6
592.08	16064.55
592.44	16187.48
592.799	16353.36
593.158	16491.43
593.517	16604.65
593.876	16694.36
594.235	16775.72
594.593	17035.82
594.952	17172.99
595.311	17325.08
595.67	17458.41
596.029	17666.09
596.387	17872.86
596.746	17991.28
597.104	18024.5
597.463	18175.45
597.822	18352.85
598.18	18448.89
598.538	18484.82
598.897	18783.8
599.255	18728.89
599.613	19008.43
599.972	19143.34
600.33	19316.44
600.688	19369.32
601.046	19561.86
601.404	19722.98
601.762	19825.35
602.12	19932.24
602.478	20057.89
602.836	20212.46
603.194	20187.38
603.552	20348.05
603.91	20373.36
604.268	20537.88
604.625	20559.12
604.983	20704.65
605.341	20719.79
605.698	20956.85
606.056	21049.05
606.413	21037.53
606.771	21220.12
607.128	21282.04
607.485	21375.6
607.843	21333.56
608.2	21577.4
608.557	21779.65
608.914	21769.48
609.272	21902.59
609.629	21980.55
609.986	22164.73
610.343	22113.88
610.7	22332.86
611.057	22397.94
611.414	22373.31
611.771	22480.88
612.127	22630.7
612.484	22659.86
612.841	22842.9
613.198	22820.08
613.554	22870.92
613.911	22989.79
614.267	23134.42
614.624	23094.42
614.98	23157.7
615.337	23274.53
615.693	23330.12
616.05	23422.1
616.406	23438.14
616.762	23414.86
617.118	23461.42
617.475	23551.36
617.831	23614.63
618.187	23680.17
618.543	23865.02
618.899	23942.08
619.255	23955.64
619.611	23911.12
619.967	24034.28
620.323	24169.87
620.678	24084.45
621.034	23967.84
621.39	24130.55
621.746	24075.86
622.101	24446.25
622.457	24137.56
622.812	24235.18
623.168	24303.2
623.523	24363.09
623.879	24543.65
624.234	24351.56
624.589	24491.45
624.945	24529.19
625.3	24495.51
625.655	24644.89
626.01	24508.85
626.365	24551.78
626.72	24535.29
627.075	24555.63
627.43	24579.81
627.785	24549.98
628.14	24540.03
628.495	24717.43
628.85	24645.79
629.205	24568.96
629.559	24775.96
629.914	24604.44
630.269	24626.58
630.623	24580.03
630.978	24617.09
631.332	24606.47
631.687	24733.25
632.041	24733.47
632.396	24659.8
632.75	24567.15
633.104	24573.25
633.459	24489.19
633.813	24528.73
634.167	24636.53
634.521	24601.27
634.875	24611.67
635.229	24606.47
635.583	24517.66
635.937	24455.74
636.291	24430.88
636.645	24437.89
636.999	24458.23
637.352	24500.49
637.706	24367.16
638.06	24470.2
638.413	24416.87
638.767	24396.31
639.121	24387.04
639.474	24284.67
639.828	24370.32
640.181	24249.42
640.534	24414.16
640.888	24366.25
641.241	24213.49
641.594	24318.12
641.947	24367.38
642.301	24320.83
642.654	24288.51
643.007	24401.96
643.36	24314.05
643.713	24192.47
644.066	24303.88
644.419	24296.65
644.771	24006.49
645.124	23820.05
645.477	23817.57
645.83	23571.24
646.182	23560.17
646.535	23477.69
646.888	23586.84
647.24	23419.38
647.593	23549.55
647.945	23487.18
648.298	23395.43
648.65	23438.59
649.002	23345.71
649.355	23456.9
649.707	23393.17
650.059	23632.26
650.411	23837.9
650.763	23888.98
651.115	24098.91
651.467	24034.96
651.819	24122.87
652.171	24081.51
652.523	23888.07
652.875	23990.22
653.227	23987.28
653.578	24122.87
653.93	24021.63
654.282	23881.07
654.633	23953.61
654.985	23999.71
655.337	23920.84
655.688	23923.33
656.039	24155.41
656.391	23931.46
656.742	23895.08
657.094	23975.98
657.445	24019.59
657.796	24021.18
658.147	23938.92
658.498	23988.18
658.849	24004.68
659.2	23993.15
659.551	23993.38
659.902	24051.23
660.253	23935.3
660.604	23958.58
660.955	23957.22
661.306	23990.22
661.656	24028.63
662.007	23933.04
662.358	23945.47
662.708	23909.31
663.059	24135.98
663.409	23942.99
663.76	24108.18
664.11	24102.76
664.461	24088.75
664.811	24058.69
665.161	23981.4
665.511	24031.57
665.862	24095.75
666.212	24127.16
666.562	24174.62
666.912	24064.56
667.262	24114.51
667.612	24101.63
667.962	24022.53
668.312	23953.83
668.662	24139.14
669.011	24063.89
669.361	23925.36
669.711	24009.65
670.06	23873.38
670.41	23987.28
670.76	23892.82
671.109	23842.88
671.459	23990.44
671.808	23946.83
672.157	23861.41
672.507	23792.71
672.856	23750.67
673.205	23846.49
673.554	23916.32
673.904	23836.1
674.253	23927.85
674.602	23975.98
674.951	23646.04
675.3	23430.68
675.649	23793.84
675.998	23774.63
676.346	23743.22
676.695	23746.16
677.044	23638.81
677.393	23673.39
677.741	23677.91
678.09	23572.37
678.438	23555.88
678.787	23616.89
679.135	23627.51
679.484	23531.92
679.832	23566.5
680.181	23317.24
680.529	23480.17
680.877	23366.28
681.225	23359.72
681.573	23442.66
681.922	23397.46
682.27	23190.01
682.618	23243.12
682.966	23215.77
683.314	23276.79
683.661	23178.94
684.009	23065.95
684.357	23085.38
684.705	22967.42
685.053	22996.34
685.4	22998.38
685.748	22880.87
686.095	22842.45
686.443	22802.68
686.79	22713.19
687.138	22768.78
687.485	22751.83
687.832	22516.36
688.18	22562.91
688.527	22554.55
688.874	22423.03
689.221	22436.13
689.568	22259.41
689.915	22225.29
690.262	22190.94
690.609	22122.47
690.956	22156.82
691.303	22132.41
691.65	21903.94
691.997	22004.28
692.344	21816.04
692.69	21824.62
693.037	21875.47
693.383	21671.63
693.73	21698.3
694.077	21609.49
694.423	21572.88
694.769	21381.7
695.116	21389.16
695.462	21402.26
695.808	21389.61
696.155	21394.13
696.501	21140.12
696.847	21153.23
697.193	20977.19
697.539	20970.64
697.885	20800.7
698.231	20791.43
698.577	20741.49
698.923	20706.24
699.269	20600.02
699.614	20551.21
699.96	20436.64
700.306	20447.26
700.651	20364.32
700.997	20224.44
701.342	20187.38
701.688	20196.87
702.033	20161.16
702.379	20098.34
702.724	20019.25
703.069	20061.28
703.415	19707.39
703.76	19893.83
704.105	19723.44
704.45	19662.87
704.795	19527.96
705.14	19492.48
705.485	19431.01
705.83	19404.35
706.175	19444.57
706.52	19296.33
706.865	19325.93
707.209	19299.04
707.554	19115.32
707.899	19160.74
708.243	19078.26
708.588	18996.45
708.932	18907.19
709.277	18918.26
709.621	18849.79
709.966	18793.29
710.31	18821.76
710.654	18645.95
710.998	18610.25
711.342	18636.69
711.687	18560.75
712.031	18448.22
712.375	18416.13
712.719	18529.34
713.063	18535.67
713.407	18444.15
713.75	18336.81
714.094	18287.54
714.438	18238.05
714.782	18256.81
715.125	18179.75
715.469	18177.04
715.812	18035.12
716.156	18026.76
716.499	17989.7
716.843	17923.71
717.186	17957.83
717.53	17969.36
717.873	18010.26
718.216	17899.76
718.559	17798.06
718.902	17711.06
719.246	17808.68
719.589	17804.16
719.932	17698.18
720.275	17745.41
720.617	17674
720.96	17685.07
721.303	17638.97
721.646	17760.55
721.989	17554
722.331	17601.46
722.674	17483.27
723.016	17596.03
723.359	17493.66
723.701	17577.28
724.044	17355.81
724.386	17390.62
724.729	17395.14
725.071	17412.54
725.413	17356.72
725.755	17291.18
726.097	17241.24
726.439	17232.2
726.782	17172.32
727.124	17288.47
727.465	17198.08
727.807	17278.3
728.149	17096.61
728.491	17142.26
728.833	17264.97
729.175	17135.71
729.516	17101.58
729.858	17092.54
730.199	17152.88
730.541	17063.62
730.882	17104.07
731.224	17078.99
731.565	16973.9
731.906	17074.92
732.248	17045.09
732.589	16986.11
732.93	16950.63
733.271	16921.25
733.612	17036.95
733.953	17024.07
734.294	16964.64
734.635	16944.53
734.976	17026.33
735.317	16760.12
735.658	16936.84
735.999	16914.7
736.339	16945.88
736.68	17001.02
737.021	16931.19
737.361	16902.49
737.702	17144.97
738.042	16886.9
738.383	16943.17
738.723	16916.96
739.063	16900.69
739.404	16951.31
739.744	17056.84
740.084	16935.71
740.424	17007.12
740.764	16980.01
741.104	16960.8
741.444	16881.7
741.784	16996.28
742.124	16974.36
742.464	16999.44
742.804	17040.34
743.143	16970.97
743.483	17098.87
743.823	17002.6
744.162	17077.63
744.502	17017.29
744.841	17104.75
745.181	17169.15
745.52	17230.85
745.86	17338.87
746.199	17250.51
746.538	17297.06
746.877	17401.69
747.216	17338.19
747.556	17440.78
747.895	17416.83
748.234	17502.48
748.573	17554.68
748.911	17592.64
749.25	17728.46
749.589	17741.57
749.928	17843.94
750.267	17882.81
750.605	17825.86
750.944	18019.53
751.283	18058.17
751.621	18112.63
751.96	18145.4
752.298	18240.09
752.636	18293.19
752.975	18396.24
753.313	18547.42
753.651	18668.1
753.989	18630.81
754.327	18722.33
754.666	18814.08
755.004	18934.3
755.342	19056.11
755.679	19126.62
756.017	19205.03
756.355	19419.26
756.693	19414.74
757.031	19616.09
757.368	19533.61
757.706	19719.14
758.044	19883.21
