Data from hue_160_FLMS001491_00028.txt Node
Date: Tue Feb 07 16:50:58 GMT 2017
User: dcchb
Spectrometer: FLMS00149
Trigger mode: 0
Integration Time (sec): 2.000000E-2
Scans to average: 10
Electric dark correction enabled: true
Nonlinearity correction enabled: false
Boxcar width: 0
XAxis mode: Wavelengths
Number of Pixels in Spectrum: 2048
>>>>>Begin Spectral Data<<<<<
341.393	-24.66
341.776	-24.66
342.16	-24.66
342.543	-61.72
342.927	-26.92
343.31	-82.96
343.693	-81.38
344.077	-48.84
344.46	-66.47
344.843	-45.9
345.226	-45.45
345.61	-19.01
345.993	-24.89
346.376	-4.55
346.759	11.5
347.142	43.13
347.525	56.24
347.908	39.07
348.291	59.63
348.674	100.99
349.057	108.9
349.44	134.21
349.823	143.02
350.206	160.19
350.588	203.36
350.971	200.64
351.354	227.76
351.737	228.67
352.119	244.71
352.502	247.87
352.884	269.57
353.267	291.26
353.65	289
354.032	307.76
354.414	311.15
354.797	319.74
355.179	328.78
355.562	322
355.944	326.97
356.326	321.77
356.709	324.71
357.091	338.04
357.473	335.56
357.855	334.43
358.238	343.92
358.62	352.73
359.002	324.48
359.384	340.53
359.766	340.53
360.148	334.88
360.53	352.28
360.912	354.09
361.294	316.57
361.676	338.95
362.057	340.75
362.439	336.01
362.821	327.19
363.203	326.29
363.584	320.64
363.966	329.45
364.348	321.77
364.729	336.91
365.111	316.8
365.493	325.61
365.874	332.39
366.256	323.81
366.637	301.43
367.019	305.5
367.4	325.39
367.781	335.56
368.163	327.65
368.544	325.84
368.925	306.86
369.306	304.14
369.688	301.66
370.069	301.21
370.45	299.4
370.831	322.68
371.212	319.06
371.593	298.27
371.974	320.42
372.355	296.01
372.736	319.06
373.117	333.52
373.498	307.76
373.879	312.96
374.26	323.13
374.641	306.18
375.021	298.04
375.402	330.13
375.783	313.86
376.163	308.44
376.544	329.91
376.925	317.7
377.305	309.34
377.686	329
378.066	336.01
378.447	323.35
378.827	319.74
379.208	339.62
379.588	336.46
379.968	340.53
380.349	333.97
380.729	314.09
381.109	346.63
381.489	329
381.87	353.86
382.25	334.65
382.63	346.18
383.01	332.39
383.39	349.34
383.77	319.74
384.15	347.99
384.53	352.96
384.91	345.95
385.29	359.06
385.67	357.48
386.049	346.63
386.429	356.8
386.809	364.26
387.189	358.15
387.568	355.67
387.948	355.22
388.328	360.19
388.707	337.36
389.087	367.65
389.466	355.44
389.846	363.8
390.225	380.98
390.605	364.03
390.984	371.94
391.363	365.84
391.743	364.03
392.122	378.94
392.501	370.81
392.881	387.31
393.26	375.56
393.639	375.33
394.018	386.4
394.397	364.48
394.776	371.04
395.155	374.65
395.534	384.37
395.913	384.37
396.292	416.23
396.671	372.17
397.05	372.17
397.429	370.81
397.808	390.24
398.186	387.53
398.565	396.12
398.944	399.51
399.323	399.06
399.701	398.38
400.08	395.89
400.458	405.61
400.837	392.73
401.215	401.54
401.594	397.48
401.972	405.84
402.351	412.62
402.729	415.1
403.107	420.98
403.486	425.27
403.864	423.92
404.242	403.35
404.62	413.07
404.999	393.18
405.377	432.95
405.755	423.24
406.133	415.78
406.511	417.14
406.889	437.02
407.267	430.02
407.645	425.5
408.023	419.85
408.401	448.32
408.779	442.67
409.156	443.58
409.534	461.65
409.912	448.32
410.29	448.77
410.667	459.85
411.045	450.13
411.422	453.52
411.8	469.56
412.178	464.82
412.555	454.65
412.933	481.32
413.31	476.8
413.687	459.85
414.065	476.12
414.442	487.64
414.819	476.8
415.197	493.29
415.574	503.69
415.951	503.69
416.328	518.83
416.705	501.43
417.082	522.44
417.46	519.96
417.837	523.57
418.214	526.29
418.591	507.3
418.967	539.17
419.344	512.5
419.721	529.45
420.098	503.24
420.475	562.89
420.852	540.3
421.228	560.41
421.605	547.98
421.982	549.79
422.358	580.52
422.735	567.19
423.111	557.47
423.488	580.3
423.864	554.76
424.241	573.74
424.617	564.7
424.994	554.53
425.37	595.44
425.746	589.56
426.123	596.11
426.499	602.67
426.875	597.02
427.251	615.32
427.627	618.49
428.003	639.5
428.379	627.98
428.756	643.34
429.132	631.37
429.507	627.07
429.883	643.57
430.259	636.79
430.635	636.11
431.011	658.71
431.387	645.38
431.763	699.39
432.138	656.9
432.514	691.93
432.89	696.68
433.265	714.76
433.641	699.16
434.016	686.96
434.392	709.56
434.767	738.94
435.143	719.27
435.518	725.6
435.894	752.49
436.269	733.51
436.644	767.86
437.02	765.15
437.395	762.44
437.77	787.75
438.145	776.67
438.52	808.54
438.895	793.17
439.271	816.9
439.646	848.76
440.021	825.26
440.395	832.49
440.77	816.67
441.145	834.75
441.52	845.15
441.895	851.02
442.27	843.57
442.645	891.47
443.019	872.27
443.394	871.59
443.769	876.56
444.143	861.42
444.518	885.15
444.892	892.83
445.267	906.61
445.641	896.67
446.016	908.42
446.39	907.29
446.764	935.99
447.139	929.66
447.513	912.94
447.887	941.42
448.262	909.78
448.636	935.77
449.01	965.37
449.384	978.48
449.758	943.22
450.132	975.77
450.506	973.28
450.88	996.78
451.254	981.19
451.628	1002.88
452.002	1007.85
452.376	1020.96
452.75	1004.24
453.123	1040.4
453.497	1054.41
453.871	1084.01
454.244	1074.97
454.618	1111.13
454.992	1098.7
455.365	1110.45
455.739	1110.23
456.112	1156.1
456.486	1148.87
456.859	1145.03
457.232	1164.69
457.606	1176.89
457.979	1209.21
458.352	1207.17
458.725	1247.17
459.099	1267.96
459.472	1228.87
459.845	1255.76
460.218	1293.72
460.591	1276.32
460.964	1328.3
461.337	1332.82
461.71	1327.85
462.083	1371.91
462.456	1389.09
462.829	1384.57
463.201	1405.81
463.574	1441.52
463.947	1444
464.32	1485.13
464.692	1476.09
465.065	1506.82
465.438	1511.8
465.81	1549.76
466.183	1582.3
466.555	1613.04
466.928	1625.47
467.3	1661.85
467.672	1693.49
468.045	1700.27
468.417	1718.34
468.789	1784.78
469.161	1792.69
469.534	1800.83
469.906	1826.36
470.278	1834.27
470.65	1912.92
471.022	1932.35
471.394	1971.9
471.766	2008.05
472.138	2036.3
472.51	2086.47
472.882	2114.94
473.253	2158.11
473.625	2234.94
473.997	2274.71
474.369	2334.83
474.74	2315.39
475.112	2382.96
475.484	2446.01
475.855	2524.2
476.227	2547.93
476.598	2647.13
476.97	2673.8
477.341	2774.81
477.713	2832.21
478.084	2830.63
478.455	2946.33
478.827	3015.49
479.198	3123.28
479.569	3158.53
479.94	3258.87
480.311	3354.01
480.682	3424.74
481.053	3546.32
481.424	3652.53
481.795	3701.8
482.166	3796.26
482.537	3888.23
482.908	3997.61
483.279	4034.89
483.65	4206.41
484.021	4281.89
484.391	4370.48
484.762	4459.97
485.133	4591.94
485.503	4699.51
485.874	4870.13
486.244	4936.34
486.615	5032.38
486.985	5163.45
487.356	5277.8
487.726	5410.22
488.097	5541.75
488.467	5612.25
488.837	5768.86
489.207	5880.5
489.578	6047.04
489.948	6167.49
490.318	6316.19
490.688	6303.76
491.058	6541.49
491.428	6642.51
491.798	6821.49
492.168	6960.69
492.538	7063.06
492.908	7181.7
493.278	7289.27
493.648	7433
494.017	7518.19
494.387	7579.43
494.757	7752.31
495.126	7921.57
495.496	8035.24
495.866	8065.3
496.235	8187.33
496.605	8380.32
496.974	8475.91
497.344	8548.22
497.713	8622.12
498.082	8734.66
498.452	8854.43
498.821	8912.28
499.19	8994.31
499.559	9173.06
499.928	9223.91
500.298	9308.43
500.667	9387.97
501.036	9486.28
501.405	9594.75
501.774	9648.76
502.143	9753.16
502.512	9766.95
502.88	9946.6
503.249	9867.96
503.618	10008.52
503.987	10082.19
504.356	10108.63
504.724	10227.73
505.093	10329.42
505.462	10410.32
505.83	10402.86
506.199	10556.76
506.567	10694.61
506.936	10632.01
507.304	10737.09
507.672	10817.77
508.041	10932.79
508.409	10907.26
508.777	11020.02
509.145	10977.08
509.514	11076.52
509.882	11230.41
510.25	11137.08
510.618	11200.58
510.986	11228.6
511.354	11340.24
511.722	11396.96
512.09	11481.25
512.458	11471.08
512.826	11599.67
513.193	11550.4
513.561	11613.45
513.929	11640.57
514.297	11815.25
514.664	11819.77
515.032	11882.6
515.4	11879.43
515.767	11827.68
516.135	11890.96
516.502	11856.61
516.869	12055.93
517.237	12051.18
517.604	11918.98
517.972	12022.03
518.339	12092.76
518.706	12083.04
519.073	12130.73
519.44	12183.38
519.808	12322.59
520.175	12207.11
520.542	12268.35
520.909	12359.65
521.276	12292.98
521.643	12405.07
522.009	12368.69
522.376	12487.33
522.743	12483.03
523.11	12537.72
523.477	12644.16
523.843	12632.18
524.21	12697.72
524.577	12770.94
524.943	12720.99
525.31	12764.16
525.676	12813.19
526.043	12761.22
526.409	12805.51
526.776	12861.1
527.142	12889.8
527.508	12825.17
527.874	12803.25
528.241	12890.93
528.607	12957.37
528.973	12984.04
529.339	12903.14
529.705	12970.7
530.071	12944.72
530.437	12958.28
530.803	13010.93
531.169	12964.15
531.535	12951.04
531.901	12927.09
532.267	12865.62
532.632	12852.74
532.998	12927.32
533.364	12948.33
533.73	12944.94
534.095	12881.44
534.461	12855.45
534.826	12905.85
535.192	12858.62
535.557	12830.59
535.923	12808.67
536.288	12784.04
536.653	12811.61
537.019	12702.01
537.384	12711.95
537.749	12804.38
538.114	12711.05
538.479	12598.51
538.845	12669.02
539.21	12532.52
539.575	12560.09
539.94	12525.52
540.305	12617.49
540.67	12502.47
541.034	12446.88
541.399	12448.46
541.764	12417.72
542.129	12481.23
542.494	12326.2
542.858	12425.63
543.223	12211.4
543.587	12324.17
543.952	12297.05
544.316	12181.35
544.681	12122.14
545.045	12163.27
545.41	12217.73
545.774	12165.53
546.138	12024.97
546.503	11976.15
546.867	11910.39
547.231	12025.87
547.595	11953.56
547.959	11889.15
548.324	11871.3
548.688	11818.64
549.052	11814.35
549.416	11805.76
549.779	11779.32
550.143	11753.79
550.507	11799.21
550.871	11667.69
551.235	11680.57
551.599	11650.51
551.962	11668.14
552.326	11575.49
552.689	11619.55
553.053	11553.57
553.417	11535.26
553.78	11592.44
554.143	11494.36
554.507	11490.07
554.87	11478.31
555.234	11483.51
555.597	11374.59
555.96	11360.13
556.323	11412.1
556.686	11382.95
557.05	11429.05
557.413	11397.64
557.776	11409.84
558.139	11398.54
558.502	11342.72
558.865	11337.07
559.228	11296.4
559.59	11316.28
559.953	11332.1
560.316	11377.53
560.679	11378.88
561.041	11389.28
561.404	11347.92
561.767	11375.04
562.129	11321.26
562.492	11334.81
562.854	11434.93
563.217	11319
563.579	11352.22
563.941	11350.86
564.304	11351.54
564.666	11410.52
565.028	11410.97
565.39	11442.38
565.753	11449.84
566.115	11471.08
566.477	11422.27
566.839	11431.08
567.201	11488.48
567.563	11489.61
567.925	11513.34
568.287	11512.21
568.648	11463.85
569.01	11481.03
569.372	11577.29
569.734	11484.19
570.095	11615.71
570.457	11518.31
570.819	11503.17
571.18	11538.2
571.542	11536.17
571.903	11591.98
572.265	11619.1
572.626	11653.9
572.987	11574.36
573.349	11656.61
573.71	11641.25
574.071	11616.84
574.432	11598.08
574.794	11720.57
575.155	11626.11
575.516	11564.87
575.877	11590.18
576.238	11637.41
576.599	11688.25
576.96	11633.34
577.32	11700.91
577.681	11657.07
578.042	11682.38
578.403	11656.39
578.763	11687.8
579.124	11701.13
579.485	11681.25
579.845	11794.69
580.206	11662.94
580.566	11748.14
580.927	11617.75
581.287	11831.98
581.648	11648.93
582.008	11737.52
582.368	11686.22
582.728	11703.39
583.089	11663.62
583.449	11657.74
583.809	11698.42
584.169	11658.42
584.529	11618.65
584.889	11664.98
585.249	11650.96
585.609	11576.62
585.969	11690.74
586.329	11537.97
586.688	11645.77
587.048	11577.75
587.408	11538.65
587.768	11578.65
588.127	11558.31
588.487	11526.9
588.846	11525.32
589.206	11505.66
589.565	11570.06
589.925	11524.64
590.284	11559.22
590.643	11540.23
591.003	11515.38
591.362	11634.47
591.721	11515.15
592.08	11528.48
592.44	11490.07
592.799	11474.92
593.158	11539.33
593.517	11493
593.876	11450.07
594.235	11443.29
594.593	11507.92
594.952	11517.41
595.311	11465.66
595.67	11501.82
596.029	11485.32
596.387	11413
596.746	11483.06
597.104	11492.32
597.463	11483.74
597.822	11397.86
598.18	11391.54
598.538	11442.38
598.897	11418.65
599.255	11309.73
599.613	11512.21
599.972	11458.2
600.33	11371.2
600.688	11408.03
601.046	11491.2
601.404	11400.58
601.762	11482.16
602.12	11477.41
602.478	11478.54
602.836	11461.82
603.194	11383.4
603.552	11370.29
603.91	11346.57
604.268	11479.22
604.625	11406.45
604.983	11457.07
605.341	11356.74
605.698	11457.52
606.056	11480.8
606.413	11445.32
606.771	11449.61
607.128	11427.92
607.485	11420.46
607.843	11429.95
608.2	11485.32
608.557	11573.23
608.914	11487.13
609.272	11534.58
609.629	11461.82
609.986	11557.86
610.343	11531.19
610.7	11471.76
611.057	11473.12
611.414	11494.58
611.771	11511.53
612.127	11529.16
612.484	11563.96
612.841	11544.75
613.198	11481.25
613.554	11586.56
613.911	11562.38
614.267	11619.55
614.624	11650.96
614.98	11620.91
615.337	11686.44
615.693	11676.73
616.05	11628.14
616.406	11685.99
616.762	11756.27
617.118	11721.25
617.475	11653.22
617.831	11743.17
618.187	11776.61
618.543	11696.84
618.899	11748.59
619.255	11743.84
619.611	11700.46
619.967	11757.4
620.323	11786.55
620.678	11724.64
621.034	11699.55
621.39	11778.19
621.746	11690.06
622.101	11855.03
622.457	11723.73
622.812	11740
623.168	11738.42
623.523	11728.48
623.879	11765.09
624.234	11676.5
624.589	11686.44
624.945	11757.4
625.3	11758.98
625.655	11769.15
626.01	11655.94
626.365	11753.56
626.72	11786.33
627.075	11740.45
627.43	11715.82
627.785	11735.03
628.14	11792.43
628.495	11768.93
628.85	11781.36
629.205	11648.71
629.559	11711.98
629.914	11724.41
630.269	11661.36
630.623	11637.86
630.978	11633.11
631.332	11616.16
631.687	11679.44
632.041	11638.08
632.396	11614.13
632.75	11547.24
633.104	11575.94
633.459	11573
633.813	11603.51
634.167	11556.73
634.521	11590.63
634.875	11589.27
635.229	11480.57
635.583	11429.05
635.937	11504.75
636.291	11504.08
636.645	11477.41
636.999	11499.33
637.352	11461.82
637.706	11412.55
638.06	11398.09
638.413	11379.11
638.767	11349.28
639.121	11439.22
639.474	11321.71
639.828	11372.33
640.181	11324.65
640.534	11375.72
640.888	11260.92
641.241	11185.67
641.594	11231.99
641.947	11325.55
642.301	11252.11
642.654	11321.93
643.007	11308.83
643.36	11266.79
643.713	11238.09
644.066	11271.09
644.419	11171.2
644.771	11158.1
645.124	11027.25
645.477	11018.67
645.83	10898.22
646.182	10875.17
646.535	10891.44
646.888	10918.55
647.24	10845.79
647.593	10899.12
647.945	10894.83
648.298	10828.39
648.65	10867.26
649.002	10823.42
649.355	10860.7
649.707	10868.84
650.059	10872.91
650.411	11006.69
650.763	11121.94
651.115	11161.49
651.467	11118.55
651.819	11117.19
652.171	11151.99
652.523	11110.19
652.875	11068.83
653.227	11088.27
653.578	11120.58
653.93	11114.48
654.282	11083.3
654.633	11070.42
654.985	11079.45
655.337	11102.96
655.688	11166.46
656.039	11147.48
656.391	11009.17
656.742	11103.86
657.094	11102.28
657.445	11148.83
657.796	11114.93
658.147	11049.17
658.498	11045.11
658.849	11083.75
659.2	11104.99
659.551	11114.93
659.902	11135.5
660.253	11174.59
660.604	11084.88
660.955	11061.38
661.306	11143.18
661.656	11179.34
662.007	11138.66
662.358	11135.95
662.708	11180.47
663.059	11154.71
663.409	11106.35
663.76	11185.89
664.11	11133.92
664.461	11183.63
664.811	11191.09
665.161	11162.62
665.511	11140.24
665.862	11137.98
666.212	11260.92
666.562	11230.86
666.912	11168.72
667.262	11238.77
667.612	11193.58
667.962	11211.88
668.312	11136.18
668.662	11180.24
669.011	11184.99
669.361	11193.35
669.711	11243.07
670.06	11144.99
670.41	11124.43
670.76	11125.33
671.109	11164.65
671.459	11119.68
671.808	11080.36
672.157	11103.86
672.507	11011.89
672.856	11082.84
673.205	11144.54
673.554	11062.96
673.904	11041.26
674.253	11128.94
674.602	11078.55
674.951	10877.43
675.3	10908.39
675.649	11048.49
675.998	11074.93
676.346	11064.31
676.695	11054.82
677.044	10972.11
677.393	11003.52
677.741	10990.64
678.09	10969.4
678.438	11002.85
678.787	10926.46
679.135	10946.8
679.484	10909.74
679.832	10876.75
680.181	10822.06
680.529	10903.41
680.877	10823.19
681.225	10763.08
681.573	10895.96
681.922	10834.72
682.27	10732.12
682.618	10780.93
682.966	10776.19
683.314	10811.21
683.661	10698.9
684.009	10592.69
684.357	10637.43
684.705	10659.8
685.053	10554.5
685.4	10630.2
685.748	10505.91
686.095	10517.89
686.443	10517.66
686.79	10418.23
687.138	10516.31
687.485	10476.53
687.832	10544.33
688.18	10444.89
688.527	10401.73
688.874	10296.88
689.221	10323.54
689.568	10317.67
689.915	10262.53
690.262	10281.06
690.609	10267.5
690.956	10174.17
691.303	10155.41
691.65	10124.9
691.997	10161.29
692.344	10055.07
692.69	10019.37
693.037	10038.13
693.383	9926.72
693.73	9982.53
694.077	9924.23
694.423	9913.38
694.769	9888.75
695.116	9850.56
695.462	9815.76
695.808	9807.62
696.155	9726.95
696.501	9691.24
696.847	9679.49
697.193	9661.64
697.539	9643.56
697.885	9556.78
698.231	9476.33
698.577	9543
698.923	9502.55
699.269	9393.85
699.614	9382.55
699.96	9368.31
700.306	9276.34
700.651	9356.79
700.997	9250.8
701.342	9276.79
701.688	9177.58
702.033	9190.92
702.379	9163.8
702.724	9101.2
703.069	9128.32
703.415	9096.91
703.76	9079.28
704.105	9033.63
704.45	8994.31
704.795	8922.45
705.14	8881.32
705.485	8914.31
705.83	8839.97
706.175	8841.55
706.52	8802.9
706.865	8804.94
707.209	8813.75
707.554	8757.71
707.899	8689.91
708.243	8720.65
708.588	8614.43
708.932	8619.86
709.277	8618.73
709.621	8588.9
709.966	8522.23
710.31	8563.36
710.654	8451.05
710.998	8504.61
711.342	8508
711.687	8447.43
712.031	8435.46
712.375	8346.87
712.719	8399.75
713.063	8383.48
713.407	8403.59
713.75	8392.97
714.094	8344.84
714.438	8329.02
714.782	8372.41
715.125	8282.24
715.469	8342.58
715.812	8295.35
716.156	8173.77
716.499	8197.72
716.843	8168.57
717.186	8178.51
717.53	8233.88
717.873	8240.89
718.216	8201.34
718.559	8116.37
718.902	8099.42
719.246	8129.02
719.589	8085.18
719.932	8131.51
720.275	8111.17
720.617	8099.65
720.96	8100.32
721.303	8055.81
721.646	8079.08
721.989	8060.78
722.331	8050.16
722.674	8032.98
723.016	8010.16
723.359	8042.92
723.701	8069.82
724.044	7982.36
724.386	7983.72
724.729	7963.38
725.071	7983.49
725.413	7925.64
725.755	7919.09
726.097	7949.14
726.439	7859.65
726.782	7906.66
727.124	7916.15
727.465	7920.67
727.807	7841.35
728.149	7894.91
728.491	7879.99
728.833	7879.76
729.175	7872.53
729.516	7876.6
729.858	7853.55
730.199	7915.7
730.541	7887.22
730.882	7832.08
731.224	7890.16
731.565	7822.36
731.906	7917.5
732.248	7830.5
732.589	7819.2
732.93	7819.2
733.271	7804.96
733.612	7859.65
733.953	7921.57
734.294	7852.19
734.635	7888.13
734.976	7853.78
735.317	7908.69
735.658	7828.01
735.999	7846.09
736.339	7828.47
736.68	7869.37
737.021	7922.25
737.361	7828.92
737.702	7826.43
738.042	7928.12
738.383	7863.95
738.723	7874.79
739.063	7864.85
739.404	7918.86
739.744	7928.8
740.084	7961.34
740.424	7924.06
740.764	7974.68
741.104	7975.13
741.444	7955.24
741.784	7942.14
742.124	8050.83
742.464	8064.39
742.804	8019.2
743.143	8022.36
743.483	8066.65
743.823	8013.55
744.162	8027.11
744.502	8100.32
744.841	8134
745.181	8186.88
745.52	8194.56
745.86	8286.08
746.199	8220.32
746.538	8326.08
746.877	8344.39
747.216	8376.47
747.556	8452.4
747.895	8417.6
748.234	8497.6
748.573	8574.89
748.911	8672.29
749.25	8675.9
749.589	8723.58
749.928	8774.2
750.267	8892.62
750.605	8877.93
750.944	8954.31
751.283	8992.05
751.621	9072.05
751.96	9133.52
752.298	9271.82
752.636	9379.39
752.975	9439.95
753.313	9460.29
753.651	9640.85
753.989	9700.96
754.327	9824.35
754.666	9879.71
755.004	10014.4
755.342	10190.44
755.679	10230.21
756.017	10397.89
756.355	10520.6
756.693	10637.66
757.031	10733.7
757.368	10866.8
757.706	10990.19
758.044	11161.49
758.381	11311.54
758.719	11419.33
759.056	11613.45
759.394	11752.66
759.731	11882.15
