Data from hue_280_FLMS001491_00027.txt Node
Date: Tue Feb 07 15:55:03 GMT 2017
User: dcchb
Spectrometer: FLMS00149
Trigger mode: 0
Integration Time (sec): 2.000000E-2
Scans to average: 10
Electric dark correction enabled: true
Nonlinearity correction enabled: false
Boxcar width: 0
XAxis mode: Wavelengths
Number of Pixels in Spectrum: 2048
>>>>>Begin Spectral Data<<<<<
341.393	-21.54
341.776	-21.54
342.16	-21.54
342.543	-61.54
342.927	-61.54
343.31	-76.45
343.693	-79.62
344.077	-69.45
344.46	-33.97
344.843	-66.51
345.226	-52.5
345.61	-35.78
345.993	-14.76
346.376	8.06
346.759	20.04
347.142	32.7
347.525	44.22
347.908	58.46
348.291	81.28
348.674	90.1
349.057	94.16
349.44	126.71
349.823	119.02
350.206	162.64
350.588	160.6
350.971	195.63
351.354	215.97
351.737	234.27
352.119	258.23
352.502	266.14
352.884	263.65
353.267	274.5
353.65	276.08
354.032	287.61
354.414	302.29
354.797	311.11
355.179	314.95
355.562	310.2
355.944	316.08
356.326	324.21
356.709	308.17
357.091	313.14
357.473	314.72
357.855	327.15
358.238	321.95
358.62	309.53
359.002	321.95
359.384	334.38
359.766	336.42
360.148	320.6
360.53	324.89
360.912	327.83
361.294	328.28
361.676	319.24
362.057	324.21
362.439	298
362.821	308.17
363.203	314.5
363.584	318.57
363.966	316.76
364.348	308.4
364.729	300.49
365.111	302.75
365.493	293.26
365.874	301.16
366.256	307.94
366.637	306.36
367.019	292.35
367.4	310.88
367.781	319.02
368.163	292.8
368.544	290.77
368.925	298.45
369.306	306.59
369.688	313.37
370.069	319.02
370.45	315.18
370.831	305.23
371.212	318.11
371.593	297.32
371.974	309.07
372.355	295.74
372.736	324.44
373.117	305.68
373.498	307.04
373.879	295.97
374.26	294.61
374.641	315.4
375.021	316.98
375.402	316.76
375.783	324.44
376.163	312.46
376.544	326.47
376.925	314.95
377.305	322.63
377.686	322.18
378.066	311.11
378.447	319.92
378.827	319.69
379.208	334.61
379.588	312.46
379.968	302.29
380.349	301.39
380.729	333.93
381.109	344.55
381.489	322.18
381.87	343.2
382.25	342.75
382.63	346.13
383.01	333.93
383.39	351.11
383.77	342.75
384.15	328.28
384.53	331.45
384.91	349.75
385.29	331.9
385.67	352.46
386.049	335.74
386.429	352.01
386.809	339.58
387.189	353.37
387.568	357.21
387.948	357.43
388.328	359.24
388.707	359.69
389.087	361.05
389.466	342.97
389.846	332.8
390.225	358.34
390.605	368.06
390.984	368.51
391.363	361.95
391.743	357.89
392.122	361.5
392.501	377.77
392.881	376.42
393.26	356.53
393.639	384.33
394.018	385
394.397	380.71
394.776	380.03
395.155	393.59
395.534	381.16
395.913	385
396.292	376.42
396.671	391.56
397.05	365.12
397.429	380.26
397.808	391.56
398.186	399.92
398.565	404.21
398.944	408.96
399.323	412.8
399.701	391.56
400.08	405.34
400.458	403.99
400.837	394.27
401.215	410.54
401.594	413.25
401.972	434.27
402.351	423.2
402.729	439.69
403.107	430.65
403.486	422.74
403.864	434.49
404.242	430.88
404.62	443.53
404.999	446.25
405.377	436.3
405.755	455.06
406.133	455.28
406.511	459.35
406.889	453.48
407.267	483.98
407.645	488.05
408.023	473.82
408.401	476.98
408.779	484.44
409.156	468.84
409.534	485.34
409.912	490.76
410.29	508.84
410.667	504.55
411.045	507.03
411.422	513.59
411.8	533.02
412.178	531.89
412.555	536.41
412.933	521.72
413.31	551.55
413.687	564.66
414.065	581.16
414.442	591.78
414.819	583.19
415.197	591.55
415.574	589.74
415.951	610.53
416.328	599.46
416.705	634.04
417.082	626.13
417.46	627.94
417.837	638.1
418.214	629.29
418.591	659.35
418.967	664.32
419.344	624.32
419.721	652.57
420.098	686.24
420.475	689.4
420.852	692.34
421.228	700.25
421.605	706.35
421.982	714.49
422.358	704.54
422.735	740.93
423.111	736.41
423.488	750.42
423.864	738.89
424.241	770.98
424.617	780.93
424.994	782.51
425.37	810.3
425.746	799.68
426.123	801.94
426.499	816.86
426.875	859.57
427.251	849.4
427.627	828.16
428.003	886.91
428.379	882.17
428.756	871.09
429.132	888.72
429.507	885.1
429.883	926.46
430.259	935.27
430.635	944.09
431.011	948.61
431.387	968.94
431.763	990.64
432.138	996.51
432.514	996.06
432.89	1000.13
433.265	1032.67
433.641	1026.57
434.016	1056.62
434.392	1045.55
434.767	1101.82
435.143	1084.19
435.518	1089.84
435.894	1140.92
436.269	1133.46
436.644	1143.4
437.02	1168.03
437.395	1170.29
437.77	1169.16
438.145	1193.57
438.52	1210.07
438.895	1226.56
439.271	1243.96
439.646	1272.66
440.021	1265.66
440.395	1312.21
440.77	1285.55
441.145	1277.41
441.52	1308.14
441.895	1312.44
442.27	1329.84
442.645	1312.89
443.019	1362.15
443.394	1365.54
443.769	1365.09
444.143	1386.56
444.518	1405.32
444.892	1380.23
445.267	1387.69
445.641	1435.37
446.016	1424.75
446.39	1435.37
446.764	1414.81
447.139	1406.67
447.513	1462.49
447.887	1451.19
448.262	1460.23
448.636	1444.64
449.01	1471.08
449.384	1509.27
449.758	1486.22
450.132	1532.09
450.506	1506.1
450.88	1485.99
451.254	1525.54
451.628	1550.4
452.002	1554.69
452.376	1584.75
452.75	1571.19
453.123	1593.11
453.497	1624.75
453.871	1608.02
454.244	1625.2
454.618	1645.08
454.992	1667.23
455.365	1667
455.739	1692.31
456.112	1701.13
456.486	1743.61
456.859	1716.49
457.232	1750.17
457.606	1757.17
457.979	1744.29
458.352	1785.87
458.725	1810.28
459.099	1816.83
459.472	1815.02
459.845	1868.58
460.218	1897.96
460.591	1867.68
460.964	1869.94
461.337	1928.24
461.71	1963.72
462.083	1973.21
462.456	1966.21
462.829	1961.23
463.201	2001.01
463.574	1995.81
463.947	2029.71
464.32	2077.39
464.692	2092.53
465.065	2079.87
465.438	2116.48
465.81	2149.25
466.183	2131.4
466.555	2160.55
466.928	2171.62
467.3	2177.95
467.672	2240.77
468.045	2251.85
468.417	2274.22
468.789	2275.12
469.161	2313.77
469.534	2330.04
469.906	2384.95
470.278	2388.57
470.65	2434.89
471.022	2414.78
471.394	2432.41
471.766	2493.88
472.138	2480.77
472.51	2549.24
472.882	2590.37
473.253	2589.47
473.625	2639.41
473.997	2684.15
474.369	2694.32
474.74	2702.68
475.112	2749.24
475.484	2772.06
475.855	2790.82
476.227	2857.26
476.598	2873.3
476.97	2914.43
477.341	2977.25
477.713	2967.08
478.084	3006.63
478.455	3087.31
478.827	3088.44
479.198	3116.01
479.569	3140.41
479.94	3207.53
480.311	3230.8
480.682	3277.58
481.053	3372.04
481.424	3372.95
481.795	3428.54
482.166	3432.61
482.537	3478.03
482.908	3573.85
483.279	3588.76
483.65	3626.27
484.021	3645.26
484.391	3686.39
484.762	3718.48
485.133	3779.27
485.503	3773.39
485.874	3847.06
486.244	3830.11
486.615	3903.1
486.985	3917.11
487.356	4020.39
487.726	4023.33
488.097	4140.39
488.467	4071.91
488.837	4185.58
489.207	4218.35
489.578	4242.53
489.948	4242.76
490.318	4311.91
490.688	4356.88
491.058	4405.24
491.428	4456.76
491.798	4439.36
492.168	4511.22
492.538	4546.02
492.908	4590.77
493.278	4617.66
493.648	4604.55
494.017	4664.67
494.387	4720.71
494.757	4754.83
495.126	4796.87
495.496	4771.56
495.866	4808.62
496.235	4823.98
496.605	4862.85
496.974	4874.6
497.344	4920.03
497.713	4935.39
498.082	4972
498.452	5039.57
498.821	5068.5
499.19	5041.6
499.559	5091.77
499.928	5132.45
500.298	5079.12
500.667	5179.45
501.036	5139
501.405	5210.64
501.774	5207.48
502.143	5230.98
502.512	5236.63
502.88	5243.18
503.249	5249.06
503.618	5289.73
503.987	5317.53
504.356	5332.44
504.724	5411.54
505.093	5377.19
505.462	5387.81
505.83	5388.71
506.199	5493.57
506.567	5462.38
506.936	5463.74
507.304	5518.65
507.672	5500.35
508.041	5568.6
508.409	5599.56
508.777	5600.91
509.145	5665.32
509.514	5601.36
509.882	5647.46
510.25	5698.31
510.618	5712.32
510.986	5714.81
511.354	5698.54
511.722	5771.53
512.09	5787.8
512.458	5809.49
512.826	5820.34
513.193	5872.09
513.561	5850.17
513.929	5824.86
514.297	5919.32
514.664	5873
515.032	5937.63
515.4	5897.63
515.767	5969.72
516.135	5992.77
516.502	5941.69
516.869	5983.95
517.237	5997.74
517.604	6023.05
517.972	6094.46
518.339	6064.18
518.706	6055.82
519.073	6143.72
519.44	6113.67
519.808	6150.95
520.175	6121.8
520.542	6214.91
520.909	6218.3
521.276	6227.56
521.643	6267.11
522.009	6227.79
522.376	6257.84
522.743	6290.84
523.11	6359.08
523.477	6336.26
523.843	6366.99
524.21	6427.56
524.577	6465.3
524.943	6461.68
525.31	6451.51
525.676	6546.42
526.043	6571.96
526.409	6553.2
526.776	6582.36
527.142	6685.63
527.508	6646.53
527.874	6720.2
528.241	6772.18
528.607	6740.32
528.973	6804.04
529.339	6736.7
529.705	6842.69
530.071	6864.16
530.437	6867.32
530.803	6894.66
531.169	6858.51
531.535	6875.23
531.901	6863.93
532.267	6954.32
532.632	7022.12
532.998	7041.1
533.364	7049.46
533.73	7000.42
534.095	7051.72
534.461	7039.97
534.826	7116.58
535.192	7093.53
535.557	7155.45
535.923	7140.76
536.288	7164.03
536.653	7136.01
537.019	7169.01
537.384	7170.36
537.749	7217.37
538.114	7245.61
538.479	7262.34
538.845	7279.96
539.21	7248.1
539.575	7255.78
539.94	7260.53
540.305	7329.68
540.67	7294.88
541.034	7329.23
541.399	7310.02
541.764	7336.01
542.129	7320.87
542.494	7413.29
542.858	7431.37
543.223	7385.05
543.587	7489.45
543.952	7470.47
544.316	7431.82
544.681	7481.09
545.045	7526.96
545.41	7530.8
545.774	7568.32
546.138	7545.04
546.503	7506.17
546.867	7549.11
547.231	7608.77
547.595	7606.06
547.959	7585.04
548.324	7667.52
548.688	7611.93
549.052	7637.02
549.416	7667.07
549.779	7720.63
550.143	7705.49
550.507	7675.66
550.871	7667.3
551.235	7684.93
551.599	7769.22
551.962	7763.34
552.326	7765.15
552.689	7791.81
553.053	7767.63
553.417	7815.54
553.78	7877.01
554.143	7819.61
554.507	7873.62
554.87	7853.28
555.234	7915.43
555.597	7900.51
555.96	7867.29
556.323	7989.55
556.686	7915.43
557.05	8020.74
557.413	8031.58
557.776	7999.27
558.139	7963.11
558.502	8069.1
558.865	8046.5
559.228	8085.14
559.59	8125.14
559.953	8151.58
560.316	8223.89
560.679	8163.56
561.041	8223.89
561.404	8200.39
561.767	8307.06
562.129	8272.03
562.492	8337.79
562.854	8327.85
563.217	8309.54
563.579	8308.41
563.941	8356.55
564.304	8445.13
564.666	8468.18
565.028	8460.27
565.39	8523.32
565.753	8497.79
566.115	8556.99
566.477	8570.78
566.839	8655.97
567.201	8686.03
567.563	8694.62
567.925	8722.41
568.287	8736.65
568.648	8798.57
569.01	8785.01
569.372	8835.18
569.734	8801.05
570.095	8912.69
570.457	8924.67
570.819	8904.78
571.18	8904.33
571.542	8986.59
571.903	8985.91
572.265	9056.64
572.626	9032.01
572.987	9098.9
573.349	9142.97
573.71	9186.13
574.071	9191.78
574.432	9269.52
574.794	9264.09
575.155	9256.18
575.516	9295.73
575.877	9362.17
576.238	9422.28
576.599	9415.5
576.96	9425.67
577.32	9468.38
577.681	9500.7
578.042	9617.76
578.403	9574.14
578.763	9687.36
579.124	9695.49
579.485	9727.36
579.845	9760.58
580.206	9820.46
580.566	9813.46
580.927	9885.55
581.287	9930.29
581.648	10008.48
582.008	10065.2
582.368	10055.48
582.728	10073.79
583.089	10157.4
583.449	10171.19
583.809	10256.61
584.169	10292.99
584.529	10321.24
584.889	10439.43
585.249	10437.85
585.609	10449.37
585.969	10613.21
586.329	10626.77
586.688	10672.42
587.048	10710.83
587.408	10705.41
587.768	10861.79
588.127	10908.57
588.487	10934.33
588.846	11061.79
589.206	11069.24
589.565	11126.87
589.925	11195.12
590.284	11231.95
590.643	11282.34
591.003	11372.06
591.362	11490.47
591.721	11467.65
592.08	11560.53
592.44	11692.05
592.799	11715.78
593.158	11829.22
593.517	11775.44
593.876	11919.16
594.235	11897.7
594.593	12054.75
594.952	11988.54
595.311	12054.53
595.67	12141.76
596.029	12225.14
596.387	12350.79
596.746	12389.21
597.104	12396.44
597.463	12435.53
597.822	12503.33
598.18	12516.44
598.538	12564.34
598.897	12745.81
599.255	12679.14
599.613	12878.01
599.972	12850.44
600.33	12901.51
600.688	12913.71
601.046	13016.08
601.404	13134.5
601.762	13143.31
602.12	13183.76
602.478	13240.94
602.836	13251.56
603.194	13299.69
603.552	13266.47
603.91	13349.18
604.268	13406.13
604.625	13421.5
604.983	13421.27
605.341	13393.02
605.698	13576.52
606.056	13529.52
606.413	13654.03
606.771	13611.32
607.128	13689.74
607.485	13603.41
607.843	13656.52
608.2	13754.37
608.557	13876.85
608.914	13853.12
609.272	13947.13
609.629	13979
609.986	14011.99
610.343	13968.38
610.7	14095.83
611.057	14051.54
611.414	14094.47
611.771	14182.38
612.127	14154.59
612.484	14205.88
612.841	14240.91
613.198	14269.61
613.554	14280.46
613.911	14466.44
614.267	14382.83
614.624	14360
614.98	14473.22
615.337	14479.77
615.693	14398.87
616.05	14374.47
616.406	14514.12
616.762	14544.41
617.118	14498.08
617.475	14531.75
617.831	14574.46
618.187	14687.23
618.543	14592.09
618.899	14712.76
619.255	14754.12
619.611	14667.57
619.967	14725.64
620.323	14771.52
620.678	14711.41
621.034	14661.24
621.39	14819.2
621.746	14734.23
622.101	14913.44
622.457	14716.15
622.812	14849.48
623.168	14887.22
623.523	14830.95
623.879	14898.07
624.234	14859.43
624.589	14821.46
624.945	14809.94
625.3	14887.9
625.655	14914.79
626.01	14975.35
626.365	14920.67
626.72	14924.51
627.075	14818.3
627.43	14926.77
627.785	14817.17
628.14	14953.21
628.495	14950.27
628.85	14836.6
629.205	14874.57
629.559	14974
629.914	14892.87
630.269	14916.37
630.623	14870.72
630.978	14841.8
631.332	14889.26
631.687	14972.64
632.041	14860.56
632.396	14846.77
632.75	14745.53
633.104	14841.8
633.459	14820.78
633.813	14780.33
634.167	14732.65
634.521	14676.61
634.875	14803.16
635.229	14758.86
635.583	14749.37
635.937	14782.82
636.291	14727
636.645	14737.39
636.999	14627.57
637.352	14778.3
637.706	14637.28
638.06	14597.51
638.413	14693.33
638.767	14636.61
639.121	14571.52
639.474	14531.07
639.828	14521.13
640.181	14581.01
640.534	14599.77
640.888	14484.97
641.241	14471.87
641.594	14483.39
641.947	14601.58
642.301	14473.45
642.654	14514.35
643.007	14543.95
643.36	14554.35
643.713	14478.87
644.066	14461.92
644.419	14426.67
644.771	14373.34
645.124	14268.48
645.477	14295.15
645.83	14080.01
646.182	14097.86
646.535	14106.68
646.888	14134.25
647.24	13986.23
647.593	14054.7
647.945	14094.7
648.298	13992.56
648.65	13940.58
649.002	13937.64
649.355	14033.91
649.707	13983.52
650.059	14107.13
650.411	14253.11
650.763	14281.14
651.115	14401.13
651.467	14297.41
651.819	14267.12
652.171	14263.06
652.523	14288.82
652.875	14295.82
653.227	14224.87
653.578	14351.87
653.93	14358.87
654.282	14271.87
654.633	14188.26
654.985	14213.57
655.337	14346.9
655.688	14291.98
656.039	14320.23
656.391	14218.31
656.742	14304.19
657.094	14269.84
657.445	14390.29
657.796	14289.05
658.147	14275.94
658.498	14335.82
658.849	14321.36
659.2	14317.97
659.551	14295.82
659.902	14362.94
660.253	14375.82
660.604	14394.58
660.955	14362.04
661.306	14400.45
661.656	14340.34
662.007	14354.13
662.358	14380.34
662.708	14417.63
663.059	14275.94
663.409	14343.51
663.76	14395.71
664.11	14454.24
664.461	14391.64
664.811	14447.01
665.161	14382.38
665.511	14414.47
665.862	14425.76
666.212	14482.71
666.562	14397.29
666.912	14462.6
667.262	14307.35
667.612	14488.81
667.962	14426.44
668.312	14366.56
668.662	14481.13
669.011	14422.15
669.361	14381.7
669.711	14370.62
670.06	14287.46
670.41	14350.51
670.76	14373.11
671.109	14385.09
671.459	14394.58
671.808	14379.21
672.157	14344.86
672.507	14231.87
672.856	14282.72
673.205	14206.56
673.554	14326.11
673.904	14315.71
674.253	14327.46
674.602	14271.19
674.951	14035.49
675.3	13995.95
675.649	14230.29
675.998	14206.34
676.346	14239.33
676.695	14166.79
677.044	14097.64
677.393	14186.22
677.741	14231.65
678.09	14145.32
678.438	14168.6
678.787	14265.54
679.135	14160.46
679.484	14061.03
679.832	14155.72
680.181	14009.73
680.529	14061.48
680.877	13978.09
681.225	14010.41
681.573	14120.91
681.922	14006.34
682.27	13871.66
682.618	13939.22
682.966	13840.02
683.314	13914.14
683.661	13843.41
684.009	13812
684.357	13797.08
684.705	13690.87
685.053	13787.59
685.4	13703.98
685.748	13595.05
686.095	13584.88
686.443	13536.52
686.79	13579.23
687.138	13576.3
687.485	13569.52
687.832	13492
688.18	13513.47
688.527	13428.05
688.874	13355.96
689.221	13336.53
689.568	13308.96
689.915	13259.92
690.262	13296.08
690.609	13224.67
690.956	13144.22
691.303	13173.59
691.65	13137.89
691.997	13061.51
692.344	13007.95
692.69	13019.93
693.037	12983.77
693.383	12812.47
693.73	12871
694.077	12774.28
694.423	12750.1
694.769	12699.93
695.116	12722.98
695.462	12673.72
695.808	12591.46
696.155	12651.12
696.501	12540.84
696.847	12557.79
697.193	12358.02
697.539	12490.9
697.885	12347.63
698.231	12348.53
698.577	12304.46
698.923	12275.99
699.269	12250.68
699.614	12217.24
699.96	12133.85
700.306	12085.71
700.651	12038.71
700.997	12105.37
701.342	11949.45
701.688	11896.11
702.033	11880.52
702.379	11842.78
702.724	11805.72
703.069	11775.66
703.415	11584.94
703.76	11599.4
704.105	11630.13
704.45	11545.84
704.795	11600.53
705.14	11517.37
705.485	11379.29
705.83	11349.01
706.175	11437.37
706.52	11330.7
706.865	11257.03
707.209	11273.98
707.554	11238.96
707.899	11325.06
708.243	11151.5
708.588	11201.22
708.932	11113.76
709.277	11036.02
709.621	11088.9
709.966	10988.79
710.31	11064.27
710.654	10974.78
710.998	10882.81
711.342	10943.37
711.687	10965.74
712.031	10838.97
712.375	10835.8
712.719	10789.25
713.063	10821.34
713.407	10834.9
713.75	10836.93
714.094	10799.65
714.438	10694.34
714.782	10712.87
715.125	10647.56
715.469	10732.3
715.812	10659.76
716.156	10584.06
716.499	10619.31
716.843	10594.91
717.186	10568.24
717.53	10599.42
717.873	10559.65
718.216	10570.05
718.559	10499.09
718.902	10493.66
719.246	10421.58
719.589	10495.25
719.932	10402.59
720.275	10397.85
720.617	10437.85
720.96	10425.64
721.303	10385.19
721.646	10340.67
721.989	10332.99
722.331	10305.65
722.674	10323.73
723.016	10324.86
723.359	10358.53
723.701	10306.55
724.044	10205.08
724.386	10274.01
724.729	10280.56
725.071	10254.35
725.413	10167.12
725.755	10218.64
726.097	10120.12
726.439	10132.77
726.782	10140.68
727.124	10158.31
727.465	10114.01
727.807	10095.03
728.149	10109.72
728.491	10141.36
728.833	10138.19
729.175	10106.56
729.516	10094.81
729.858	10105.65
730.199	10107.69
730.541	10099.78
730.882	10078.08
731.224	10076.27
731.565	10062.72
731.906	10113.34
732.248	10062.94
732.589	10086.22
732.93	10160.11
733.271	10106.1
733.612	10141.36
733.953	10100.68
734.294	10009.16
734.635	9988.82
734.976	10082.83
735.317	9984.53
735.658	10027.24
735.999	10065.2
736.339	10063.85
736.68	10041.02
737.021	10099.32
737.361	9992.66
737.702	10100.91
738.042	10147.23
738.383	10058.2
738.723	10097.29
739.063	10004.41
739.404	10142.71
739.744	10137.06
740.084	10063.62
740.424	10167.8
740.764	10122.15
741.104	10091.64
741.444	10118.08
741.784	10108.59
742.124	10172.32
742.464	10240.56
742.804	10175.48
743.143	10276.5
743.483	10252.99
743.823	10205.76
744.162	10268.13
744.502	10329.15
744.841	10270.39
745.181	10382.48
745.52	10347.91
745.86	10464.06
746.199	10445.53
746.538	10538.18
746.877	10642.59
747.216	10694.56
747.556	10672.87
747.895	10676.71
748.234	10698.63
748.573	10787.22
748.911	10856.82
749.25	10949.92
749.589	10960.55
749.928	11036.7
750.267	11163.7
750.605	11149.92
750.944	11215
751.283	11325.51
751.621	11436.46
751.96	11463.58
752.298	11498.16
752.636	11608.89
752.975	11758.26
753.313	11747.87
753.651	11994.19
753.989	12082.1
754.327	12092.94
754.666	12180.17
755.004	12340.17
755.342	12461.97
755.679	12595.53
756.017	12635.3
756.355	12819.93
756.693	12953.94
757.031	13159.36
757.368	13148.74
757.706	13274.38
758.044	13342.63
758.381	13530.42
758.719	13677.08
759.056	13825.78
759.394	13920.69
