Data from hue_220_FLMS001491_00013.txt Node
Date: Tue Feb 07 16:38:35 GMT 2017
User: dcchb
Spectrometer: FLMS00149
Trigger mode: 0
Integration Time (sec): 2.000000E-2
Scans to average: 10
Electric dark correction enabled: true
Nonlinearity correction enabled: false
Boxcar width: 0
XAxis mode: Wavelengths
Number of Pixels in Spectrum: 2048
>>>>>Begin Spectral Data<<<<<
341.393	-21.3
341.776	-21.3
342.16	-21.3
342.543	-71.69
342.927	-84.12
343.31	-81.41
343.693	-65.14
344.077	-81.41
344.46	-41.19
344.843	-66.72
345.226	-20.17
345.61	-22.2
345.993	-15.42
346.376	-10.68
346.759	-0.96
347.142	43.78
347.525	55.08
347.908	52.6
348.291	71.81
348.674	83.56
349.057	98.47
349.44	121.52
349.823	140.96
350.206	165.59
350.588	188.87
350.971	202.88
351.354	220.28
351.737	248.75
352.119	238.13
352.502	266.83
352.884	250.11
353.267	275.64
353.65	284.23
354.032	294.4
354.414	285.59
354.797	299.37
355.179	317.45
355.562	314.74
355.944	325.81
356.326	324.45
356.709	336.88
357.091	330.56
357.473	336.66
357.855	327.84
358.238	325.13
358.62	347.96
359.002	345.02
359.384	340.5
359.766	354.06
360.148	310.9
360.53	337.34
360.912	329.65
361.294	345.47
361.676	340.5
362.057	318.13
362.439	339.6
362.821	322.42
363.203	320.84
363.584	283.1
363.966	320.39
364.348	323.1
364.729	309.09
365.111	335.53
365.493	319.48
365.874	326.04
366.256	313.83
366.637	322.87
367.019	309.31
367.4	319.26
367.781	304.34
368.163	303.21
368.544	318.13
368.925	325.13
369.306	326.94
369.688	295.53
370.069	314.74
370.45	294.63
370.831	292.59
371.212	321.97
371.593	309.31
371.974	324.68
372.355	288.75
372.736	311.12
373.117	319.03
373.498	302.31
373.879	295.3
374.26	315.42
374.641	321.97
375.021	307.73
375.402	301.63
375.783	328.3
376.163	312.48
376.544	315.42
376.925	316.32
377.305	321.97
377.686	322.65
378.066	324.68
378.447	311.12
378.827	333.04
379.208	337.56
379.588	362.65
379.968	327.62
380.349	329.2
380.729	342.99
381.109	325.58
381.489	324.45
381.87	323.32
382.25	326.04
382.63	311.57
383.01	319.94
383.39	330.33
383.77	345.7
384.15	343.21
384.53	346.6
384.91	335.3
385.29	358.35
385.67	349.54
386.049	346.83
386.429	347.96
386.809	339.6
387.189	338.69
387.568	344.79
387.948	337.79
388.328	359.03
388.707	353.38
389.087	374.62
389.466	358.35
389.846	365.58
390.225	366.94
390.605	360.39
390.984	344.34
391.363	371.01
391.743	373.72
392.122	368.75
392.501	374.62
392.881	374.85
393.26	372.14
393.639	380.05
394.018	374.62
394.397	386.83
394.776	378.46
395.155	369.88
395.534	365.81
395.913	394.28
396.292	391.12
396.671	396.09
397.05	386.6
397.429	385.02
397.808	388.18
398.186	403.32
398.565	396.09
398.944	404.45
399.323	392.48
399.701	406.49
400.08	413.04
400.458	400.16
400.837	391.12
401.215	436.99
401.594	424.79
401.972	415.07
402.351	402.64
402.729	414.4
403.107	427.95
403.486	417.11
403.864	428.86
404.242	434.96
404.62	448.97
404.999	453.94
405.377	441.74
405.755	457.33
406.133	464.11
406.511	453.04
406.889	467.73
407.267	477.45
407.645	485.13
408.023	476.54
408.401	486.03
408.779	477.9
409.156	472.02
409.534	471.12
409.912	499.82
410.29	509.99
410.667	517.67
411.045	533.49
411.422	529.2
411.8	516.31
412.178	545.24
412.555	547.73
412.933	563.54
413.31	558.12
413.687	563.32
414.065	582.53
414.442	587.95
414.819	577.78
415.197	618.01
415.574	625.92
415.951	603.54
416.328	641.73
416.705	641.96
417.082	641.06
417.46	665.91
417.837	663.2
418.214	666.59
418.591	666.82
418.967	664.56
419.344	678.8
419.721	711.79
420.098	707.5
420.475	707.5
420.852	712.47
421.228	711.34
421.605	735.74
421.982	756.99
422.358	766.25
422.735	783.88
423.111	814.61
423.488	818
423.864	829.98
424.241	846.7
424.617	836.08
424.994	846.47
425.37	867.49
425.746	877.21
426.123	913.59
426.499	910.2
426.875	904.55
427.251	943.42
427.627	951.1
428.003	952.23
428.379	961.05
428.756	964.44
429.132	978
429.507	1019.13
429.883	1012.35
430.259	1020.48
430.635	1044.44
431.011	1052.57
431.387	1070.2
431.763	1081.5
432.138	1089.86
432.514	1099.35
432.89	1126.47
433.265	1133.02
433.641	1154.04
434.016	1177.99
434.392	1215.73
434.767	1213.92
435.143	1237.43
435.518	1262.06
435.894	1288.5
436.269	1298.44
436.644	1349.29
437.02	1353.13
437.395	1356.97
437.77	1381.6
438.145	1403.52
438.52	1409.4
438.895	1423.41
439.271	1462.73
439.646	1486.68
440.021	1516.06
440.395	1534.82
440.77	1504.54
441.145	1563.29
441.52	1569.17
441.895	1592.9
442.27	1603.29
442.645	1605.1
443.019	1680.8
443.394	1651.88
443.769	1679
444.143	1668.83
444.518	1704.08
444.892	1715.83
445.267	1749.73
445.641	1739.11
446.016	1755.83
446.39	1755.38
446.764	1789.95
447.139	1774.36
447.513	1791.31
447.887	1800.8
448.262	1839.67
448.636	1839.44
449.01	1878.31
449.384	1879.67
449.758	1868.59
450.132	1914.47
450.506	1927.58
450.88	1909.95
451.254	1921.25
451.628	1962.83
452.002	2016.61
452.376	1993.11
452.75	2027.46
453.123	2025.2
453.497	2042.15
453.871	2066.33
454.244	2103.39
454.618	2128.25
454.992	2128.25
455.365	2134.8
455.739	2191.98
456.112	2175.48
456.486	2208.7
456.859	2258.87
457.232	2300
457.606	2283.73
457.979	2289.15
458.352	2353.1
458.725	2398.75
459.099	2396.26
459.472	2438.07
459.845	2443.5
460.218	2459.77
460.591	2448.01
460.964	2516.71
461.337	2542.48
461.71	2571.18
462.083	2616.6
462.456	2608.01
462.829	2633.09
463.201	2638.29
463.574	2674.68
463.947	2705.64
464.32	2774.11
464.692	2810.72
465.065	2820.43
465.438	2841.9
465.81	2871.05
466.183	2911.28
466.555	2981.11
466.928	2950.83
467.3	2953.76
467.672	3031.5
468.045	3092.52
468.417	3075.57
468.789	3158.05
469.161	3142.69
469.534	3215
469.906	3251.38
470.278	3266.07
470.65	3298.16
471.022	3371.38
471.394	3393.53
471.766	3405.96
472.138	3494.09
472.51	3555.56
472.882	3556.23
473.253	3599.17
473.625	3664.71
473.997	3756.68
474.369	3783.12
474.74	3770.92
475.112	3841.2
475.484	3914.19
475.855	4001.19
476.227	3963.68
476.598	4083
476.97	4126.16
477.341	4161.87
477.713	4224.92
478.084	4262.43
478.455	4379.26
478.827	4333.61
479.198	4475.31
479.569	4477.79
479.94	4591.46
480.311	4617.68
480.682	4710.78
481.053	4778.57
481.424	4857.67
481.795	4897.44
482.166	4935.41
482.537	5007.5
482.908	5060.83
483.279	5114.16
483.65	5189.19
484.021	5310.09
484.391	5333.81
484.762	5367.94
485.133	5439.8
485.503	5456.52
485.874	5555.28
486.244	5641.38
486.615	5699.91
486.985	5729.51
487.356	5788.94
487.726	5836.85
488.097	5958.66
488.467	5948.94
488.837	6094.7
489.207	6151.42
489.578	6223.28
489.948	6293.79
490.318	6309.61
490.688	6337.86
491.058	6438.19
491.428	6489.72
491.798	6583.05
492.168	6669.15
492.538	6745.75
492.908	6709.82
493.278	6856.03
493.648	6811.06
494.017	6895.13
494.387	6944.62
494.757	7010.83
495.126	6979.2
495.496	7041.57
495.866	7098.74
496.235	7143.03
496.605	7161.56
496.974	7212.86
497.344	7193.43
497.713	7245.18
498.082	7335.8
498.452	7376.25
498.821	7367.43
499.19	7425.28
499.559	7377.83
499.928	7458.28
500.298	7490.59
500.667	7530.14
501.036	7559.07
501.405	7575.34
501.774	7599.29
502.143	7645.62
502.512	7690.36
502.88	7616.24
503.249	7694.43
503.618	7801.32
503.987	7809.46
504.356	7792.73
504.724	7839.74
505.093	7838.83
505.462	7887.19
505.83	7870.7
506.199	7853.97
506.567	7949.56
506.936	7949.11
507.304	8024.82
507.672	8050.35
508.041	8057.36
508.409	8120.86
508.777	8091.71
509.145	8119.73
509.514	8116.34
509.882	8182.1
510.25	8135.77
510.618	8208.54
510.986	8168.32
511.354	8238.6
511.722	8265.04
512.09	8235.21
512.458	8268.2
512.826	8314.53
513.193	8298.71
513.561	8282.89
513.929	8352.72
514.297	8420.51
514.664	8395.43
515.032	8434.52
515.4	8451.02
515.767	8442.43
516.135	8410.12
516.502	8372.6
516.869	8481.98
517.237	8462.32
517.604	8426.61
517.972	8451.92
518.339	8514.52
518.706	8479.04
519.073	8509.55
519.44	8491.02
519.808	8499.83
520.175	8510.23
520.542	8578.7
520.909	8559.27
521.276	8537.12
521.643	8550.23
522.009	8632.94
522.376	8570.57
522.743	8635.42
523.11	8644.46
523.477	8718.81
523.843	8660.73
524.21	8702.77
524.577	8761.3
524.943	8738.24
525.31	8750.45
525.676	8738.24
526.043	8762.2
526.409	8734.63
526.776	8845.59
527.142	8841.74
527.508	8832.93
527.874	8809.43
528.241	8819.15
528.607	8779.6
528.973	8887.85
529.339	8844.91
529.705	8866.83
530.071	8857.34
530.437	8805.36
530.803	8861.63
531.169	8888.3
531.535	8825.7
531.901	8824.34
532.267	8833.84
532.632	8805.81
532.998	8799.71
533.364	8826.38
533.73	8842.87
534.095	8851.91
534.461	8835.64
534.826	8759.94
535.192	8770.56
535.557	8776.21
535.923	8742.54
536.288	8775.53
536.653	8763.78
537.019	8715.19
537.384	8678.81
537.749	8724.91
538.114	8611.69
538.479	8677.68
538.845	8604.91
539.21	8594.52
539.575	8559.04
539.94	8528.98
540.305	8539.38
540.67	8535.09
541.034	8656.44
541.399	8547.52
541.764	8485.82
542.129	8561.53
542.494	8535.76
542.858	8456.22
543.223	8413.96
543.587	8435.88
543.952	8408.31
544.316	8426.61
544.681	8372.6
545.045	8354.07
545.41	8311.36
545.774	8403.56
546.138	8360.18
546.503	8231.14
546.867	8237.02
547.231	8323.57
547.595	8256.9
547.959	8247.18
548.324	8238.14
548.688	8198.82
549.052	8193.85
549.416	8167.19
549.779	8200.18
550.143	8116.57
550.507	8128.32
550.871	8105.04
551.235	8114.98
551.599	8166.28
551.962	8058.71
552.326	8037.47
552.689	8092.16
553.053	8023.46
553.417	8018.04
553.78	8132.16
554.143	7885.84
554.507	7995.67
554.87	7987.53
555.234	8018.49
555.597	7930.36
555.96	7942.33
556.323	7905.05
556.686	7922
557.05	7974.65
557.413	7978.26
557.776	7921.32
558.139	7936.68
558.502	7871.6
558.865	7940.07
559.228	7941.43
559.59	7926.74
559.953	7893.97
560.316	7951.82
560.679	7930.81
561.041	7979.17
561.404	7915.89
561.767	7962.67
562.129	7903.92
562.492	7992.5
562.854	8000.86
563.217	7962.67
563.579	7970.36
563.941	7911.83
564.304	7962.9
564.666	7964.03
565.028	7951.37
565.39	8043.8
565.753	7992.05
566.115	8022.56
566.477	8020.75
566.839	8084.25
567.201	8070.24
567.563	8087.19
567.925	8118.37
568.287	8151.37
568.648	8109.79
569.01	8090.58
569.372	8205.38
569.734	8138.94
570.095	8159.73
570.457	8166.06
570.819	8180.97
571.18	8202.44
571.542	8169.9
571.903	8233.63
572.265	8310.69
572.626	8291.93
572.987	8325.6
573.349	8307.75
573.71	8367.86
574.071	8360.4
574.432	8285.15
574.794	8379.61
575.155	8362.66
575.516	8338.03
575.877	8340.97
576.238	8403.34
576.599	8480.85
576.96	8402.43
577.32	8473.84
577.681	8401.08
578.042	8479.95
578.403	8480.4
578.763	8425.71
579.124	8562.88
579.485	8568.31
579.845	8589.1
580.206	8522.21
580.566	8528.31
580.927	8566.05
581.287	8552.49
581.648	8626.38
582.008	8686.95
582.368	8671.58
582.728	8648.53
583.089	8640.39
583.449	8690.11
583.809	8717.91
584.169	8727.62
584.529	8764.68
584.889	8889.43
585.249	8744.8
585.609	8800.16
585.969	8862.08
586.329	8826.83
586.688	8834.97
587.048	8816.43
587.408	8778.92
587.768	8791.12
588.127	8831.12
588.487	8862.54
588.846	8965.81
589.206	8884.91
589.565	8841.07
589.925	8922.19
590.284	8938.01
590.643	8983.89
591.003	8950.44
591.362	9035.41
591.721	8947.05
592.08	8958.13
592.44	9051.23
592.799	9011.23
593.158	8999.25
593.517	9039.71
593.876	9027.5
594.235	9034.73
594.593	9061.17
594.952	9052.13
595.311	9055.75
595.67	9043.55
596.029	9089.42
596.387	9153.38
596.746	9168.06
597.104	9088.74
597.463	9137.33
597.822	9176.2
598.18	9133.26
598.538	9141.17
598.897	9167.16
599.255	9137.33
599.613	9209.19
599.972	9174.17
600.33	9120.38
600.688	9147.5
601.046	9182.75
601.404	9225.46
601.762	9173.71
602.12	9306.82
602.478	9260.26
602.836	9256.2
603.194	9192.47
603.552	9231.57
603.91	9222.75
604.268	9316.53
604.625	9199.7
604.983	9310.89
605.341	9281.06
605.698	9302.07
606.056	9298.23
606.413	9276.54
606.771	9268.17
607.128	9298
607.485	9236.31
607.843	9310.43
608.2	9288.29
608.557	9366.93
608.914	9298.46
609.272	9325.35
609.629	9268.17
609.986	9426.14
610.343	9381.62
610.7	9412.58
611.057	9430.43
611.414	9475.85
611.771	9434.5
612.127	9431.11
612.484	9463.2
612.841	9443.09
613.198	9460.49
613.554	9530.54
613.911	9510.88
614.267	9450.32
614.624	9437.66
614.98	9500.71
615.337	9577.32
615.693	9541.39
616.05	9524.21
616.406	9548.39
616.762	9477.66
617.118	9487.38
617.475	9538.68
617.831	9596.53
618.187	9604.66
618.543	9550.88
618.899	9599.69
619.255	9591.1
619.611	9543.2
619.967	9635.4
620.323	9599.92
620.678	9598.11
621.034	9522.18
621.39	9585.91
621.746	9607.15
622.101	9696.86
622.457	9593.82
622.812	9611.89
623.168	9674.94
623.523	9619.58
623.879	9635.17
624.234	9625.68
624.589	9562.86
624.945	9606.47
625.3	9611.44
625.655	9599.01
626.01	9565.79
626.365	9705.68
626.72	9610.76
627.075	9572.8
627.43	9566.47
627.785	9631.55
628.14	9629.52
628.495	9629.97
628.85	9640.37
629.205	9572.35
629.559	9627.49
629.914	9559.01
630.269	9676.07
630.623	9551.78
630.978	9524.21
631.332	9574.61
631.687	9529.64
632.041	9567.83
632.396	9497.55
632.75	9487.15
633.104	9468.17
633.459	9450.32
633.813	9464.33
634.167	9470.88
634.521	9494.16
634.875	9523.31
635.229	9455.29
635.583	9358.12
635.937	9417.55
636.291	9388.62
636.645	9348.4
636.999	9366.02
637.352	9373.71
637.706	9358.12
638.06	9344.78
638.413	9334.84
638.767	9318.34
639.121	9346.59
639.474	9319.25
639.828	9263.88
640.181	9335.29
640.534	9308.85
640.888	9264.78
641.241	9239.47
641.594	9271.11
641.947	9323.77
642.301	9242.86
642.654	9245.35
643.007	9230.44
643.36	9240.6
643.713	9218.91
644.066	9229.53
644.419	9159.02
644.771	9093.72
645.124	9018.69
645.477	9071.34
645.83	8980.72
646.182	9016.43
646.535	8819.82
646.888	8905.7
647.24	8876.09
647.593	8959.71
647.945	8915.19
648.298	8825.7
648.65	8844.68
649.002	8873.16
649.355	8886.94
649.707	8915.42
650.059	8940.73
650.411	9006.49
650.763	9023.89
651.115	9091.46
651.467	9133.71
651.819	9060.27
652.171	9081.29
652.523	9007.84
652.875	9099.82
653.227	9005.13
653.578	9055.3
653.93	9081.06
654.282	9048.75
654.633	9017.79
654.985	9065.47
655.337	8986.83
655.688	9063.43
656.039	9082.64
656.391	9047.39
656.742	9067.95
657.094	9065.92
657.445	9137.78
657.796	9054.62
658.147	9026.6
658.498	9058.91
658.849	9107.05
659.2	9042.87
659.551	9092.13
659.902	9111.57
660.253	9085.35
660.604	9126.48
660.955	9081.74
661.306	9090.1
661.656	9048.29
662.007	9084.45
662.358	9105.92
662.708	9114.28
663.059	9115.41
663.409	9071.57
663.76	9189.98
664.11	9171.45
664.461	9146.14
664.811	9114.05
665.161	9150.66
665.511	9106.14
665.862	9144.34
666.212	9088.52
666.562	9144.79
666.912	9155.18
667.262	9120.16
667.612	9150.66
667.962	9147.05
668.312	9198.57
668.662	9149.76
669.011	9190.21
669.361	9143.88
669.711	9186.37
670.06	9104.11
670.41	9062.98
670.76	9086.71
671.109	9108.63
671.459	8995.87
671.808	9073.38
672.157	9089.65
672.507	9033.6
672.856	9039.48
673.205	9014.85
673.554	9013.27
673.904	9058.24
674.253	9039.71
674.602	9073.38
674.951	8908.41
675.3	8853.27
675.649	8926.94
675.998	8979.14
676.346	8962.65
676.695	8999.48
677.044	8876.77
677.393	8911.12
677.741	8990.44
678.09	8933.72
678.438	8903.21
678.787	8918.81
679.135	8891.91
679.484	8877.45
679.832	8916.09
680.181	8917.68
680.529	8872.7
680.877	8878.81
681.225	8815.3
681.573	8868.41
681.922	8821.63
682.27	8741.18
682.618	8799.71
682.966	8744.12
683.314	8756.55
683.661	8789.32
684.009	8676.55
684.357	8630.68
684.705	8657.34
685.053	8675.65
685.4	8622.32
685.748	8617.34
686.095	8564.69
686.443	8575.54
686.79	8556.55
687.138	8489.89
687.485	8530.57
687.832	8527.4
688.18	8525.37
688.527	8453.96
688.874	8480.62
689.221	8441.3
689.568	8395.2
689.915	8317.24
690.262	8371.93
690.609	8317.46
690.956	8308.2
691.303	8311.36
691.65	8267.75
691.997	8274.53
692.344	8132.39
692.69	8177.58
693.037	8167.41
693.383	8090.58
693.73	8116.34
694.077	8027.3
694.423	8053.97
694.769	8042.22
695.116	8029.56
695.462	7963.58
695.808	7942.79
696.155	7926.51
696.501	7928.32
696.847	7833.18
697.193	7818.27
697.539	7832.96
697.885	7737.14
698.231	7766.29
698.577	7698.5
698.923	7683.58
699.269	7687.2
699.614	7578.05
699.96	7584.6
700.306	7527.43
700.651	7513.19
700.997	7513.42
701.342	7516.58
701.688	7512.74
702.033	7392.97
702.379	7429.13
702.724	7401.56
703.069	7405.17
703.415	7241.56
703.76	7363.14
704.105	7246.08
704.45	7291.05
704.795	7230.49
705.14	7219.87
705.485	7198.85
705.83	7206.31
706.175	7159.53
706.52	7178.96
706.865	7150.26
707.209	7097.16
707.554	7075.69
707.899	7049.25
708.243	7027.1
708.588	6980.55
708.932	6927.44
709.277	7040.89
709.621	6987.33
709.966	6924.06
710.31	6961.79
710.654	6879.08
710.998	6885.86
711.342	6898.97
711.687	6832.53
712.031	6871.63
712.375	6838.18
712.719	6774.68
713.063	6793.21
713.407	6789.82
713.75	6757.28
714.094	6773.32
714.438	6754.79
714.782	6724.06
715.125	6761.35
715.469	6700.78
715.812	6685.64
716.156	6686.77
716.499	6724.74
716.843	6645.19
717.186	6618.75
717.53	6655.59
717.873	6672.08
718.216	6701.24
718.559	6652.42
718.902	6570.39
719.246	6633.22
719.589	6559.32
719.932	6547.57
720.275	6516.16
720.617	6494.24
720.96	6536.04
721.303	6519.09
721.646	6523.39
721.989	6513.22
722.331	6496.04
722.674	6495.59
723.016	6459.43
723.359	6487.68
723.701	6541.92
724.044	6483.16
724.386	6418.76
724.729	6464.41
725.071	6456.95
725.413	6481.58
725.755	6406.55
726.097	6425.31
726.439	6416.72
726.782	6358.65
727.124	6402.71
727.465	6424.18
727.807	6414.01
728.149	6326.78
728.491	6395.26
728.833	6390.28
729.175	6374.92
729.516	6394.35
729.858	6397.29
730.199	6397.97
730.541	6371.08
730.882	6341.92
731.224	6374.47
731.565	6350.96
731.906	6382.15
732.248	6426.89
732.589	6358.42
732.93	6343.96
733.271	6342.6
733.612	6374.24
733.953	6403.84
734.294	6335.37
734.635	6363.39
734.976	6347.35
735.317	6370.85
735.658	6329.95
735.999	6356.16
736.339	6348.7
736.68	6416.05
737.021	6423.05
737.361	6338.31
737.702	6427.57
738.042	6385.76
738.383	6444.52
738.723	6438.42
739.063	6453.56
739.404	6469.15
739.744	6470.96
740.084	6452.66
740.424	6434.58
740.764	6379.44
741.104	6531.52
741.444	6458.53
741.784	6517.06
742.124	6489.94
742.464	6526.1
742.804	6519.55
743.143	6527
743.483	6562.93
743.823	6539.21
744.162	6590.96
744.502	6680.22
744.841	6649.94
745.181	6628.02
745.52	6735.59
745.86	6723.16
746.199	6717.28
746.538	6770.61
746.877	6849.48
747.216	6905.75
747.556	6883.6
747.895	6950.27
748.234	6980.55
748.573	7001.79
748.911	7054
749.25	7131.96
749.589	7122.24
749.928	7198.85
750.267	7296.47
750.605	7322.01
750.944	7405.4
751.283	7431.16
751.621	7569.01
751.96	7645.39
752.298	7706.63
752.636	7793.41
752.975	7878.15
753.313	7924.03
753.651	8102.33
753.989	8187.3
754.327	8252.38
754.666	8299.16
755.004	8467.29
755.342	8589.77
755.679	8704.8
756.017	8775.31
756.355	8905.02
756.693	9047.16
757.031	9207.39
757.368	9351.11
757.706	9489.19
758.044	9589.97
758.381	9778.44
758.719	9868.84
759.056	10026.8
759.394	10149.06
759.731	10315.15
760.068	10459.33
760.405	10579.78
760.743	10727.12
761.08	10934.8
761.417	11043.49
761.754	11284.62
762.091	11370.04
762.428	11492.07
762.765	11698.17
763.102	11961.21
763.438	12037.14
763.775	12240.07
764.112	12384.25
764.449	12513.29
764.785	12643.9
765.122	12787.18
765.458	12979.94
765.795	13139.03
766.131	13352.59
766.467	13465.35
766.804	13558.23
767.14	13722.97
767.476	13955.51
767.812	14037.31
768.148	14238.67
768.485	14224.43
768.821	14341.49
769.157	14619.22
