Data from hue_250_FLMS001491_00060.txt Node
Date: Tue Feb 07 16:01:11 GMT 2017
User: dcchb
Spectrometer: FLMS00149
Trigger mode: 0
Integration Time (sec): 2.000000E-2
Scans to average: 10
Electric dark correction enabled: true
Nonlinearity correction enabled: false
Boxcar width: 0
XAxis mode: Wavelengths
Number of Pixels in Spectrum: 2048
>>>>>Begin Spectral Data<<<<<
341.393	-25.47
341.776	-25.47
342.16	-25.47
342.543	-68.85
342.927	-74.05
343.31	-61.85
343.693	-71.34
344.077	-88.74
344.46	-59.36
344.843	-55.3
345.226	-40.61
345.61	-13.94
345.993	-20.95
346.376	3.01
346.759	2.1
347.142	24.25
347.525	45.49
347.908	59.5
348.291	80.97
348.674	86.4
349.057	110.35
349.44	151.71
349.823	146.51
350.206	139.28
350.588	169.33
350.971	182.89
351.354	223.57
351.737	220.18
352.119	241.87
352.502	275.77
352.884	264.92
353.267	269.44
353.65	293.85
354.032	280.74
354.414	304.02
354.797	306.05
355.179	318.25
355.562	296.33
355.944	302.21
356.326	307.18
356.709	312.83
357.091	324.58
357.473	322.77
357.855	331.81
358.238	333.4
358.62	343.79
359.002	330.23
359.384	338.14
359.766	336.33
360.148	323.68
360.53	331.36
360.912	344.02
361.294	332.04
361.676	311.7
362.057	323.9
362.439	322.55
362.821	332.72
363.203	315.32
363.584	335.66
363.966	333.4
364.348	335.43
364.729	308.31
365.111	306.5
365.493	303.79
365.874	316.45
366.256	319.38
366.637	319.16
367.019	300.18
367.4	302.44
367.781	320.06
368.163	322.77
368.544	309.67
368.925	277.8
369.306	337.46
369.688	306.5
370.069	306.5
370.45	325.94
370.831	300.4
371.212	305.15
371.593	306.28
371.974	317.58
372.355	302.89
372.736	301.53
373.117	313.73
373.498	303.34
373.879	319.38
374.26	318.93
374.641	297.01
375.021	311.7
375.402	337.91
375.783	320.51
376.163	327.52
376.544	334.75
376.925	342.43
377.305	310.57
377.686	306.5
378.066	300.85
378.447	306.5
378.827	335.88
379.208	315.09
379.588	327.97
379.968	323.23
380.349	336.11
380.729	328.42
381.109	323.68
381.489	305.6
381.87	339.27
382.25	338.59
382.63	331.36
383.01	333.85
383.39	338.82
383.77	328.88
384.15	346.05
384.53	333.4
384.91	369.1
385.29	343.56
385.67	347.63
386.049	362.55
386.429	340.17
386.809	341.98
387.189	345.6
387.568	335.43
387.948	343.56
388.328	365.03
388.707	354.41
389.087	370.46
389.466	354.64
389.846	360.29
390.225	381.3
390.605	379.04
390.984	357.35
391.363	370.91
391.743	357.12
392.122	378.37
392.501	377.24
392.881	360.97
393.26	381.3
393.639	389.66
394.018	376.56
394.397	374.75
394.776	364.81
395.155	376.11
395.534	371.59
395.913	389.66
396.292	387.86
396.671	370.91
397.05	392.15
397.429	385.6
397.808	418.36
398.186	414.3
398.565	370
398.944	423.34
399.323	418.59
399.701	410.68
400.08	394.64
400.458	410.46
400.837	432.38
401.215	430.34
401.594	413.62
401.972	428.99
402.351	427.18
402.729	446.61
403.107	412.94
403.486	420.62
403.864	463.56
404.242	426.5
404.62	438.7
404.999	452.94
405.377	448.87
405.755	446.84
406.133	471.24
406.511	458.59
406.889	443.45
407.267	480.28
407.645	482.77
408.023	448.19
408.401	483.22
408.779	466.27
409.156	472.15
409.534	483.45
409.912	498.81
410.29	519.83
410.667	512.37
411.045	498.81
411.422	554.63
411.8	524.8
412.178	539.27
412.555	579.72
412.933	548.53
413.31	556.89
413.687	564.12
414.065	568.87
414.442	571.36
414.819	584.01
415.197	589.89
415.574	577.91
415.951	599.38
416.328	601.18
416.705	602.54
417.082	623.33
417.46	631.24
417.837	629.21
418.214	630.79
418.591	669.88
418.967	645.25
419.344	661.52
419.721	653.39
420.098	670.34
420.475	681.63
420.852	696.55
421.228	699.71
421.605	711.24
421.982	730.9
422.358	729.77
422.735	735.19
423.111	726.15
423.488	751.69
423.864	777.9
424.241	782.65
424.617	778.13
424.994	788.3
425.37	842.31
425.746	812.25
426.123	797.56
426.499	805.02
426.875	833.04
427.251	862.42
427.627	873.49
428.003	871.91
428.379	884.57
428.756	879.14
429.132	910.33
429.507	915.07
429.883	918.92
430.259	937.67
430.635	933.83
431.011	953.49
431.387	948.75
431.763	991.68
432.138	963.66
432.514	1008.63
432.89	1023.77
433.265	1049.76
433.641	1049.31
434.016	1050.89
434.392	1084.79
434.767	1090.66
435.143	1120.72
435.518	1176.08
435.894	1140.83
436.269	1141.96
436.644	1151.45
437.02	1178.34
437.395	1186.25
437.77	1223.54
438.145	1236.87
438.52	1205.91
438.895	1277.78
439.271	1271.9
439.646	1312.58
440.021	1280.26
440.395	1304.44
440.77	1309.41
441.145	1322.75
441.52	1367.72
441.895	1349.41
442.27	1356.65
442.645	1340.6
443.019	1405.68
443.394	1371.33
443.769	1444.33
444.143	1401.39
444.518	1465.12
444.892	1432.35
445.267	1465.12
445.641	1479.13
446.016	1491.56
446.39	1492.91
446.764	1514.16
447.139	1505.79
447.513	1532.69
447.887	1535.17
448.262	1533.59
448.636	1565.91
449.01	1592.57
449.384	1590.76
449.758	1583.08
450.132	1593.7
450.506	1630.99
450.88	1631.89
451.254	1625.34
451.628	1667.82
452.002	1659.24
452.376	1705.79
452.75	1685.45
453.123	1754.15
453.497	1723.64
453.871	1774.26
454.244	1791.44
454.618	1804.77
454.992	1816.52
455.365	1802.96
455.739	1846.58
456.112	1839.12
456.486	1898.78
456.859	1904.2
457.232	1915.73
457.606	1900.13
457.979	1945.56
458.352	1980.58
458.725	2008.38
459.099	1998.44
459.472	2040.02
459.845	2045.67
460.218	2078.21
460.591	2124.53
460.964	2096.96
461.337	2150.3
461.71	2175.83
462.083	2225.1
462.456	2210.18
462.829	2207.47
463.201	2277.52
463.574	2252.21
463.947	2281.14
464.32	2354.58
464.692	2359.56
465.065	2369.73
465.438	2405.88
465.81	2422.83
466.183	2433.45
466.555	2486.78
466.928	2532.43
467.3	2499.67
467.672	2538.76
468.045	2625.54
468.417	2588.93
468.789	2648.81
469.161	2668.48
469.534	2701.02
469.906	2744.41
470.278	2759.32
470.65	2790.96
471.022	2858.07
471.394	2899.66
471.766	2942.14
472.138	2942.59
472.51	3031.86
472.882	3044.96
473.253	3057.39
473.625	3124.96
473.997	3160.44
474.369	3163.15
474.74	3230.95
475.112	3249.25
475.484	3315.69
475.855	3343.03
476.227	3397.72
476.598	3445.86
476.97	3501
477.341	3539.19
477.713	3572.63
478.084	3614.89
478.455	3708.22
478.827	3721.33
479.198	3799.29
479.569	3859.86
479.94	3914.54
480.311	3945.05
480.682	4003.13
481.053	4118.38
481.424	4129.45
481.795	4175.55
482.166	4274.76
482.537	4305.72
482.908	4352.95
483.279	4408.09
483.65	4456.45
484.021	4562.89
484.391	4592.04
484.762	4678.59
485.133	4686.5
485.503	4723.34
485.874	4772.83
486.244	4861.19
486.615	4919.94
486.985	5019.37
487.356	5069.09
487.726	5059.37
488.097	5162.42
488.467	5190.44
488.837	5290.1
489.207	5311.34
489.578	5410.78
489.948	5432.24
490.318	5490.77
490.688	5539.13
491.058	5627.95
491.428	5639.92
491.798	5712.01
492.168	5772.57
492.538	5831.56
492.908	5889.63
493.278	5881.95
493.648	5940.25
494.017	6036.52
494.387	6040.14
494.757	6087.82
495.126	6126.92
495.496	6179.57
495.866	6178.44
496.235	6245.78
496.605	6311.32
496.974	6288.72
497.344	6407.59
497.713	6428.38
498.082	6399.9
498.452	6469.73
498.821	6502.72
499.19	6527.58
499.559	6614.81
499.928	6578.88
500.298	6661.82
500.667	6705.66
501.036	6628.82
501.405	6719.22
501.774	6807.58
502.143	6797.86
502.512	6834.92
502.88	6834.69
503.249	6833.11
503.618	6928.25
503.987	6937.29
504.356	6951.98
504.724	6954.01
505.093	6962.37
505.462	7020.23
505.83	6998.53
506.199	7088.92
506.567	7111.3
506.936	7144.74
507.304	7186.77
507.672	7209.6
508.041	7189.03
508.409	7250.28
508.777	7260.67
509.145	7338.18
509.514	7355.13
509.882	7400.1
510.25	7414.34
510.618	7464.06
510.986	7404.4
511.354	7441
511.722	7481.46
512.09	7544.51
512.458	7548.57
512.826	7664.73
513.193	7621.11
513.561	7616.82
513.929	7610.72
514.297	7724.84
514.664	7718.29
515.032	7743.6
515.4	7743.14
515.767	7773.88
516.135	7829.24
516.502	7735.01
516.869	7843.71
517.237	7825.18
517.604	7785.4
517.972	7895.91
518.339	7932.07
518.706	7949.01
519.073	7899.07
519.44	7955.34
519.808	7992.63
520.175	7984.27
520.542	8102.23
520.909	8071.27
521.276	8052.29
521.643	8097.26
522.009	8111.04
522.376	8154.43
522.743	8156.24
523.11	8202.11
523.477	8164.38
523.843	8276.69
524.21	8324.37
524.577	8367.08
524.943	8341.55
525.31	8388.32
525.676	8399.85
526.043	8426.52
526.409	8427.87
526.776	8501.77
527.142	8483.24
527.508	8470.81
527.874	8545.83
528.241	8497.47
528.607	8556.46
528.973	8580.41
529.339	8609.11
529.705	8683.91
530.071	8728.65
530.437	8643.69
530.803	8668.77
531.169	8708.99
531.535	8624.7
531.901	8732.95
532.267	8707.64
532.632	8848.65
532.998	8737.47
533.364	8773.63
533.73	8785.38
534.095	8850.69
534.461	8769.56
534.826	8740.63
535.192	8751.03
535.557	8814.98
535.923	8809.33
536.288	8757.81
536.653	8834.19
537.019	8757.35
537.384	8828.09
537.749	8800.52
538.114	8773.85
538.479	8779.5
538.845	8786.28
539.21	8822.44
539.575	8799.61
539.94	8800.07
540.305	8821.76
540.67	8751.03
541.034	8811.82
541.399	8760.74
541.764	8788.31
542.129	8803
542.494	8800.07
542.858	8850.69
543.223	8767.3
543.587	8892.04
543.952	8810.91
544.316	8816.79
544.681	8760.07
545.045	8756.68
545.41	8812.04
545.774	8869.89
546.138	8817.01
546.503	8830.57
546.867	8748.32
547.231	8760.07
547.595	8752.38
547.959	8736.11
548.324	8791.7
548.688	8779.95
549.052	8840.29
549.416	8733.63
549.779	8756.45
550.143	8692.27
550.507	8711.03
550.871	8720.52
551.235	8712.84
551.599	8817.47
551.962	8770.24
552.326	8758.71
552.689	8727.75
553.053	8736.34
553.417	8844.13
553.78	8802.78
554.143	8783.57
554.507	8743.57
554.87	8831.25
555.234	8798.26
555.597	8776.56
555.96	8776.56
556.323	8815.43
556.686	8840.74
557.05	8855.43
557.413	8834.19
557.776	8838.48
558.139	8894.3
558.502	8853.4
558.865	8922.77
559.228	8944.92
559.59	8953.06
559.953	8900.4
560.316	8974.75
560.679	9021.75
561.041	9039.15
561.404	9054.97
561.767	9037.35
562.129	8990.57
562.492	9062.88
562.854	9059.49
563.217	9068.31
563.579	9076.22
563.941	9159.83
564.304	9148.98
564.666	9166.61
565.028	9161.41
565.39	9213.39
565.753	9252.48
566.115	9281.86
566.477	9254.97
566.839	9345.36
567.201	9299.49
567.563	9348.53
567.925	9409.54
568.287	9449.99
568.648	9428.75
569.01	9404.34
569.372	9451.57
569.734	9454.74
570.095	9574.06
570.457	9581.74
570.819	9570.21
571.18	9550.33
571.542	9603.43
571.903	9609.08
572.265	9609.31
572.626	9722.07
572.987	9668.06
573.349	9720.04
573.71	9756.42
574.071	9777.89
574.432	9807.04
574.794	9889.98
575.155	9848.17
575.516	9821.96
575.877	9908.74
576.238	9911
576.599	9906.25
576.96	9935.63
577.32	9937.44
577.681	10006.59
578.042	10007.94
578.403	10037.09
578.763	10058.56
579.124	10056.3
579.485	10135.17
579.845	10054.72
580.206	10120.03
580.566	10101.95
580.927	10162.52
581.287	10227.82
581.648	10136.98
582.008	10212.91
582.368	10185.57
582.728	10251.55
583.089	10168.39
583.449	10294.72
583.809	10266.92
584.169	10288.84
584.529	10316.18
584.889	10459.46
585.249	10351.89
585.609	10310.08
585.969	10338.1
586.329	10399.35
586.688	10343.08
587.048	10299.69
587.408	10386.92
587.768	10449.51
588.127	10433.02
588.487	10394.37
588.846	10462.62
589.206	10436.41
589.565	10432.79
589.925	10471.66
590.284	10470.3
590.643	10436.41
591.003	10556.18
591.362	10573.8
591.721	10551.43
592.08	10559.34
592.44	10559.34
592.799	10510.3
593.158	10530.87
593.517	10519.57
593.876	10569.74
594.235	10586.23
594.593	10560.92
594.952	10587.14
595.311	10619.45
595.67	10647.93
596.029	10660.81
596.387	10707.59
596.746	10669.85
597.104	10614.03
597.463	10575.84
597.822	10731.31
598.18	10654.93
598.538	10689.28
598.897	10684.31
599.255	10647.25
599.613	10779.9
599.972	10701.94
600.33	10787.36
600.688	10709.17
601.046	10737.64
601.404	10748.94
601.762	10751.88
602.12	10839.11
602.478	10797.53
602.836	10810.63
603.194	10749.17
603.552	10758.66
603.91	10809.05
604.268	10799.11
604.625	10775.38
604.983	10813.8
605.341	10815.61
605.698	10906.22
606.056	10846.34
606.413	10813.57
606.771	10936.05
607.128	10908.94
607.485	10896.96
607.843	10874.13
608.2	10844.76
608.557	10950.74
608.914	10889.5
609.272	11006.11
609.629	10939.44
609.986	11038.42
610.343	10983.74
610.7	11030.52
611.057	11040.91
611.414	10930.63
611.771	10986
612.127	10982.38
612.484	10982.15
612.841	11061.02
613.198	10990.52
613.554	10964.75
613.911	11128.59
614.267	11065.09
614.624	11005.66
614.98	11085.88
615.337	11200.68
615.693	11062.6
616.05	11077.52
616.406	11209.95
616.762	11146.67
617.118	11112.77
617.475	11154.81
617.831	11211.98
618.187	11166.78
618.543	11193.45
618.899	11217.4
619.255	11210.62
619.611	11192.09
619.967	11284.75
620.323	11328.36
620.678	11256.5
621.034	11205.43
621.39	11184.41
621.746	11209.72
622.101	11289.49
622.457	11225.54
622.812	11229.61
623.168	11276.84
623.523	11300.34
623.879	11310.96
624.234	11199.32
624.589	11237.52
624.945	11287.68
625.3	11263.28
625.655	11299.21
626.01	11221.92
626.365	11301.02
626.72	11230.74
627.075	11246.1
627.43	11285.42
627.785	11219.44
628.14	11263.96
628.495	11200.23
628.85	11160
629.205	11193
629.559	11212.43
629.914	11167.91
630.269	11185.54
630.623	11121.36
630.978	11081.59
631.332	11193
631.687	11151.64
632.041	11132.89
632.396	11097.41
632.75	11090.4
633.104	11059.21
633.459	11023.06
633.813	11038.42
634.167	10997.75
634.521	11024.41
634.875	11012.21
635.229	11043.4
635.583	11012.89
635.937	10987.8
636.291	10975.6
636.645	10979.67
636.999	10929.73
637.352	10994.81
637.706	10902.38
638.06	10971.99
638.413	10845.89
638.767	10838.88
639.121	10872.1
639.474	10890.86
639.828	10864.87
640.181	10902.83
640.534	10916.85
640.888	10829.39
641.241	10736.06
641.594	10716.4
641.947	10869.62
642.301	10785.55
642.654	10698.32
643.007	10783.29
643.36	10726.57
643.713	10813.57
644.066	10714.14
644.419	10702.61
644.771	10618.55
645.124	10493.81
645.477	10506.24
645.83	10521.38
646.182	10426.46
646.535	10414.71
646.888	10423.98
647.24	10323.41
647.593	10423.75
647.945	10301.04
648.298	10282.74
648.65	10336.52
649.002	10287.94
649.355	10326.13
649.707	10324.09
650.059	10313.02
650.411	10490.42
650.763	10488.16
651.115	10598.66
651.467	10620.58
651.819	10551.43
652.171	10492.22
652.523	10497.87
652.875	10495.61
653.227	10501.94
653.578	10523.86
653.93	10550.98
654.282	10572.45
654.633	10465.78
654.985	10523.41
655.337	10461.49
655.688	10442.51
656.039	10567.25
656.391	10453.36
656.742	10440.7
657.094	10523.86
657.445	10529.51
657.796	10488.38
658.147	10469.85
658.498	10461.49
658.849	10504.88
659.2	10420.36
659.551	10435.73
659.902	10420.14
660.253	10522.28
660.604	10535.84
660.955	10468.95
661.306	10526.35
661.656	10428.27
662.007	10541.49
662.358	10505.11
662.708	10379.68
663.059	10485.67
663.409	10412
663.76	10547.36
664.11	10457.87
664.461	10547.82
664.811	10527.48
665.161	10523.18
665.511	10511.88
665.862	10482.96
666.212	10562.96
666.562	10573.35
666.912	10440.47
667.262	10471.43
667.612	10459
667.962	10491.09
668.312	10476.63
668.662	10564.09
669.011	10494.94
669.361	10452.45
669.711	10413.81
670.06	10576.74
670.41	10410.19
670.76	10429.63
671.109	10477.31
671.459	10479.57
671.808	10428.72
672.157	10434.15
672.507	10352.11
672.856	10392.11
673.205	10397.54
673.554	10483.86
673.904	10397.31
674.253	10421.72
674.602	10395.5
674.951	10240.71
675.3	10200.71
675.649	10331.32
675.998	10368.16
676.346	10342.4
676.695	10303.08
677.044	10344.66
677.393	10243.87
677.741	10294.72
678.09	10247.03
678.438	10286.13
678.787	10254.04
679.135	10247.94
679.484	10172.23
679.832	10180.59
680.181	10222.85
680.529	10152.35
680.877	10106.25
681.225	10176.53
681.573	10220.37
681.922	10103.31
682.27	10067.15
682.618	10112.8
682.966	10033.48
683.314	9942.18
683.661	10040.71
684.009	10005.68
684.357	10012.01
684.705	9933.59
685.053	9925.46
685.4	9916.65
685.748	9921.39
686.095	9974.05
686.443	9782.19
686.79	9834.61
687.138	9789.87
687.485	9898.12
687.832	9663.55
688.18	9742.87
688.527	9756.65
688.874	9780.15
689.221	9630.55
689.568	9662.19
689.915	9583.77
690.262	9656.09
690.609	9577.22
690.956	9569.54
691.303	9557.33
691.65	9408.18
691.997	9479.14
692.344	9455.42
692.69	9451.12
693.037	9409.77
693.383	9323.44
693.73	9386.04
694.077	9381.07
694.423	9306.72
694.769	9280.28
695.116	9246.38
695.462	9225.14
695.808	9219.04
696.155	9177
696.501	9158.47
696.847	9055.2
697.193	9064.01
697.539	9091.81
697.885	8951.7
698.231	8939.27
698.577	8906.05
698.923	8861.31
699.269	8863.34
699.614	8791.03
699.96	8815.21
700.306	8804.58
700.651	8791.25
700.997	8681.65
701.342	8717.81
701.688	8640.3
702.033	8650.01
702.379	8655.44
702.724	8610.24
703.069	8621.76
703.415	8508.77
703.76	8442.79
704.105	8516.46
704.45	8502.45
704.795	8377.93
705.14	8413.86
705.485	8377.93
705.83	8346.29
706.175	8317.37
706.52	8344.94
706.865	8319.17
707.209	8261.55
707.554	8233.3
707.899	8285.73
708.243	8167.09
708.588	8160.76
708.932	8118.95
709.277	8142.91
709.621	8112.17
709.966	8046.64
710.31	8106.07
710.654	8065.4
710.998	8073.08
711.342	8080.76
711.687	7918.28
712.031	8029.92
712.375	7980.88
712.719	7952.63
713.063	7952.4
713.407	7936.36
713.75	7887.32
714.094	7913.76
714.438	7864.5
714.782	7871.5
715.125	7830.6
715.469	7821.56
715.812	7828.79
716.156	7815.91
716.499	7790.37
716.843	7803.71
717.186	7805.06
717.53	7812.97
717.873	7797.83
718.216	7750.83
718.559	7718.74
718.902	7663.37
719.246	7701.56
719.589	7657.72
719.932	7579.76
720.275	7623.15
720.617	7680.32
720.96	7612.53
721.303	7669.93
721.646	7648.23
721.989	7570.72
722.331	7620.44
722.674	7592.41
723.016	7552.19
723.359	7526.65
723.701	7554.67
724.044	7531.4
724.386	7432.64
724.729	7530.95
725.071	7541.34
725.413	7494.34
725.755	7480.78
726.097	7461.57
726.439	7434
726.782	7409.37
727.124	7480.33
727.465	7486.2
727.807	7472.42
728.149	7428.35
728.491	7429.48
728.833	7444.39
729.175	7395.81
729.516	7430.84
729.858	7370.27
730.199	7353.55
730.541	7359.65
730.882	7360.78
731.224	7406.88
731.565	7338.41
731.906	7350.61
732.248	7378.86
732.589	7308.58
732.93	7338.18
733.271	7365.98
733.612	7354
733.953	7312.87
734.294	7313.1
734.635	7273.1
734.976	7342.25
735.317	7302.03
735.658	7340.67
735.999	7288.92
736.339	7301.35
736.68	7294.12
737.021	7366.43
737.361	7337.05
737.702	7346.32
738.042	7303.83
738.383	7271.07
738.723	7372.31
739.063	7320.78
739.404	7369.82
739.744	7324.4
740.084	7317.62
740.424	7336.37
740.764	7348.58
741.104	7409.59
741.444	7358.75
741.784	7371.4
742.124	7363.72
742.464	7376.83
742.804	7431.74
743.143	7358.97
743.483	7361.91
743.823	7373.44
744.162	7350.16
744.502	7481.46
744.841	7428.8
745.181	7415.02
745.52	7420.44
745.86	7519.19
746.199	7453.89
746.538	7524.84
746.877	7531.17
747.216	7572.07
747.556	7612.3
747.895	7653.88
748.234	7713.77
748.573	7650.04
748.911	7692.07
749.25	7759.87
749.589	7775.69
749.928	7864.95
750.267	7918.05
750.605	7962.35
750.944	7997.83
751.283	8001.44
751.621	8001.67
751.96	8168.44
752.298	8100.65
752.636	8210.93
752.975	8278.95
753.313	8332.28
753.651	8438.49
753.989	8387.87
754.327	8513.75
754.666	8582.9
755.004	8654.76
755.342	8797.13
755.679	8843.68
756.017	8829.67
756.355	9039.38
756.693	9081.64
757.031	9186.04
757.368	9254.97
757.706	9330.67
758.044	9430.56
758.381	9559.82
758.719	9578.12
759.056	9764.11
759.394	9918
759.731	9895.4
760.068	10009.07
760.405	10112.8
760.743	10158
761.08	10352.79
761.417	10357.54
761.754	10510.53
762.091	10636.18
762.428	10721.14
762.765	10757.98
763.102	10942.38
763.438	10962.72
