Data from hue_00_FLMS001491_43.txt Node
Date: Mon Feb 06 15:29:45 GMT 2017
User: dcchb
Spectrometer: FLMS00149
Trigger mode: 0
Integration Time (sec): 2.000000E-2
Scans to average: 10
Electric dark correction enabled: true
Nonlinearity correction enabled: false
Boxcar width: 0
XAxis mode: Wavelengths
Number of Pixels in Spectrum: 2048
>>>>>Begin Spectral Data<<<<<
341.393	-16.51
341.776	-16.51
342.16	-16.51
342.543	-46.11
342.927	-70.52
343.31	-74.81
343.693	-77.07
344.077	-94.7
344.46	-50.18
344.843	-52.89
345.226	-41.59
345.61	-18.54
345.993	-18.09
346.376	-10.18
346.759	16.93
347.142	15.13
347.525	74.11
347.908	44.28
348.291	75.46
348.674	100.1
349.057	112.07
349.44	102.13
349.823	141.68
350.206	161.79
350.588	201.56
350.971	206.08
351.354	236.36
351.737	235.46
352.119	248.11
352.502	275.23
352.884	269.81
353.267	268.45
353.65	302.35
354.032	284.5
354.414	286.31
354.797	352.07
355.179	294.22
355.562	319.53
355.944	327.66
356.326	329.02
356.709	335.8
357.091	325.85
357.473	319.3
357.855	322.01
358.238	320.66
358.62	344.61
359.002	326.98
359.384	329.47
359.766	332.86
360.148	311.16
360.53	307.1
360.912	345.97
361.294	344.16
361.676	339.19
362.057	336.93
362.439	335.8
362.821	321.33
363.203	325.18
363.584	312.29
363.966	324.95
364.348	331.95
364.729	322.46
365.111	309.36
365.493	315.68
365.874	312.75
366.256	312.29
366.637	305.97
367.019	302.12
367.4	311.62
367.781	311.84
368.163	320.2
368.544	292.63
368.925	319.98
369.306	293.54
369.688	325.63
370.069	308
370.45	308.45
370.831	287.89
371.212	319.07
371.593	283.59
371.974	300.32
372.355	301.22
372.736	328.79
373.117	291.5
373.498	296.93
373.879	316.59
374.26	304.16
374.641	301.9
375.021	305.97
375.402	320.43
375.783	316.36
376.163	312.07
376.544	316.59
376.925	323.37
377.305	312.97
377.686	323.82
378.066	316.59
378.447	344.38
378.827	339.64
379.208	306.87
379.588	312.75
379.968	319.75
380.349	336.7
380.729	320.43
381.109	332.86
381.489	329.02
381.87	338.51
382.25	350.94
382.63	346.42
383.01	329.24
383.39	346.64
383.77	317.94
384.15	340.99
384.53	343.48
384.91	335.8
385.29	336.7
385.67	321.56
386.049	350.03
386.429	355
386.809	346.64
387.189	359.52
387.568	347.55
387.948	340.09
388.328	369.47
388.707	351.84
389.087	350.49
389.466	364.95
389.846	354.55
390.225	354.55
390.605	337.83
390.984	357.04
391.363	370.6
391.743	358.85
392.122	376.7
392.501	374.44
392.881	374.89
393.26	371.5
393.639	359.75
394.018	346.64
394.397	354.78
394.776	371.05
395.155	350.71
395.534	380.31
395.913	344.84
396.292	381.9
396.671	384.38
397.05	374.21
397.429	396.13
397.808	368.56
398.186	379.41
398.565	376.25
398.944	366.3
399.323	369.69
399.701	388.68
400.08	389.13
400.458	379.64
400.837	395
401.215	382.35
401.594	385.51
401.972	378.28
402.351	384.16
402.729	367.21
403.107	384.83
403.486	404.27
403.864	412.18
404.242	411.05
404.62	386.19
404.999	386.19
405.377	381.22
405.755	406.75
406.133	416.02
406.511	407.21
406.889	398.39
407.267	414.66
407.645	413.53
408.023	428.9
408.401	389.58
408.779	425.96
409.156	436.36
409.534	440.88
409.912	433.65
410.29	425.51
410.667	430.48
411.045	427.09
411.422	444.27
411.8	430.71
412.178	467.77
412.555	442.23
412.933	444.04
413.31	434.32
413.687	452.18
414.065	458.73
414.442	458.05
414.819	479.07
415.197	465.06
415.574	472.52
415.951	471.16
416.328	473.19
416.705	479.07
417.082	482.69
417.46	492.63
417.837	507.54
418.214	496.02
418.591	500.99
418.967	492.85
419.344	493.53
419.721	498.5
420.098	501.22
420.475	496.47
420.852	507.09
421.228	516.13
421.605	506.87
421.982	495.11
422.358	525.17
422.735	535.57
423.111	505.28
423.488	527.66
423.864	535.34
424.241	545.51
424.617	551.16
424.994	539.63
425.37	557.71
425.746	532.18
426.123	555.23
426.499	539.18
426.875	569.46
427.251	565.85
427.627	565.39
428.003	578.95
428.379	582.57
428.756	542.34
429.132	586.86
429.507	585.51
429.883	608.11
430.259	588.9
430.635	604.94
431.011	608.78
431.387	590.7
431.763	591.61
432.138	594.77
432.514	611.27
432.89	616.69
433.265	642.68
433.641	635.22
434.016	642.91
434.392	655.79
434.767	658.27
435.143	650.36
435.518	651.27
435.894	655.56
436.269	683.13
436.644	680.42
437.02	684.94
437.395	697.82
437.77	686.97
438.145	666.18
438.52	691.95
438.895	701.21
439.271	730.81
439.646	736.92
440.021	712.28
440.395	738.27
440.77	719.97
441.145	734.88
441.52	730.59
441.895	740.53
442.27	750.02
442.645	749.12
443.019	781.21
443.394	749.34
443.769	756.8
444.143	754.54
444.518	740.76
444.892	771.94
445.267	766.29
445.641	776.91
446.016	762.9
446.39	778.27
446.764	789.8
447.139	807.2
447.513	813.3
447.887	793.19
448.262	791.83
448.636	804.03
449.01	791.38
449.384	819.17
449.758	826.4
450.132	821.21
450.506	802.22
450.88	842.22
451.254	829.57
451.628	835.67
452.002	845.39
452.376	853.07
452.75	846.29
453.123	862.79
453.497	848.55
453.871	870.7
454.244	900.98
454.618	885.39
454.992	898.04
455.365	914.54
455.739	913.86
456.112	931.03
456.486	931.71
456.859	934.65
457.232	961.09
457.606	958.15
457.979	949.57
458.352	976.91
458.725	981.65
459.099	985.5
459.472	969.9
459.845	1018.49
460.218	1028.89
460.591	1001.77
460.964	1022.78
461.337	1059.39
461.71	1070.92
462.083	1065.95
462.456	1063.46
462.829	1077.92
463.201	1064.36
463.574	1091.26
463.947	1114.31
464.32	1128.77
464.692	1151.37
465.065	1146.85
465.438	1143.01
465.81	1158.37
466.183	1178.03
466.555	1200.18
466.928	1168.09
467.3	1203.57
467.672	1226.62
468.045	1282.21
468.417	1274.75
468.789	1248.77
469.161	1270.46
469.534	1290.35
469.906	1317.24
470.278	1344.13
470.65	1343
471.022	1373.96
471.394	1415.99
471.766	1374.86
472.138	1420.51
472.51	1454.86
472.882	1456.44
473.253	1486.27
473.625	1522.66
473.997	1525.37
474.369	1542.77
474.74	1572.37
475.112	1555.2
475.484	1601.3
475.855	1667.74
476.227	1640.62
476.598	1688.53
476.97	1726.72
477.341	1737.12
477.713	1795.19
478.084	1813.72
478.455	1831.58
478.827	1864.8
479.198	1891.91
479.569	1879.94
479.94	1983.21
480.311	1959.93
480.682	1982.08
481.053	2067.28
481.424	2098.46
481.795	2140.72
482.166	2168.06
482.537	2186.37
482.908	2227.5
483.279	2273.15
483.65	2299.59
484.021	2346.36
484.391	2358.57
484.762	2372.13
485.133	2422.97
485.503	2472.69
485.874	2502.29
486.244	2545
486.615	2598.56
486.985	2631.56
487.356	2658.67
487.726	2657.32
488.097	2716.52
488.467	2764.66
488.837	2792.45
489.207	2863.87
489.578	2929.17
489.948	2936.63
490.318	2986.8
490.688	2989.74
491.058	3052.33
491.428	3091.88
491.798	3092.79
492.168	3173.01
492.538	3187.02
492.908	3219.34
493.278	3296.17
493.648	3265.89
494.017	3328.49
494.387	3346.11
494.757	3371.2
495.126	3412.55
495.496	3421.82
495.866	3498.42
496.235	3499.78
496.605	3534.36
496.974	3595.15
497.344	3575.26
497.713	3590.63
498.082	3680.12
498.452	3708.59
498.821	3698.65
499.19	3692.77
499.559	3761.69
499.928	3763.28
500.298	3812.54
500.667	3873.78
501.036	3821.13
501.405	3804.18
501.774	3891.86
502.143	3906.78
502.512	3922.14
502.88	3937.28
503.249	3970.28
503.618	3972.31
503.987	4036.94
504.356	4000.56
504.724	4038.52
505.093	4090.95
505.462	4060.22
505.83	4082.14
506.199	4134.34
506.567	4147.45
506.936	4177.73
507.304	4199.42
507.672	4235.81
508.041	4236.94
508.409	4281.68
508.777	4308.35
509.145	4335.92
509.514	4342.02
509.882	4341.34
510.25	4325.75
510.618	4368.01
510.986	4377.27
511.354	4422.47
511.722	4424.05
512.09	4479.42
512.458	4468.79
512.826	4511.05
513.193	4443.26
513.561	4518.51
513.929	4520.09
514.297	4569.13
514.664	4599.86
515.032	4581.56
515.4	4640.09
515.767	4647.55
516.135	4671.28
516.502	4640.99
516.869	4695.91
517.237	4696.59
517.604	4701.33
517.972	4766.19
518.339	4772.29
518.706	4777.26
519.073	4791.72
519.44	4778.84
519.808	4819.07
520.175	4832.18
520.542	4885.73
520.909	4850.93
521.276	4891.38
521.643	4934.77
522.009	4972.28
522.376	4973.41
522.743	4975.45
523.11	5038.72
523.477	5070.81
523.843	5139.29
524.21	5109.91
524.577	5136.8
524.943	5198.27
525.31	5178.38
525.676	5191.71
526.043	5249.11
526.409	5257.7
526.776	5297.7
527.142	5311.03
527.508	5363.91
527.874	5390.13
528.241	5459.28
528.607	5429.9
528.973	5493.17
529.339	5461.76
529.705	5508.09
530.071	5559.16
530.437	5582.66
530.803	5539.5
531.169	5647.07
531.535	5642.78
531.901	5616.11
532.267	5620.18
532.632	5733.39
532.998	5717.8
533.364	5724.58
533.73	5795.09
534.095	5792.83
534.461	5820.85
534.826	5816.78
535.192	5824.69
535.557	5897.91
535.923	5895.88
536.288	5931.36
536.653	5981.07
537.019	5929.1
537.384	6029.21
537.749	5985.59
538.114	6029.88
538.479	6086.15
538.845	6122.76
539.21	6092.48
539.575	6112.14
539.94	6111.46
540.305	6175.19
540.67	6188.3
541.034	6240.95
541.399	6279.37
541.764	6248.41
542.129	6301.06
542.494	6307.84
542.858	6343.55
543.223	6337.9
543.587	6370.89
543.952	6368.41
544.316	6431.23
544.681	6438.91
545.045	6435.07
545.41	6520.94
545.774	6551.45
546.138	6547.38
546.503	6575.41
546.867	6601.85
547.231	6642.98
547.595	6607.27
547.959	6666.7
548.324	6644.1
548.688	6678.68
549.052	6758.23
549.416	6816.53
549.779	6785.57
550.143	6810.43
550.507	6897.66
550.871	6906.92
551.235	6826.02
551.599	6891.1
551.962	6934.27
552.326	6935.85
552.689	7023.98
553.053	6993.7
553.417	7003.19
553.78	7108.27
554.143	6997.77
554.507	7107.14
554.87	7123.87
555.234	7114.38
555.597	7126.13
555.96	7190.31
556.323	7207.03
556.686	7223.52
557.05	7233.69
557.413	7284.77
557.776	7328.61
558.139	7294.26
558.502	7321.38
558.865	7339.45
559.228	7389.17
559.59	7433.46
559.953	7367.93
560.316	7477.98
560.679	7459
561.041	7514.82
561.404	7516.4
561.767	7573.12
562.129	7627.58
562.492	7642.5
562.854	7661.71
563.217	7665.1
563.579	7691.31
563.941	7698.54
564.304	7809.27
564.666	7768.37
565.028	7836.84
565.39	7778.09
565.753	7861.47
566.115	7857.63
566.477	7882.04
566.839	7963.39
567.201	8008.14
567.563	7970.17
567.925	8039.32
568.287	8036.84
568.648	8092.43
569.01	8145.53
569.372	8134.69
569.734	8080.23
570.095	8224.85
570.457	8254.91
570.819	8275.25
571.18	8235.93
571.542	8297.85
571.903	8378.97
572.265	8385.53
572.626	8496.03
572.987	8487.67
573.349	8453.77
573.71	8582.13
574.071	8616.48
574.432	8706.88
574.794	8754.56
575.155	8790.94
575.516	8791.85
575.877	8931.95
576.238	8929.47
576.599	9053.76
576.96	9055.34
577.32	9116.58
577.681	9199.97
578.042	9277.93
578.403	9350.02
578.763	9500.75
579.124	9527.42
579.485	9617.13
579.845	9752.95
580.206	9783.46
580.566	9907.07
580.927	9976.67
581.287	10211.02
581.648	10246.04
582.008	10405.81
582.368	10531.46
582.728	10634.73
583.089	10806.71
583.449	10963.99
583.809	11090.32
584.169	11229.07
584.529	11423.87
584.889	11621.15
585.249	11703.41
585.609	11928.71
585.969	12142.04
586.329	12329.61
586.688	12511.3
587.048	12639.88
587.408	12873.09
587.768	13048.46
588.127	13301.78
588.487	13485.73
588.846	13778.83
589.206	13949.22
589.565	14149.9
589.925	14547.85
590.284	14663.78
590.643	14920.95
591.003	15100.38
591.362	15508.05
591.721	15729.97
592.08	16024.42
592.44	16241.82
592.799	16454.69
593.158	16818.07
593.517	17060.1
593.876	17279.08
594.235	17631.16
594.593	17952.73
594.952	18255.78
595.311	18324.93
595.67	18792.71
596.029	19126.71
596.387	19426.82
596.746	19785.91
597.104	19820.93
597.463	20283.75
597.822	20518.77
598.18	20729.61
598.538	21001.24
598.897	21378.41
599.255	21456.82
599.613	22053.87
599.972	22218.16
600.33	22583.35
600.688	22693.63
601.046	23057.23
601.404	23385.59
601.762	23628.97
602.12	24044.78
602.478	24290.19
602.836	24484.54
603.194	24654.93
603.552	24953.91
603.91	25099.66
604.268	25496.04
604.625	25690.61
604.983	26053.76
605.341	26214.66
605.698	26455.79
606.056	26823.69
606.413	26930.35
606.771	27294.41
607.128	27562.88
607.485	27614.4
607.843	27812.81
608.2	28221.62
608.557	28502.74
608.914	28490.54
609.272	28885.78
609.629	29161.25
609.986	29334.58
610.343	29503.84
610.7	29852.08
611.057	30025.64
611.414	30163.26
611.771	30399.86
612.127	30747.88
612.484	30765.5
612.841	31016.35
613.198	31092.28
613.554	31232.38
613.911	31683.22
614.267	31755.54
614.624	31942.2
614.98	32036.66
615.337	32402.3
615.693	32414.27
616.05	32494.05
616.406	32870.99
616.762	32866.92
617.118	33049.96
617.475	33005.9
617.831	33405.66
618.187	33450.41
618.543	33729.72
618.899	33915.25
619.255	34044.97
619.611	33994.35
619.967	34251.97
620.323	34270.27
620.678	34178.75
621.034	34349.59
621.39	34549.36
621.746	34667.55
622.101	34997.48
622.457	34828.45
622.812	35061.89
623.168	35313.63
623.523	35137.59
623.879	35469.56
624.234	35346.18
624.589	35545.27
624.945	35680.63
625.3	35807.86
625.655	35827.07
626.01	35662.1
626.365	35899.61
626.72	36068.64
627.075	35924.01
627.43	36036.55
627.785	36046.27
628.14	36239.94
628.495	36383.89
628.85	36267.28
629.205	36176.21
629.559	36526.03
629.914	36501.17
630.269	36605.13
630.623	36422.98
630.978	36461.4
631.332	36660.49
631.687	36721.51
632.041	36608.06
632.396	36643.32
632.75	36571.45
633.104	36629.53
633.459	36557.22
633.813	36608.06
634.167	36673.6
634.521	36747.04
634.875	36723.99
635.229	36790.66
635.583	36672.92
635.937	36772.58
636.291	36709.98
636.645	36641.06
636.999	36719.7
637.352	36840.6
637.706	36657.1
638.06	36753.6
638.413	36688.06
638.767	36513.15
639.121	36636.31
639.474	36601.96
639.828	36538.69
640.181	36770.32
640.534	36759.92
640.888	36626.82
641.241	36465.92
641.594	36592.24
641.947	36705.46
642.301	36576.88
642.654	36652.13
643.007	36670.89
643.36	36606.71
643.713	36476.77
644.066	36615.07
644.419	36326.26
644.771	36207.62
645.124	35969.89
645.477	35938.93
645.83	35724.47
646.182	35596.79
646.535	35504.59
646.888	35519.96
647.24	35307.08
647.593	35590.91
647.945	35534.42
648.298	35399.73
648.65	35230.47
649.002	35316.12
649.355	35354.76
649.707	35307.76
650.059	35490.58
650.411	35858.48
650.763	35907.74
651.115	36412.81
651.467	36270.9
651.819	36200.62
652.171	36272.93
652.523	36040.17
652.875	36036.1
653.227	35957.23
653.578	36171.46
653.93	36046.04
654.282	35876.33
654.633	35952.94
654.985	36008.76
655.337	36074.29
655.688	36035.87
656.039	36135.76
656.391	35797.46
656.742	35971.7
657.094	35819.16
657.445	35994.75
657.796	35874.52
658.147	35765.83
658.498	35817.8
658.849	35812.38
659.2	35790.23
659.551	35790.91
659.902	35902.77
660.253	35769.44
660.604	35917.46
660.955	35727.41
661.306	35970.11
661.656	35761.98
662.007	35689.67
662.358	35878.36
662.708	35677.24
663.059	35752.04
663.409	35654.64
663.76	35841.53
664.11	35878.82
664.461	35806.28
664.811	35890.57
665.161	35810.12
665.511	35799.04
665.862	35766.05
666.212	35896.44
666.562	35867.07
666.912	35741.19
667.262	35686.73
667.612	35700.97
667.962	35672.49
668.312	35622.33
668.662	35847.4
669.011	35755.2
669.361	35636.34
669.711	35699.84
670.06	35623.23
670.41	35628.88
670.76	35400.86
671.109	35637.69
671.459	35554.76
671.808	35522.22
672.157	35656
672.507	35371.26
672.856	35476.34
673.205	35462.33
673.554	35379.39
673.904	35497.58
674.253	35657.81
674.602	35498.04
674.951	35007.65
675.3	34720.88
675.649	35351.15
675.998	35314.76
676.346	35253.97
676.695	35443.8
677.044	35198.38
677.393	35358.15
677.741	35440.64
678.09	35242
678.438	35117.71
678.787	35291.49
679.135	35235.44
679.484	35016.92
679.832	35006.98
680.181	34966.52
680.529	35080.19
680.877	34932.4
681.225	34900.54
681.573	35109.8
681.922	34833.87
682.27	34767.89
682.618	34723.82
682.966	34673.65
683.314	34856.7
683.661	34689.24
684.009	34454.22
684.357	34563.37
684.705	34443.83
685.053	34487.21
685.4	34323.83
685.748	34268.46
686.095	34205.41
686.443	34163.83
686.79	34059.66
687.138	34099.65
687.485	34198.41
687.832	33930.17
688.18	33991.63
688.527	33903.95
688.874	33902.6
689.221	33725.2
689.568	33680.23
689.915	33621.25
690.262	33680.68
690.609	33474.36
690.956	33233.46
691.303	33292.22
691.65	33232.56
691.997	33230.07
692.344	33067.36
692.69	33052.45
693.037	32951.21
693.383	32683.65
693.73	32917.54
694.077	32689.52
694.423	32740.59
694.769	32621.28
695.116	32550.54
695.462	32560.94
695.808	32374.5
696.155	32471.45
696.501	32067.62
696.847	32158.69
697.193	31997.56
697.539	32080.5
697.885	31842.31
698.231	31760.51
698.577	31753.05
698.923	31597.35
699.269	31467.41
699.614	31304.02
699.96	31231.71
700.306	31249.33
700.651	31213.4
700.997	31184.93
701.342	31001.2
701.688	31010.47
702.033	30958.95
702.379	30860.64
702.724	30791.49
703.069	30838.05
703.415	30515.57
703.76	30463.14
704.105	30598.5
704.45	30436.25
704.795	30295.69
705.14	30312.86
705.485	30244.84
705.83	30198.97
706.175	30074.22
706.52	29923.94
706.865	29870.39
707.209	29892.08
707.554	29685.76
707.899	29834.23
708.243	29651.18
708.588	29698.64
708.932	29375.26
709.277	29457.52
709.621	29419.55
709.966	29254.13
710.31	29327.58
710.654	29029.73
710.998	29155.83
711.342	29147.24
711.687	28938.21
712.031	28753.13
712.375	28792
712.719	28866.35
713.063	28660.02
713.407	28880.36
713.75	28718.55
714.094	28670.19
714.438	28507.94
714.782	28577.54
715.125	28432.91
715.469	28497.09
715.812	28360.14
716.156	28184.1
716.499	28301.61
716.843	28274.95
717.186	28089.64
717.53	28198.79
717.873	28091.9
718.216	28172.8
718.559	27919.25
718.902	27831.34
719.246	27825.69
719.589	27759.03
719.932	27669.54
720.275	27682.2
720.617	27574.18
720.96	27593.38
721.303	27499.6
721.646	27560.39
721.989	27275.43
722.331	27428.64
722.674	27422.77
723.016	27405.14
723.359	27245.6
723.701	27213.28
724.044	27265.26
724.386	26996.34
724.729	27171.47
725.071	26943.01
725.413	26985.27
725.755	27091.48
726.097	26915.44
726.439	26733.75
726.782	26781.88
727.124	26963.8
727.465	26799.51
727.807	26788.89
728.149	26672.96
728.491	26540.3
728.833	26673.86
729.175	26570.59
729.516	26519.06
729.858	26467.76
730.199	26513.64
730.541	26416.24
730.882	26348.9
731.224	26499.63
731.565	26308.45
731.906	26320.65
732.248	26225.29
732.589	26224.61
732.93	25987.55
733.271	26030.71
733.612	26079.07
733.953	26109.13
734.294	25896.48
734.635	25789.36
734.976	25892.64
735.317	25869.14
735.658	25799.53
735.999	25801.79
736.339	25708.69
736.68	25780.1
737.021	25575.58
737.361	25616.71
737.702	25748.24
738.042	25620.1
738.383	25460.33
738.723	25675.47
739.063	25448.81
739.404	25536.49
739.744	25516.83
740.084	25233.22
740.424	25385.31
740.764	25298.3
741.104	25350.96
741.444	25286.78
741.784	25210.4
742.124	25174.24
742.464	25226.67
742.804	25197.97
743.143	25018.54
743.483	25068.48
743.823	25029.16
744.162	25001.59
744.502	24962.04
744.841	24835.04
745.181	24885.66
745.52	24762.72
745.86	24964.98
746.199	24832.1
746.538	24739.9
746.877	24807.92
747.216	24696.96
747.556	24600.24
747.895	24722.05
748.234	24588.72
748.573	24608.15
748.911	24484.99
749.25	24529.06
749.589	24404.54
749.928	24456.07
750.267	24507.36
750.605	24374.49
750.944	24230.08
751.283	24204.55
751.621	24336.52
751.96	24125.45
752.298	24265.11
752.636	24126.81
752.975	24070.54
753.313	23979.47
753.651	24048.17
753.989	23890.88
754.327	23935.63
754.666	23704
755.004	23860.83
755.342	23692.24
755.679	23705.58
756.017	23581.29
756.355	23713.71
756.693	23513.27
757.031	23576.77
757.368	23450.89
757.706	23527.73
758.044	23431.69
758.381	23322.54
758.719	23321.63
759.056	23355.08
759.394	23224.23
759.731	23015.2
760.068	23004.35
760.405	23000.96
760.743	22868.76
