Data from hue_120_FLMS001491_00010.txt Node
Date: Tue Feb 07 16:58:52 GMT 2017
User: dcchb
Spectrometer: FLMS00149
Trigger mode: 0
Integration Time (sec): 2.000000E-2
Scans to average: 10
Electric dark correction enabled: true
Nonlinearity correction enabled: false
Boxcar width: 0
XAxis mode: Wavelengths
Number of Pixels in Spectrum: 2048
>>>>>Begin Spectral Data<<<<<
341.393	-15.1
341.776	-15.1
342.16	-15.1
342.543	-46.96
342.927	-58.94
343.31	-66.62
343.693	-61.42
344.077	-57.81
344.46	-55.1
344.843	-65.72
345.226	-29.11
345.61	-25.95
345.993	-20.75
346.376	-8.77
346.759	37.56
347.142	30.1
347.525	41.85
347.908	46.59
348.291	60.83
348.674	73.26
349.057	101.06
349.44	128.17
349.823	148.29
350.206	161.62
350.588	188.96
350.971	237.55
351.354	244.33
351.737	234.84
352.119	261.28
352.502	275.06
352.884	298.11
353.267	302.18
353.65	294.05
354.032	312.12
354.414	301.73
354.797	319.13
355.179	340.6
355.562	347.38
355.944	308.28
356.326	347.15
356.709	343.08
357.091	351.9
357.473	347.38
357.855	342.18
358.238	352.12
358.62	336.76
359.002	339.69
359.384	360.03
359.766	362.52
360.148	340.6
360.53	337.43
360.912	357.1
361.294	334.95
361.676	351.9
362.057	353.48
362.439	348.06
362.821	342.63
363.203	336.08
363.584	339.92
363.966	340.37
364.348	330.88
364.729	319.36
365.111	339.24
365.493	326.59
365.874	322.07
366.256	335.4
366.637	332.46
367.019	307.6
367.4	321.16
367.781	319.36
368.163	334.04
368.544	325.46
368.925	311.9
369.306	323.65
369.688	321.16
370.069	299.7
370.45	306.93
370.831	327.72
371.212	317.55
371.593	303.09
371.974	323.2
372.355	325.01
372.736	320.71
373.117	331.11
373.498	305.8
373.879	337.89
374.26	319.13
374.641	331.11
375.021	328.17
375.402	332.69
375.783	332.46
376.163	346.7
376.544	335.63
376.925	327.49
377.305	338.79
377.686	318.23
378.066	350.54
378.447	338.56
378.827	351.22
379.208	350.99
379.588	338.34
379.968	339.69
380.349	334.5
380.729	352.35
381.109	350.77
381.489	326.59
381.87	343.76
382.25	373.37
382.63	337.89
383.01	367.04
383.39	348.28
383.77	367.49
384.15	357.55
384.53	370.65
384.91	346.47
385.29	353.93
385.67	349.19
386.049	350.99
386.429	362.07
386.809	375.4
387.189	359.81
387.568	355.29
387.948	383.54
388.328	379.47
388.707	370.43
389.087	381.5
389.466	374.04
389.846	397.09
390.225	382.41
390.605	370.2
390.984	384.67
391.363	365.46
391.743	388.96
392.122	381.73
392.501	381.05
392.881	388.05
393.26	366.36
393.639	385.12
394.018	392.57
394.397	389.18
394.776	391.9
395.155	391.44
395.534	382.18
395.913	397.32
396.292	404.55
396.671	389.86
397.05	390.77
397.429	420.14
397.808	395.96
398.186	413.14
398.565	378.34
398.944	407.49
399.323	394.38
399.701	414.27
400.08	404.33
400.458	416.08
400.837	431.9
401.215	435.74
401.594	441.61
401.972	413.14
402.351	423.53
402.729	392.12
403.107	434.38
403.486	456.75
403.864	412.91
404.242	383.76
404.62	419.92
404.999	417.66
405.377	442.74
405.755	441.84
406.133	418.79
406.511	435.51
406.889	430.99
407.267	471.22
407.645	442.29
408.023	447.71
408.401	453.36
408.779	458.79
409.156	461.5
409.534	457.66
409.912	465.79
410.29	472.57
410.667	470.99
411.045	493.81
411.422	476.87
411.8	496.98
412.178	501.72
412.555	508.05
412.933	492.01
413.31	499.69
413.687	509.63
414.065	506.02
414.442	517.77
414.819	520.25
415.197	539.24
415.574	526.13
415.951	534.27
416.328	524.77
416.705	525
417.082	524.55
417.46	543.53
417.837	520.03
418.214	533.14
418.591	535.4
418.967	546.69
419.344	540.14
419.721	547.15
420.098	536.3
420.475	558.9
420.852	566.36
421.228	565.45
421.605	566.58
421.982	572.46
422.358	588.5
422.735	551.89
423.111	561.61
423.488	574.72
423.864	598.22
424.241	591.21
424.617	618.78
424.994	581.04
425.37	599.57
425.746	623.53
426.123	633.7
426.499	640.93
426.875	624.21
427.251	649.97
427.627	617.2
428.003	651.78
428.379	645.45
428.756	652.91
429.132	655.62
429.507	642.06
429.883	656.75
430.259	664.21
430.635	679.8
431.011	681.83
431.387	687.93
431.763	694.94
432.138	680.93
432.514	705.33
432.89	722.51
433.265	698.78
433.641	715.73
434.016	740.59
434.392	734.71
434.767	762.28
435.143	743.3
435.518	750.76
435.894	777.65
436.269	744.43
436.644	783.3
437.02	777.42
437.395	787.59
437.77	797.08
438.145	793.02
438.52	809.96
438.895	800.25
439.271	840.47
439.646	830.53
440.021	837.76
440.395	813.58
440.77	840.02
441.145	847.93
441.52	844.99
441.895	833.92
442.27	851.09
442.645	854.94
443.019	866.91
443.394	870.08
443.769	868.49
444.143	905.78
444.518	895.16
444.892	873.69
445.267	880.7
445.641	875.73
446.016	928.61
446.39	918.21
446.764	950.75
447.139	931.09
447.513	942.84
447.887	934.03
448.262	933.8
448.636	947.14
449.01	978.1
449.384	957.53
449.758	995.95
450.132	989.17
450.506	998.43
450.88	995.72
451.254	993.46
451.628	1001.15
452.002	1022.84
452.376	1010.19
452.75	1044.31
453.123	1038.89
453.497	1042.95
453.871	1079.34
454.244	1113.46
454.618	1077.08
454.992	1137.19
455.365	1091.77
455.739	1151.88
456.112	1143.06
456.486	1166.57
456.859	1158.2
457.232	1175.38
457.606	1165.89
457.979	1162.5
458.352	1201.59
458.725	1221.03
459.099	1252.66
459.472	1247.69
459.845	1287.24
460.218	1273.23
460.591	1301.7
460.964	1299.67
461.337	1303.74
461.71	1321.82
462.083	1367.46
462.456	1400.68
462.829	1386.45
463.201	1444.07
463.574	1412.89
463.947	1440.68
464.32	1473
464.692	1487.69
465.065	1519.1
465.438	1492.66
465.81	1555.48
466.183	1563.62
466.555	1610.85
466.928	1623.05
467.3	1614.69
467.672	1643.84
468.045	1721.35
468.417	1720.9
468.789	1748.47
469.161	1761.13
469.534	1801.8
469.906	1832.08
470.278	1859.88
470.65	1887.22
471.022	1920.44
471.394	1984.4
471.766	1984.62
472.138	2021.68
472.51	2105.3
472.882	2104.62
473.253	2165.64
473.625	2201.79
473.997	2259.42
474.369	2305.74
474.74	2357.27
475.112	2429.58
475.484	2451.05
475.855	2526.53
476.227	2573.76
476.598	2690.59
476.97	2703.02
477.341	2782.34
477.713	2843.36
478.084	2916.58
478.455	2997.7
478.827	3059.4
479.198	3139.17
479.569	3213.29
479.94	3298.26
480.311	3403.34
480.682	3505.26
481.053	3653.05
481.424	3692.37
481.795	3754.29
482.166	3881.3
482.537	3975.53
482.908	4091.23
483.279	4158.8
483.65	4308.4
484.021	4442.19
484.391	4565.35
484.762	4675.17
485.133	4781.16
485.503	4893.25
485.874	5045.33
486.244	5163.52
486.615	5357.42
486.985	5419.56
487.356	5570.74
487.726	5655.03
488.097	5867.23
488.467	6001.92
488.837	6135.47
489.207	6276.04
489.578	6420.44
489.948	6575.24
490.318	6736.59
490.688	6835.79
491.058	6999.86
491.428	7192.17
491.798	7320.75
492.168	7478.49
492.538	7642.1
492.908	7808.42
493.278	7961.87
493.648	8059.72
494.017	8249.77
494.387	8442.31
494.757	8499.25
495.126	8698.57
495.496	8814.27
495.866	8978.11
496.235	9080.71
496.605	9223.75
496.974	9333.58
497.344	9498.78
497.713	9613.35
498.082	9729.5
498.452	9976.73
498.821	10068.03
499.19	10099.44
499.559	10271.86
499.928	10377.17
500.298	10493.33
500.667	10647.22
501.036	10648.35
501.405	10834.33
501.774	10852.64
502.143	11064.38
502.512	11166.75
502.88	11290.37
503.249	11313.19
503.618	11417.14
503.987	11522.23
504.356	11550.7
504.724	11770.13
505.093	11861.2
505.462	11863.23
505.83	12000.18
506.199	12077.92
506.567	12225.94
506.936	12294.41
507.304	12438.36
507.672	12533.5
508.041	12551.58
508.409	12670.67
508.777	12728.52
509.145	12929.42
509.514	12865.47
509.882	13061.62
510.25	13010.55
510.618	13067.95
510.986	13173.26
511.354	13319.24
511.722	13376.41
512.09	13502.51
512.458	13400.14
512.826	13465.45
513.193	13603.3
513.561	13546.13
513.929	13763.3
514.297	13748.16
514.664	13892.33
515.032	13846.46
515.4	13993.57
515.767	13954.25
516.135	14079.22
516.502	14025.44
516.869	14183.85
517.237	14181.36
517.604	14142.95
517.972	14273.11
518.339	14325.77
518.706	14278.09
519.073	14315.15
519.44	14336.39
519.808	14513.33
520.175	14494.35
520.542	14573.67
520.909	14619.32
521.276	14555.14
521.643	14772.99
522.009	14775.7
522.376	14735.7
522.743	14791.97
523.11	14948.8
523.477	14999.42
523.843	14971.4
524.21	15116.93
524.577	15113.54
524.943	15101.57
525.31	15135.01
525.676	15229.47
526.043	15226.99
526.409	15305.63
526.776	15346.08
527.142	15310.37
527.508	15306.98
527.874	15300.21
528.241	15372.97
528.607	15325.74
528.973	15390.6
529.339	15458.84
529.705	15549.92
530.071	15553.53
530.437	15526.64
530.803	15517.37
531.169	15500.65
531.535	15428.11
531.901	15370.94
532.267	15455.46
532.632	15463.82
532.998	15491.16
533.364	15448.22
533.73	15449.81
534.095	15547.88
534.461	15443.93
534.826	15572.06
535.192	15424.95
535.557	15569.35
535.923	15429.47
536.288	15389.24
536.653	15426.3
537.019	15255.69
537.384	15292.75
537.749	15342.46
538.114	15313.31
538.479	15162.13
538.845	15239.42
539.21	15114.67
539.575	15080.78
539.94	15111.96
540.305	15124.62
540.67	14983.15
541.034	15049.14
541.399	15021.12
541.764	14959.2
542.129	15053.88
542.494	14875.81
542.858	14900.22
543.223	14862.48
543.587	14857.73
543.952	14747
544.316	14762.59
544.681	14717.62
545.045	14663.39
545.41	14598.75
545.774	14584.74
546.138	14583.39
546.503	14469.72
546.867	14521.69
547.231	14559.43
547.595	14463.39
547.959	14390.62
548.324	14366.22
548.688	14305.2
549.052	14298.88
549.416	14196.28
549.779	14252.77
550.143	14210.52
550.507	14254.36
550.871	14150.86
551.235	14060.46
551.599	14091.88
551.962	14110.41
552.326	14052.55
552.689	14114.47
553.053	13930.07
553.417	13953.35
553.78	14041.71
554.143	13944.53
554.507	13822.28
554.87	13931.2
555.234	13944.99
555.597	13902.05
555.96	13857.31
556.323	13889.17
556.686	13873.12
557.05	13877.19
557.413	13873.12
557.776	13872.67
558.139	13863.86
558.502	13711.55
558.865	13736.86
559.228	13723.98
559.59	13825.44
559.953	13689.4
560.316	13888.26
560.679	13771.88
561.041	13841.03
561.404	13822.73
561.767	13828.83
562.129	13728.95
562.492	13803.07
562.854	13791.09
563.217	13784.54
563.579	13773.47
563.941	13780.25
564.304	13779.79
564.666	13838.77
565.028	13792.67
565.39	13899.56
565.753	13904.76
566.115	13883.29
566.477	13908.15
566.839	13853.92
567.201	13861.6
567.563	13921.94
567.925	13939.11
568.287	13947.92
568.648	13948.38
569.01	13948.83
569.372	14022.27
569.734	13969.39
570.095	13942.27
570.457	14052.78
570.819	14102.5
571.18	14050.75
571.542	14074.02
571.903	14106.79
572.265	14125.09
572.626	14143.17
572.987	14121.03
573.349	14131.65
573.71	14133
574.071	14144.98
574.432	14195.83
574.794	14235.83
575.155	14288.93
575.516	14119.67
575.877	14225.43
576.238	14142.04
576.599	14389.95
576.96	14260.68
577.32	14222.27
577.681	14300.01
578.042	14300.91
578.403	14256.16
578.763	14255.26
579.124	14248.71
579.485	14239.67
579.845	14346.56
580.206	14240.8
580.566	14316.95
580.927	14307.69
581.287	14229.95
581.648	14264.3
582.008	14302.49
582.368	14163.29
582.728	14232.21
583.089	14219.1
583.449	14246.22
583.809	14210.74
584.169	14181.36
584.529	14205.32
584.889	14306.56
585.249	14139.56
585.609	14199.89
585.969	14258.65
586.329	14161.93
586.688	14104.98
587.048	14198.31
587.408	14099.33
587.768	14114.93
588.127	14112.89
588.487	14087.81
588.846	14099.56
589.206	14057.07
589.565	14116.06
589.925	14084.42
590.284	14057.3
590.643	14015.95
591.003	14083.97
591.362	14095.26
591.721	14039.67
592.08	14023.4
592.44	14090.29
592.799	14126.68
593.158	13986.79
593.517	13957.19
593.876	14052.1
594.235	13904.54
594.593	13953.57
594.952	14063.18
595.311	13938.43
595.67	13967.13
596.029	14003.29
596.387	14019.79
596.746	13990.63
597.104	13868.83
597.463	13936.17
597.822	14008.04
598.18	13859.79
598.538	13985.89
598.897	13963.97
599.255	13865.89
599.613	14009.84
599.972	13981.14
600.33	14000.58
600.688	13900.92
601.046	13940.01
601.404	14035.15
601.762	13975.27
602.12	14008.26
602.478	13990.18
602.836	14010.75
603.194	13883.52
603.552	13946.79
603.91	13922.61
604.268	14005.55
604.625	13979.79
604.983	14017.07
605.341	13869.06
605.698	14009.84
606.056	14016.4
606.413	14006.45
606.771	14041.93
607.128	14085.77
607.485	13910.64
607.843	14044.87
608.2	14063.85
608.557	14062.95
608.914	14076.51
609.272	14051.42
609.629	14085.77
609.986	14207.58
610.343	14018.88
610.7	14171.65
611.057	14065.21
611.414	14071.08
611.771	14117.19
612.127	14168.26
612.484	14082.38
612.841	14187.24
613.198	14036.28
613.554	14090.29
613.911	14218.65
614.267	14188.6
614.624	14188.6
614.98	14100.24
615.337	14191.76
615.693	14278.31
616.05	14210.97
616.406	14323.28
616.762	14242.38
617.118	14258.42
617.475	14221.36
617.831	14242.83
618.187	14306.11
618.543	14357.18
618.899	14473.33
619.255	14377.74
619.611	14345.65
619.967	14372.55
620.323	14483.28
620.678	14307.01
621.034	14302.04
621.39	14237.63
621.746	14146.79
622.101	14396.05
622.457	14329.84
622.812	14404.64
623.168	14344.07
623.523	14375.03
623.879	14401.02
624.234	14337.29
624.589	14276.5
624.945	14382.04
625.3	14408.93
625.655	14348.59
626.01	14302.72
626.365	14318.54
626.72	14379.78
627.075	14289.16
627.43	14308.59
627.785	14346.78
628.14	14387.23
628.495	14338.87
628.85	14295.71
629.205	14230.4
629.559	14354.24
629.914	14312.89
630.269	14322.38
630.623	14256.62
630.978	14245.09
631.332	14278.54
631.687	14399.66
632.041	14255.49
632.396	14208.93
632.75	14280.34
633.104	14246.67
633.459	14156.73
633.813	14149.5
634.167	14082.38
634.521	14126.68
634.875	14139.78
635.229	14146.11
635.583	14034.48
635.937	14042.61
636.291	14072.89
636.645	14085.1
636.999	14018.2
637.352	13983.4
637.706	13992.44
638.06	13992.22
638.413	14021.82
638.767	13905.21
639.121	13982.95
639.474	13915.83
639.828	13847.81
640.181	13930.52
640.534	13801.26
640.888	13848.49
641.241	13811.43
641.594	13764.88
641.947	13801.49
642.301	13720.13
642.654	13766.23
643.007	13782.28
643.36	13791.77
643.713	13730.3
644.066	13824.76
644.419	13784.99
644.771	13701.83
645.124	13469.97
645.477	13505.22
645.83	13439.01
646.182	13374.15
646.535	13337.09
646.888	13385.68
647.24	13223.88
647.593	13302.29
647.945	13325.34
648.298	13197.21
648.65	13256.87
649.002	13244.67
649.355	13337.32
649.707	13338.45
650.059	13242.18
650.411	13527.82
650.763	13596.75
651.115	13645.56
651.467	13605.79
651.819	13575.73
652.171	13536.86
652.523	13463.64
652.875	13551.78
653.227	13516.07
653.578	13665.45
653.93	13693.24
654.282	13596.07
654.633	13537.77
654.985	13583.19
655.337	13514.72
655.688	13504.09
656.039	13678.78
656.391	13459.35
656.742	13549.29
657.094	13525.56
657.445	13615.28
657.796	13577.76
658.147	13592.68
658.498	13600.81
658.849	13641.04
659.2	13561.49
659.551	13558.33
659.902	13666.35
660.253	13574.6
660.604	13619.57
660.955	13465
661.306	13663.64
661.656	13649.85
662.007	13616.86
662.358	13640.14
662.708	13612.11
663.059	13742.05
663.409	13513.13
663.76	13623.41
664.11	13683.98
664.461	13653.92
664.811	13648.5
665.161	13589.29
665.511	13570.76
665.862	13613.02
666.212	13671.55
666.562	13646.24
666.912	13700.02
667.262	13657.54
667.612	13587.03
667.962	13609.63
668.312	13665.9
668.662	13625.67
669.011	13638.55
669.361	13561.27
669.711	13602.4
670.06	13599.23
670.41	13542.96
670.76	13555.39
671.109	13573.92
671.459	13521.95
671.808	13523.98
672.157	13612.11
672.507	13478.78
672.856	13500.48
673.205	13522.85
673.554	13584.54
673.904	13479.91
674.253	13619.57
674.602	13556.97
674.951	13363.76
675.3	13285.12
675.649	13485.34
675.998	13434.49
676.346	13457.99
676.695	13553.58
677.044	13345
677.393	13408.28
677.741	13460.03
678.09	13384.78
678.438	13386.81
678.787	13305.91
679.135	13414.15
679.484	13289.86
679.832	13347.26
680.181	13246.02
680.529	13278.34
680.877	13257.77
681.225	13216.87
681.573	13318.79
681.922	13115.18
682.27	13116.99
682.618	13176.19
682.966	13119.25
683.314	13113.6
683.661	13179.13
684.009	13014.16
684.357	13003.54
684.705	12902.3
685.053	12973.71
685.4	12914.96
685.748	12832.7
686.095	12910.66
686.443	12828.63
686.79	12769.88
687.138	12752.93
687.485	12763.77
687.832	12671.35
688.18	12735.3
688.527	12651.91
688.874	12633.16
689.221	12508.41
689.568	12546.83
689.915	12575.53
690.262	12507.06
690.609	12508.64
690.956	12428.42
691.303	12412.15
691.65	12332.15
691.997	12338.48
692.344	12275.2
692.69	12216.9
693.037	12278.14
693.383	12148.42
693.73	12224.58
694.077	12125.37
694.423	12084.7
694.769	11923.34
695.116	11960.63
695.462	11950.46
695.808	11868.2
696.155	11900.97
696.501	11806.51
696.847	11769.22
697.193	11684.93
697.539	11724.71
697.885	11540.98
698.231	11628.44
698.577	11578.27
698.923	11523.81
699.269	11539.4
699.614	11433.87
699.96	11394.55
700.306	11392.29
700.651	11337.37
700.997	11281.33
701.342	11228.67
701.688	11249.92
702.033	11179.86
702.379	11195.45
702.724	11143.03
703.069	11159.52
703.415	11066.42
703.76	11059.64
704.105	10997.49
704.45	10975.57
704.795	10843.6
705.14	10857.16
705.485	10867.55
705.83	10728.8
706.175	10772.19
706.52	10717.95
706.865	10691.29
707.209	10646.32
707.554	10618.07
707.899	10630.5
708.243	10509.37
708.588	10540.1
708.932	10482.03
709.277	10583.94
709.621	10472.31
709.966	10424.85
710.31	10429.37
710.654	10315.7
710.998	10344.86
711.342	10383.27
711.687	10339.43
712.031	10270.96
712.375	10237.97
712.719	10242.71
713.063	10297.62
713.407	10318.87
713.75	10242.03
714.094	10213.11
714.438	10171.53
714.782	10157.74
715.125	10072.55
715.469	10095.37
715.812	10073.9
716.156	10041.13
716.499	9980.57
716.843	10046.33
717.186	10022.83
717.53	10017.18
717.873	10063.51
718.216	9955.26
718.559	9963.17
718.902	9903.51
719.246	9805.21
719.589	9831.87
719.932	9774.47
720.275	9794.14
720.617	9822.61
720.96	9840.24
721.303	9758.2
721.646	9818.09
721.989	9772.89
722.331	9772.67
722.674	9763.85
723.016	9753.68
723.359	9708.94
723.701	9730.63
724.044	9664.42
724.386	9657.64
724.729	9698.09
725.071	9607.93
725.413	9674.36
725.755	9698.09
726.097	9580.13
726.439	9559.11
726.782	9581.71
727.124	9568.38
727.465	9537.64
727.807	9595.04
728.149	9565.67
728.491	9524.99
728.833	9540.36
729.175	9521.6
729.516	9579
729.858	9562.28
730.199	9610.19
730.541	9558.89
730.882	9585.33
731.224	9554.82
731.565	9490.64
731.906	9621.71
732.248	9513.46
732.589	9503.52
732.93	9493.58
733.271	9488.61
733.612	9506.91
733.953	9530.19
734.294	9517.31
734.635	9549.17
734.976	9508.72
735.317	9513.69
735.658	9487.25
735.999	9479.57
736.339	9499
736.68	9512.79
737.021	9428.72
737.361	9483.86
737.702	9542.39
738.042	9511.88
738.383	9543.75
738.723	9566.12
739.063	9611.99
739.404	9594.14
739.744	9518.21
740.084	9571.09
740.424	9569.28
740.764	9634.59
741.104	9656.51
741.444	9630.52
741.784	9657.87
742.124	9664.65
742.464	9661.48
742.804	9757.53
743.143	9702.84
743.483	9780.35
743.823	9768.6
744.162	9738.32
744.502	9841.37
744.841	9826
745.181	9881.14
745.52	9877.3
745.86	9945.32
746.199	10002.72
746.538	10001.81
746.877	10112.54
747.216	10171.98
747.556	10144.18
747.895	10190.06
748.234	10274.8
748.573	10317.06
748.911	10327.23
749.25	10432.99
749.589	10405.64
749.928	10588.01
750.267	10569.93
750.605	10714.11
750.944	10769.02
751.283	10773.77
751.621	10973.54
751.96	11008.57
752.298	11092.18
752.636	11155.91
752.975	11321.1
753.313	11374.66
753.651	11555.9
753.989	11630.7
754.327	11762.44
754.666	11862.56
755.004	12003.34
755.342	12152.72
755.679	12261.64
756.017	12409.89
756.355	12594.29
756.693	12671.35
757.031	12880.16
757.368	12974.62
757.706	13143.2
