Data from hue_180_FLMS001491_00064.txt Node
Date: Tue Feb 07 16:47:19 GMT 2017
User: dcchb
Spectrometer: FLMS00149
Trigger mode: 0
Integration Time (sec): 2.000000E-2
Scans to average: 10
Electric dark correction enabled: true
Nonlinearity correction enabled: false
Boxcar width: 0
XAxis mode: Wavelengths
Number of Pixels in Spectrum: 2048
>>>>>Begin Spectral Data<<<<<
341.393	-34.07
341.776	-34.07
342.16	-34.07
342.543	-77.91
342.927	-87.4
343.31	-79.04
343.693	-79.04
344.077	-72.94
344.46	-51.69
344.843	-57.34
345.226	-32.49
345.61	-32.49
345.993	-2.43
346.376	-25.03
346.759	12.03
347.142	34.18
347.525	47.96
347.908	57
348.291	74.4
348.674	94.97
349.057	111.92
349.44	105.82
349.823	126.83
350.206	180.84
350.588	183.33
350.971	211.8
351.354	220.84
351.737	210.9
352.119	240.05
352.502	244.8
352.884	295.19
353.267	271.91
353.65	273.5
354.032	277.56
354.414	307.85
354.797	303.78
355.179	320.05
355.562	308.97
355.944	311.91
356.326	312.36
356.709	332.48
357.091	338.8
357.473	329.54
357.855	310.1
358.238	325.02
358.62	339.93
359.002	328.64
359.384	326.6
359.766	337.67
360.148	315.75
360.53	325.02
360.912	346.49
361.294	317.79
361.676	350.78
362.057	332.7
362.439	318.47
362.821	308.75
363.203	331.57
363.584	302.65
363.966	312.82
364.348	311.69
364.729	318.47
365.111	318.47
365.493	309.65
365.874	307.62
366.256	329.54
366.637	290.67
367.019	310.78
367.4	303.1
367.781	304.23
368.163	292.7
368.544	298.35
368.925	303.78
369.306	307.85
369.688	288.86
370.069	301.74
370.45	304.23
370.831	329.54
371.212	312.14
371.593	311.91
371.974	297.68
372.355	330.22
372.736	310.78
373.117	308.52
373.498	315.98
373.879	284.79
374.26	295.42
374.641	300.16
375.021	299.48
375.402	313.04
375.783	317.34
376.163	291.8
376.544	308.07
376.925	315.53
377.305	308.52
377.686	322.76
378.066	319.37
378.447	333.16
378.827	320.27
379.208	289.99
379.588	322.53
379.968	297.22
380.349	317.34
380.729	323.44
381.109	327.73
381.489	327.96
381.87	319.14
382.25	318.24
382.63	321.18
383.01	337.9
383.39	325.02
383.77	328.86
384.15	338.35
384.53	321.18
384.91	324.34
385.29	338.8
385.67	335.64
386.049	331.35
386.429	364.34
386.809	348.07
387.189	354.4
387.568	334.74
387.948	349.43
388.328	350.1
388.707	327.73
389.087	340.16
389.466	369.76
389.846	371.57
390.225	353.95
390.605	346.04
390.984	336.54
391.363	341.74
391.743	363.21
392.122	373.15
392.501	356.43
392.881	367.96
393.26	357.79
393.639	349.65
394.018	376.32
394.397	358.47
394.776	383.78
395.155	360.72
395.534	388.52
395.913	371.12
396.292	376.32
396.671	383.32
397.05	356.21
397.429	372.93
397.808	378.35
398.186	382.65
398.565	383.78
398.944	405.92
399.323	386.49
399.701	394.85
400.08	390.33
400.458	398.46
400.837	402.76
401.215	383.32
401.594	390.33
401.972	411.12
402.351	419.93
402.729	407.28
403.107	405.47
403.486	403.66
403.864	416.32
404.242	452.25
404.62	423.55
404.999	405.92
405.377	407.5
405.755	429.88
406.133	437.79
406.511	423.55
406.889	442.76
407.267	435.98
407.645	456.99
408.023	445.24
408.401	475.98
408.779	464.68
409.156	477.33
409.534	494.05
409.912	483.43
410.29	507.16
410.667	491.57
411.045	505.35
411.422	531.12
411.8	499.7
412.178	531.34
412.555	512.59
412.933	541.29
413.31	536.31
413.687	535.41
414.065	562.98
414.442	560.04
414.819	557.33
415.197	540.61
415.574	573.37
415.951	584.22
416.328	602.07
416.705	572.24
417.082	610.89
417.46	610.89
417.837	599.59
418.214	624.67
418.591	631.68
418.967	654.05
419.344	643.66
419.721	647.05
420.098	662.86
420.475	678.91
420.852	689.98
421.228	686.82
421.605	709.87
421.982	733.14
422.358	719.36
422.735	748.06
423.111	732.69
423.488	747.61
423.864	758.91
424.241	804.1
424.617	772.24
424.994	788.74
425.37	790.77
425.746	837.1
426.123	818.11
426.499	831.67
426.875	847.27
427.251	854.72
427.627	876.64
428.003	875.74
428.379	882.29
428.756	878
429.132	912.35
429.507	915.06
429.883	931.11
430.259	946.92
430.635	943.08
431.011	954.16
431.387	951.67
431.763	992.12
432.138	988.73
432.514	1034.83
432.89	1026.92
433.265	1055.17
433.641	1057.66
434.016	1068.95
434.392	1089.97
434.767	1119.58
435.143	1120.48
435.518	1128.39
435.894	1166.58
436.269	1205.22
436.644	1194.83
437.02	1195.28
437.395	1227.37
437.77	1213.13
438.145	1274.15
438.52	1255.16
438.895	1291.55
439.271	1286.12
439.646	1326.12
440.021	1304.88
440.395	1350.53
440.77	1318.67
441.145	1366.57
441.52	1401.83
441.895	1438.66
442.27	1446.12
442.645	1433.01
443.019	1484.99
443.394	1479.11
443.769	1505.78
444.143	1484.54
444.518	1515.04
444.892	1498.55
445.267	1520.47
445.641	1556.85
446.016	1547.59
446.39	1604.08
446.764	1589.17
447.139	1617.64
447.513	1607.7
447.887	1593.46
448.262	1633.46
448.636	1610.86
449.01	1652.89
449.384	1694.48
449.758	1675.04
450.132	1708.03
450.506	1709.16
450.88	1733.57
451.254	1737.86
451.628	1762.95
452.002	1802.27
452.376	1811.76
452.75	1810.63
453.123	1845.66
453.497	1824.64
453.871	1887.92
454.244	1922.27
454.618	1903.96
454.992	1942.15
455.365	1955.03
455.739	1992.09
456.112	2022.15
456.486	2022.83
456.859	2040
457.232	2110.28
457.606	2112.32
457.979	2101.92
458.352	2139.44
458.725	2169.04
459.099	2197.06
459.472	2237.06
459.845	2230.73
460.218	2265.53
460.591	2324.52
460.964	2304.18
461.337	2378.53
461.71	2390.95
462.083	2450.39
462.456	2443.83
462.829	2475.47
463.201	2542.59
463.574	2532.42
463.947	2576.94
464.32	2590.04
464.692	2664.62
465.065	2693.09
465.438	2692.19
465.81	2739.19
466.183	2817.38
466.555	2845.63
466.928	2865.97
467.3	2874.11
467.672	2927.66
468.045	2955.91
468.417	2996.59
468.789	3002.46
469.161	3091.5
469.534	3136.02
469.906	3189.35
470.278	3241.1
470.65	3303.02
471.022	3354.32
471.394	3407.2
471.766	3456.91
472.138	3438.16
472.51	3574.88
472.882	3637.02
473.253	3684.71
473.625	3729
473.997	3818.04
474.369	3835.66
474.74	3886.96
475.112	3976.9
475.484	4031.14
475.855	4136.44
476.227	4168.76
476.598	4295.31
476.97	4334.86
477.341	4425.93
477.713	4518.81
478.084	4578.47
478.455	4669.09
478.827	4742.53
479.198	4894.17
479.569	4898.01
479.94	5069.3
480.311	5064.33
480.682	5217.32
481.053	5343.64
481.424	5477.88
481.795	5477.2
482.166	5616.63
482.537	5759.68
482.908	5796.51
483.279	5942.95
483.65	6046
484.021	6175.04
484.391	6217.29
484.762	6276.05
485.133	6357.18
485.503	6460.23
485.874	6646.21
486.244	6719.65
486.615	6829.48
486.985	6883.27
487.356	7064.28
487.726	7109.47
488.097	7284.16
488.467	7362.57
488.837	7505.85
489.207	7577.94
489.578	7725.73
489.948	7827.42
490.318	7885.72
490.688	7910.81
491.058	8068.09
491.428	8172.72
491.798	8263.79
492.168	8466.27
492.538	8485.03
492.908	8590.79
493.278	8705.14
493.648	8739.26
494.017	8872.37
494.387	8897.68
494.757	9000.27
495.126	9135.64
495.496	9148.74
495.866	9171.79
496.235	9316.65
496.605	9360.49
496.974	9434.16
497.344	9496.53
497.713	9582.63
498.082	9720.03
498.452	9753.7
498.821	9811.78
499.19	9776.07
499.559	9900.59
499.928	9929.51
500.298	9911.89
500.667	10117.53
501.036	10125.44
501.405	10181.94
501.774	10178.77
502.143	10240.47
502.512	10258.09
502.88	10308.03
503.249	10362.27
503.618	10410.18
503.987	10440.01
504.356	10499.67
504.724	10552.55
505.093	10506.9
505.462	10562.72
505.83	10645.2
506.199	10659.66
506.567	10724.97
506.936	10719.55
507.304	10819.43
507.672	10882.71
508.041	10865.31
508.409	10880.22
508.777	11005.19
509.145	11090.84
509.514	11062.82
509.882	11042.93
510.25	11032.99
510.618	11116.6
510.986	11182.36
511.354	11158.18
511.722	11257.61
512.09	11325.18
512.458	11285.41
512.826	11361.79
513.193	11441.34
513.561	11321.79
513.929	11407.89
514.297	11463.94
514.664	11507.78
515.032	11485.4
515.4	11532.41
515.767	11510.04
516.135	11524.27
516.502	11440.21
516.869	11683.59
517.237	11636.13
517.604	11488.79
517.972	11662.57
518.339	11579.64
518.706	11683.14
519.073	11617.83
519.44	11668.22
519.808	11770.82
520.175	11752.74
520.542	11790.03
520.909	11812.18
521.276	11759.52
521.643	11812.18
522.009	11762.69
522.376	11836.36
522.743	11850.59
523.11	11932.85
523.477	11914.77
523.843	11878.84
524.21	11995.9
524.577	12032.06
524.943	12016.69
525.31	11998.39
525.676	12002.9
526.043	12046.29
526.409	11982.79
526.776	12026.18
527.142	12027.99
527.508	12058.72
527.874	12026.63
528.241	12089.23
528.607	12034.54
528.973	12192.28
529.339	12030.25
529.705	12075.45
530.071	12100.53
530.437	12118.38
530.803	12038.84
531.169	12051.72
531.535	12016.92
531.901	11978.05
532.267	11934.21
532.632	12004.26
532.998	12014.43
533.364	11920.2
533.73	11897.6
534.095	11997.93
534.461	11889.01
534.826	11896.69
535.192	11835.23
535.557	11820.54
535.923	11690.37
536.288	11800.88
536.653	11696.02
537.019	11695.57
537.384	11581.67
537.749	11643.59
538.114	11603.59
538.479	11528.11
538.845	11498.29
539.21	11461.68
539.575	11418.06
539.94	11380.55
540.305	11390.72
540.67	11361.34
541.034	11313.66
541.399	11286.31
541.764	11238.86
542.129	11159.54
542.494	11133.1
542.858	11176.94
543.223	11120.44
543.587	11059.2
543.952	11080.44
544.316	11029.6
544.681	11001.8
545.045	10934.01
545.41	10832.54
545.774	10848.81
546.138	10767.23
546.503	10780.79
546.867	10622.6
547.231	10696.5
547.595	10613.11
547.959	10629.83
548.324	10589.38
548.688	10515.49
549.052	10497.18
549.416	10463.74
549.779	10385.55
550.143	10333.57
550.507	10399.11
550.871	10293.8
551.235	10328.82
551.599	10252.89
551.962	10173.8
552.326	10175.38
552.689	10244.53
553.053	10101.71
553.417	10099.9
553.78	10157.98
554.143	10043.86
554.507	9983.97
554.87	9999.79
555.234	9950.08
555.597	9946.24
555.96	9954.37
556.323	9920.02
556.686	9755.96
557.05	9872.34
557.413	9833.24
557.776	9833.47
558.139	9829.63
558.502	9757.31
558.865	9715.28
559.228	9799.57
559.59	9773.36
559.953	9718.22
560.316	9736.3
560.679	9790.08
561.041	9786.92
561.404	9723.87
561.767	9674.38
562.129	9632.57
562.492	9739.46
562.854	9705.34
563.217	9677.99
563.579	9653.14
563.941	9686.58
564.304	9709.63
564.666	9678.22
565.028	9669.86
565.39	9646.13
565.753	9681.61
566.115	9673.02
566.477	9733.81
566.839	9654.94
567.201	9745.79
567.563	9676.19
567.925	9683.87
568.287	9731.1
568.648	9722.06
569.01	9689.97
569.372	9753.92
569.734	9706.24
570.095	9692.46
570.457	9731.78
570.819	9691.55
571.18	9719.57
571.542	9744.66
571.903	9768.84
572.265	9727.48
572.626	9747.14
572.987	9703.98
573.349	9758.44
573.71	9716.86
574.071	9744.21
574.432	9774.49
574.794	9796.18
575.155	9746.01
575.516	9739.46
575.877	9727.94
576.238	9776.52
576.599	9824.43
576.96	9712.34
577.32	9764.77
577.681	9797.54
578.042	9743.98
578.403	9667.37
578.763	9752.12
579.124	9734.72
579.485	9773.36
579.845	9788.5
580.206	9742.63
580.566	9808.16
580.927	9735.39
581.287	9743.08
581.648	9720.25
582.008	9798.89
582.368	9658.11
582.728	9738.56
583.089	9680.03
583.449	9696.98
583.809	9670.54
584.169	9677.54
584.529	9695.39
584.889	9765.68
585.249	9602.29
585.609	9602.97
585.969	9620.82
586.329	9614.27
586.688	9614.72
587.048	9670.31
587.408	9589.86
587.768	9549.18
588.127	9591.22
588.487	9530.88
588.846	9619.69
589.206	9535.85
589.565	9546.02
589.925	9512.57
590.284	9513.25
590.643	9550.09
591.003	9590.54
591.362	9576.08
591.721	9530.65
592.08	9533.37
592.44	9514.83
592.799	9506.25
593.158	9464.67
593.517	9466.93
593.876	9506.25
594.235	9500.82
594.593	9439.13
594.952	9456.98
595.311	9369.08
595.67	9386.7
596.029	9500.15
596.387	9485.91
596.746	9374.5
597.104	9485.91
597.463	9440.71
597.822	9394.39
598.18	9456.76
598.538	9385.8
598.897	9424.44
599.255	9332.92
599.613	9466.7
599.972	9369.3
600.33	9375.63
600.688	9394.39
601.046	9419.7
601.404	9370.43
601.762	9420.15
602.12	9412.92
602.478	9363.43
602.836	9419.7
603.194	9236.42
603.552	9349.64
603.91	9280.26
604.268	9394.61
604.625	9372.24
604.983	9364.33
605.341	9359.13
605.698	9388.96
606.056	9329.08
606.413	9325.46
606.771	9349.42
607.128	9349.19
607.485	9289.98
607.843	9309.87
608.2	9413.59
608.557	9394.39
608.914	9363.43
609.272	9354.84
609.629	9408.4
609.986	9399.36
610.343	9398.23
610.7	9421.05
611.057	9362.97
611.414	9365.69
611.771	9392.8
612.127	9446.81
612.484	9486.59
612.841	9432.35
613.198	9480.94
613.554	9451.33
613.911	9473.93
614.267	9521.61
614.624	9459.69
614.98	9474.61
615.337	9494.95
615.693	9476.87
616.05	9554.61
616.406	9562.52
616.762	9493.14
617.118	9494.27
617.475	9539.47
617.831	9520.26
618.187	9520.48
618.543	9513.25
618.899	9525.23
619.255	9548.05
619.611	9546.92
619.967	9628.73
620.323	9590.31
620.678	9518.9
621.034	9552.8
621.39	9530.43
621.746	9473.93
622.101	9653.36
622.457	9516.64
622.812	9560.94
623.168	9547.6
623.523	9510.99
623.879	9657.88
624.234	9500.37
624.589	9594.61
624.945	9558.68
625.3	9510.99
625.655	9515.06
626.01	9512.8
626.365	9552.12
626.72	9445.46
627.075	9526.81
627.43	9511.67
627.785	9509.64
628.14	9485.91
628.495	9503.31
628.85	9509.18
629.205	9493.59
629.559	9480.03
629.914	9516.19
630.269	9452.92
630.623	9429.87
630.978	9434.61
631.332	9495.85
631.687	9551.9
632.041	9420.83
632.396	9429.64
632.75	9360.71
633.104	9386.02
633.459	9393.48
633.813	9368.4
634.167	9336.99
634.521	9333.37
634.875	9395.74
635.229	9360.71
635.583	9338.34
635.937	9312.81
636.291	9315.97
636.645	9267.38
636.999	9243.43
637.352	9258.57
637.706	9244.56
638.06	9303.09
638.413	9257.89
638.767	9240.04
639.121	9241.62
639.474	9196.42
639.828	9240.94
640.181	9184.9
640.534	9161.17
640.888	9194.62
641.241	9139.03
641.594	9145.8
641.947	9188.06
642.301	9139.93
642.654	9119.36
643.007	9124.34
643.36	9116.88
643.713	9122.08
644.066	9110.55
644.419	9035.07
644.771	9096.77
645.124	9018.35
645.477	8942.65
645.83	8894.06
646.182	8808.86
646.535	8877.79
646.888	8826.72
647.24	8796.89
647.593	8847.06
647.945	8822.42
648.298	8767.96
648.65	8814.29
649.002	8771.8
649.355	8817.23
649.707	8762.31
650.059	8828.98
650.411	8929.09
650.763	8961.85
651.115	9059.48
651.467	8958.69
651.819	8988.75
652.171	9072.13
652.523	9033.72
652.875	8964.11
653.227	8938.13
653.578	8922.31
653.93	8940.84
654.282	8914.62
654.633	8910.78
654.985	8946.71
655.337	8929.31
655.688	8993.27
656.039	9013.38
656.391	8898.35
656.742	9017.45
657.094	8993.94
657.445	9002.08
657.796	8955.3
658.147	8961.63
658.498	8942.19
658.849	8979.93
659.2	8995.07
659.551	8999.59
659.902	9060.84
660.253	9026.03
660.604	9072.36
660.955	9034.4
661.306	9040.27
661.656	9061.97
662.007	9099.25
662.358	9025.81
662.708	9070.33
663.059	9069.2
663.409	9023.1
663.76	9055.64
664.11	9057.9
664.461	9059.71
664.811	9037.33
665.161	9061.06
665.511	8999.14
665.862	9013.15
666.212	9073.26
666.562	9089.54
666.912	9011.57
667.262	9042.3
667.612	9068.07
667.962	9111.68
668.312	9020.16
668.662	9055.64
669.011	9056.99
669.361	9054.51
669.711	9051.12
670.06	9029.2
670.41	9018.58
670.76	9029.88
671.109	9009.76
671.459	8991.46
671.808	8996.66
672.157	9088.41
672.507	8970.67
672.856	9017.9
673.205	8983.55
673.554	9006.37
673.904	8961.4
674.253	9004.34
674.602	8960.72
674.951	8842.31
675.3	8810.67
675.649	8960.72
675.998	8969.99
676.346	8937.67
676.695	8958.24
677.044	8875.08
677.393	8951.01
677.741	8871.24
678.09	8881.18
678.438	8802.76
678.787	8846.6
679.135	8895.42
679.484	8744.69
679.832	8793.72
680.181	8725.02
680.529	8790.56
680.877	8767.96
681.225	8731.35
681.573	8760.73
681.922	8682.54
682.27	8718.25
682.618	8689.09
682.966	8699.49
683.314	8746.72
683.661	8652.48
684.009	8607.06
684.357	8568.87
684.705	8558.25
685.053	8574.75
685.4	8591.92
685.748	8499.27
686.095	8471.47
686.443	8440.06
686.79	8439.61
687.138	8470.79
687.485	8459.27
687.832	8392.83
688.18	8417.46
688.527	8351.7
688.874	8347.63
689.221	8339.05
689.568	8276.68
689.915	8273.51
690.262	8287.3
690.609	8244.36
690.956	8178.15
691.303	8204.36
691.65	8213.17
691.997	8212.72
692.344	8099.28
692.69	8060.86
693.037	8128.43
693.383	7960.53
693.73	8010.69
694.077	7957.14
694.423	7986.51
694.769	7910.36
695.116	7873.3
695.462	7931.15
695.808	7811.6
696.155	7847.76
696.501	7738.38
696.847	7759.4
697.193	7707.2
697.539	7760.53
697.885	7712.4
698.231	7624.26
698.577	7646.64
698.923	7617.03
699.269	7530.93
699.614	7498.62
699.96	7441.22
700.306	7437.38
700.651	7452.52
700.997	7422.46
701.342	7456.81
701.688	7342.01
702.033	7350.82
702.379	7322.12
702.724	7302.46
703.069	7301.11
703.415	7303.82
703.76	7232.86
704.105	7213.43
704.45	7114.45
704.795	7127.78
705.14	7114.67
705.485	7094.79
705.83	7025.41
706.175	7065.41
706.52	7023.37
706.865	7034.9
707.209	7014.56
707.554	6957.84
707.899	6981.79
708.243	6899.99
708.588	6953.09
708.932	6871.97
709.277	6821.57
709.621	6861.8
709.966	6802.82
710.31	6816.15
710.654	6787.9
710.998	6770.05
711.342	6767.11
711.687	6669.49
712.031	6751.29
712.375	6678.75
712.719	6662.93
713.063	6660.67
713.407	6725.76
713.75	6650.5
714.094	6704.29
714.438	6647.34
714.782	6620.9
715.125	6551.07
715.469	6578.87
715.812	6574.8
716.156	6536.83
716.499	6505.42
716.843	6551.75
717.186	6452.09
717.53	6548.36
717.873	6556.04
718.216	6555.82
718.559	6504.74
718.902	6484.41
719.246	6496.38
719.589	6415.26
719.932	6452.77
720.275	6465.42
720.617	6441.92
720.96	6455.25
721.303	6423.39
721.646	6431.53
721.989	6394.46
722.331	6451.86
722.674	6368.48
723.016	6398.53
723.359	6378.42
723.701	6422.03
724.044	6366.44
724.386	6322.38
724.729	6368.25
725.071	6340
725.413	6344.75
725.755	6377.29
726.097	6317.63
726.439	6283.28
726.782	6267.91
727.124	6354.92
727.465	6291.64
727.807	6311.3
728.149	6279.89
728.491	6285.99
728.833	6278.54
729.175	6238.76
729.516	6281.02
729.858	6221.59
730.199	6274.69
730.541	6288.03
730.882	6248.93
731.224	6284.64
731.565	6228.37
731.906	6254.13
732.248	6302.94
732.589	6282.38
732.93	6231.76
733.271	6253.68
733.612	6243.06
733.953	6245.54
734.294	6302.04
734.635	6251.19
734.976	6253
735.317	6265.88
735.658	6290.29
735.999	6285.99
736.339	6247.12
736.68	6326.9
737.021	6305.2
737.361	6237.41
737.702	6319.89
738.042	6331.19
738.383	6322.6
738.723	6360.34
739.063	6329.61
739.404	6348.82
739.744	6363.73
740.084	6346.1
740.424	6360.12
740.764	6377.97
741.104	6387.01
741.444	6408.48
741.784	6316.5
742.124	6392.88
742.464	6404.86
742.804	6425.42
743.143	6446.44
743.483	6499.09
743.823	6535.48
744.162	6489.15
744.502	6549.94
744.841	6588.36
745.181	6635.36
745.52	6610.96
745.86	6704.06
746.199	6675.59
746.538	6722.14
746.877	6822.25
747.216	6855.92
747.556	6868.12
747.895	6893.66
748.234	6939.08
748.573	6965.75
748.911	6979.99
749.25	7107.89
749.589	7098.4
749.928	7187.89
750.267	7274.67
750.605	7294.33
750.944	7350.37
751.283	7466.98
751.621	7540.65
751.96	7574.55
752.298	7666.52
752.636	7771.6
752.975	7870.81
753.313	7975.21
753.651	8053.86
753.989	8156.45
754.327	8276.9
754.666	8340.85
755.004	8452.94
755.342	8579.49
755.679	8741.75
756.017	8820.84
756.355	9021.06
756.693	9027.16
757.031	9226.48
757.368	9326.14
757.706	9479.81
758.044	9629.63
758.381	9827.14
758.719	9945.11
759.056	10047.48
759.394	10229.62
759.731	10351.42
760.068	10493.11
760.405	10593.22
760.743	10781.47
761.08	11014
761.417	11180.55
761.754	11292.41
762.091	11452.18
762.428	11565.18
762.765	11678.85
763.102	11947.99
763.438	12104.37
763.775	12202.45
764.112	12392.05
764.449	12519.05
764.785	12686.5
765.122	12852.15
765.458	13071.58
765.795	13129.65
766.131	13369.65
