Data from hue_38_FLMS001491_00081.txt Node
Date: Tue Feb 07 17:32:05 GMT 2017
User: dcchb
Spectrometer: FLMS00149
Trigger mode: 0
Integration Time (sec): 2.000000E-2
Scans to average: 10
Electric dark correction enabled: true
Nonlinearity correction enabled: false
Boxcar width: 0
XAxis mode: Wavelengths
Number of Pixels in Spectrum: 2048
>>>>>Begin Spectral Data<<<<<
341.393	-17.34
341.776	-17.34
342.16	-17.34
342.543	-57.12
342.927	-58.25
343.31	-63.44
343.693	-67.06
344.077	-69.32
344.46	-61.64
344.843	-68.19
345.226	-51.02
345.61	-27.97
345.993	-24.35
346.376	-0.62
346.759	31.92
347.142	5.93
347.525	43.9
347.908	66.04
348.291	76.21
348.674	88.42
349.057	121.18
349.44	131.13
349.823	134.52
350.206	174.52
350.588	219.03
350.971	202.54
351.354	227.62
351.737	242.76
352.119	258.58
352.502	252.03
352.884	287.05
353.267	274.17
353.65	275.08
354.032	317.56
354.414	311.46
354.797	323.89
355.179	319.82
355.562	315.98
355.944	323.44
356.326	318.47
356.709	332.93
357.091	339.71
357.473	350.33
357.855	340.16
358.238	354.85
358.62	338.13
359.002	347.39
359.384	334.28
359.766	343.78
360.148	346.94
360.53	354.4
360.912	332.25
361.294	334.51
361.676	336.54
362.057	330.44
362.439	340.61
362.821	329.31
363.203	328.18
363.584	323.66
363.966	340.39
364.348	307.85
364.729	352.14
365.111	328.41
365.493	339.03
365.874	330.22
366.256	335.87
366.637	322.99
367.019	311.91
367.4	311.91
367.781	291.8
368.163	322.99
368.544	315.08
368.925	300.39
369.306	313.49
369.688	332.48
370.069	317.11
370.45	317.79
370.831	322.53
371.212	320.05
371.593	306.49
371.974	308.07
372.355	326.15
372.736	322.76
373.117	326.83
373.498	306.72
373.879	336.32
374.26	325.7
374.641	309.88
375.021	327.51
375.402	323.44
375.783	322.76
376.163	337.22
376.544	336.54
376.925	331.8
377.305	318.24
377.686	330.9
378.066	338.35
378.447	339.03
378.827	341.06
379.208	340.84
379.588	338.8
379.968	327.73
380.349	323.21
380.729	346.04
381.109	343.55
381.489	331.57
381.87	335.87
382.25	341.29
382.63	342.87
383.01	342.65
383.39	348.3
383.77	343.1
384.15	365.47
384.53	362.31
384.91	361.63
385.29	362.98
385.67	359.37
386.049	363.21
386.429	344.23
386.809	375.19
387.189	351.01
387.568	357.34
387.948	354.17
388.328	373.61
388.707	368.86
389.087	364.79
389.466	358.92
389.846	383.55
390.225	368.63
390.605	362.53
390.984	380.61
391.363	368.86
391.743	366.83
392.122	369.54
392.501	409.76
392.881	387.39
393.26	371.12
393.639	386.26
394.018	397.56
394.397	384
394.776	372.7
395.155	393.72
395.534	379.71
395.913	371.57
396.292	378.13
396.671	377.9
397.05	392.59
397.429	381.29
397.808	421.51
398.186	393.49
398.565	387.16
398.944	403.21
399.323	364.11
399.701	383.55
400.08	412.93
400.458	401.63
400.837	391.68
401.215	407.5
401.594	390.33
401.972	393.72
402.351	397.56
402.729	408.41
403.107	407.28
403.486	416.99
403.864	426.03
404.242	418.8
404.62	407.96
404.999	428.97
405.377	404.79
405.755	446.6
406.133	431.46
406.511	424.45
406.889	459.71
407.267	443.21
407.645	426.26
408.023	454.28
408.401	432.36
408.779	425.36
409.156	442.53
409.534	456.54
409.912	447.5
410.29	447.28
410.667	461.06
411.045	453.83
411.422	467.84
411.8	479.14
412.178	473.26
412.555	449.99
412.933	455.64
413.31	476.65
413.687	461.06
414.065	469.42
414.442	482.53
414.819	490.67
415.197	479.14
415.574	514.39
415.951	511.23
416.328	515.3
416.705	478.69
417.082	495.86
417.46	509.42
417.837	519.59
418.214	518.91
418.591	522.3
418.967	516.65
419.344	513.04
419.721	529.08
420.098	504
420.475	514.39
420.852	540.38
421.228	533.83
421.605	530.44
421.982	544.9
422.358	538.12
422.735	560.95
423.111	545.8
423.488	561.62
423.864	552.58
424.241	561.17
424.617	560.95
424.994	552.81
425.37	550.55
425.746	584.9
426.123	567.5
426.499	582.19
426.875	601.4
427.251	596.42
427.627	590.78
428.003	580.38
428.379	613.83
428.756	622.41
429.132	619.25
429.507	607.5
429.883	634.84
430.259	631.9
430.635	619.02
431.011	617.67
431.387	654.5
431.763	659.47
432.138	666.93
432.514	658.57
432.89	647.05
433.265	660.6
433.641	701.73
434.016	668.51
434.392	696.76
434.767	682.98
435.143	679.59
435.518	682.52
435.894	721.39
436.269	711.22
436.644	713.94
437.02	723.65
437.395	736.76
437.77	740.83
438.145	729.3
438.52	726.37
438.895	745.57
439.271	747.16
439.646	755.29
440.021	774.05
440.395	776.08
440.77	765.23
441.145	768.17
441.52	794.61
441.895	769.08
442.27	790.32
442.645	771.11
443.019	788.96
443.394	822.86
443.769	803.43
444.143	805.46
444.518	819.47
444.892	803.88
445.267	816.31
445.641	842.75
446.016	802.52
446.39	831
446.764	836.19
447.139	830.09
447.513	847.27
447.887	853.37
448.262	862.86
448.636	841.16
449.01	852.92
449.384	862.41
449.758	856.98
450.132	875.74
450.506	887.26
450.88	882.29
451.254	899.02
451.628	912.12
452.002	895.17
452.376	896.98
452.75	919.13
453.123	917.09
453.497	927.49
453.871	947.6
454.244	950.09
454.618	954.38
454.992	969.75
455.365	978.11
455.739	980.37
456.112	1017.88
456.486	996.41
456.859	1007.26
457.232	1026.02
457.606	1042.74
457.979	1070.31
458.352	1053.81
458.725	1059.46
459.099	1084.32
459.472	1118.45
459.845	1103.3
460.218	1106.24
460.591	1123.87
460.964	1141.5
461.337	1165.9
461.71	1183.98
462.083	1178.78
462.456	1181.04
462.829	1197.09
463.201	1217.2
463.574	1211.32
463.947	1230.08
464.32	1242.74
464.692	1281.15
465.065	1277.09
465.438	1324.32
465.81	1312.79
466.183	1359.79
466.555	1395.95
466.928	1358.21
467.3	1395.27
467.672	1412.9
468.045	1432.79
468.417	1450.19
468.789	1487.02
469.161	1522.5
469.534	1510.07
469.906	1562.05
470.278	1548.72
470.65	1570.41
471.022	1631.2
471.394	1663.74
471.766	1647.02
472.138	1676.4
472.51	1727.24
472.882	1746.23
473.253	1783.51
473.625	1822.61
473.997	1845.43
474.369	1901.93
474.74	1924.75
475.112	1978.99
475.484	1993.45
475.855	2063.05
476.227	2118.42
476.598	2159.77
476.97	2195.25
477.341	2251.07
477.713	2360.45
478.084	2325.42
478.455	2394.12
478.827	2450.84
479.198	2562.25
479.569	2543.49
479.94	2665.07
480.311	2719.98
480.682	2798.4
481.053	2874.33
481.424	2973.54
481.795	3000.2
482.166	3048.79
482.537	3115.45
482.908	3235.23
483.279	3295.56
483.65	3390.93
484.021	3455.78
484.391	3547.31
484.762	3609
485.133	3684.25
485.503	3813.97
485.874	3899.61
486.244	3958.82
486.615	4094.64
486.985	4153.62
487.356	4333.95
487.726	4357.23
488.097	4498.92
488.467	4579.37
488.837	4716.32
489.207	4775.52
489.578	4920.15
489.948	5009.42
490.318	5092.35
490.688	5181.84
491.058	5276.75
491.428	5409.63
491.798	5497.09
492.168	5639.23
492.538	5729.17
492.908	5873.57
493.278	5983.4
493.648	5997.64
494.017	6177.97
494.387	6266.33
494.757	6353.79
495.126	6474.01
495.496	6554.46
495.866	6633.55
496.235	6777.28
496.605	6867.22
496.974	6945.64
497.344	7039.87
497.713	7137.95
498.082	7254.78
498.452	7323.25
498.821	7378.85
499.19	7478.05
499.559	7600.31
499.928	7723.92
500.298	7815.9
500.667	7885.5
501.036	7925.72
501.405	8044.36
501.774	8089.34
502.143	8174.53
502.512	8252.49
502.88	8341.53
503.249	8393.51
503.618	8498.59
503.987	8607.74
504.356	8664.69
504.724	8732.48
505.093	8823.55
505.462	8877.11
505.83	8972.02
506.199	9085.02
506.567	9094.05
506.936	9144.67
507.304	9340.38
507.672	9370.66
508.041	9449.07
508.409	9515.96
508.777	9614.27
509.145	9709.41
509.514	9723.42
509.882	9835.73
510.25	9849.97
510.618	9928.16
510.986	10029.62
511.354	10063.75
511.722	10152.33
512.09	10256.96
512.458	10236.17
512.826	10434.36
513.193	10478.2
513.561	10479.78
513.929	10624.41
514.297	10668.02
514.664	10720.23
515.032	10799.32
515.4	10848.13
515.767	10988.69
516.135	10993.44
516.502	11005.64
516.869	11161.34
517.237	11227.33
517.604	11175.81
517.972	11329.02
518.339	11434.33
518.706	11388.23
519.073	11489.02
519.44	11542.35
519.808	11729.47
520.175	11762.46
520.542	11838.62
520.909	11923.36
521.276	11914.09
521.643	12008.33
522.009	12102.56
522.376	12173.3
522.743	12307.08
523.11	12371.26
523.477	12468.2
523.843	12580.06
524.21	12726.28
524.577	12680.63
524.943	12776.67
525.31	12855.09
525.676	12986.16
526.043	13007.17
526.409	13132.82
526.776	13229.09
527.142	13215.98
527.508	13258.92
527.874	13398.12
528.241	13412.13
528.607	13570.55
528.973	13665.23
529.339	13654.16
529.705	13779.81
530.071	13909.97
530.437	14014.83
530.803	14008.73
531.169	14139.57
531.535	14101.15
531.901	14203.07
532.267	14322.62
532.632	14353.13
532.998	14420.02
533.364	14470.18
533.73	14553.8
534.095	14714.25
534.461	14761.93
534.826	14791.31
535.192	14839.44
535.557	14960.57
535.923	14943.39
536.288	14935.26
536.653	15075.14
537.019	14998.53
537.384	15083.73
537.749	15125.08
538.114	15256.83
538.479	15261.58
538.845	15414.57
539.21	15428.8
539.575	15481.23
539.94	15624.05
540.305	15694.11
540.67	15628.8
541.034	15711.73
541.399	15809.58
541.764	15788.12
542.129	15927.32
542.494	15962.8
542.858	16106.98
543.223	16010.48
543.587	16153.53
543.952	16170.7
544.316	16247.76
544.681	16243.92
545.045	16312.4
545.41	16403.02
545.774	16448.21
546.138	16526.4
546.503	16569.34
546.867	16579.73
547.231	16735.66
547.595	16788.32
547.959	16884.36
548.324	16869.22
548.688	16987.41
549.052	16972.27
549.416	17077.35
549.779	17086.84
550.143	17130
550.507	17205.93
550.871	17297
551.235	17304.91
551.599	17392.59
551.962	17445.93
552.326	17444.57
552.689	17683.21
553.053	17564.11
553.417	17628.75
553.78	17824.22
554.143	17773.83
554.507	17912.81
554.87	17940.83
555.234	18122.07
555.597	17930.66
555.96	17999.13
556.323	18232.12
556.686	18166.58
557.05	18285.45
557.413	18454.94
557.776	18347.14
558.139	18534.71
558.502	18625.78
558.865	18575.84
559.228	18713.24
559.59	18845.21
559.953	18821.48
560.316	18894.93
560.679	18946.45
561.041	19115.71
561.404	19191.64
561.767	19229.83
562.129	19202.72
562.492	19419.88
562.854	19480.67
563.217	19397.74
563.579	19541.92
563.941	19604.96
564.304	19651.29
564.666	19853.55
565.028	19857.84
565.39	19936.71
565.753	19979.42
566.115	20077.49
566.477	20136.02
566.839	20210.6
567.201	20374.66
567.563	20235.68
567.925	20369.92
568.287	20495.79
568.648	20608.33
569.01	20716.8
569.372	20825.5
569.734	20654.43
570.095	20975.1
570.457	21029.11
570.819	21055.77
571.18	21127.86
571.542	21203.57
571.903	21383
572.265	21390.68
572.626	21493.05
572.987	21552.26
573.349	21658.02
573.71	21760.61
574.071	21774.85
574.432	21897.33
574.794	22268.62
575.155	22220.26
575.516	22105.01
575.877	22415.51
576.238	22398.11
576.599	22564.66
576.96	22662.74
577.32	22864.77
577.681	22848.72
578.042	22930.75
578.403	23113.8
578.763	23290.29
579.124	23349.05
579.485	23637.85
579.845	23843.5
580.206	23903.83
580.566	23989.71
580.927	24127.56
581.287	24281.68
581.648	24305.86
582.008	24595.79
582.368	24806.41
582.728	24945.84
583.089	25054.99
583.449	25158.49
583.809	25405.94
584.169	25604.13
584.529	25803.67
584.889	26199.14
585.249	25991.92
585.609	26082.76
585.969	26555.29
586.329	26674.16
586.688	26850.88
587.048	27097.42
587.408	27190.08
587.768	27311.88
588.127	27718.88
588.487	27768.14
588.846	28221.01
589.206	28108.7
589.565	28436.14
589.925	28768.11
590.284	28936.7
590.643	29154.54
591.003	29403.13
591.362	29692.84
591.721	29793.62
592.08	29997.91
592.44	30293.27
592.799	30334.17
593.158	30586.82
593.517	30743.88
593.876	31004.89
594.235	31133.93
594.593	31265.45
594.952	31564.2
595.311	31647.81
595.67	31997.86
596.029	32305.2
596.387	32448.92
596.746	32717.16
597.104	32667.9
597.463	32942.47
597.822	33244.15
598.18	33276.47
598.538	33457.93
598.897	33862.22
599.255	33741.09
599.613	34374.75
599.972	34177.24
600.33	34630.33
600.688	34588.07
601.046	34704.68
601.404	35125.46
601.762	35092.02
602.12	35541.95
602.478	35475.28
602.836	35925.67
603.194	35792.11
603.552	35930.19
603.91	35941.48
604.268	36422.38
604.625	36321.14
604.983	36653.33
605.341	36612.88
605.698	36932.42
606.056	37031.63
606.413	37205.63
606.771	37309.13
607.128	37580.99
607.485	37373.31
607.843	37567.88
608.2	37886.29
608.557	38100.75
608.914	38064.14
609.272	38262.33
609.629	38436.56
609.986	38648.76
610.343	38605.14
610.7	38881.52
611.057	38940.28
611.414	39173.49
611.771	39178.24
612.127	39406.25
612.484	39420.49
612.841	39749.07
613.198	39640.37
613.554	39820.7
613.911	39947.93
614.267	39960.81
614.624	40026.35
614.98	40116.29
615.337	40531.87
615.693	40422.27
616.05	40372.1
616.406	40825.42
616.762	40741.13
617.118	40813.9
617.475	40846.89
617.831	40970.96
618.187	41218.63
618.543	41301.8
618.899	41565.52
619.255	41364.62
619.611	41468.12
619.967	41613.88
620.323	41601
620.678	41642.8
621.034	41633.76
621.39	41708.11
621.746	41645.97
622.101	42266.97
622.457	42005.28
622.812	41986.98
623.168	42103.13
623.523	42130.47
623.879	42392.61
624.234	42132.51
624.589	42392.39
624.945	42387.42
625.3	42455.21
625.655	42481.88
626.01	42619.73
626.365	42524.81
626.72	42668.09
627.075	42562.55
627.43	42639.39
627.785	42489.33
628.14	42731.59
628.495	42773.85
628.85	42709.89
629.205	42611.37
629.559	42934.97
629.914	42703.57
630.269	42814.52
630.623	42720.52
630.978	42831.25
631.332	42808.87
631.687	42866.95
632.041	42703.11
632.396	42885.03
632.75	42812.72
633.104	42787.18
633.459	42686.39
633.813	42693.62
634.167	42788.08
634.521	42739.27
634.875	42825.37
635.229	42725.94
635.583	42695.66
635.937	42689.56
636.291	42609.78
636.645	42723
636.999	42529.11
637.352	42757.12
637.706	42528.2
638.06	42776.56
638.413	42522.55
638.767	42566.85
639.121	42572.27
639.474	42361.43
639.828	42318.27
640.181	42611.59
640.534	42510.13
640.888	42387.19
641.241	42200.75
641.594	42251.83
641.947	42498.37
642.301	42252.96
642.654	42344.48
643.007	42440.75
643.36	42306.51
643.713	42229.23
644.066	42443.69
644.419	42036.24
644.771	41863.36
645.124	41398.74
645.477	41529.81
645.83	41286.43
646.182	41142.48
646.535	40992.65
646.888	41076.94
647.24	40863.84
647.593	41124.85
647.945	41135.25
648.298	40970.28
648.65	40829.49
649.002	40795.82
649.355	41019.77
649.707	40875.37
650.059	41082.14
650.411	41483.71
650.763	41560.32
651.115	42105.39
651.467	41750.82
651.819	41807.54
652.171	41770.26
652.523	41688.23
652.875	41548.34
653.227	41558.06
653.578	41756.47
653.93	41633.31
654.282	41512.86
654.633	41541.79
654.985	41492.07
655.337	41619.53
655.688	41583.14
656.039	41742.01
656.391	41361
656.742	41415.46
657.094	41581.56
657.445	41572.97
657.796	41493.88
658.147	41426.54
658.498	41492.98
658.849	41487.33
659.2	41465.18
659.551	41369.36
659.902	41393.54
660.253	41379.08
660.604	41440.1
660.955	41215.02
661.306	41343.15
661.656	41197.17
662.007	41322.36
662.358	41262.7
662.708	41236.26
663.059	41325.07
663.409	41117.39
663.76	41339.99
664.11	41280.78
664.461	41301.12
664.811	41261.8
665.161	41217.96
665.511	41211.4
665.862	41173.66
666.212	41261.34
666.562	41282.36
666.912	41168.01
667.262	41105.19
667.612	41071.74
667.962	41186.54
668.312	41114.68
668.662	41264.96
669.011	41236.26
669.361	41111.97
669.711	41090.28
670.06	41119.88
670.41	41045.08
670.76	40975.7
671.109	41173.44
671.459	40951.07
671.808	40864.97
672.157	41128.24
672.507	40736.61
672.856	40881.69
673.205	40892.31
673.554	41096.83
673.904	40855.93
674.253	41027.23
674.602	40985.87
674.951	40434.02
675.3	40313.57
675.649	40820.68
675.998	40888.02
676.346	40988.58
676.695	40909.72
677.044	40675.15
677.393	40872.43
677.741	40825.88
678.09	40730.74
678.438	40636.05
678.787	40738.19
679.135	40813.45
679.484	40384.53
679.832	40714.01
680.181	40339.56
680.529	40403.06
680.877	40326.68
681.225	40388.15
681.573	40580.68
681.922	40151.54
682.27	40081.94
682.618	40191.77
682.966	40024.77
683.314	40157.42
683.661	39994.26
684.009	39855.51
684.357	39777.99
684.705	39831.78
685.053	39703.87
685.4	39658.45
685.748	39462.52
686.095	39509.98
686.443	39448.51
686.79	39433.14
687.138	39356.08
687.485	39531.9
687.832	39177.11
688.18	39384.78
688.527	39018.69
688.874	39075.41
689.221	38954.51
689.568	38960.61
689.915	38961.52
690.262	38831.8
690.609	38709.32
690.956	38596.1
691.303	38475.88
691.65	38354.98
691.997	38360.4
692.344	38256
692.69	38190.01
693.037	38176
693.383	37893.3
693.73	38031.15
694.077	37582.57
694.423	37754.54
694.769	37709.12
695.116	37602.01
695.462	37497.6
695.808	37480.43
696.155	37380.09
696.501	37219.42
696.847	37199.53
697.193	36817.39
697.539	37053.55
697.885	36700.79
698.231	36716.38
698.577	36734.68
698.923	36613.11
699.269	36478.65
699.614	36368.14
699.96	36285.43
700.306	36353.9
700.651	36218.77
700.997	36007.02
701.342	36014.7
701.688	35968.38
702.033	35901.49
702.379	35814.48
702.724	35653.36
703.069	35797.31
703.415	35298.11
703.76	35302.18
704.105	35371.1
704.45	35337.21
704.795	35056.76
705.14	34993.49
705.485	35004.11
705.83	34766.83
706.175	34861.74
706.52	34751.69
706.865	34720.05
707.209	34755.75
707.554	34525.7
707.899	34576.77
708.243	34316.22
708.588	34202.1
708.932	34111.02
709.277	34005.94
709.621	34078.48
709.966	33861.31
710.31	33972.95
710.654	33620.19
710.998	33765.27
711.342	33741.54
711.687	33616.8
712.031	33489.57
712.375	33399.86
712.719	33515.33
713.063	33292.74
713.407	33578.61
713.75	33281.22
714.094	33256.36
714.438	33049.36
714.782	33234.21
715.125	32904.05
715.469	33051.39
715.812	33001.45
716.156	32724.62
716.499	32836.93
716.843	32778.18
717.186	32536.83
717.53	32776.37
717.873	32590.39
718.216	32511.74
718.559	32327.12
718.902	32180.45
719.246	32321.69
719.589	32138.42
719.932	32098.65
720.275	32140.45
720.617	31900.46
720.96	32048.25
721.303	31938.2
721.646	31989.05
721.989	31735.27
722.331	31659.34
722.674	31722.84
723.016	31723.29
723.359	31690.97
723.701	31703.18
724.044	31452.56
724.386	31389.06
724.729	31444.43
725.071	31293.24
725.413	31458.89
725.755	31225.22
726.097	31198.78
726.439	31234.49
726.782	31079.69
727.124	31274.94
727.465	30999.47
727.807	30966.47
728.149	31002.86
728.491	30934.61
728.833	31029.98
729.175	30855.29
729.516	30829.3
729.858	30705.69
730.199	30699.81
730.541	30616.88
730.882	30566.94
731.224	30596.99
731.565	30340.05
731.906	30451.69
732.248	30536.43
732.589	30319.03
732.93	30269.77
733.271	30267.74
733.612	30368.07
733.953	30399.48
734.294	30202.2
734.635	29953.39
734.976	30141.64
735.317	29999.95
735.658	29959.95
735.999	29953.39
736.339	29823.68
736.68	29956.1
737.021	29893.51
737.361	29806.5
737.702	29975.77
738.042	29745.72
738.383	29776.9
738.723	29779.84
739.063	29646.51
739.404	29597.92
739.744	29571.26
740.084	29518.6
740.424	29682.67
740.764	29505.04
741.104	29592.72
741.444	29341.66
741.784	29294.2
742.124	29338.27
742.464	29356.8
742.804	29195.9
743.143	29186.41
743.483	29153.41
743.823	28976.92
744.162	29049.46
744.502	29061.67
744.841	28783.93
745.181	29091.49
745.52	28896.92
745.86	28920.2
746.199	28880.43
746.538	28735.8
746.877	28883.82
747.216	28715.91
747.556	28663.26
747.895	28676.14
748.234	28482.25
748.573	28532.64
748.911	28425.75
749.25	28439.31
749.589	28341.91
749.928	28310.05
750.267	28407.67
750.605	28221.69
750.944	28266.43
751.283	28183.04
751.621	28185.98
751.96	28016.49
752.298	27983.5
752.636	27981.69
752.975	27852.21
753.313	27774.47
753.651	27968.59
753.989	27703.06
754.327	27655.15
754.666	27543.29
755.004	27657.41
755.342	27486.57
755.679	27563.17
756.017	27465.1
756.355	27472.33
756.693	27326.34
757.031	27287.93
