Data from hue_130_FLMS001491_00078.txt Node
Date: Tue Feb 07 16:58:05 GMT 2017
User: dcchb
Spectrometer: FLMS00149
Trigger mode: 0
Integration Time (sec): 2.000000E-2
Scans to average: 10
Electric dark correction enabled: true
Nonlinearity correction enabled: false
Boxcar width: 0
XAxis mode: Wavelengths
Number of Pixels in Spectrum: 2048
>>>>>Begin Spectral Data<<<<<
341.393	-29.08
341.776	-29.08
342.16	-29.08
342.543	-65.69
342.927	-77.44
343.31	-87.61
343.693	-55.75
344.077	-62.07
344.46	-66.59
344.843	-50.78
345.226	-38.57
345.61	-29.76
345.993	-14.84
346.376	-23.43
346.759	11.82
347.142	47.3
347.525	26.06
347.908	67.87
348.291	69
348.674	84.14
349.057	123.23
349.44	122.1
349.823	118.26
350.206	141.99
350.588	187.64
350.971	215.88
351.354	211.14
351.737	229.44
352.119	246.62
352.502	260.63
352.884	278.93
353.267	280.06
353.65	275.09
354.032	292.04
354.414	308.76
354.797	310.12
355.179	302.66
355.562	301.53
355.944	341.76
356.326	336.56
356.709	328.42
357.091	331.81
357.473	326.84
357.855	335.88
358.238	323.68
358.62	319.16
359.002	345.6
359.384	337.01
359.766	339.72
360.148	342.66
360.53	347.41
360.912	323.23
361.294	331.36
361.676	326.62
362.057	308.54
362.439	342.89
362.821	334.53
363.203	311.93
363.584	330.91
363.966	314.41
364.348	308.09
364.729	328.42
365.111	296.56
365.493	318.48
365.874	309.22
366.256	297.01
366.637	294.53
367.019	315.77
367.4	320.51
367.781	317.8
368.163	279.84
368.544	304.7
368.925	284.13
369.306	321.42
369.688	314.86
370.069	304.02
370.45	316.9
370.831	321.87
371.212	330.91
371.593	269.44
371.974	293.85
372.355	305.15
372.736	321.87
373.117	322.77
373.498	311.93
373.879	296.79
374.26	308.76
374.641	312.15
375.021	332.04
375.402	321.87
375.783	337.01
376.163	341.76
376.544	329.55
376.925	306.73
377.305	326.84
377.686	311.7
378.066	307.86
378.447	325.26
378.827	328.88
379.208	326.84
379.588	315.54
379.968	324.81
380.349	330.23
380.729	315.77
381.109	306.73
381.489	336.56
381.87	324.81
382.25	344.47
382.63	341.53
383.01	305.6
383.39	341.08
383.77	337.01
384.15	337.01
384.53	346.73
384.91	353.73
385.29	330.23
385.67	323.9
386.049	347.18
386.429	349.89
386.809	338.59
387.189	329.78
387.568	350.12
387.948	341.76
388.328	360.51
388.707	368.42
389.087	344.47
389.466	353.73
389.846	351.93
390.225	350.57
390.605	362.09
390.984	355.09
391.363	344.47
391.743	350.34
392.122	379.95
392.501	360.74
392.881	347.63
393.26	376.78
393.639	385.82
394.018	386.5
394.397	364.35
394.776	386.5
395.155	374.3
395.534	383.34
395.913	363
396.292	372.72
396.671	362.32
397.05	382.43
397.429	369.1
397.808	377.69
398.186	383.79
398.565	360.29
398.944	377.91
399.323	393.05
399.701	389.66
400.08	377.69
400.458	389.44
400.837	391.25
401.215	412.04
401.594	382.66
401.972	393.73
402.351	385.37
402.729	409.1
403.107	391.92
403.486	393.05
403.864	407.07
404.242	406.16
404.62	393.73
404.999	421.75
405.377	400.29
405.755	390.34
406.133	440.51
406.511	412.49
406.889	408.65
407.267	406.39
407.645	446.61
408.023	420.62
408.401	424.01
408.779	417.46
409.156	429.89
409.534	414.3
409.912	426.5
410.29	428.53
410.667	441.87
411.045	457.91
411.422	468.08
411.8	440.51
412.178	448.42
412.555	459.72
412.933	469.66
413.31	448.87
413.687	486.16
414.065	472.83
414.442	467.4
414.819	483.45
415.197	470.57
415.574	477.35
415.951	496.33
416.328	492.26
416.705	500.17
417.082	480.06
417.46	481.87
417.837	505.37
418.214	520.96
418.591	482.09
418.967	503.33
419.344	504.01
419.721	508.08
420.098	501.07
420.475	529.1
420.852	517.57
421.228	521.64
421.605	527.29
421.982	523.9
422.358	533.16
422.735	517.35
423.111	533.62
423.488	545.82
423.864	529.55
424.241	558.7
424.617	546.27
424.994	565.48
425.37	565.71
425.746	573.39
426.123	579.04
426.499	549.66
426.875	550.11
427.251	566.84
427.627	557.34
428.003	590.79
428.379	564.8
428.756	584.46
429.132	591.92
429.507	600.28
429.883	574.29
430.259	614.52
430.635	593.5
431.011	625.36
431.387	631.01
431.763	647.06
432.138	639.38
432.514	628.75
432.89	622.2
433.265	650.9
433.641	644.57
434.016	656.1
434.392	648.42
434.767	652.26
435.143	682.54
435.518	704.01
435.894	684.12
436.269	688.19
436.644	711.01
437.02	688.64
437.395	715.53
437.77	715.98
438.145	721.86
438.52	715.31
438.895	733.38
439.271	741.07
439.646	742.65
440.021	738.13
440.395	741.52
440.77	739.26
441.145	758.24
441.52	783.33
441.895	783.55
442.27	765.02
442.645	767.96
443.019	782.65
443.394	784.68
443.769	809.77
444.143	781.52
444.518	800.5
444.892	800.95
445.267	803.44
445.641	813.16
446.016	846.38
446.39	834.85
446.764	838.01
447.139	819.94
447.513	836.21
447.887	816.77
448.262	833.95
448.636	846.83
449.01	849.77
449.384	881.4
449.758	880.05
450.132	874.4
450.506	887.5
450.88	866.71
451.254	908.3
451.628	882.76
452.002	918.01
452.376	955.98
452.75	919.59
453.123	919.82
453.497	923.44
453.871	931.8
454.244	971.34
454.618	952.36
454.992	999.59
455.365	973.6
455.739	990.1
456.112	997.33
456.486	1013.15
456.859	1039.14
457.232	1024
457.606	1027.16
457.979	1038.69
458.352	1068.07
458.725	1099.25
459.099	1100.15
459.472	1113.49
459.845	1115.07
460.218	1143.54
460.591	1143.54
460.964	1127.27
461.337	1168.18
461.71	1192.13
462.083	1222.41
462.456	1216.08
462.829	1223.77
463.201	1226.48
463.574	1228.74
463.947	1277.78
464.32	1294.73
464.692	1337.89
465.065	1342.86
465.438	1360.26
465.81	1364.78
466.183	1385.12
466.555	1401.16
466.928	1412.46
467.3	1420.37
467.672	1464.44
468.045	1462.41
468.417	1508.96
468.789	1535.4
469.161	1527.94
469.534	1558
469.906	1634.38
470.278	1659.69
470.65	1650.42
471.022	1705.56
471.394	1701.04
471.766	1771.1
472.138	1783.07
472.51	1849.74
472.882	1877.54
473.253	1867.82
473.625	1919.34
473.997	1990.07
474.369	2009.96
474.74	2043.86
475.112	2098.09
475.484	2143.97
475.855	2236.62
476.227	2223.29
476.598	2304.87
476.97	2344.64
477.341	2422.38
477.713	2470.97
478.084	2512.32
478.455	2585.77
478.827	2654.92
479.198	2768.81
479.569	2761.58
479.94	2858.07
480.311	2973.1
480.682	3034.34
481.053	3165.19
481.424	3228.46
481.795	3318.18
482.166	3412.18
482.537	3466.19
482.908	3601.78
483.279	3625.06
483.65	3731.05
484.021	3863.92
484.391	3973.07
484.762	4028.21
485.133	4138.49
485.503	4268.88
485.874	4361.99
486.244	4457.58
486.615	4620.51
486.985	4724.69
487.356	4835.2
487.726	4962.88
488.097	5085.13
488.467	5166.26
488.837	5298.01
489.207	5429.98
489.578	5572.13
489.948	5726.25
490.318	5846.24
490.688	5881.72
491.058	6093.92
491.428	6160.13
491.798	6312
492.168	6516.74
492.538	6606.22
492.908	6738.88
493.278	6870.85
493.648	6954.01
494.017	7135.7
494.387	7220.9
494.757	7345.64
495.126	7469.25
495.496	7537.95
495.866	7707.44
496.235	7805.97
496.605	7934.78
496.974	8076.69
497.344	8171.83
497.713	8212.06
498.082	8343.81
498.452	8530.69
498.821	8552.39
499.19	8671.93
499.559	8803.91
499.928	8883.68
500.298	9005.48
500.667	9096.55
501.036	9155.54
501.405	9360.73
501.774	9354.85
502.143	9513.27
502.512	9469.65
502.88	9658.12
503.249	9658.8
503.618	9800.04
503.987	9814.5
504.356	9990.54
504.724	10068.28
505.093	10085
505.462	10162.06
505.83	10230.76
506.199	10317.77
506.567	10416.29
506.936	10340.36
507.304	10560.02
507.672	10566.57
508.041	10640.92
508.409	10795.04
508.777	10868.94
509.145	10967.92
509.514	10959.56
509.882	10996.39
510.25	11023.51
510.618	11171.98
510.986	11156.16
511.354	11300.34
511.722	11356.83
512.09	11376.72
512.458	11368.59
512.826	11517.96
513.193	11525.64
513.561	11473.22
513.929	11632.31
514.297	11628.01
514.664	11764.73
515.032	11781
515.4	11877.05
515.767	11826.65
516.135	11904.62
516.502	11830.49
516.869	11994.11
517.237	12011.51
517.604	11995.46
517.972	12129.7
518.339	12117.49
518.706	12153.65
519.073	12172.41
519.44	12191.84
519.808	12348.45
520.175	12235.91
520.542	12325.4
520.909	12355
521.276	12353.64
521.643	12416.92
522.009	12471.83
522.376	12491.49
522.743	12514.77
523.11	12653.07
523.477	12687.42
523.843	12638.61
524.21	12732.39
524.577	12790.92
524.943	12836.8
525.31	12779.4
525.676	12869.11
526.043	12904.36
526.409	12886.06
526.776	12980.75
527.142	13025.72
527.508	12958.37
527.874	13056.22
528.241	12976.9
528.607	13070.91
528.973	13081.76
529.339	13063.23
529.705	13146.39
530.071	13088.54
530.437	13059.84
530.803	13126.51
531.169	13194.53
531.535	13118.82
531.901	13082.89
532.267	13110.23
532.632	13139.84
532.998	13097.58
533.364	13150.23
533.73	13091.03
534.095	13163.11
534.461	13067.98
534.826	13201.76
535.192	13102.55
535.557	13145.26
535.923	12992.5
536.288	13068.88
536.653	13026.85
537.019	12987.3
537.384	12999.28
537.749	12943.69
538.114	12965.38
538.479	12889.22
538.845	12900.3
539.21	12781.66
539.575	12840.86
539.94	12820.07
540.305	12869.34
540.67	12829.11
541.034	12794.76
541.399	12719.74
541.764	12702.34
542.129	12695.56
542.494	12693.3
542.858	12634.99
543.223	12534.66
543.587	12649.46
543.952	12543.7
544.316	12566.07
544.681	12519.29
545.045	12481.55
545.41	12567.65
545.774	12444.26
546.138	12410.59
546.503	12411.04
546.867	12307.77
547.231	12378.05
547.595	12286.53
547.959	12287.21
548.324	12184.38
548.688	12152.75
549.052	12206.08
549.416	12138.73
549.779	12017.38
550.143	12109.13
550.507	12075.69
550.871	12111.62
551.235	12005.4
551.599	12017.61
551.962	11999.53
552.326	11985.29
552.689	12004.95
553.053	11849.7
553.417	11828.91
553.78	11900.1
554.143	11892.41
554.507	11868.23
554.87	11802.02
555.234	11854.9
555.597	11682.48
555.96	11731.74
556.323	11806.77
556.686	11699.42
557.05	11768.35
557.413	11683.15
557.776	11724.51
558.139	11717.73
558.502	11701.01
558.865	11639.09
559.228	11710.05
559.59	11732.19
559.953	11720.67
560.316	11686.09
560.679	11696.26
561.041	11736.26
561.404	11740.1
561.767	11756.37
562.129	11702.81
562.492	11750.95
562.854	11741.91
563.217	11689.03
563.579	11679.99
563.941	11815.81
564.304	11798.18
564.666	11809.03
565.028	11756.82
565.39	11732.64
565.753	11785.07
566.115	11731.51
566.477	11851.51
566.839	11782.13
567.201	11917.72
567.563	11826.88
567.925	11879.98
568.287	11840.89
568.648	11866.88
569.01	11884.5
569.372	11917.05
569.734	11796.6
570.095	11860.78
570.457	11908.68
570.819	11914.56
571.18	11968.12
571.542	11985.97
571.903	11924.28
572.265	11996.59
572.626	11985.29
572.987	11972.19
573.349	12034.33
573.71	11966.54
574.071	11984.61
574.432	12061.45
574.794	12129.47
575.155	12112.07
575.516	12005.63
575.877	12023.71
576.238	12061.9
576.599	12101.9
576.96	12069.13
577.32	12101.9
577.681	12135.8
578.042	12101
578.403	12075.69
578.763	12067.32
579.124	12036.82
579.485	12182.58
579.845	12122.24
580.206	12067.78
580.566	12105.97
580.927	12060.54
581.287	12065.29
581.648	12063.93
582.008	12072.07
582.368	12084.5
582.728	12123.59
583.089	12059.64
583.449	12123.59
583.809	12103.48
584.169	12078.17
584.529	12077.72
584.889	12121.79
585.249	12021.45
585.609	12020.32
585.969	12124.05
586.329	11975.57
586.688	12039.53
587.048	11974.22
587.408	11906.65
587.768	11937.84
588.127	11857.39
588.487	11958.63
588.846	12016.48
589.206	11923.37
589.565	11890.15
589.925	11966.31
590.284	11872.75
590.643	11950.26
591.003	11889.02
591.362	11908.46
591.721	11889.93
592.08	11857.61
592.44	11863.71
592.799	11962.24
593.158	11865.07
593.517	11832.75
593.876	11889.25
594.235	11865.52
594.593	11863.26
594.952	11905.29
595.311	11814.9
595.67	11821.45
596.029	11879.08
596.387	11888.8
596.746	11835.01
597.104	11894.22
597.463	11866.88
597.822	11887.89
598.18	11777.61
598.538	11800.66
598.897	11830.04
599.255	11744.62
599.613	11851.06
599.972	11782.81
600.33	11792.98
600.688	11732.42
601.046	11829.36
601.404	11862.36
601.762	11782.81
602.12	11844.96
602.478	11794.56
602.836	11864.17
603.194	11731.97
603.552	11784.17
603.91	11753.66
604.268	11822.13
604.625	11826.43
604.983	11860.55
605.341	11729.93
605.698	11843.15
606.056	11818.74
606.413	11759.31
606.771	11841.79
607.128	11808.8
607.485	11793.21
607.843	11782.81
608.2	11865.3
608.557	11830.72
608.914	11820.55
609.272	11923.82
609.629	11908.46
609.986	11941
610.343	11809.7
610.7	11967.44
611.057	11945.75
611.414	11861.68
611.771	11839.76
612.127	11960.89
612.484	11882.24
612.841	11966.31
613.198	11936.71
613.554	11943.94
613.911	12064.84
614.267	11995.46
614.624	11948.91
614.98	12012.64
615.337	11993.65
615.693	12038.62
616.05	12049.25
616.406	12063.71
616.762	12040.88
617.118	11983.94
617.475	12096.7
617.831	12068.91
618.187	12095.57
618.543	12171.05
618.899	12154.33
619.255	12153.2
619.611	12107.77
619.967	12180.09
620.323	12185.96
620.678	12101.22
621.034	12082.01
621.39	12079.75
621.746	12136.93
622.101	12228.22
622.457	12202.46
622.812	12113.65
623.168	12219.64
623.523	12182.8
623.879	12206.08
624.234	12195.68
624.589	12119.75
624.945	12086.53
625.3	12120.2
625.655	12154.55
626.01	12139.19
626.365	12090.15
626.72	12042.92
627.075	12085.63
627.43	12164.5
627.785	12067.32
628.14	12051.28
628.495	12113.65
628.85	12108
629.205	12025.29
629.559	12114.33
629.914	12049.02
630.269	12157.49
630.623	12073.88
630.978	11960.21
631.332	12037.27
631.687	12108.23
632.041	11986.87
632.396	11985.74
632.75	11924.28
633.104	11964.73
633.459	11971.06
633.813	11970.38
634.167	12025.52
634.521	11986.42
634.875	11921.11
635.229	11968.57
635.583	11869.36
635.937	11856.26
636.291	11827.1
636.645	11869.36
636.999	11846.54
637.352	11902.58
637.706	11808.57
638.06	11806.31
638.413	11734.9
638.767	11779.65
639.121	11807.9
639.474	11669.14
639.828	11714.79
640.181	11693.55
640.534	11737.39
640.888	11698.52
641.241	11644.51
641.594	11637.05
641.947	11695.58
642.301	11606.77
642.654	11603.16
643.007	11623.95
643.36	11585.08
643.713	11665.3
644.066	11583.27
644.419	11566.09
644.771	11504.85
645.124	11374.01
645.477	11406.78
645.83	11310.73
646.182	11286.33
646.535	11345.54
646.888	11227.35
647.24	11218.31
647.593	11308.25
647.945	11190.51
648.298	11214.01
648.65	11289.49
649.002	11139.21
649.355	11166.1
649.707	11256.27
650.059	11276.16
650.411	11372.2
650.763	11453.33
651.115	11505.53
651.467	11527.45
651.819	11476.15
652.171	11517.28
652.523	11491.07
652.875	11452.65
653.227	11364.29
653.578	11553.21
653.93	11466.66
654.282	11465.08
654.633	11433.44
654.985	11466.89
655.337	11385.99
655.688	11433.89
656.039	11525.64
656.391	11378.3
656.742	11479.99
657.094	11489.71
657.445	11534.23
657.796	11454.46
658.147	11443.61
658.498	11524.51
658.849	11457.4
659.2	11450.17
659.551	11418.08
659.902	11470.73
660.253	11473.22
660.604	11536.72
660.955	11483.16
661.306	11515.7
661.656	11485.64
662.007	11553.89
662.358	11585.08
662.708	11562.7
663.059	11551.18
663.409	11438.64
663.76	11556.6
664.11	11520.45
664.461	11565.19
664.811	11597.05
665.161	11519.99
665.511	11536.04
665.862	11588.24
666.212	11597.96
666.562	11535.13
666.912	11476.83
667.262	11498.98
667.612	11479.99
667.962	11617.62
668.312	11486.32
668.662	11584.4
669.011	11503.27
669.361	11521.35
669.711	11522.48
670.06	11461.92
670.41	11531.97
670.76	11462.59
671.109	11544.85
671.459	11522.03
671.808	11521.8
672.157	11566.09
672.507	11474.12
672.856	11421.92
673.205	11420.34
673.554	11536.94
673.904	11465.53
674.253	11519.54
674.602	11503.5
674.951	11334.24
675.3	11226.22
675.649	11413.1
675.998	11331.07
676.346	11383.05
676.695	11361.35
677.044	11333.56
677.393	11312.54
677.741	11342.15
678.09	11259.44
678.438	11222.83
678.787	11284.29
679.135	11328.81
679.484	11210.4
679.832	11179.21
680.181	11190.51
680.529	11212.21
680.877	11226.89
681.225	11164.3
681.573	11310.96
681.922	11175.82
682.27	11043.62
682.618	11161.36
682.966	11108.25
683.314	11078.42
683.661	11038.2
684.009	11061.7
684.357	10970.63
684.705	10895.6
685.053	10926.56
685.4	10959.33
685.748	10887.24
686.095	10872.55
686.443	10805.44
686.79	10766.34
687.138	10804.31
687.485	10733.35
687.832	10817.64
688.18	10692.44
688.527	10710.3
688.874	10724.53
689.221	10645.67
689.568	10629.17
689.915	10632.33
690.262	10620.58
690.609	10588.72
690.956	10563.63
691.303	10490.19
691.65	10413.13
691.997	10435.95
692.344	10306.24
692.69	10340.82
693.037	10397.31
693.383	10225.79
693.73	10290.87
694.077	10189.63
694.423	10123.19
694.769	10190.76
695.116	10175.17
695.462	10145.79
695.808	10023.31
696.155	10051.11
696.501	9934.05
696.847	9955.06
697.193	9889.53
697.539	9925.46
697.885	9821.28
698.231	9792.36
698.577	9819.7
698.923	9779.7
699.269	9656.77
699.614	9689.31
699.96	9633.04
700.306	9596.88
700.651	9590.78
700.997	9514.62
701.342	9469.2
701.688	9456.09
702.033	9472.59
702.379	9439.82
702.724	9343.33
703.069	9418.35
703.415	9302.42
703.76	9314.18
704.105	9202.99
704.45	9214.52
704.795	9229.21
705.14	9189.21
705.485	9242.99
705.83	9144.46
706.175	9169.77
706.52	9102.88
706.865	9083.45
707.209	8972.94
707.554	8995.99
707.899	8997.8
708.243	8966.39
708.588	8880.97
708.932	8892.04
709.277	8823.12
709.621	8826.73
709.966	8805.49
710.31	8860.85
710.654	8699.73
710.998	8774.76
711.342	8773.63
711.687	8695.44
712.031	8703.12
712.375	8675.77
712.719	8599.17
713.063	8620.63
713.407	8591.94
713.75	8556.91
714.094	8579.05
714.438	8551.03
714.782	8576.12
715.125	8487.08
715.469	8516.46
715.812	8494.76
716.156	8436.46
716.499	8455.22
716.843	8464.71
717.186	8338.61
717.53	8455.89
717.873	8403.47
718.216	8386.06
718.559	8352.62
718.902	8335.9
719.246	8328.44
719.589	8332.96
719.932	8280.98
720.275	8248.67
720.617	8308.1
720.96	8275.11
721.303	8252.51
721.646	8266.75
721.989	8198.27
722.331	8270.59
722.674	8253.41
723.016	8279.17
723.359	8199.86
723.701	8257.71
724.044	8215.9
724.386	8189.69
724.729	8208.22
725.071	8183.36
725.413	8163.02
725.755	8125.73
726.097	8098.84
726.439	8120.54
726.782	8147.2
727.124	8111.5
727.465	8093.87
727.807	8139.52
728.149	8110.82
728.491	8120.31
728.833	8086.19
729.175	8105.62
729.516	8073.3
729.858	8061.1
730.199	8110.59
730.541	8053.87
730.882	8083.47
731.224	8073.98
731.565	8047.99
731.906	8051.84
732.248	8076.69
732.589	8043.47
732.93	8013.65
733.271	8002.57
733.612	8070.59
733.953	8094.1
734.294	8016.13
734.635	8006.87
734.976	8042.57
735.317	8030.37
735.658	7989.47
735.999	8008
736.339	7991.95
736.68	8039.18
737.021	8053.42
737.361	8015.68
737.702	8011.84
738.042	8020.88
738.383	8073.53
738.723	8054.77
739.063	8053.42
739.404	8086.41
739.744	8156.01
740.084	8133.87
740.424	8164.83
740.764	8076.92
741.104	8179.97
741.444	8158.27
741.784	8153.75
742.124	8238.72
742.464	8233.75
742.804	8215
743.143	8200.53
743.483	8259.74
743.823	8236.92
744.162	8312.85
744.502	8344.26
744.841	8314.88
745.181	8336.57
745.52	8453.41
745.86	8447.98
746.199	8481.88
746.538	8541.99
746.877	8577.02
747.216	8666.28
747.556	8634.19
747.895	8753.74
748.234	8703.8
748.573	8750.35
748.911	8832.83
749.25	8874.64
749.589	8903.57
749.928	8985.37
750.267	9031.25
750.605	9118.02
750.944	9207.51
751.283	9218.81
751.621	9362.54
751.96	9423.33
752.298	9515.75
752.636	9610.21
752.975	9711
753.313	9708.74
753.651	9824.45
753.989	9891.11
754.327	10043.65
754.666	10145.57
755.004	10235.51
755.342	10415.84
755.679	10514.82
756.017	10636.85
756.355	10722.27
756.693	10860.12
757.031	11007.46
757.368	11130.17
757.706	11219.21
758.044	11446.55
758.381	11520.22
758.719	11599.54
759.056	11834.56
759.394	12005.18
759.731	12029.36
760.068	12242.69
