Data from hue_160_FLMS001491_00034.txt Node
Date: Tue Feb 07 16:51:06 GMT 2017
User: dcchb
Spectrometer: FLMS00149
Trigger mode: 0
Integration Time (sec): 2.000000E-2
Scans to average: 10
Electric dark correction enabled: true
Nonlinearity correction enabled: false
Boxcar width: 0
XAxis mode: Wavelengths
Number of Pixels in Spectrum: 2048
>>>>>Begin Spectral Data<<<<<
341.393	-27.56
341.776	-27.56
342.16	-27.56
342.543	-65.07
342.927	-64.62
343.31	-84.73
343.693	-61
344.077	-58.74
344.46	-57.39
344.843	-37.72
345.226	-32.08
345.61	-51.28
345.993	-21.68
346.376	-8.35
346.759	9.28
347.142	37.3
347.525	33.69
347.908	52.67
348.291	72.55
348.674	98.77
349.057	108.71
349.44	136.06
349.823	138.54
350.206	150.52
350.588	185.09
350.971	204.3
351.354	204.3
351.737	217.41
352.119	246.79
352.502	252.66
352.884	267.35
353.267	280.46
353.65	289.27
354.032	298.54
354.414	317.07
354.797	309.38
355.179	303.28
355.562	314.36
355.944	335.82
356.326	338.54
356.709	346.22
357.091	308.71
357.473	348.03
357.855	331.53
358.238	339.89
358.62	331.08
359.002	337.41
359.384	339.21
359.766	325.43
360.148	320.23
360.53	335.82
360.912	330.85
361.294	332.43
361.676	341.47
362.057	294.24
362.439	319.55
362.821	329.5
363.203	325.2
363.584	308.48
363.966	314.58
364.348	317.97
364.729	315.49
365.111	308.03
365.493	320.91
365.874	300.57
366.256	315.26
366.637	308.25
367.019	323.4
367.4	338.54
367.781	314.36
368.163	323.4
368.544	296.96
368.925	313.45
369.306	326.79
369.688	305.09
370.069	310.74
370.45	315.03
370.831	297.63
371.212	314.81
371.593	301.7
371.974	303.51
372.355	330.85
372.736	323.62
373.117	322.04
373.498	305.32
373.879	322.94
374.26	294.7
374.641	332.21
375.021	304.19
375.402	313.45
375.783	308.48
376.163	326.11
376.544	311.87
376.925	315.03
377.305	322.27
377.686	319.78
378.066	321.81
378.447	331.3
378.827	319.1
379.208	346.45
379.588	315.03
379.968	320.23
380.349	315.03
380.729	332.89
381.109	336.05
381.489	338.08
381.87	325.66
382.25	325.2
382.63	333.79
383.01	349.61
383.39	356.84
383.77	351.42
384.15	338.76
384.53	321.14
384.91	340.57
385.29	332.89
385.67	315.26
386.049	355.03
386.429	348.48
386.809	337.18
387.189	352.32
387.568	355.94
387.948	343.06
388.328	353.68
388.707	348.25
389.087	357.74
389.466	367.91
389.846	355.26
390.225	357.52
390.605	353.9
390.984	341.02
391.363	360.68
391.743	350.29
392.122	354.81
392.501	364.75
392.881	346.22
393.26	357.52
393.639	352.55
394.018	358.42
394.397	365.65
394.776	364.98
395.155	377.18
395.534	369.27
395.913	346.9
396.292	368.82
396.671	362.49
397.05	380.12
397.429	383.96
397.808	365.88
398.186	385.77
398.565	365.88
398.944	393.22
399.323	373.56
399.701	376.95
400.08	385.54
400.458	370.85
400.837	389.16
401.215	393.68
401.594	374.24
401.972	392.77
402.351	372.43
402.729	414.01
403.107	404.75
403.486	391.64
403.864	397.74
404.242	386.9
404.62	393.9
404.999	410.4
405.377	416.05
405.755	402.04
406.133	405.2
406.511	427.8
406.889	417.63
407.267	410.62
407.645	418.08
408.023	418.76
408.401	420.79
408.779	435.71
409.156	420.79
409.534	424.86
409.912	438.19
410.29	445.65
410.667	464.18
411.045	433.45
411.422	481.13
411.8	445.43
412.178	470.51
412.555	472.09
412.933	449.72
413.31	457.4
413.687	466.22
414.065	475.48
414.442	468.48
414.819	464.63
415.197	494.69
415.574	456.05
415.951	487.91
416.328	496.05
416.705	498.31
417.082	484.07
417.46	487.91
417.837	486.78
418.214	483.39
418.591	494.46
418.967	493.11
419.344	503.28
419.721	497.4
420.098	493.79
420.475	525.2
420.852	526.55
421.228	516.84
421.605	521.58
421.982	527.01
422.358	545.08
422.735	544.86
423.111	527.68
423.488	539.89
423.864	536.27
424.241	567
424.617	549.6
424.994	581.02
425.37	550.73
425.746	582.15
426.123	575.59
426.499	565.2
426.875	562.03
427.251	587.57
427.627	597.51
428.003	575.14
428.379	581.02
428.756	609.94
429.132	595.93
429.507	629.6
429.883	613.78
430.259	597.06
430.635	623.5
431.011	625.31
431.387	649.71
431.763	630.28
432.138	616.5
432.514	671.18
432.89	643.84
433.265	649.49
433.641	680.22
434.016	652.2
434.392	696.94
434.767	681.58
435.143	691.3
435.518	687.23
435.894	699.43
436.269	707.79
436.644	705.76
437.02	722.93
437.395	740.79
437.77	748.7
438.145	716.15
438.52	754.57
438.895	730.16
439.271	732.42
439.646	761.8
440.021	748.92
440.395	772.65
440.77	751.41
441.145	761.58
441.52	787.79
441.895	772.88
442.27	800.22
442.645	838.41
443.019	830.27
443.394	795.7
443.769	826.89
444.143	807.9
444.518	831.4
444.892	828.01
445.267	819.43
445.641	827.56
446.016	857.39
446.39	868.24
446.764	858.07
447.139	844.74
447.513	866.43
447.887	852.42
448.262	873.89
448.636	872.76
449.01	878.64
449.384	889.03
449.758	897.84
450.132	902.82
450.506	915.02
450.88	916.15
451.254	929.26
451.628	939.65
452.002	929.48
452.376	951.63
452.75	941.01
453.123	952.53
453.497	952.08
453.871	990.95
454.244	1014.22
454.618	974.9
454.992	1018.52
455.365	1004.28
455.739	1049.93
456.112	1037.5
456.486	1040.66
456.859	1071.62
457.232	1086.54
457.606	1094
457.979	1094.9
458.352	1126.99
458.725	1142.36
459.099	1136.03
459.472	1154.56
459.845	1174.45
460.218	1151.85
460.591	1195.69
460.964	1172.41
461.337	1229.81
461.71	1236.14
462.083	1258.51
462.456	1286.08
462.829	1269.36
463.201	1289.47
463.574	1288.12
463.947	1322.92
464.32	1338.74
464.692	1374.22
465.065	1400.2
465.438	1389.13
465.81	1414.67
466.183	1452.86
466.555	1461.9
466.928	1489.24
467.3	1469.35
467.672	1521.33
468.045	1538.5
468.417	1563.81
468.789	1561.1
469.161	1578.96
469.534	1662.12
469.906	1641.33
470.278	1679.74
470.65	1717.26
471.022	1770.14
471.394	1799.97
471.766	1827.08
472.138	1857.37
472.51	1856.24
472.882	1903.01
473.253	1962.45
473.625	2003.35
473.997	2031.37
474.369	2119.51
474.74	2096.23
475.112	2168.54
475.484	2221.65
475.855	2277.24
476.227	2324.02
476.598	2407.63
476.97	2421.65
477.341	2505.94
477.713	2566.95
478.084	2611.7
478.455	2653.96
478.827	2727.63
479.198	2838.36
479.569	2871.8
479.94	2968.52
480.311	3055.3
480.682	3116.09
481.053	3177.78
481.424	3321.28
481.795	3380.04
482.166	3473.37
482.537	3524.67
482.908	3630.88
483.279	3749.75
483.65	3790.65
484.021	3938.67
484.391	4016.18
484.762	4075.16
485.133	4203.07
485.503	4258.66
485.874	4350.86
486.244	4524.87
486.615	4620.68
486.985	4715.6
487.356	4824.07
487.726	4925.53
488.097	5118.98
488.467	5138.86
488.837	5302.7
489.207	5422.24
489.578	5557.61
489.948	5685.74
490.318	5800.09
490.688	5902.23
491.058	6051.38
491.428	6146.07
491.798	6286.63
492.168	6420.18
492.538	6523.46
492.908	6631.93
493.278	6791.25
493.648	6803.68
494.017	6981.07
494.387	7053.84
494.757	7221.52
495.126	7341.29
495.496	7401.85
495.866	7468.97
496.235	7709.87
496.605	7780.83
496.974	7886.13
497.344	7983.53
497.713	8083.19
498.082	8111.21
498.452	8311.21
498.821	8369.74
499.19	8384.43
499.559	8555.95
499.928	8595.72
500.298	8705.32
500.667	8816.51
501.036	8809.27
501.405	8971.53
501.774	8967.01
502.143	9129.49
502.512	9216.04
502.88	9264.18
503.249	9288.81
503.618	9362.03
503.987	9394.8
504.356	9527.22
504.724	9544.4
505.093	9702.81
505.462	9699.42
505.83	9777.38
506.199	9833.43
506.567	9966.76
506.936	9905.29
507.304	10065.51
507.672	10136.02
508.041	10110.93
508.409	10177.83
508.777	10291.95
509.145	10314.55
509.514	10304.83
509.882	10422.34
510.25	10441.1
510.618	10524.94
510.986	10505.27
511.354	10673.86
511.722	10768.54
512.09	10816
512.458	10719.96
512.826	10907.52
513.193	10924.25
513.561	10837.24
513.929	10903
514.297	10971.48
514.664	10995.21
515.032	11107.97
515.4	11100.06
515.767	11129.44
516.135	11240.85
516.502	11147.52
516.869	11258.93
517.237	11283.56
517.604	11267.06
517.972	11213.5
518.339	11325.37
518.706	11260.73
519.073	11326.5
519.44	11437.91
519.808	11502.54
520.175	11391.13
520.542	11488.07
520.909	11508.64
521.276	11484.68
521.643	11535.76
522.009	11540.95
522.376	11642.87
522.743	11554.74
523.11	11570.56
523.477	11754.96
523.843	11733.49
524.21	11834.73
524.577	11780.04
524.943	11847.16
525.31	11928.97
525.676	11905.46
526.043	11888.29
526.409	11889.19
526.776	12006.93
527.142	11907.05
527.508	11949.08
527.874	11972.58
528.241	11986.59
528.607	11991.11
528.973	12036.08
529.339	12026.82
529.705	12002.18
530.071	12093.03
530.437	12053.93
530.803	11916.54
531.169	12102.07
531.535	11984.33
531.901	11918.12
532.267	11983.65
532.632	12023.88
532.998	11978.23
533.364	11968.29
533.73	11938.01
534.095	11961.28
534.461	11903.88
534.826	11974.61
535.192	11949.3
535.557	12008.06
535.923	11891.68
536.288	11853.71
536.653	11867.27
537.019	11726.94
537.384	11722.19
537.749	11801.96
538.114	11727.16
538.479	11698.69
538.845	11613.49
539.21	11623.66
539.575	11653.94
539.94	11571.01
540.305	11601.52
540.67	11500.5
541.034	11579.37
541.399	11488.53
541.764	11523.78
542.129	11371.69
542.494	11458.92
542.858	11361.07
543.223	11376.66
543.587	11367.17
543.952	11200.4
544.316	11287.17
544.681	11177.8
545.045	11268.19
545.41	11214.63
545.774	11177.35
546.138	11155.2
546.503	11115.65
546.867	11005.37
547.231	11055.09
547.595	10965.15
547.959	10991.82
548.324	10913.63
548.688	10978.48
549.052	10865.94
549.416	10856.68
549.779	10877.69
550.143	10835.21
550.507	10812.16
550.871	10805.15
551.235	10764.02
551.599	10718.83
551.962	10752.95
552.326	10654.65
552.689	10659.62
553.053	10564.71
553.417	10566.74
553.78	10650.13
554.143	10586.4
554.507	10625.27
554.87	10536.01
555.234	10597.02
555.597	10570.13
555.96	10497.37
556.323	10479.29
556.686	10402.23
557.05	10456.46
557.413	10404.26
557.776	10452.62
558.139	10341.89
558.502	10452.85
558.865	10361.1
559.228	10431.6
559.59	10351.15
559.953	10427.08
560.316	10448.55
560.679	10404.71
561.041	10376.01
561.404	10429.34
561.767	10439.51
562.129	10288.11
562.492	10479.96
562.854	10337.14
563.217	10366.07
563.579	10430.02
563.941	10412.62
564.304	10486.29
564.666	10458.27
565.028	10461.43
565.39	10407.42
565.753	10498.95
566.115	10500.3
566.477	10496.24
566.839	10475.44
567.201	10566.29
567.563	10541.66
567.925	10618.94
568.287	10522
568.648	10542.34
569.01	10479.74
569.372	10595.67
569.734	10524.48
570.095	10573.52
570.457	10600.41
570.819	10612.84
571.18	10587.53
571.542	10656.68
571.903	10608.55
572.265	10623.01
572.626	10626.4
572.987	10618.94
573.349	10737.13
573.71	10684.48
574.071	10639.73
574.432	10702.33
574.794	10748.66
575.155	10662.78
575.516	10662.11
575.877	10684.25
576.238	10672.28
576.599	10756.12
576.96	10702.56
577.32	10721.09
577.681	10751.14
578.042	10769.67
578.403	10796.34
578.763	10821.65
579.124	10744.59
579.485	10835.66
579.845	10825.72
580.206	10714.08
580.566	10720.64
580.927	10771.71
581.287	10823.01
581.648	10738.94
582.008	10712.5
582.368	10772.61
582.728	10741.88
583.089	10702.56
583.449	10681.77
583.809	10728.55
584.169	10772.16
584.529	10688.55
584.889	10762.89
585.249	10720.18
585.609	10666.4
585.969	10661.65
586.329	10655.33
586.688	10667.3
587.048	10661.2
587.408	10676.8
587.768	10571.49
588.127	10630.02
588.487	10603.8
588.846	10626.4
589.206	10605.84
589.565	10624.14
589.925	10600.41
590.284	10552.28
590.643	10622.79
591.003	10528.55
591.362	10596.35
591.721	10526.07
592.08	10523.58
592.44	10602.67
592.799	10572.39
593.158	10525.39
593.517	10552.96
593.876	10500.08
594.235	10459.17
594.593	10467.08
594.952	10592.28
595.311	10493.98
595.67	10520.42
596.029	10561.09
596.387	10575.78
596.746	10594.76
597.104	10556.8
597.463	10489.68
597.822	10493.52
598.18	10456.46
598.538	10458.5
598.897	10495.56
599.255	10459.63
599.613	10475.67
599.972	10514.54
600.33	10525.84
600.688	10396.35
601.046	10480.64
601.404	10491.49
601.762	10486.52
602.12	10550.02
602.478	10522.22
602.836	10528.1
603.194	10460.76
603.552	10458.95
603.91	10439.51
604.268	10511.83
604.625	10442.45
604.983	10500.75
605.341	10447.88
605.698	10514.99
606.056	10571.49
606.413	10496.46
606.771	10456.91
607.128	10489.68
607.485	10467.08
607.843	10473.86
608.2	10550.47
608.557	10550.92
608.914	10472.96
609.272	10616.23
609.629	10590.24
609.986	10580.3
610.343	10540.75
610.7	10575.56
611.057	10531.49
611.414	10538.95
611.771	10541.21
612.127	10547.08
612.484	10613.75
612.841	10587.98
613.198	10626.85
613.554	10602.9
613.911	10682.9
614.267	10640.86
614.624	10633.18
614.98	10665.5
615.337	10693.97
615.693	10656.23
616.05	10702.78
616.406	10728.55
616.762	10665.04
617.118	10673.41
617.475	10701.65
617.831	10755.66
618.187	10742.33
618.543	10780.52
618.899	10828.66
619.255	10776.68
619.611	10710.69
619.967	10818.03
620.323	10857.36
620.678	10743.91
621.034	10726.29
621.39	10725.16
621.746	10753.63
622.101	10912.72
622.457	10693.52
622.812	10766.96
623.168	10846.51
623.523	10761.77
623.879	10787.3
624.234	10741.2
624.589	10765.61
624.945	10728.77
625.3	10744.82
625.655	10784.14
626.01	10790.01
626.365	10772.39
626.72	10729
627.075	10740.52
627.43	10776.91
627.785	10727.19
628.14	10799.96
628.495	10778.26
628.85	10749.11
629.205	10708.66
629.559	10686.96
629.914	10683.8
630.269	10692.61
630.623	10648.55
630.978	10703.24
631.332	10796.11
631.687	10681.77
632.041	10627.08
632.396	10756.12
632.75	10641.32
633.104	10650.58
633.459	10539.4
633.813	10668.43
634.167	10581.43
634.521	10632.95
634.875	10613.75
635.229	10551.6
635.583	10500.53
635.937	10564.93
636.291	10519.96
636.645	10516.57
636.999	10509.12
637.352	10476.57
637.706	10442.9
638.06	10514.31
638.413	10501.88
638.767	10383.47
639.121	10359.06
639.474	10382.79
639.828	10362.45
640.181	10429.8
640.534	10369.68
640.888	10321.55
641.241	10340.31
641.594	10281.33
641.947	10332.4
642.301	10354.54
642.654	10325.62
643.007	10332.85
643.36	10326.07
643.713	10308.44
644.066	10383.92
644.419	10294.66
644.771	10357.03
645.124	10109.58
645.477	10131.27
645.83	10087.66
646.182	9999.3
646.535	10033.42
646.888	10035.23
647.24	9995.01
647.593	10015.34
647.945	10060.54
648.298	9989.81
648.65	9937.61
649.002	9909.81
649.355	9977.38
649.707	9972.63
650.059	10021.67
650.411	10153.87
650.763	10205.4
651.115	10238.84
651.467	10149.35
651.819	10281.33
652.171	10167.66
652.523	10133.76
652.875	10155.23
653.227	10127.43
653.578	10216.69
653.93	10135.34
654.282	10134.66
654.633	10088.34
654.985	10064.16
655.337	10117.26
655.688	10211.72
656.039	10182.57
656.391	10130.82
656.742	10185.28
657.094	10165.85
657.445	10232.74
657.796	10178.05
658.147	10079.07
658.498	10104.61
658.849	10223.7
659.2	10140.76
659.551	10218.5
659.902	10172.63
660.253	10184.83
660.604	10218.5
660.955	10162.91
661.306	10193.42
661.656	10167.88
662.007	10147.54
662.358	10141.22
662.708	10181.22
663.059	10200.65
663.409	10114.55
663.76	10209.46
664.11	10195.9
664.461	10303.25
664.811	10227.09
665.161	10258.95
665.511	10204.04
665.862	10233.42
666.212	10233.64
666.562	10243.36
666.912	10201.55
667.262	10184.61
667.612	10200.88
667.962	10234.1
668.312	10210.82
668.662	10249.46
669.011	10237.94
669.361	10248.78
669.711	10192.29
670.06	10206.53
670.41	10141.89
670.76	10130.6
671.109	10157.49
671.459	10206.53
671.808	10187.54
672.157	10170.82
672.507	10175.11
672.856	10203.36
673.205	10178.05
673.554	10239.74
673.904	10074.78
674.253	10204.49
674.602	10124.27
674.951	10003.14
675.3	10022.8
675.649	10083.82
675.998	10039.52
676.346	10086.3
676.695	10117.04
677.044	10050.37
677.393	10020.77
677.741	10049.69
678.09	10040.65
678.438	10030.71
678.787	10046.98
679.135	9987.55
679.484	9951.84
679.832	10025.74
680.181	9909.58
680.529	9969.47
680.877	9906.65
681.225	9919.3
681.573	9935.8
681.922	9906.42
682.27	9809.25
682.618	9869.81
682.966	9878.62
683.314	9812.86
683.661	9802.02
684.009	9756.37
684.357	9764.05
684.705	9817.61
685.053	9715.01
685.4	9682.92
685.748	9619.42
686.095	9633.21
686.443	9579.42
686.79	9615.81
687.138	9653.32
687.485	9597.5
687.832	9532.64
688.18	9552.76
688.527	9497.84
688.874	9466.66
689.221	9485.19
689.568	9457.17
689.915	9376.72
690.262	9402.7
690.609	9405.64
690.956	9345.76
691.303	9297.85
691.65	9306.21
691.997	9228.7
692.344	9150.28
692.69	9209.49
693.037	9176.5
693.383	9090.17
693.73	9139.66
694.077	9121.58
694.423	9067.35
694.769	9079.78
695.116	8942.6
695.462	8905.54
695.808	8931.53
696.155	8950.06
696.501	8804.75
696.847	8894.92
697.193	8771.31
697.539	8762.27
697.885	8796.84
698.231	8749.61
698.577	8713.68
698.923	8644.76
699.269	8645.66
699.614	8613.57
699.96	8582.61
700.306	8572.9
700.651	8550.98
700.997	8489.73
701.342	8486.8
701.688	8399.57
702.033	8428.95
702.379	8412.67
702.724	8372.68
703.069	8321.6
703.415	8256.52
703.76	8297.88
704.105	8268.72
704.45	8237.99
704.795	8108.5
705.14	8137.2
705.485	8089.29
705.83	8114.15
706.175	8174.04
706.52	8114.83
706.865	8087.94
707.209	8034.83
707.554	7966.13
707.899	8012.91
708.243	8020.82
708.588	7957.55
708.932	7906.47
709.277	7911.67
709.621	7913.7
709.966	7847.94
710.31	7847.27
710.654	7841.39
710.998	7815.18
711.342	7783.09
711.687	7825.8
712.031	7701.05
712.375	7741.28
712.719	7718.23
713.063	7730.43
713.407	7725.23
713.75	7647.5
714.094	7650.21
714.438	7613.83
714.782	7670.32
715.125	7593.49
715.469	7614.73
715.812	7566.37
716.156	7482.3
716.499	7471.23
716.843	7487.05
717.186	7464.68
717.53	7519.59
717.873	7484.34
718.216	7477.33
718.559	7429.65
718.902	7428.07
719.246	7445.92
719.589	7418.35
719.932	7421.06
720.275	7435.75
720.617	7360.72
720.96	7475.75
721.303	7384.45
721.646	7373.15
721.989	7295.87
722.331	7364.11
722.674	7370.44
723.016	7328.63
723.359	7352.14
723.701	7367.96
724.044	7294.51
724.386	7283.21
724.729	7285.25
725.071	7290.22
725.413	7263.55
725.755	7263.55
726.097	7202.08
726.439	7188.75
726.782	7246.15
727.124	7260.84
727.465	7256.55
727.807	7242.54
728.149	7259.71
728.491	7196.21
728.833	7219.94
729.175	7204.12
729.516	7223.33
729.858	7219.26
730.199	7202.54
730.541	7182.42
730.882	7201.41
731.224	7252.03
731.565	7126.38
731.906	7125.48
732.248	7192.14
732.589	7197.34
732.93	7106.04
733.271	7192.14
733.612	7187.62
733.953	7141.75
734.294	7106.04
734.635	7174.51
734.976	7188.53
735.317	7132.03
735.658	7177
735.999	7161.63
736.339	7208.41
736.68	7163.67
737.021	7174.51
737.361	7166.15
737.702	7200.95
738.042	7212.25
738.383	7172.93
738.723	7239.82
739.063	7233.72
739.404	7217.9
739.744	7262.42
740.084	7211.58
740.424	7247.73
740.764	7243.67
741.104	7315.3
741.444	7224.68
741.784	7255.64
742.124	7311.46
742.464	7302.65
742.804	7302.65
743.143	7376.32
743.483	7380.39
743.823	7368.41
744.162	7380.84
744.502	7410.21
744.841	7458.12
745.181	7446.37
745.52	7459.93
745.86	7576.31
746.199	7611.57
746.538	7656.99
746.877	7699.47
747.216	7714.16
747.556	7738.57
747.895	7745.35
748.234	7756.87
748.573	7855.4
748.911	7844.33
749.25	7987.37
749.589	7967.49
749.928	8053.36
750.267	8131.78
750.605	8169.06
750.944	8221.72
751.283	8228.72
751.621	8374.94
751.96	8391.66
752.298	8482.73
752.636	8585.1
752.975	8634.82
753.313	8640.46
753.651	8878.65
753.989	8866.67
754.327	9001.59
754.666	9090.85
755.004	9230.73
755.342	9342.37
755.679	9444.51
756.017	9510.5
756.355	9682.92
756.693	9795.91
757.031	9978.06
757.368	10085.4
757.706	10124.72
758.044	10269.57
758.381	10429.34
758.719	10586.18
759.056	10705.5
759.394	10891.03
759.731	10951.59
760.068	11121.08
760.405	11233.17
760.743	11328.08
761.08	11548.86
