Data from hue_50_FLMS001491_24.txt Node
Date: Mon Feb 06 15:09:48 GMT 2017
User: dcchb
Spectrometer: FLMS00149
Trigger mode: 0
Integration Time (sec): 2.000000E-2
Scans to average: 10
Electric dark correction enabled: true
Nonlinearity correction enabled: false
Boxcar width: 0
XAxis mode: Wavelengths
Number of Pixels in Spectrum: 2048
>>>>>Begin Spectral Data<<<<<
341.393	-17.33
341.776	-17.33
342.16	-17.33
342.543	-48.29
342.927	-51.91
343.31	-68.63
343.693	-64.33
344.077	-45.58
344.46	-45.58
344.843	-40.83
345.226	-56.88
345.61	-21.17
345.993	-41.51
346.376	-14.17
346.759	-5.58
347.142	19.51
347.525	28.32
347.908	61.54
348.291	78.03
348.674	93.4
349.057	123.46
349.44	139.05
349.823	141.99
350.206	163.46
350.588	197.58
350.971	205.26
351.354	227.64
351.737	240.29
352.119	237.35
352.502	273.74
352.884	286.84
353.267	303.11
353.65	281.42
354.032	294.07
354.414	312.38
354.797	308.76
355.179	325.94
355.562	318.03
355.944	332.94
356.326	344.47
356.709	316.9
357.091	351.47
357.473	339.27
357.855	346.5
358.238	345.82
358.62	355.77
359.002	328.2
359.384	355.99
359.766	346.05
360.148	320.06
360.53	333.4
360.912	334.3
361.294	334.75
361.676	355.77
362.057	337.91
362.439	331.14
362.821	320.97
363.203	315.99
363.584	330.46
363.966	312.83
364.348	334.98
364.729	331.14
365.111	324.13
365.493	336.56
365.874	320.06
366.256	316.9
366.637	320.06
367.019	320.97
367.4	329.1
367.781	317.35
368.163	328.2
368.544	322.1
368.925	314.41
369.306	318.48
369.688	308.31
370.069	303.79
370.45	314.41
370.831	313.51
371.212	314.86
371.593	293.4
371.974	304.24
372.355	322.55
372.736	316.67
373.117	316.45
373.498	299.95
373.879	320.97
374.26	297.46
374.641	320.29
375.021	311.93
375.402	307.18
375.783	327.07
376.163	305.37
376.544	320.29
376.925	339.04
377.305	324.13
377.686	333.62
378.066	333.17
378.447	345.37
378.827	314.86
379.208	319.61
379.588	332.72
379.968	320.51
380.349	331.36
380.729	326.16
381.109	325.94
381.489	339.27
381.87	339.72
382.25	325.94
382.63	355.54
383.01	334.75
383.39	345.15
383.77	335.88
384.15	314.41
384.53	349.44
384.91	354.64
385.29	363
385.67	361.19
386.049	340.85
386.429	340.17
386.809	332.04
387.189	341.76
387.568	341.08
387.948	339.72
388.328	339.95
388.707	349.67
389.087	357.58
389.466	362.32
389.846	375.2
390.225	369.55
390.605	366.39
390.984	354.64
391.363	361.87
391.743	341.3
392.122	358.93
392.501	363.68
392.881	386.95
393.26	381.98
393.639	364.35
394.018	370
394.397	374.3
394.776	356.67
395.155	371.59
395.534	385.37
395.913	363.22
396.292	382.66
396.671	385.37
397.05	361.42
397.429	369.33
397.808	381.53
398.186	378.82
398.565	388.31
398.944	400.29
399.323	373.39
399.701	367.29
400.08	369.33
400.458	363.9
400.837	393.05
401.215	387.63
401.594	388.53
401.972	397.8
402.351	401.42
402.729	377.24
403.107	388.08
403.486	367.52
403.864	390.57
404.242	408.2
404.62	397.35
404.999	394.41
405.377	400.74
405.755	403.22
406.133	399.16
406.511	406.39
406.889	426.05
407.267	398.7
407.645	421.98
408.023	407.74
408.401	409.1
408.779	415.65
409.156	416.1
409.534	437.12
409.912	418.14
410.29	429.89
410.667	444.8
411.045	432.38
411.422	419.04
411.8	447.29
412.178	445.71
412.555	441.64
412.933	460.85
413.31	469.21
413.687	441.19
414.065	435.99
414.442	456.56
414.819	469.66
415.197	470.11
415.574	453.17
415.951	467.4
416.328	455.2
416.705	454.07
417.082	477.57
417.46	486.84
417.837	483.45
418.214	480.96
418.591	484.13
418.967	495.65
419.344	523.45
419.721	490.23
420.098	483.67
420.475	489.55
420.852	492.49
421.228	496.1
421.605	524.12
421.982	508.76
422.358	496.1
422.735	535.42
423.111	513.73
423.488	511.24
423.864	528.87
424.241	534.52
424.617	509.21
424.994	521.86
425.37	522.09
425.746	519.15
426.123	532.71
426.499	530.68
426.875	531.36
427.251	571.58
427.627	579.26
428.003	550.56
428.379	573.16
428.756	568.87
429.132	572.94
429.507	557.8
429.883	581.3
430.259	601.86
430.635	575.65
431.011	559.83
431.387	587.85
431.763	610.22
432.138	608.87
432.514	607.74
432.89	587.63
433.265	614.74
433.641	617.91
434.016	624.01
434.392	623.56
434.767	633.5
435.143	633.5
435.518	647.96
435.894	648.64
436.269	659.49
436.644	643.67
437.02	662.43
437.395	654.52
437.77	684.12
438.145	672.14
438.52	678.7
438.895	681.63
439.271	697
439.646	668.3
440.021	683.44
440.395	692.93
440.77	670.11
441.145	690.45
441.52	711.24
441.895	697.91
442.27	713.72
442.645	723.67
443.019	698.36
443.394	725.25
443.769	733.84
444.143	692.48
444.518	707.85
444.892	721.41
445.267	739.03
445.641	729.77
446.016	749.43
446.39	763.44
446.764	747.17
447.139	743.1
447.513	776.77
447.887	764.57
448.262	763.21
448.636	774.97
449.01	788.52
449.384	775.64
449.758	808.64
450.132	774.74
450.506	798.24
450.88	800.5
451.254	802.08
451.628	810.44
452.002	814.96
452.376	813.38
452.75	826.26
453.123	815.42
453.497	817.9
453.871	861.52
454.244	856.32
454.618	864.91
454.992	880.95
455.365	894.74
455.739	883.21
456.112	886.37
456.486	893.15
456.859	906.04
457.232	924.11
457.606	926.15
457.979	927.05
458.352	951.91
458.725	942.64
459.099	967.95
459.472	978.12
459.845	981.06
460.218	975.64
460.591	966.15
460.964	1017.67
461.337	1015.41
461.71	1018.57
462.083	1080.04
462.456	1045.47
462.829	1059.7
463.201	1074.62
463.574	1083.66
463.947	1100.15
464.32	1117.1
464.692	1143.09
465.065	1108.74
465.438	1168.4
465.81	1170.44
466.183	1200.49
466.555	1224.45
466.928	1250.21
467.3	1230.77
467.672	1252.24
468.045	1281.17
468.417	1273.48
468.789	1294.5
469.161	1273.03
469.534	1354.84
469.906	1357.55
470.278	1386.47
470.65	1397.55
471.022	1424.89
471.394	1501.73
471.766	1504.21
472.138	1516.87
472.51	1534.27
472.882	1580.14
473.253	1632.8
473.625	1646.13
473.997	1677.31
474.369	1693.81
474.74	1715.96
475.112	1767.71
475.484	1812.68
475.855	1834.15
476.227	1906.01
476.598	1964.31
476.97	1949.4
477.341	2050.86
477.713	2095.16
478.084	2149.17
478.455	2194.14
478.827	2213.8
479.198	2303.96
479.569	2370.4
479.94	2485.65
480.311	2484.53
480.682	2577.4
481.053	2650.17
481.424	2747.12
481.795	2808.13
482.166	2883.38
482.537	2962.93
482.908	3032.76
483.279	3094
483.65	3208.35
484.021	3312.53
484.391	3397.27
484.762	3478.4
485.133	3574.44
485.503	3662.35
485.874	3784.83
486.244	3829.8
486.615	3983.02
486.985	4065.05
487.356	4187.98
487.726	4309.79
488.097	4427.98
488.467	4508.88
488.837	4636.11
489.207	4711.59
489.578	4848.53
489.948	4979.83
490.318	5151.8
490.688	5206.71
491.058	5286.49
491.428	5507.04
491.798	5571.22
492.168	5750.2
492.538	5853.7
492.908	5979.12
493.278	6084.88
493.648	6212.79
494.017	6368.04
494.387	6478.77
494.757	6587.47
495.126	6758.54
495.496	6848.7
495.866	6919.44
496.235	7103.84
496.605	7224.51
496.974	7335.24
497.344	7463.38
497.713	7598.51
498.082	7665.41
498.452	7816.14
498.821	7953.76
499.19	8044.6
499.559	8208.89
499.928	8262.45
500.298	8381.55
500.667	8560.52
501.036	8586.96
501.405	8766.39
501.774	8854.53
502.143	8967.97
502.512	9043
502.88	9187.85
503.249	9260.62
503.618	9386.94
503.987	9416.77
504.356	9585.58
504.724	9703.32
505.093	9759.14
505.462	9823.99
505.83	10007.49
506.199	10061.73
506.567	10312.57
506.936	10321.38
507.304	10507.59
507.672	10568.61
508.041	10670.3
508.409	10771.31
508.777	10887.24
509.145	10993.45
509.514	11014.92
509.882	11161.36
510.25	11194.58
510.618	11256.5
510.986	11443.39
511.354	11512.99
511.722	11597.28
512.09	11860.1
512.458	11818.29
512.826	11995.91
513.193	12004.73
513.561	12126.76
513.929	12218.73
514.297	12344.15
514.664	12460.08
515.032	12565.62
515.4	12639.74
515.767	12703.92
516.135	12844.7
516.502	12727.87
516.869	12990.69
517.237	13117.24
517.604	13052.61
517.972	13175.77
518.339	13368.98
518.706	13404.92
519.073	13485.14
519.44	13645.81
519.808	13722.87
520.175	13796.54
520.542	13974.39
520.909	14087.16
521.276	14073.15
521.643	14208.06
522.009	14348.85
522.376	14418
522.743	14483.76
523.11	14644.66
523.477	14820.7
523.843	14838.55
524.21	15062.27
524.577	15081.48
524.943	15146.34
525.31	15245.55
525.676	15460
526.043	15539.1
526.409	15606.21
526.776	15795.36
527.142	15797.17
527.508	15930.05
527.874	16007.79
528.241	16147.67
528.607	16252.52
528.973	16270.15
529.339	16328.91
529.705	16611.39
530.071	16699.07
530.437	16830.59
530.803	16756.92
531.169	16928.89
531.535	16985.16
531.901	17038.04
532.267	17065.16
532.632	17304.25
532.998	17337.24
533.364	17397.58
533.73	17499.27
534.095	17684.8
534.461	17728.64
534.826	17752.6
535.192	17794.63
535.557	17955.3
535.923	17868.75
536.288	17940.84
536.653	18038.01
537.019	18081.4
537.384	18260.61
537.749	18337.89
538.114	18317.1
538.479	18370.44
538.845	18544.89
539.21	18516.19
539.575	18661.05
539.94	18648.85
540.305	18841.16
540.67	18707.6
541.034	18963.41
541.399	18993.47
541.764	19003.41
542.129	19138.32
542.494	19169.74
542.858	19291.77
543.223	19338.55
543.587	19443.63
543.952	19289.73
544.316	19412.44
544.681	19361.14
545.045	19595.49
545.41	19658.76
545.774	19705.32
546.138	19816.95
546.503	19790.96
546.867	19894.01
547.231	20005.42
547.595	20002.93
547.959	20102.82
548.324	20150.28
548.688	20255.13
549.052	20330.61
549.416	20344.62
549.779	20471.4
550.143	20523.6
550.507	20620.32
550.871	20679.07
551.235	20633.43
551.599	20803.37
551.962	20771.5
552.326	20843.36
552.689	21074.77
553.053	21022.34
553.417	20969.69
553.78	21285.84
554.143	21202
554.507	21396.57
554.87	21434.99
555.234	21586.62
555.597	21464.59
555.96	21581.65
556.323	21619.39
556.686	21801.31
557.05	21910.68
557.413	21950.45
557.776	22094.4
558.139	22260.05
558.502	22184.57
558.865	22337.56
559.228	22430.89
559.59	22617.56
559.953	22444.23
560.316	22787.27
560.679	22705.91
561.041	22982.74
561.404	22956.3
561.767	23116.98
562.129	23090.54
562.492	23415.95
562.854	23337.08
563.217	23407.14
563.579	23441.71
563.941	23665.89
564.304	23678.09
564.666	23881.25
565.028	23888.03
565.39	23872.89
565.753	24078.99
566.115	24104.97
566.477	24178.64
566.839	24245.08
567.201	24347.23
567.563	24506.32
567.925	24630.61
568.287	24594.23
568.648	24704.51
569.01	24855.01
569.372	25015.68
569.734	24902.92
570.095	25269.46
570.457	25195.57
570.819	25309.01
571.18	25395.56
571.542	25574.77
571.903	25550.13
572.265	25663.58
572.626	25767.53
572.987	25904.47
573.349	26009.1
573.71	26069.89
574.071	26074.19
574.432	26234.41
574.794	26405.25
575.155	26513.05
575.516	26330.45
575.877	26601.18
576.238	26604.57
576.599	26719.82
576.96	26852.25
577.32	26888.4
577.681	27084.33
578.042	27149.41
578.403	27106.93
578.763	27206.59
579.124	27260.14
579.485	27487.48
579.845	27597.99
580.206	27658.78
580.566	27562.28
580.927	27755.5
581.287	28074.81
581.648	27978.32
582.008	28269.61
582.368	28106.45
582.728	28236.84
583.089	28187.58
583.449	28507.8
583.809	28477.97
584.169	28721.58
584.529	28688.58
584.889	28974.68
585.249	28942.36
585.609	28826.88
585.969	29236.36
586.329	29035.24
586.688	29247.21
587.048	29350.03
587.408	29378.06
587.768	29519.97
588.127	29623.92
588.487	29593.42
588.846	30023.69
589.206	29850.59
589.565	29938.27
589.925	30223.46
590.284	30185.27
590.643	30530.12
591.003	30428.65
591.362	30588.87
591.721	30651.47
592.08	30717.91
592.44	30861.86
592.799	30941.4
593.158	30991.8
593.517	30993.38
593.876	31193.15
594.235	31319.93
594.593	31256.88
594.952	31543.2
595.311	31479.92
595.67	31522.86
596.029	31929.4
596.387	31929.17
596.746	32063.86
597.104	31913.36
597.463	31990.42
597.822	32279.22
598.18	32302.95
598.538	32210.3
598.897	32449.61
599.255	32326.23
599.613	32923.5
599.972	32817.51
600.33	32730.74
600.688	32818.64
601.046	32903.84
601.404	33122.59
601.762	33189.48
602.12	33349.02
602.478	33271.29
602.836	33432.86
603.194	33375.24
603.552	33530.49
603.91	33480.32
604.268	33609.36
604.625	33551.5
604.983	34005.5
605.341	33685.06
605.698	33991.04
606.056	34108.78
606.413	34083.24
606.771	34093.86
607.128	34337.7
607.485	34208.66
607.843	34311.26
608.2	34469.45
608.557	34659.27
608.914	34599.61
609.272	34861.3
609.629	34739.95
609.986	35064.69
610.343	34901.98
610.7	35115.53
611.057	35189.43
611.414	35172.93
611.771	35245.47
612.127	35391.46
612.484	35421.51
612.841	35605.24
613.198	35533.6
613.554	35609.08
613.911	35770.88
614.267	35763.42
614.624	35746.48
614.98	35887.04
615.337	36120.25
615.693	35988.95
616.05	36075.51
616.406	36236.18
616.762	36154.37
617.118	36140.82
617.475	36174.94
617.831	36419.23
618.187	36368.15
618.543	36557.53
618.899	36684.08
619.255	36737.18
619.611	36680.69
619.967	36806.56
620.323	36897.86
620.678	36861.7
621.034	36705.09
621.39	36737.41
621.746	36830.29
622.101	37258.3
622.457	36900.57
622.812	37137.85
623.168	37145.76
623.523	37219.88
623.879	37382.36
624.234	36999.32
624.589	37314.57
624.945	37236.61
625.3	37398.86
625.655	37356.15
626.01	37311.41
626.365	37278.19
626.72	37343.5
627.075	37397.96
627.43	37520.44
627.785	37260.79
628.14	37449.03
628.495	37575.13
628.85	37463.94
629.205	37397.28
629.559	37614
629.914	37263.95
630.269	37424.85
630.623	37387.56
630.978	37381.46
631.332	37512.3
631.687	37455.13
632.041	37468.69
632.396	37478.41
632.75	37299.43
633.104	37502.14
633.459	37196.61
633.813	37196.38
634.167	37373.78
634.521	37346.21
634.875	37432.31
635.229	37225.98
635.583	37185.31
635.937	37117.51
636.291	37235.93
636.645	37211.75
636.999	37167.91
637.352	37118.42
637.706	36968.59
638.06	37144.63
638.413	37103.05
638.767	36994.58
639.121	37036.38
639.474	36769.73
639.828	36851.76
640.181	36851.76
640.534	36886.78
640.888	36848.14
641.241	36595.72
641.594	36851.31
641.947	36812.44
642.301	36714.81
642.654	36733.79
643.007	36720.69
643.36	36749.16
643.713	36737.64
644.066	36855.37
644.419	36574.02
644.771	36313.24
645.124	36148.5
645.477	36021.95
645.83	35802.07
646.182	35706.02
646.535	35556.65
646.888	35659.7
647.24	35417.9
647.593	35649.98
647.945	35597.33
648.298	35501.74
648.65	35332.7
649.002	35116.44
649.355	35454.51
649.707	35232.36
650.059	35468.97
650.411	35924.32
650.763	35957.32
651.115	36244.77
651.467	36269.4
651.819	36115.05
652.171	36090.87
652.523	36026.02
652.875	36075.28
653.227	35909.63
653.578	36329.28
653.93	35984.89
654.282	35899.24
654.633	35798.68
654.985	35861.73
655.337	35884.78
655.688	35847.94
656.039	36037.54
656.391	35729.07
656.742	35789.64
657.094	35685.01
657.445	35946.02
657.796	35878.68
658.147	35759.58
658.498	35754.38
658.849	35825.12
659.2	35767.27
659.551	35596.2
659.902	35746.02
660.253	35624.9
660.604	35859.24
660.955	35507.16
661.306	35736.76
661.656	35595.29
662.007	35628.29
662.358	35553.26
662.708	35627.61
663.059	35586.25
663.409	35333.6
663.76	35667.61
664.11	35726.59
664.461	35682.97
664.811	35680.26
665.161	35492.24
665.511	35533.83
665.862	35607.95
666.212	35583.09
666.562	35664.22
666.912	35565.46
667.262	35494.96
667.612	35624.22
667.962	35592.13
668.312	35444.34
668.662	35718
669.011	35527.27
669.361	35431.23
669.711	35504.9
670.06	35483.21
670.41	35297.67
670.76	35394.62
671.109	35508.97
671.459	35278.24
671.808	35227.62
672.157	35480.49
672.507	35272.14
672.856	35191.46
673.205	35292.48
673.554	35508.97
673.904	35041.64
674.253	35531.34
674.602	35228.75
674.951	34843.67
675.3	34647.3
675.649	35170.9
675.998	35163.67
676.346	35243.89
676.695	35341.51
677.044	34972.03
677.393	35122.76
677.741	35217.22
678.09	35094.74
678.438	34996.44
678.787	35070.56
679.135	34933.62
679.484	34863.33
679.832	34940.39
680.181	34784.24
680.529	34811.13
680.877	34666.05
681.225	34699.5
681.573	34834.86
681.922	34676.22
682.27	34604.13
682.618	34415.66
682.966	34456.34
683.314	34496.11
683.661	34410.69
684.009	34272.39
684.357	34196.23
684.705	34032.4
685.053	34083.47
685.4	34111.49
685.748	33926.86
686.095	33891.61
686.443	33753.31
686.79	33829.69
687.138	33948.1
687.485	33931.61
687.832	33603.71
688.18	33866.75
688.527	33558.74
688.874	33696.36
689.221	33582.92
689.568	33515.12
689.915	33391.96
690.262	33356.03
690.609	33354.67
690.956	33219.76
691.303	33172.31
691.65	32953.55
691.997	33041.46
692.344	32853.67
692.69	32841.47
693.037	32693.45
693.383	32542.94
693.73	32660
694.077	32451.19
694.423	32358.77
694.769	32342.95
695.116	32348.15
695.462	32159.9
695.808	32027.48
696.155	32358.77
696.501	31955.16
696.847	31937.99
697.193	31565.79
697.539	31878.55
697.885	31660.03
698.231	31468.85
698.577	31655.06
698.923	31368.29
699.269	31281.06
699.614	31176.2
699.96	31241.51
700.306	31155.18
700.651	31006.49
700.997	30916.32
701.342	30821.86
701.688	30851.46
702.033	30831.8
702.379	30780.28
702.724	30612.83
703.069	30761.52
703.415	30350.69
703.76	30288.54
704.105	30314.53
704.45	30162.67
704.795	30063.01
705.14	30033.18
705.485	29929
705.83	29879.96
706.175	29985.72
706.52	29850.13
706.865	29568.56
707.209	29769.23
707.554	29579.86
707.899	29649.46
708.243	29494.89
708.588	29311.39
708.932	29202.01
709.277	29156.59
709.621	29201.34
709.966	29013.32
710.31	29080.66
710.654	28764.06
710.998	28890.16
711.342	28859.42
711.687	28653.55
712.031	28717.28
712.375	28517.96
712.719	28679.54
713.063	28557.29
713.407	28682.03
713.75	28573.1
714.094	28480.23
714.438	28363.39
714.782	28423.05
715.125	28254.02
715.469	28296.5
715.812	28117.52
716.156	28108.48
716.499	28096.28
716.843	28042.72
717.186	27916.17
717.53	28005.21
717.873	28000.01
718.216	27812.22
718.559	27731.32
718.902	27591.66
719.246	27750.3
719.589	27499.46
719.932	27415.39
720.275	27439.8
720.617	27396.64
720.96	27341.05
721.303	27304.66
721.646	27319.13
721.989	27215.4
722.331	27314.38
722.674	27067.83
723.016	27216.3
723.359	27132.24
723.701	27233.48
724.044	26797.78
724.386	26811.57
724.729	26953.94
725.071	26814.73
725.413	26945.35
725.755	26805.02
726.097	26616.55
726.439	26481.18
726.782	26577.22
727.124	26621.07
727.465	26495.87
727.807	26527.51
728.149	26341.98
728.491	26412.48
728.833	26341.75
729.175	26313.95
729.516	26284.8
729.858	26201.87
730.199	26345.82
730.541	26183.11
730.882	26219.27
731.224	26277.8
731.565	26085.03
731.906	26162.09
732.248	26091.14
732.589	25896.34
732.93	25842.33
733.271	25967.75
733.612	25831.26
733.953	25877.58
734.294	25745.61
734.635	25640.75
734.976	25714.65
735.317	25558.04
735.658	25625.61
735.999	25572.28
736.339	25595.1
736.68	25550.81
737.021	25383.81
737.361	25405.5
737.702	25489.12
738.042	25516.46
738.383	25335.9
738.723	25399.63
739.063	25272.85
739.404	25281.21
739.744	25282.8
740.084	25099.52
740.424	25159.18
740.764	25120.99
741.104	25111.05
741.444	25120.99
741.784	24969.36
742.124	24969.81
742.464	24982.92
742.804	24825.41
743.143	25053.88
743.483	24878.29
743.823	24779.76
744.162	24721.23
744.502	24827.21
744.841	24742.02
745.181	24689.14
745.52	24558.52
745.86	24641.91
746.199	24532.53
746.538	24525.75
746.877	24540.22
747.216	24546.32
747.556	24407.56
747.895	24467.9
748.234	24302.93
748.573	24323.95
748.911	24269.26
749.25	24246.66
749.589	24178.42
749.928	24152.66
750.267	24049.61
750.605	24090.96
750.944	24019.33
751.283	23961.7
751.621	24049.38
751.96	23802.16
752.298	23782.04
752.636	23805.32
752.975	23720.58
753.313	23636.51
753.651	23735.94
753.989	23542.05
754.327	23579.34
754.666	23435.39
755.004	23519
755.342	23471.77
755.679	23387.93
756.017	23281.94
756.355	23289.4
756.693	23288.95
757.031	23193.36
757.368	23162.63
