Data from hue_300_FLMS001491_00066.txt Node
Date: Tue Feb 07 15:51:03 GMT 2017
User: dcchb
Spectrometer: FLMS00149
Trigger mode: 0
Integration Time (sec): 2.000000E-2
Scans to average: 10
Electric dark correction enabled: true
Nonlinearity correction enabled: false
Boxcar width: 0
XAxis mode: Wavelengths
Number of Pixels in Spectrum: 2048
>>>>>Begin Spectral Data<<<<<
341.393	-26.92
341.776	-26.92
342.16	-26.92
342.543	-85.45
342.927	-76.86
343.31	-69.63
343.693	-62.85
344.077	-69.63
344.46	-57.2
344.843	-57.88
345.226	-37.32
345.61	-26.24
345.993	-20.14
346.376	-15.62
346.759	15.11
347.142	29.8
347.525	31.38
347.908	68.44
348.291	73.19
348.674	75.68
349.057	122.91
349.44	124.26
349.823	123.81
350.206	139.4
350.588	197.48
350.971	205.84
351.354	215.56
351.737	233.64
352.119	242.23
352.502	254.88
352.884	252.39
353.267	267.08
353.65	270.93
354.032	275.9
354.414	303.92
354.797	292.39
355.179	306.18
355.562	320.19
355.944	324.03
356.326	334.43
356.709	324.48
357.091	315.44
357.473	331.04
357.855	348.44
358.238	331.49
358.62	326.97
359.002	333.97
359.384	336.91
359.766	326.97
360.148	347.08
360.53	326.97
360.912	319.51
361.294	331.94
361.676	330.36
362.057	331.04
362.439	331.71
362.821	319.29
363.203	315.22
363.584	295.11
363.966	315.44
364.348	286.07
364.729	303.01
365.111	322.9
365.493	320.42
365.874	329.68
366.256	315.9
366.637	333.3
367.019	312.73
367.4	312.73
367.781	307.76
368.163	300.08
368.544	310.47
368.925	309.12
369.306	315.22
369.688	303.01
370.069	313.86
370.45	298.95
370.831	303.01
371.212	290.81
371.593	300.98
371.974	324.03
372.355	317.03
372.736	323.35
373.117	299.85
373.498	303.47
373.879	311.38
374.26	293.75
374.641	298.04
375.021	317.48
375.402	318.38
375.783	301.43
376.163	305.73
376.544	325.84
376.925	324.48
377.305	321.77
377.686	331.94
378.066	324.26
378.447	328.78
378.827	319.96
379.208	334.43
379.588	342.11
379.968	337.36
380.349	315.67
380.729	345.73
381.109	322.9
381.489	345.95
381.87	332.17
382.25	333.3
382.63	340.98
383.01	340.3
383.39	335.1
383.77	331.04
384.15	338.72
384.53	329.45
384.91	330.58
385.29	341.21
385.67	347.76
386.049	356.35
386.429	351.37
386.809	346.4
387.189	356.35
387.568	347.31
387.948	358.61
388.328	351.83
388.707	382.11
389.087	361.54
389.466	371.04
389.846	369.68
390.225	355.67
390.605	361.54
390.984	374.2
391.363	362.9
391.743	360.64
392.122	392.28
392.501	385.72
392.881	372.17
393.26	375.1
393.639	359.96
394.018	376.23
394.397	398.61
394.776	385.27
395.155	381.88
395.534	376.91
395.913	393.63
396.292	390.47
396.671	390.47
397.05	390.92
397.429	389.79
397.808	381.2
398.186	411.49
398.565	396.35
398.944	384.14
399.323	407.64
399.701	397.25
400.08	403.58
400.458	408.55
400.837	432.28
401.215	433.18
401.594	422.56
401.972	412.62
402.351	423.92
402.729	449.23
403.107	447.87
403.486	447.64
403.864	436.57
404.242	439.51
404.62	454.2
404.999	461.88
405.377	465.04
405.755	467.08
406.133	463.91
406.511	472.05
406.889	475.67
407.267	464.37
407.645	476.57
408.023	473.63
408.401	502.11
408.779	498.94
409.156	510.01
409.534	488.77
409.912	503.46
410.29	528.55
410.667	545.27
411.045	550.01
411.422	540.97
411.8	538.94
412.178	571.26
412.555	570.58
412.933	547.98
413.31	592.95
413.687	603.57
414.065	614.42
414.442	599.5
414.819	618.94
415.197	612.84
415.574	641.76
415.951	650.35
416.328	651.03
416.705	656.9
417.082	652.38
417.46	684.93
417.837	666.39
418.214	692.38
418.591	686.06
418.967	694.64
419.344	717.24
419.721	724.7
420.098	726.73
420.475	744.36
420.852	739.61
421.228	764.7
421.605	763.34
421.982	760.63
422.358	764.7
422.735	797.92
423.111	791.82
423.488	797.01
423.864	819.61
424.241	817.8
424.617	831.36
424.994	830.01
425.37	848.09
425.746	856.9
426.123	858.71
426.499	856.22
426.875	886.05
427.251	900.06
427.627	903.9
428.003	932.6
428.379	933.28
428.756	934.64
429.132	945.03
429.507	960.4
429.883	964.01
430.259	990.91
430.635	997.46
431.011	999.04
431.387	1034.07
431.763	1046.05
432.138	1039.94
432.514	1047.4
432.89	1094.63
433.265	1060.73
433.641	1092.37
434.016	1099.38
434.392	1115.2
434.767	1154.29
435.143	1155.42
435.518	1150
435.894	1176.66
436.269	1187.29
436.644	1208.3
437.02	1198.58
437.395	1204.23
437.77	1232.03
438.145	1227.96
438.52	1245.81
438.895	1243.33
439.271	1284.68
439.646	1291.46
440.021	1280.16
440.395	1292.82
440.77	1299.15
441.145	1298.24
441.52	1305.25
441.895	1325.36
442.27	1335.76
442.645	1325.36
443.019	1382.08
443.394	1361.74
443.769	1374.85
444.143	1332.14
444.518	1376.88
444.892	1350.44
445.267	1382.31
445.641	1380.05
446.016	1414.85
446.39	1410.1
446.764	1396.09
447.139	1386.15
447.513	1388.64
447.887	1426.37
448.262	1421.18
448.636	1395.19
449.01	1448.52
449.384	1455.75
449.758	1466.37
450.132	1465.24
450.506	1491.01
450.88	1455.53
451.254	1453.72
451.628	1516.54
452.002	1504.79
452.376	1517.45
452.75	1514.73
453.123	1517.22
453.497	1558.35
453.871	1561.51
454.244	1588.4
454.618	1583.88
454.992	1570.78
455.365	1591.57
455.739	1609.19
456.112	1626.14
456.486	1620.95
456.859	1648.97
457.232	1651.91
457.606	1695.97
457.979	1681.51
458.352	1694.84
458.725	1714.28
459.099	1711.57
459.472	1765.58
459.845	1764.22
460.218	1770.32
460.591	1750.43
460.964	1765.35
461.337	1775.07
461.71	1822.52
462.083	1850.54
462.456	1850.09
462.829	1841.05
463.201	1869.98
463.574	1895.52
463.947	1916.76
464.32	1932.8
464.692	1906.81
465.065	1939.36
465.438	1957.89
465.81	1992.24
466.183	2009.86
466.555	1990.88
466.928	2040.82
467.3	2039.92
467.672	2049.86
468.045	2098.22
468.417	2096.19
468.789	2089.18
469.161	2141.16
469.534	2149.75
469.906	2176.86
470.278	2178.22
470.65	2201.95
471.022	2225.9
471.394	2255.28
471.766	2248.73
472.138	2268.16
472.51	2305.9
472.882	2359.68
473.253	2347.48
473.625	2417.76
473.997	2446.46
474.369	2423.41
474.74	2472.68
475.112	2486.91
475.484	2496.4
475.855	2567.36
476.227	2527.81
476.598	2599.45
476.97	2623.63
477.341	2647.13
477.713	2701.14
478.084	2705.44
478.455	2723.52
478.827	2761.26
479.198	2826.34
479.569	2810.07
479.94	2901.36
480.311	2883.29
480.682	2923.74
481.053	2951.98
481.424	3003.51
481.795	3031.53
482.166	3032.21
482.537	3105.43
482.908	3166.67
483.279	3151.75
483.65	3192.43
484.021	3243.5
484.391	3275.14
484.762	3276.27
485.133	3280.56
485.503	3357.62
485.874	3405.53
486.244	3387.91
486.615	3445.76
486.985	3460.22
487.356	3535.02
487.726	3520.11
488.097	3609.82
488.467	3594.45
488.837	3629.48
489.207	3682.13
489.578	3733.66
489.948	3762.81
490.318	3794.45
490.688	3792.19
491.058	3817.72
491.428	3857.27
491.798	3865.41
492.168	3981.34
492.538	3977.27
492.908	3997.38
493.278	4042.8
493.648	4055.23
494.017	4078.51
494.387	4111.28
494.757	4147.66
495.126	4193.76
495.496	4178.17
495.866	4189.92
496.235	4249.8
496.605	4256.36
496.974	4317.6
497.344	4265.17
497.713	4310.37
498.082	4328.45
498.452	4377.94
498.821	4350.37
499.19	4365.73
499.559	4411.61
499.928	4424.26
500.298	4481.66
500.667	4509.91
501.036	4475.79
501.405	4520.98
501.774	4535.67
502.143	4566.41
502.512	4579.96
502.88	4576.8
503.249	4586.97
503.618	4636.23
503.987	4636.01
504.356	4652.5
504.724	4683.24
505.093	4675.33
505.462	4663.35
505.83	4722.33
506.199	4723.92
506.567	4766.17
506.936	4744.03
507.304	4833.52
507.672	4871.48
508.041	4871.03
508.409	4904.48
508.777	4902.67
509.145	4943.12
509.514	4932.27
509.882	4937.7
510.25	4920.29
510.618	4963.23
510.986	5022.21
511.354	5006.17
511.722	5083
512.09	5119.39
512.458	5076.9
512.826	5094.08
513.193	5138.37
513.561	5127.52
513.929	5167.97
514.297	5173.85
514.664	5177.01
515.032	5201.64
515.4	5234.41
515.767	5255.88
516.135	5197.12
516.502	5230.57
516.869	5307.85
517.237	5294.07
517.604	5271.02
517.972	5334.29
518.339	5364.12
518.706	5364.58
519.073	5408.64
519.44	5402.32
519.808	5419.94
520.175	5382.88
520.542	5447.74
520.909	5472.6
521.276	5454.74
521.643	5545.59
522.009	5512.82
522.376	5527.74
522.743	5600.95
523.11	5582.42
523.477	5679.82
523.843	5683.66
524.21	5684.34
524.577	5743.32
524.943	5772.48
525.31	5756.43
525.676	5861.29
526.043	5873.49
526.409	5905.81
526.776	5902.19
527.142	5905.58
527.508	5967.95
527.874	5990.1
528.241	5996.2
528.607	6033.49
528.973	6059.7
529.339	6098.79
529.705	6132.47
530.071	6173.37
530.437	6205.23
530.803	6164.56
531.169	6256.08
531.535	6293.82
531.901	6266.93
532.267	6296.98
532.632	6376.98
532.998	6372.46
533.364	6398.22
533.73	6413.36
534.095	6451.55
534.461	6480.48
534.826	6555.51
535.192	6551.21
535.557	6626.01
535.923	6501.72
536.288	6629.18
536.653	6600.48
537.019	6583.3
537.384	6661.04
537.749	6684.54
538.114	6685.67
538.479	6758.89
538.845	6747.36
539.21	6689.06
539.575	6769.06
539.94	6868.27
540.305	6851.99
540.67	6872.56
541.034	6901.26
541.399	6923.18
541.764	6974.03
542.129	6993.23
542.494	6985.55
542.858	7022.84
543.223	7043.18
543.587	7122.04
543.952	7096.28
544.316	7184.19
544.681	7113.23
545.045	7207.24
545.41	7281.81
545.774	7257.63
546.138	7247.01
546.503	7274.58
546.867	7338.08
547.231	7319.78
547.595	7394.35
547.959	7384.41
548.324	7396.61
548.688	7434.35
549.052	7425.77
549.416	7515.48
549.779	7496.95
550.143	7529.49
550.507	7604.29
550.871	7625.08
551.235	7527.23
551.599	7670.28
551.962	7684.06
552.326	7689.26
552.689	7719.32
553.053	7673.67
553.417	7745.76
553.78	7801.12
554.143	7792.76
554.507	7832.53
554.87	7885.41
555.234	7864.17
555.597	7857.39
555.96	7910.5
556.323	7951.85
556.686	7964.28
557.05	7983.72
557.413	8036.82
557.776	8012.19
558.139	8078.63
558.502	8051.96
558.865	8089.93
559.228	8146.2
559.59	8135.35
559.953	8205.63
560.316	8243.14
560.679	8312.3
561.041	8301.67
561.404	8359.98
561.767	8397.49
562.129	8370.6
562.492	8427.77
562.854	8415.8
563.217	8426.87
563.579	8430.94
563.941	8487.66
564.304	8558.39
564.666	8515.23
565.028	8559.75
565.39	8598.16
565.753	8644.26
566.115	8657.82
566.477	8651.27
566.839	8683.59
567.201	8760.19
567.563	8762.45
567.925	8822.34
568.287	8839.74
568.648	8860.08
569.01	8886.29
569.372	8950.02
569.734	9001.54
570.095	9040.86
570.457	9108.88
570.819	9072.95
571.18	9068.43
571.542	9183.46
571.903	9212.38
572.265	9272.04
572.626	9288.54
572.987	9317.92
573.349	9358.37
573.71	9402.44
574.071	9521.53
574.432	9531.7
574.794	9646.27
575.155	9592.26
575.516	9657.12
575.877	9764.23
576.238	9797.23
576.599	9924.23
576.96	9970.56
577.32	10064.34
577.681	10172.36
578.042	10339.13
578.403	10289.64
578.763	10387.5
579.124	10580.03
579.485	10681.27
579.845	10659.8
580.206	10815.73
580.566	10940.02
580.927	11027.7
581.287	11218.21
581.648	11336.62
582.008	11538.43
582.368	11617.07
582.728	11867
583.089	12008.92
583.449	12127.34
583.809	12303.83
584.169	12423.83
584.529	12634.22
584.889	12871.27
585.249	13003.02
585.609	13190.59
585.969	13447.98
586.329	13682.1
586.688	13944.01
587.048	14085.93
587.408	14302.19
587.768	14477.11
588.127	14785.8
588.487	15015.85
588.846	15388.95
589.206	15503.07
589.565	15775.6
589.925	16089.04
590.284	16288.58
590.643	16712.98
591.003	16962.69
591.362	17213.08
591.721	17466.86
592.08	17674.99
592.44	18095.54
592.799	18375.31
593.158	18599.03
593.517	18837.44
593.876	19202.18
594.235	19498.89
594.593	19768.04
594.952	19975.27
595.311	20271.53
595.67	20661.35
596.029	21086.2
596.387	21377.94
596.746	21635.34
597.104	21834.43
597.463	22105.61
597.822	22494.3
598.18	22721.63
598.538	23108.06
598.897	23470.09
599.255	23499.24
599.613	24035.95
599.972	24208.15
600.33	24623.73
600.688	24644.75
601.046	25127.22
601.404	25477.49
601.762	25685.85
602.12	25994.77
602.478	26276.34
602.836	26528.31
603.194	26647.18
603.552	27052.14
603.91	27140.95
604.268	27518.8
604.625	27641.73
604.983	27972.8
605.341	28193.58
605.698	28427.47
606.056	28815.03
606.413	28963.28
606.771	29188.36
607.128	29522.59
607.485	29530.95
607.843	29691.39
608.2	30124.83
608.557	30485.5
608.914	30572.05
609.272	30833.96
609.629	31070.57
609.986	31368.86
610.343	31383.78
610.7	31969.3
611.057	32068.06
611.414	32257.43
611.771	32309.86
612.127	32682.28
612.484	32923.63
612.841	33046.11
613.198	33060.35
613.554	33205.65
613.911	33572.65
614.267	33714.79
614.624	33924.28
614.98	34024.61
615.337	34437.48
615.693	34415.34
616.05	34347.77
616.406	34732.62
616.762	34919.05
617.118	34997.47
617.475	35014.42
617.831	35295.31
618.187	35436.1
618.543	35434.75
618.899	35766.71
619.255	35772.14
619.611	35817.56
619.967	36173.94
620.323	36232.24
620.678	36266.59
621.034	36462.06
621.39	36468.17
621.746	36518.33
622.101	36941.37
622.457	36870.87
622.812	37103.63
623.168	37141.59
623.523	37188.82
623.879	37318.76
624.234	37211.65
624.589	37459.55
624.945	37626.78
625.3	37677.85
625.655	37694.57
626.01	37748.36
626.365	37894.57
626.72	37782.93
627.075	37880.78
627.43	37895.92
627.785	37903.61
628.14	37957.84
628.495	38190.83
628.85	38160.55
629.205	38027.9
629.559	38445.51
629.914	38113.55
630.269	38435.57
630.623	38401.67
630.978	38191.51
631.332	38363.03
631.687	38594.21
632.041	38345.18
632.396	38487.1
632.75	38474.67
633.104	38539.3
633.459	38349.7
633.813	38398.96
634.167	38342.24
634.521	38549.24
634.875	38542.69
635.229	38552.63
635.583	38383.6
635.937	38490.94
636.291	38386.99
636.645	38605.28
636.999	38532.29
637.352	38410.49
637.706	38395.8
638.06	38571.16
638.413	38483.03
638.767	38400.09
639.121	38522.57
639.474	38242.58
639.828	38387.21
640.181	38444.84
640.534	38447.55
640.888	38289.36
641.241	38318.06
641.594	38377.49
641.947	38310.83
642.301	38225.63
642.654	38414.78
643.007	38381.11
643.36	38249.59
643.713	38233.77
644.066	38348.12
644.419	38137.05
644.771	38073.77
645.124	37709.26
645.477	37699.55
645.83	37486.44
646.182	37367.8
646.535	37119.22
646.888	37328.48
647.24	37234.7
647.593	37300.01
647.945	37333.23
648.298	37107.02
648.65	37231.31
649.002	37104.76
649.355	37197.64
649.707	37064.08
650.059	37266.56
650.411	37717.62
650.763	37794.46
651.115	38104.28
651.467	37979.76
651.819	38148.57
652.171	37983.61
652.523	37988.13
652.875	37887.11
653.227	37867
653.578	37997.39
653.93	37945.87
654.282	37824.97
654.633	37736.61
654.985	37779.09
655.337	37865.19
655.688	37890.73
656.039	37914.23
656.391	37697.06
656.742	37715.36
657.094	37785.87
657.445	37895.92
657.796	37753.56
658.147	37717.62
658.498	37738.64
658.849	37838.75
659.2	37749.94
659.551	37641.24
659.902	37784.74
660.253	37556.27
660.604	37788.13
660.955	37658.19
661.306	37751.07
661.656	37717.4
662.007	37738.64
662.358	37759.88
662.708	37606.67
663.059	37776.15
663.409	37475.6
663.76	37580
664.11	37572.77
664.461	37791.97
664.811	37796.49
665.161	37669.04
665.511	37573.45
665.862	37543.39
666.212	37613.9
666.562	37621.36
666.912	37682.37
667.262	37546.78
667.612	37580.68
667.962	37696.38
668.312	37579.1
668.662	37840.33
669.011	37601.24
669.361	37572.09
669.711	37584.07
670.06	37500.68
670.41	37456.16
670.76	37459.78
671.109	37507.69
671.459	37509.04
671.808	37450.29
672.157	37493.68
672.507	37175.49
672.856	37359.44
673.205	37345.2
673.554	37492.32
673.904	37193.12
674.253	37514.92
674.602	37353.34
674.951	36847.14
675.3	36600.59
675.649	37321.02
675.998	37210.52
676.346	37107.47
676.695	37269.73
677.044	36986.34
677.393	37243.74
677.741	37259.78
678.09	37187.47
678.438	37129.84
678.787	37096.62
679.135	37120.8
679.484	36781.83
679.832	36958.1
680.181	36851.88
680.529	36912
680.877	36832.68
681.225	36754.71
681.573	36914.71
681.922	36666.8
682.27	36453.48
682.618	36532.12
682.966	36545
683.314	36576.86
683.661	36440.6
684.009	36331.45
684.357	36210.77
684.705	36197.89
685.053	36151.56
685.4	36276.08
685.748	36016.65
686.095	35985.01
686.443	35965.58
686.79	35870.44
687.138	35928.07
687.485	35747.51
687.832	35726.94
688.18	35674.06
688.527	35658.02
688.874	35594.97
689.221	35453.5
689.568	35399.27
689.915	35281.53
690.262	35292.83
690.609	35102.55
690.956	34968.54
691.303	35082.67
691.65	34885.16
691.997	35053.51
692.344	34639.06
692.69	34719.51
693.037	34705.73
693.383	34313.19
693.73	34687.2
694.077	34352.06
694.423	34479.74
694.769	34153.2
695.116	34054.9
695.462	34123.14
695.808	34064.16
696.155	34004.05
696.501	33896.03
696.847	33835.01
697.193	33546.89
697.539	33696.94
697.885	33377.4
698.231	33359.77
698.577	33279.77
698.923	33341.92
699.269	33076.62
699.614	33028.71
699.96	32877.07
700.306	32891.99
700.651	32840.92
700.997	32801.82
701.342	32645.67
701.688	32602.73
702.033	32487.03
702.379	32484.32
702.724	32396.18
703.069	32451.55
703.415	32034.84
703.76	32046.81
704.105	32129.52
704.45	31901.96
704.795	31789.19
705.14	31814.95
705.485	31779.7
705.83	31548.07
706.175	31595.98
706.52	31610.67
706.865	31541.97
707.209	31377.9
707.554	31308.3
707.899	31395.53
708.243	31085.93
708.588	31138.36
708.932	30920.74
709.277	30976.33
709.621	30938.59
709.966	30860.18
710.31	30921.19
710.654	30529.56
710.998	30594.65
711.342	30619.28
711.687	30518.27
712.031	30382.45
712.375	30327.76
712.719	30414.54
713.063	30241.21
713.407	30281.44
713.75	30204.15
714.094	30032.18
714.438	29934.78
714.782	30112.85
715.125	29906.08
715.469	30015.45
715.812	29763.71
716.156	29742.92
716.499	29606.2
716.843	29697.5
717.186	29498.86
717.53	29522.36
717.873	29536.37
718.216	29483.04
718.559	29442.59
718.902	29053.22
719.246	29281.01
719.589	29116.72
719.932	29004.41
720.275	29104.07
720.617	29067.91
720.96	29032.2
721.303	29055.7
721.646	28981.13
721.989	28762.15
722.331	28899.1
722.674	28895.94
723.016	28763.74
723.359	28709.05
723.701	28750.85
724.044	28506.57
724.386	28433.8
724.729	28517.19
725.071	28454.59
725.413	28449.17
725.755	28355.84
726.097	28292.79
726.439	28184.09
726.782	28174.15
727.124	28318.32
727.465	28127.59
727.807	28192.9
728.149	28079.23
728.491	28043.3
728.833	28226.57
729.175	27872.23
729.516	27900.48
729.858	27928.5
730.199	27798.34
730.541	27878.33
730.882	27815.06
731.224	27734.84
731.565	27678.79
731.906	27681.96
732.248	27633.6
732.589	27549.98
732.93	27456.42
733.271	27522.41
733.612	27562.18
733.953	27521.73
734.294	27293.72
734.635	27289.42
734.976	27348.86
735.317	27270.44
735.658	27251.23
735.999	27359.93
736.339	27184.12
736.68	27234.06
737.021	27149.09
737.361	27005.14
737.702	27250.1
738.042	27144.12
738.383	27063.67
738.723	27054.4
739.063	27039.03
739.404	27046.72
739.744	26886.5
740.084	26856.21
740.424	26948.87
740.764	26768.53
741.104	26935.76
741.444	26705.48
741.784	26566.05
742.124	26632.27
742.464	26642.66
742.804	26650.34
743.143	26517.92
743.483	26538.71
743.823	26363.12
744.162	26359.05
744.502	26570.8
744.841	26278.15
745.181	26418.03
745.52	26343.69
745.86	26494.42
746.199	26161.54
746.538	26314.53
746.877	26281.99
747.216	26258.04
747.556	26113.86
747.895	26260.3
748.234	26092.84
748.573	26144.82
748.911	26096.69
749.25	26121.77
749.589	26056.01
749.928	26010.14
750.267	26045.61
750.605	25970.81
750.944	25943.24
751.283	25850.37
751.621	25996.35
751.96	25728.11
752.298	25736.24
752.636	25788.9
752.975	25740.09
753.313	25501.45
753.651	25602.69
753.989	25540.32
754.327	25582.58
754.666	25441.34
755.004	25444.73
755.342	25541
755.679	25465.74
756.017	25348.68
756.355	25444.27
756.693	25272.53
757.031	25384.39
757.368	25236.6
757.706	25077.96
758.044	25119.09
758.381	25153.21
758.719	24982.82
759.056	25129.93
