Data from hue_50_FLMS001491_55.txt Node
Date: Mon Feb 06 15:10:32 GMT 2017
User: dcchb
Spectrometer: FLMS00149
Trigger mode: 0
Integration Time (sec): 2.000000E-2
Scans to average: 10
Electric dark correction enabled: true
Nonlinearity correction enabled: false
Boxcar width: 0
XAxis mode: Wavelengths
Number of Pixels in Spectrum: 2048
>>>>>Begin Spectral Data<<<<<
341.393	-5.52
341.776	-5.52
342.16	-5.52
342.543	-62.7
342.927	-60.21
343.31	-70.38
343.693	-71.28
344.077	-51.85
344.46	-36.26
344.843	-61.79
345.226	-48.46
345.61	-46.43
345.993	-24.51
346.376	0.58
346.759	20.69
347.142	18.66
347.525	27.7
347.908	48.49
348.291	83.29
348.674	87.13
349.057	124.42
349.44	129.39
349.823	140.01
350.206	163.06
350.588	173.68
350.971	218.43
351.354	231.31
351.737	237.18
352.119	264.75
352.502	269.5
352.884	278.09
353.267	300.91
353.65	296.16
354.032	305.66
354.414	312.44
354.797	304.75
355.179	307.92
355.562	320.57
355.944	326.67
356.326	338.65
356.709	345.2
357.091	329.16
357.473	346.11
357.855	331.19
358.238	361.47
358.62	341.81
359.002	346.11
359.384	352.21
359.766	332.1
360.148	328.25
360.53	336.39
360.912	333.23
361.294	335.03
361.676	337.97
362.057	336.62
362.439	337.97
362.821	318.76
363.203	337.97
363.584	329.38
363.966	322.15
364.348	329.16
364.729	322.15
365.111	312.44
365.493	296.16
365.874	315.6
366.256	329.84
366.637	307.92
367.019	345.43
367.4	310.4
367.781	314.7
368.163	318.76
368.544	318.76
368.925	328.48
369.306	306.11
369.688	327.58
370.069	312.89
370.45	307.01
370.831	325.09
371.212	318.76
371.593	315.83
371.974	310.4
372.355	341.81
372.736	321.47
373.117	283.74
373.498	319.67
373.879	305.43
374.26	333.68
374.641	296.16
375.021	314.92
375.402	301.81
375.783	318.54
376.163	346.56
376.544	339.78
376.925	308.37
377.305	315.6
377.686	327.58
378.066	325.99
378.447	345.43
378.827	339.33
379.208	328.25
379.588	335.71
379.968	323.28
380.349	305.2
380.729	331.64
381.109	321.02
381.489	330.74
381.87	325.32
382.25	343.17
382.63	335.49
383.01	344.75
383.39	354.69
383.77	362.6
384.15	340.01
384.53	341.59
384.91	364.64
385.29	335.94
385.67	346.33
386.049	360.12
386.429	335.71
386.809	349.72
387.189	359.21
387.568	332.1
387.948	323.73
388.328	354.02
388.707	359.67
389.087	351.08
389.466	367.35
389.846	352.21
390.225	348.37
390.605	364.19
390.984	354.47
391.363	364.19
391.743	382.94
392.122	348.82
392.501	347.24
392.881	373.68
393.26	345.43
393.639	365.09
394.018	358.08
394.397	362.83
394.776	376.61
395.155	370.74
395.534	356.95
395.913	351.98
396.292	376.61
396.671	358.54
397.05	374.58
397.429	356.73
397.808	374.81
398.186	356.28
398.565	383.62
398.944	394.47
399.323	379.1
399.701	369.16
400.08	391.53
400.458	373.9
400.837	382.49
401.215	389.27
401.594	382.94
401.972	383.85
402.351	386.56
402.729	403.73
403.107	406.44
403.486	391.76
403.864	403.05
404.242	406.44
404.62	420.68
404.999	391.08
405.377	401.25
405.755	390.85
406.133	403.96
406.511	400.12
406.889	398.31
407.267	413.22
407.645	419.1
408.023	401.25
408.401	415.94
408.779	424.07
409.156	419.1
409.534	415.71
409.912	414.35
410.29	431.53
410.667	439.66
411.045	421.58
411.422	445.99
411.8	401.92
412.178	455.26
412.555	438.76
412.933	434.69
413.31	437.18
413.687	449.38
414.065	444.64
414.442	435.37
414.819	443.96
415.197	469.27
415.574	465.2
415.951	455.03
416.328	460.23
416.705	457.74
417.082	463.17
417.46	459.32
417.837	490.96
418.214	477.4
418.591	502.26
418.967	472.66
419.344	478.53
419.721	477.18
420.098	476.95
420.475	468.36
420.852	494.8
421.228	487.35
421.605	478.08
421.982	489.61
422.358	482.15
422.735	509.72
423.111	497.97
423.488	508.14
423.864	497.06
424.241	505.42
424.617	503.39
424.994	517.18
425.37	489.38
425.746	535.48
426.123	522.6
426.499	527.57
426.875	514.69
427.251	556.5
427.627	571.86
428.003	546.1
428.379	551.98
428.756	561.47
429.132	557.17
429.507	534.58
429.883	552.88
430.259	550.62
430.635	540.23
431.011	566.21
431.387	552.43
431.763	590.39
432.138	578.42
432.514	585.42
432.89	586.78
433.265	603.5
433.641	570.96
434.016	607.79
434.392	620.45
434.767	605.76
435.143	601.02
435.518	623.61
435.894	622.71
436.269	621.58
436.644	629.04
437.02	650.28
437.395	614.35
437.77	637.4
438.145	658.41
438.52	653.67
438.895	650.05
439.271	634.23
439.646	667.45
440.021	663.84
440.395	660.22
440.77	689.6
441.145	676.95
441.52	697.06
441.895	666.55
442.27	695.25
442.645	694.35
443.019	685.53
443.394	712.2
443.769	681.92
444.143	673.56
444.518	708.36
444.892	721.69
445.267	704.52
445.641	708.58
446.016	709.26
446.39	734.8
446.764	731.18
447.139	751.97
447.513	725.08
447.887	750.39
448.262	726.44
448.636	724.18
449.01	735.7
449.384	745.19
449.758	752.65
450.132	765.53
450.506	771.63
450.88	762.37
451.254	775.02
451.628	764.4
452.002	777.06
452.376	780.67
452.75	798.75
453.123	783.16
453.497	797.85
453.871	811.41
454.244	805.98
454.618	833.33
454.992	828.35
455.365	840.33
455.739	854.79
456.112	861.12
456.486	850.27
456.859	870.84
457.232	885.53
457.606	882.82
457.979	874
458.352	902.93
458.725	894.57
459.099	918.97
459.472	949.93
459.845	944.06
460.218	932.98
460.591	948.8
460.964	958.52
461.337	970.5
461.71	988.8
462.083	1015.02
462.456	998.07
462.829	1005.75
463.201	1021.12
463.574	1052.53
463.947	1036.94
464.32	1072.19
464.692	1051.62
465.065	1088.46
465.438	1098.63
465.81	1137.05
466.183	1128.91
466.555	1172.98
466.928	1161.9
467.3	1168.46
467.672	1209.36
468.045	1192.86
468.417	1228.8
468.789	1236.25
469.161	1265.86
469.534	1262.24
469.906	1300.88
470.278	1320.09
470.65	1353.54
471.022	1382.69
471.394	1363.26
471.766	1405.29
472.138	1438.06
472.51	1497.71
472.882	1498.17
473.253	1517.15
473.625	1545.4
473.997	1595.79
474.369	1627.65
474.74	1668.78
475.112	1674.89
475.484	1735.22
475.855	1749.23
476.227	1798.95
476.598	1888.44
476.97	1916.91
477.341	1955.33
477.713	1983.58
478.084	2039.62
478.455	2144.48
478.827	2145.38
479.198	2246.62
479.569	2261.31
479.94	2386.05
480.311	2409.56
480.682	2514.86
481.053	2551.92
481.424	2630.34
481.795	2685.71
482.166	2750.11
482.537	2798.25
482.908	2895.19
483.279	2995.98
483.65	3088.63
484.021	3185.81
484.391	3251.12
484.762	3358.91
485.133	3422.64
485.503	3519.36
485.874	3610.43
486.244	3703.53
486.615	3835.51
486.985	3912.11
487.356	4028.72
487.726	4087.7
488.097	4242.28
488.467	4299.22
488.837	4467.58
489.207	4559.33
489.578	4677.97
489.948	4834.58
490.318	4949.6
490.688	5018.3
491.058	5154.34
491.428	5305.07
491.798	5414.67
492.168	5557.27
492.538	5665.51
492.908	5777.38
493.278	5920.65
493.648	5999.07
494.017	6169.46
494.387	6296.46
494.757	6382.33
495.126	6509.79
495.496	6623.68
495.866	6777.12
496.235	6862.32
496.605	7006.95
496.974	7097.34
497.344	7211.24
497.713	7321.74
498.082	7467.28
498.452	7629.76
498.821	7671.56
499.19	7870.2
499.559	7879.69
499.928	8096.41
500.298	8206.92
500.667	8304.09
501.036	8392.67
501.405	8483.29
501.774	8572.33
502.143	8707.24
502.512	8798.54
502.88	8937.52
503.249	9054.58
503.618	9156.27
503.987	9242.82
504.356	9291.41
504.724	9518.75
505.093	9519.88
505.462	9658.4
505.83	9777.95
506.199	9918.51
506.567	10008.68
506.936	10022.69
507.304	10205.96
507.672	10203.02
508.041	10339.97
508.409	10489.12
508.777	10595.33
509.145	10720.75
509.514	10770.92
509.882	10863.12
510.25	10857.47
510.618	11014.07
510.986	11122.77
511.354	11330.45
511.722	11360.73
512.09	11480.96
512.458	11535.87
512.826	11703.55
513.193	11709.42
513.561	11870.32
513.929	11931.11
514.297	12068.28
514.664	12096.76
515.032	12239.81
515.4	12372.01
515.767	12408.61
516.135	12503.53
516.502	12471.21
516.869	12762.5
517.237	12773.12
517.604	12796.63
517.972	12969.28
518.339	13092.21
518.706	13162.94
519.073	13205.66
519.44	13309.16
519.808	13417.85
520.175	13428.02
520.542	13643.61
520.909	13710.5
521.276	13780.1
521.643	13902.81
522.009	14049.93
522.376	14135.12
522.743	14248.57
523.11	14358.39
523.477	14459.18
523.843	14569.46
524.21	14765.39
524.577	14893.75
524.943	14930.58
525.31	14994.54
525.676	15217.13
526.043	15245.83
526.409	15327.41
526.776	15453.28
527.142	15456.22
527.508	15606.72
527.874	15750.9
528.241	15851.69
528.607	15887.84
528.973	16087.39
529.339	15996.32
529.705	16348.17
530.071	16404.89
530.437	16410.09
530.803	16574.83
531.169	16618.9
531.535	16609.63
531.901	16636.75
532.267	16839.91
532.632	16944.31
532.998	17029.06
533.364	17096.85
533.73	17112.45
534.095	17225.44
534.461	17342.95
534.826	17411.65
535.192	17470.4
535.557	17656.84
535.923	17683.73
536.288	17717.4
536.653	17843.05
537.019	17735.25
537.384	17917.62
537.749	18057.51
538.114	18173.66
538.479	18066.54
538.845	18173.66
539.21	18191.29
539.575	18247.33
539.94	18219.99
540.305	18465.86
540.67	18420.43
541.034	18583.37
541.399	18556.93
541.764	18683.7
542.129	18697.49
542.494	18819.07
542.858	18883.02
543.223	18977.93
543.587	19011.15
543.952	18996.01
544.316	19088.89
544.681	19132.51
545.045	19292.05
545.41	19316
545.774	19324.82
546.138	19396.91
546.503	19553.51
546.867	19571.82
547.231	19687.97
547.595	19770.68
547.959	19772.26
548.324	19811.58
548.688	19929.32
549.052	19972.71
549.416	20041.18
549.779	20072.37
550.143	20171.35
550.507	20230.78
550.871	20355.98
551.235	20339.93
551.599	20437.78
551.962	20512.36
552.326	20598
552.689	20720.03
553.053	20552.58
553.417	20635.06
553.78	20959.12
554.143	20872.12
554.507	20972.23
554.87	21086.58
555.234	21292
555.597	21069.4
555.96	21187.37
556.323	21359.57
556.686	21387.81
557.05	21531.76
557.413	21550.07
557.776	21731.53
558.139	21676.85
558.502	21896.95
558.865	21879.78
559.228	22043.62
559.59	22098.3
559.953	22074.8
560.316	22397.05
560.679	22311.4
561.041	22602.7
561.404	22533.55
561.767	22756.82
562.129	22662.81
562.492	22879.75
562.854	22986.42
563.217	22769.47
563.579	23081.33
563.941	23195.22
564.304	23270.93
564.666	23406.52
565.028	23414.88
565.39	23629.79
565.753	23740.07
566.115	23784.59
566.477	23904.58
566.839	23862.78
567.201	24095.76
567.563	24221.86
567.925	24276.55
568.287	24095.54
568.648	24373.27
569.01	24394.74
569.372	24676.31
569.734	24461.86
570.095	24707.5
570.457	24870.66
570.819	24942.07
571.18	24976.87
571.542	25194.72
571.903	25290.54
572.265	25310.2
572.626	25413.24
572.987	25526.46
573.349	25512.9
573.71	25624.09
574.071	25614.14
574.432	25872.67
574.794	25911.31
575.155	26000.8
575.516	25940.46
575.877	26125.09
576.238	26249.38
576.599	26339.1
576.96	26397.63
577.32	26443.5
577.681	26544.74
578.042	26790.16
578.403	26773.43
578.763	26831.51
579.124	26886.88
579.485	26985.86
579.845	27317.6
580.206	27203.03
580.566	27258.17
580.927	27309.01
581.287	27652.73
581.648	27540.19
582.008	27724.37
582.368	27724.82
582.728	27836.68
583.089	27885.5
583.449	28075.1
583.809	28094.53
584.169	28270.8
584.529	28248.65
584.889	28494.97
585.249	28542.65
585.609	28431.24
585.969	28780.84
586.329	28660.39
586.688	28911.01
587.048	28941.96
587.408	28908.07
587.768	29097.67
588.127	29077.78
588.487	29202.98
588.846	29534.94
589.206	29409.75
589.565	29627.14
589.925	29827.82
590.284	29794.6
590.643	29944.88
591.003	30009.28
591.362	30228.26
591.721	30218.99
592.08	30352.78
592.44	30440.68
592.799	30441.59
593.158	30632.54
593.517	30795.48
593.876	30875.7
594.235	30792.99
594.593	30981.01
594.952	31101.68
595.311	31118.18
595.67	31296.71
596.029	31417.61
596.387	31479.53
596.746	31651.27
597.104	31528.79
597.463	31618.28
597.822	31750.48
598.18	31684.27
598.538	31863.02
598.897	32139.85
599.255	31807.2
599.613	32392.95
599.972	32168.09
600.33	32317.24
600.688	32286.28
601.046	32549.1
601.404	32786.84
601.762	32609.89
602.12	32956.77
602.478	32912.71
602.836	32987.51
603.194	33048.3
603.552	33031.57
603.91	33009.65
604.268	33359.25
604.625	33113.38
604.983	33342.75
605.341	33262.3
605.698	33411.23
606.056	33582.75
606.413	33623.2
606.771	33700.94
607.128	33827.26
607.485	33721.27
607.843	33750.65
608.2	34086.46
608.557	34177.08
608.914	34035.16
609.272	34236.29
609.629	34280.58
609.986	34453.68
610.343	34368.49
610.7	34701.59
611.057	34610.74
611.414	34719.89
611.771	34716.28
612.127	34972.09
612.484	35007.34
612.841	35123.5
613.198	34957.85
613.554	34997.85
613.911	35281.69
614.267	35259.76
614.624	35330.95
614.98	35315.13
615.337	35600.77
615.693	35587.67
616.05	35494.79
616.406	35774.55
616.762	35729.36
617.118	35725.29
617.475	35645.07
617.831	35794.21
618.187	35936.36
618.543	35996.92
618.899	36115.34
619.255	36219.74
619.611	36136.13
619.967	36388.77
620.323	36334.76
620.678	36325.73
621.034	36213.41
621.39	36252.96
621.746	36218.61
622.101	36574.31
622.457	36308.1
622.812	36416.12
623.168	36642.33
623.523	36552.61
623.879	36572.72
624.234	36433.97
624.589	36637.81
624.945	36788.54
625.3	36932.04
625.655	36770.23
626.01	36792.61
626.365	36817.69
626.72	36852.94
627.075	36781.31
627.43	36892.94
627.785	36703.57
628.14	36890.46
628.495	36889.55
628.85	36755.09
629.205	36693.17
629.559	37083.67
629.914	36841.64
630.269	36868.54
630.623	37028.53
630.978	36735.43
631.332	37024.92
631.687	37011.58
632.041	36791.7
632.396	36889.55
632.75	36779.27
633.104	36908.31
633.459	36725.72
633.813	36713.51
634.167	36630.35
634.521	36773.17
634.875	36861.3
635.229	36720.97
635.583	36606.62
635.937	36547.41
636.291	36571.37
636.645	36611.37
636.999	36537.47
637.352	36647.3
637.706	36444.37
638.06	36716.22
638.413	36553.52
638.767	36479.85
639.121	36602.78
639.474	36313.75
639.828	36272.62
640.181	36405.05
640.534	36340.64
640.888	36362.79
641.241	36246.86
641.594	36392.39
641.947	36293.18
642.301	36203.24
642.654	36260.19
643.007	36316.91
643.36	36130.25
643.713	36087.31
644.066	36250.25
644.419	36103.13
644.771	35710.15
645.124	35480.55
645.477	35493.88
645.83	35296.37
646.182	35111.52
646.535	34975.03
646.888	35052.54
647.24	34962.37
647.593	35039.66
647.945	35013.9
648.298	34824.52
648.65	34856.61
649.002	34798.53
649.355	34839.44
649.707	34811.64
650.059	34955.14
650.411	35391.29
650.763	35315.36
651.115	35760.99
651.467	35552.19
651.819	35540.89
652.171	35591.28
652.523	35370.95
652.875	35578.63
653.227	35484.62
653.578	35512.87
653.93	35532.3
654.282	35419.08
654.633	35365.98
654.985	35325.07
655.337	35438.07
655.688	35425.18
656.039	35455.24
656.391	35134.34
656.742	35213.66
657.094	35258.18
657.445	35274.68
657.796	35336.15
658.147	35273.1
658.498	35168.02
658.849	35309.71
659.2	35275.36
659.551	35077.85
659.902	35334.79
660.253	35208.01
660.604	35168.92
660.955	35128.02
661.306	35209.82
661.656	34959.21
662.007	35161.91
662.358	35215.25
662.708	35116.49
663.059	35264.06
663.409	34865.43
663.76	35165.08
664.11	35184.06
664.461	35212.53
664.811	35237.84
665.161	35096.61
665.511	35010.05
665.862	35116.72
666.212	35114.91
666.562	35135.47
666.912	35043.05
667.262	34998.53
667.612	34924.41
667.962	34961.24
668.312	34927.57
668.662	35052.76
669.011	34846.89
669.361	34841.92
669.711	34829.27
670.06	34838.76
670.41	34847.35
670.76	34714.92
671.109	34798.08
671.459	34753.11
671.808	34742.04
672.157	34813.9
672.507	34718.08
672.856	34751.3
673.205	34694.58
673.554	34793.56
673.904	34704.3
674.253	34828.14
674.602	34656.62
674.951	34279.9
675.3	34229.06
675.649	34712.21
675.998	34576.17
676.346	34662.94
676.695	34668.82
677.044	34403.74
677.393	34509.05
677.741	34561.7
678.09	34518.77
678.438	34412.1
678.787	34427.02
679.135	34497.75
679.484	34207.36
679.832	34391.31
680.181	34288.49
680.529	34249.62
680.877	34153.58
681.225	34110.19
681.573	34300.47
681.922	34114.48
682.27	34038.78
682.618	34144.99
682.966	33923.75
683.314	34042.4
683.661	33777.32
684.009	33737.77
684.357	33785.23
684.705	33747.94
685.053	33659.36
685.4	33542.07
685.748	33443.32
686.095	33541.84
686.443	33310.66
686.79	33266.15
687.138	33415.52
687.485	33372.13
687.832	33275.41
688.18	33136.43
688.527	33079.26
688.874	33024.34
689.221	32912.26
689.568	32932.59
689.915	32873.61
690.262	32863.67
690.609	32783.67
690.956	32625.48
691.303	32653.28
691.65	32522.66
691.997	32460.97
692.344	32345.27
692.69	32283.57
693.037	32206.06
693.383	32057.36
693.73	32212.84
694.077	32070.92
694.423	31984.14
694.769	31931.49
695.116	31704.38
695.462	31768.33
695.808	31637.26
696.155	31683.59
696.501	31461.9
696.847	31429.58
697.193	31192.53
697.539	31346.2
697.885	31111.17
698.231	31092.64
698.577	31084.73
698.923	31083.15
699.269	30802.03
699.614	30705.08
699.96	30603.62
700.306	30590.74
700.651	30544.63
700.997	30477.74
701.342	30370.4
701.688	30312.78
702.033	30281.14
702.379	30244.76
702.724	30090.41
703.069	30163.4
703.415	29882.51
703.76	29901.94
704.105	29802.06
704.45	29844.77
704.795	29498.11
705.14	29502.4
705.485	29547.37
705.83	29348.28
706.175	29423.53
706.52	29420.6
706.865	29141.28
707.209	29147.61
707.554	29062.19
707.899	29122.07
708.243	29035.52
708.588	28949.42
708.932	28651.58
709.277	28711.46
709.621	28824
709.966	28654.97
710.31	28629.66
710.654	28487.51
710.998	28494.29
711.342	28520.28
711.687	28407.97
712.031	28345.14
712.375	28128.65
712.719	28076.45
713.063	28204.81
713.407	28312.15
713.75	28075.32
714.094	28200.06
714.438	27933.18
714.782	27936.57
715.125	27718.49
715.469	27961.88
715.812	27770.92
716.156	27557.37
716.499	27636.69
716.843	27624.03
717.186	27500.87
717.53	27581.32
717.873	27504.26
718.216	27365.74
718.559	27316.92
718.902	27280.99
719.246	27232.18
719.589	27191.05
719.932	26951.28
720.275	27100.88
720.617	27036.7
720.96	27073.99
721.303	26974.33
721.646	26961.68
721.989	26958.97
722.331	26890.49
722.674	26690.5
723.016	26847.78
723.359	26767.33
723.701	26737.96
724.044	26525.08
724.386	26416.38
724.729	26461.58
725.071	26480.33
725.413	26547
725.755	26391.07
726.097	26368.93
726.439	26159.67
726.782	26191.98
727.124	26288.25
727.465	26102.49
727.807	26105.66
728.149	26135.03
728.491	25984.98
728.833	26119.44
729.175	26068.82
729.516	25948.37
729.858	25939.33
730.199	25936.39
730.541	25832.89
730.882	25801.93
731.224	25858.2
731.565	25544.54
731.906	25660.02
732.248	25711.99
732.589	25600.58
732.93	25486.24
733.271	25473.13
733.612	25659.57
733.953	25543.64
734.294	25387.93
734.635	25349.52
734.976	25383.87
735.317	25269.75
735.658	25166.25
735.999	25201.05
736.339	25192.69
736.68	25238.79
737.021	25144.1
737.361	25079.24
737.702	25216.41
738.042	25156.98
738.383	24985.46
738.723	25008.96
739.063	24914.05
739.404	24989.98
739.744	24945.01
740.084	24726.93
740.424	24832.92
740.764	24820.72
741.104	24766.48
741.444	24692.13
741.784	24611.91
742.124	24606.71
742.464	24577.56
742.804	24471.35
743.143	24455.98
743.483	24525.13
743.823	24355.64
744.162	24357
744.502	24407.85
744.841	24238.36
745.181	24394.06
745.52	24238.13
745.86	24252.14
746.199	24239.72
746.538	24159.94
746.877	24164.69
747.216	24309.09
747.556	24175.99
747.895	24125.59
748.234	23981.19
748.573	24011.25
748.911	23913.62
749.25	23850.57
749.589	23863.91
749.928	23779.39
750.267	23887.18
750.605	23810.12
750.944	23765.6
751.283	23605.16
751.621	23673.4
751.96	23529
752.298	23384.82
752.636	23502.11
752.975	23407.87
753.313	23304.37
753.651	23338.27
753.989	23238.61
754.327	23270.48
754.666	23135.34
755.004	23049.92
755.342	23166.98
755.679	23132.63
756.017	22903.03
756.355	22988.22
756.693	22854.44
757.031	22858.96
