Data from hue_38_FLMS001491_00038.txt Node
Date: Tue Feb 07 17:31:25 GMT 2017
User: dcchb
Spectrometer: FLMS00149
Trigger mode: 0
Integration Time (sec): 2.000000E-2
Scans to average: 10
Electric dark correction enabled: true
Nonlinearity correction enabled: false
Boxcar width: 0
XAxis mode: Wavelengths
Number of Pixels in Spectrum: 2048
>>>>>Begin Spectral Data<<<<<
341.393	-12.49
341.776	-12.49
342.16	-12.49
342.543	-63.78
342.927	-59.49
343.31	-58.36
343.693	-73.27
344.077	-66.72
344.46	-54.29
344.843	-74.18
345.226	-29.43
345.61	-40.96
345.993	-13.16
346.376	-20.62
346.759	13.05
347.142	30
347.525	58.25
347.908	74.74
348.291	69.09
348.674	85.59
349.057	100.28
349.44	132.14
349.823	130.34
350.206	183.22
350.588	212.59
350.971	223.21
351.354	218.69
351.737	254.85
352.119	263.21
352.502	273.61
352.884	257.79
353.267	291.69
353.65	298.24
354.032	309.99
354.414	314.29
354.797	309.54
355.179	342.53
355.562	315.42
355.944	338.47
356.326	341.18
356.709	342.99
357.091	345.25
357.473	355.19
357.855	329.43
358.238	331.91
358.62	338.01
359.002	340.05
359.384	344.34
359.766	360.61
360.148	338.01
360.53	344.34
360.912	348.86
361.294	346.15
361.676	332.82
362.057	349.31
362.439	334.4
362.821	334.17
363.203	331.01
363.584	342.31
363.966	316.32
364.348	334.62
364.729	325.58
365.111	334.62
365.493	324.23
365.874	314.29
366.256	307.05
366.637	318.58
367.019	321.97
367.4	310.9
367.781	319.48
368.163	323.78
368.544	332.14
368.925	309.31
369.306	315.19
369.688	326.49
370.069	322.65
370.45	310.67
370.831	323.78
371.212	301.63
371.593	323.55
371.974	330.78
372.355	335.3
372.736	325.58
373.117	303.44
373.498	314.06
373.879	326.49
374.26	324.68
374.641	312.93
375.021	330.33
375.402	339.14
375.783	318.13
376.163	334.17
376.544	351.35
376.925	310.22
377.305	328.52
377.686	329.65
378.066	325.36
378.447	309.99
378.827	317
379.208	346.83
379.588	323.55
379.968	336.21
380.349	334.85
380.729	341.18
381.109	339.37
381.489	350.67
381.87	336.88
382.25	335.53
382.63	349.99
383.01	345.7
383.39	345.25
383.77	342.76
384.15	364.23
384.53	365.13
384.91	359.93
385.29	374.17
385.67	358.35
386.049	363.55
386.429	357
386.809	362.19
387.189	339.14
387.568	347.05
387.948	345.47
388.328	358.8
388.707	357.9
389.087	354.51
389.466	348.63
389.846	378.46
390.225	375.53
390.605	369.65
390.984	357.45
391.363	347.96
391.743	375.98
392.122	382.53
392.501	370.33
392.881	366.71
393.26	392.02
393.639	387.05
394.018	333.72
394.397	349.99
394.776	380.27
395.155	394.51
395.534	380.27
395.913	392.48
396.292	381.63
396.671	376.88
397.05	381.18
397.429	391.12
397.808	407.62
398.186	413.04
398.565	398.58
398.944	393.61
399.323	377.79
399.701	385.7
400.08	399.26
400.458	408.97
400.837	399.93
401.215	376.43
401.594	403.77
401.972	388.41
402.351	402.42
402.729	401.06
403.107	401.06
403.486	399.03
403.864	413.72
404.242	406.94
404.62	411.68
404.999	399.48
405.377	403.77
405.755	411.46
406.133	414.17
406.511	407.62
406.889	444.23
407.267	425.02
407.645	438.58
408.023	405.81
408.401	446.49
408.779	436.32
409.156	426.15
409.534	444.23
409.912	436.54
410.29	477.67
410.667	460.95
411.045	441.29
411.422	484.68
411.8	462.76
412.178	451.23
412.555	475.64
412.933	473.83
413.31	466.82
413.687	455.3
414.065	478.12
414.442	473.15
414.819	475.41
415.197	493.49
415.574	476.99
415.951	483.09
416.328	485.58
416.705	495.75
417.082	485.58
417.46	496.88
417.837	483.32
418.214	500.27
418.591	515.86
418.967	518.12
419.344	523.32
419.721	496.2
420.098	514.05
420.475	507.27
420.852	521.29
421.228	535.97
421.605	526.94
421.982	528.52
422.358	531.91
422.735	527.61
423.111	545.01
423.488	567.39
423.864	554.51
424.241	584.11
424.617	548.18
424.994	553.6
425.37	544.56
425.746	561.06
426.123	559.48
426.499	551.34
426.875	590.44
427.251	588.18
427.627	591.34
428.003	581.17
428.379	604.9
428.756	596.09
429.132	612.81
429.507	591.57
429.883	606.48
430.259	611.23
430.635	648.29
431.011	609.64
431.387	626.37
431.763	626.37
432.138	637.21
432.514	663.88
432.89	670.66
433.265	660.49
433.641	663.43
434.016	667.04
434.392	666.82
434.767	656.88
435.143	681.28
435.518	695.97
435.894	695.97
436.269	695.07
436.644	723.31
437.02	723.09
437.395	730.09
437.77	731.68
438.145	721.05
438.52	721.73
438.895	753.82
439.271	732.81
439.646	726.25
440.021	755.18
440.395	763.09
440.77	773.93
441.145	763.99
441.52	766.48
441.895	741.39
442.27	794.72
442.645	764.44
443.019	787.27
443.394	786.36
443.769	784.56
444.143	803.54
444.518	801.73
444.892	798.11
445.267	802.41
445.641	829.75
446.016	789.98
446.39	812.58
446.764	805.8
447.139	799.24
447.513	818.23
447.887	828.62
448.262	838.57
448.636	852.58
449.01	850.09
449.384	852.35
449.758	855.06
450.132	863.42
450.506	874.27
450.88	860.03
451.254	869.53
451.628	865.01
452.002	877.66
452.376	887.83
452.75	914.95
453.123	942.07
453.497	922.41
453.871	943.87
454.244	946.13
454.618	958.11
454.992	960.14
455.365	977.54
455.739	977.54
456.112	1010.54
456.486	989.52
456.859	989.52
457.232	1016.87
457.606	1012.35
457.979	1037.66
458.352	1068.39
458.725	1039.46
459.099	1081.27
459.472	1056.19
459.845	1104.1
460.218	1074.94
460.591	1138.44
460.964	1119.46
461.337	1132.57
461.71	1121.27
462.083	1175.73
462.456	1173.92
462.829	1154.94
463.201	1195.17
463.574	1202.17
463.947	1215.5
464.32	1224.32
464.692	1260.48
465.065	1244.2
465.438	1283.3
465.81	1298.44
466.183	1320.59
466.555	1350.19
466.928	1343.41
467.3	1379.34
467.672	1371.43
468.045	1404.43
468.417	1461.83
468.789	1435.61
469.161	1437.42
469.534	1487.36
469.906	1492.56
470.278	1534.37
470.65	1537.08
471.022	1540.69
471.394	1626.34
471.766	1631.54
472.138	1647.58
472.51	1689.39
472.882	1746.56
473.253	1730.52
473.625	1789.27
473.997	1823.85
474.369	1846.45
474.74	1891.65
475.112	1948.82
475.484	1979.33
475.855	2031.75
476.227	2068.82
476.598	2069.95
476.97	2142.49
477.341	2195.37
477.713	2230.39
478.084	2315.14
478.455	2346.55
478.827	2391.52
479.198	2471.29
479.569	2499.76
479.94	2572.76
480.311	2671.06
480.682	2701.34
481.053	2798.06
481.424	2886.2
481.795	2890.94
482.166	2977.72
482.537	3055.23
482.908	3152.85
483.279	3228.33
483.65	3294.55
484.021	3374.09
484.391	3436.69
484.762	3519.85
485.133	3617.7
485.503	3685.95
485.874	3782.22
486.244	3859.05
486.615	3954.19
486.985	4057.24
487.356	4178.36
487.726	4225.6
488.097	4342.2
488.467	4388.3
488.837	4523.44
489.207	4625.36
489.578	4746.26
489.948	4846.37
490.318	4977.44
490.688	5052.24
491.058	5121.62
491.428	5255.4
491.798	5376.07
492.168	5505.34
492.538	5552.11
492.908	5690.19
493.278	5831.43
493.648	5787.81
494.017	5921.6
494.387	6074.13
494.757	6201.81
495.126	6271.42
495.496	6330.17
495.866	6445.88
496.235	6533.56
496.605	6676.38
496.974	6672.08
497.344	6838.63
497.713	6883.6
498.082	6995.01
498.452	7067.55
498.821	7133.09
499.19	7266.42
499.559	7302.12
499.928	7428.9
500.298	7474.78
500.667	7668.44
501.036	7679.97
501.405	7794.54
501.774	7816.69
502.143	7945.27
502.512	7996.8
502.88	8106.17
503.249	8146.85
503.618	8227.52
503.987	8309.56
504.356	8390.91
504.724	8450.57
505.093	8564.69
505.462	8591.58
505.83	8655.08
506.199	8787.51
506.567	8924.45
506.936	8871.35
507.304	9059.14
507.672	9061.17
508.041	9130.1
508.409	9294.39
508.777	9304.11
509.145	9359.25
509.514	9455.97
509.882	9528.05
510.25	9517.66
510.618	9673.36
510.986	9718.56
511.354	9720.14
511.722	9881.27
512.09	9938.44
512.458	9958.33
512.826	10065.22
513.193	10156.96
513.561	10225.44
513.929	10313.34
514.297	10375.04
514.664	10394.7
515.032	10496.39
515.4	10578.42
515.767	10615.71
516.135	10664.52
516.502	10612.09
516.869	10851.64
517.237	10886.21
517.604	10860.22
517.972	11019.77
518.339	11092.53
518.706	11121.23
519.073	11142.25
519.44	11226.54
519.808	11395.58
520.175	11292.75
520.542	11462.92
520.909	11576.81
521.276	11566.19
521.643	11664.5
522.009	11661.33
522.376	11770.93
522.743	11777.26
523.11	11906.3
523.477	12080.76
523.843	12095.67
524.21	12258.83
524.577	12309.68
524.943	12419.28
525.31	12451.59
525.676	12614.53
526.043	12687.75
526.409	12670.8
526.776	12847.06
527.142	12815.2
527.508	12876.44
527.874	12999.6
528.241	13090.45
528.607	13122.99
528.973	13226.49
529.339	13314.62
529.705	13388.74
530.071	13513.03
530.437	13484.56
530.803	13643.88
531.169	13659.47
531.535	13655.63
531.901	13822.86
532.267	13843.42
532.632	13958.45
532.998	14036.86
533.364	14072.79
533.73	14132.91
534.095	14195.95
534.461	14331.54
534.826	14318.66
535.192	14329.28
535.557	14470.3
535.923	14425.78
536.288	14483.86
536.653	14587.13
537.019	14568.37
537.384	14655.15
537.749	14684.53
538.114	14771.31
538.479	14887.46
538.845	14826.67
539.21	14856.28
539.575	14976.72
539.94	15006.78
540.305	15143.27
540.67	15134.69
541.034	15186.89
541.399	15228.92
541.764	15293.33
542.129	15357.96
542.494	15447.67
542.858	15438.41
543.223	15568.12
543.587	15691.96
543.952	15669.36
544.316	15693.77
544.681	15699.42
545.045	15802.92
545.41	15905.29
545.774	16015.34
546.138	15925.63
546.503	16073.42
546.867	16076.81
547.231	16220.31
547.595	16238.16
547.959	16293.75
548.324	16295.33
548.688	16324.49
549.052	16480.87
549.416	16425.73
549.779	16481.54
550.143	16588.43
550.507	16668.21
550.871	16627.08
551.235	16689.45
551.599	16906.17
551.962	16822.33
552.326	16989.1
552.689	17040.4
553.053	16959.95
553.417	17052.38
553.78	17216.44
554.143	17242.88
554.507	17313.16
554.87	17335.76
555.234	17555.41
555.597	17445.36
555.96	17463.21
556.323	17660.72
556.686	17688.29
557.05	17780.94
557.413	17764
557.776	17712.92
558.139	17945.01
558.502	17958.34
558.865	17966.25
559.228	18084.89
559.59	18179.8
559.953	18203.98
560.316	18368.95
560.679	18315.17
561.041	18407.14
561.404	18457.09
561.767	18655.72
562.129	18672.22
562.492	18727.81
562.854	18740.47
563.217	18823.86
563.579	18844.65
563.941	18953.8
564.304	19135.94
564.666	19146.56
565.028	19223.62
565.39	19236.95
565.753	19454.8
566.115	19318.08
566.477	19417.96
566.839	19528.92
567.201	19667.22
567.563	19757.39
567.925	19763.27
568.287	19731.85
568.648	19878.29
569.01	20048.68
569.372	20150.15
569.734	20054.56
570.095	20170.26
570.457	20341.33
570.819	20402.12
571.18	20465.85
571.542	20529.12
571.903	20574.54
572.265	20756.01
572.626	20737.7
572.987	20885.95
573.349	20890.24
573.71	21022.89
574.071	21021.99
574.432	21170.91
574.794	21415.65
575.155	21440.28
575.516	21467.18
575.877	21571.35
576.238	21636.21
576.599	21908.52
576.96	21860.16
577.32	21921.63
577.681	22123.43
578.042	22245.91
578.403	22241.39
578.763	22602.97
579.124	22610.65
579.485	22858.1
579.845	22994.14
580.206	23113.69
580.566	23332.66
580.927	23273.23
581.287	23638.42
581.648	23637.06
582.008	23957.96
582.368	23999.99
582.728	24172.19
583.089	24262.36
583.449	24521.78
583.809	24704.38
584.169	24812.4
584.529	24938.04
584.889	25359.95
585.249	25234.99
585.609	25375.1
585.969	25743.45
586.329	25923.78
586.688	26052.82
587.048	26243.55
587.408	26504.11
587.768	26646.93
588.127	26902.51
588.487	26956.75
588.846	27338.43
589.206	27435.38
589.565	27531.87
589.925	27890.51
590.284	27943.39
590.643	28297.73
591.003	28549.25
591.362	28794.67
591.721	28895
592.08	29085.96
592.44	29352.17
592.799	29591.48
593.158	29812.72
593.517	29952.83
593.876	30154.18
594.235	30390.78
594.593	30530.21
594.952	30711.45
595.311	30893.37
595.67	31079.35
596.029	31477.31
596.387	31684.08
596.746	31837.07
597.104	31904.87
597.463	32104.86
597.822	32396.83
598.18	32542.14
598.538	32689.25
598.897	32990.71
599.255	32805.41
599.613	33429.57
599.972	33463.92
600.33	33698.94
600.688	33719.96
601.046	34005.15
601.404	34319.27
601.762	34265.94
602.12	34562.88
602.478	34746.15
602.836	34886.94
603.194	35055.52
603.552	35093.03
603.91	35138.91
604.268	35457.54
604.625	35516.75
604.983	35738.89
605.341	35787.7
605.698	36007.58
606.056	36264.98
606.413	36243.28
606.771	36451.19
607.128	36572.99
607.485	36617.06
607.843	36666.32
608.2	37161.23
608.557	37278.96
608.914	37193.54
609.272	37309.24
609.629	37490.71
609.986	37812.06
610.343	37701.1
610.7	37974.31
611.057	38131.6
611.414	38119.17
611.771	38220.41
612.127	38496.56
612.484	38722.99
612.841	38819.26
613.198	38680.06
613.554	38892.25
613.911	39064.91
614.267	39202.3
614.624	39167.73
614.98	39312.36
615.337	39595.51
615.693	39637.09
616.05	39577.21
616.406	39900.82
616.762	39841.61
617.118	39832.57
617.475	40018.33
617.831	40105.1
618.187	40148.72
618.543	40285.66
618.899	40573.57
619.255	40533.34
619.611	40559.78
619.967	40698.99
620.323	40771.07
620.678	40757.97
621.034	40728.14
621.39	40799.77
621.746	40751.87
622.101	41314.56
622.457	40968.81
622.812	41127.9
623.168	41311.63
623.523	41348.91
623.879	41547.1
624.234	41300.1
624.589	41425.75
624.945	41510.04
625.3	41494.67
625.655	41559.3
626.01	41441.57
626.365	41663.03
626.72	41537.38
627.075	41717.04
627.43	41608.79
627.785	41656.25
628.14	41861.22
628.495	41964.94
628.85	41781.9
629.205	41678.4
629.559	41985.28
629.914	41842.01
630.269	41831.39
630.623	41806.53
630.978	41659.41
631.332	42052.85
631.687	42057.59
632.041	41978.5
632.396	42022.12
632.75	41861.22
633.104	42028.22
633.459	41906.19
633.813	41692.41
634.167	41909.8
634.521	41794.55
634.875	41917.94
635.229	41964.26
635.583	41693.54
635.937	41765.85
636.291	41834.1
636.645	41917.71
636.999	41668.45
637.352	41903.25
637.706	41640.2
638.06	41762.01
638.413	41671.16
638.767	41599.53
639.121	41563.82
639.474	41458.29
639.828	41528.57
640.181	41566.08
640.534	41554.56
640.888	41397.5
641.241	41344.39
641.594	41512.98
641.947	41614.89
642.301	41364.51
642.654	41433.2
643.007	41452.86
643.36	41361.12
643.713	41386.43
644.066	41483.82
644.419	41229.82
644.771	41041.12
645.124	40539.22
645.477	40780.57
645.83	40395.94
646.182	40271.43
646.535	40244.54
646.888	40333.35
647.24	40001.83
647.593	40454.25
647.945	40194.37
648.298	39914.15
648.65	39949.85
649.002	39824.89
649.355	40097.19
649.707	40064.65
650.059	40177.42
650.411	40740.12
650.763	40709.83
651.115	41021.24
651.467	40837.29
651.819	41026.66
652.171	40825.08
652.523	40691.08
652.875	40885.42
653.227	40550.52
653.578	40818.76
653.93	40684.98
654.282	40649.95
654.633	40498.31
654.985	40583.28
655.337	40691.53
655.688	40732.88
656.039	40790.96
656.391	40463.74
656.742	40544.87
657.094	40568.59
657.445	40692.88
657.796	40697.86
658.147	40600.01
658.498	40573.34
658.849	40651.3
659.2	40541.02
659.551	40478.2
659.902	40673.45
660.253	40588.71
660.604	40576.96
660.955	40546.67
661.306	40617.63
661.656	40364.53
662.007	40434.81
662.358	40505.77
662.708	40301.48
663.059	40415.83
663.409	40186.23
663.76	40521.82
664.11	40416.28
664.461	40437.98
664.811	40591.19
665.161	40269.85
665.511	40223.52
665.862	40384.42
666.212	40369.05
666.562	40402.72
666.912	40376.73
667.262	40301.71
667.612	40251.77
667.962	40292.67
668.312	40260.13
668.662	40483.85
669.011	40273.46
669.361	40217.87
669.711	40098.32
670.06	40189.62
670.41	40160.7
670.76	40151.43
671.109	40164.99
671.459	40092.9
671.808	40105.33
672.157	40188.94
672.507	39862.4
672.856	40051.09
673.205	40065.33
673.554	40178.32
673.904	40162.05
674.253	40263.29
674.602	40122.5
674.951	39473.48
675.3	39470.32
675.649	40097.19
675.998	39863.53
676.346	39960.93
676.695	40108.72
677.044	39648.62
677.393	39928.61
677.741	39996.18
678.09	39927.03
678.438	39826.69
678.787	39795.06
679.135	39736.53
679.484	39558
679.832	39692.23
680.181	39446.36
680.529	39666.02
680.877	39551.9
681.225	39407.49
681.573	39640.48
681.922	39319.36
682.27	39142.42
682.618	39269.87
682.966	39205.69
683.314	39274.17
683.661	39136.32
684.009	38907.4
684.357	38940.39
684.705	38825.59
685.053	38872.59
685.4	38861.52
685.748	38615.65
686.095	38497.01
686.443	38494.52
686.79	38424.7
687.138	38584.69
687.485	38529.1
687.832	38207.98
688.18	38377.01
688.527	38213.18
688.874	38136.57
689.221	38116.91
689.568	37949.68
689.915	37929.34
690.262	37979.28
690.609	37893.18
690.956	37852.96
691.303	37668.56
691.65	37475.79
691.997	37536.13
692.344	37406.87
692.69	37309.92
693.037	37321.45
693.383	37039.42
693.73	37068.12
694.077	36960.55
694.423	37040.33
694.769	36758.53
695.116	36770.05
695.462	36713.1
695.808	36547.23
696.155	36671.75
696.501	36353.56
696.847	36348.82
697.193	36156.96
697.539	36289.61
697.885	36083.06
698.231	35986.57
698.577	35800.81
698.923	35757.2
699.269	35737.76
699.614	35510.2
699.96	35400.82
700.306	35449.18
700.651	35313.14
700.997	35255.74
701.342	35012.13
701.688	35184.56
702.033	34934.84
702.379	34999.48
702.724	34762.87
703.069	34991.34
703.415	34510.22
703.76	34582.54
704.105	34629.54
704.45	34448.08
704.795	34318.82
705.14	34200.17
705.485	34185.03
705.83	34103.23
706.175	34161.31
706.52	34069.78
706.865	33987.3
707.209	33830.24
707.554	33696.23
707.899	33878.83
708.243	33578.95
708.588	33624.14
708.932	33469.12
709.277	33358.16
709.621	33486.75
709.966	33157.72
710.31	33279.75
710.654	32897.38
710.998	32965.4
711.342	32976.93
711.687	32972.18
712.031	32875.92
712.375	32787.78
712.719	32656.03
713.063	32732.42
713.407	32765.86
713.75	32501.46
714.094	32568.8
714.438	32299.66
714.782	32282.03
715.125	32248.59
715.469	32386.21
715.812	32043.62
716.156	31897.41
716.499	32006.79
716.843	31930.4
717.186	31786.9
717.53	31946.45
717.873	31845.43
718.216	31942.83
718.559	31764.53
718.902	31420.36
719.246	31639.34
719.589	31442.96
719.932	31405.22
720.275	31352.34
720.617	31442.73
720.96	31200.03
721.303	31194.38
721.646	31277.09
721.989	30971.78
722.331	31150.76
722.674	31100.59
723.016	31020.6
723.359	31086.58
723.701	31043.87
724.044	30791.45
724.386	30659.02
724.729	30755.29
725.071	30706.03
725.413	30617.22
725.755	30648.4
726.097	30528.86
726.439	30404.57
726.782	30458.8
727.124	30527.05
727.465	30380.61
727.807	30411.57
728.149	30346.72
728.491	30192.82
728.833	30157.79
729.175	30235.98
729.516	30081.19
729.858	29999.61
730.199	30141.98
730.541	29949.21
730.882	29862.44
731.224	29976.56
731.565	29910.8
731.906	29854.75
732.248	29817.01
732.589	29645.49
732.93	29643.91
733.271	29537.7
733.612	29563.23
733.953	29619.96
734.294	29410.7
734.635	29409.11
734.976	29348.55
735.317	29250.7
735.658	29352.17
735.999	29249.34
736.339	29171.61
736.68	29217.93
737.021	29255.9
737.361	29140.19
737.702	29272.62
738.042	29041.21
738.383	29061.78
738.723	29130.7
739.063	28930.48
739.404	28963.02
739.744	28850.48
740.084	28768.68
740.424	28909.01
740.764	28785.4
741.104	28858.62
741.444	28703.14
741.784	28576.14
742.124	28736.14
742.464	28631.51
742.804	28506.54
743.143	28481.68
743.483	28474.22
743.823	28379.99
744.162	28288.69
744.502	28272.19
744.841	28213.89
745.181	28260.22
745.52	28201.01
745.86	28239.65
746.199	28096.15
746.538	28038.3
746.877	28106.78
747.216	28109.26
747.556	27984.52
747.895	28026.33
748.234	27854.8
748.573	27919.44
748.911	27801.25
749.25	27830.4
749.589	27615.71
749.928	27678.76
750.267	27687.13
750.605	27568.71
750.944	27471.54
751.283	27360.35
751.621	27498.2
751.96	27273.12
752.298	27384.53
752.636	27396.96
752.975	27215.05
753.313	27206.23
753.651	27195.39
753.989	27040.36
754.327	26988.84
754.666	26875.85
755.004	26859.12
755.342	26940.48
755.679	26876.3
756.017	26665.23
756.355	26735.74
756.693	26678.34
