Data from hue_10_FLMS001491_58.txt Node
Date: Mon Feb 06 15:32:09 GMT 2017
User: dcchb
Spectrometer: FLMS00149
Trigger mode: 0
Integration Time (sec): 2.000000E-2
Scans to average: 10
Electric dark correction enabled: true
Nonlinearity correction enabled: false
Boxcar width: 0
XAxis mode: Wavelengths
Number of Pixels in Spectrum: 2048
>>>>>Begin Spectral Data<<<<<
341.393	0.54
341.776	0.54
342.16	0.54
342.543	-58.22
342.927	-56.86
343.31	-63.87
343.693	-57.99
344.077	-67.94
344.46	-77.43
344.843	-48.28
345.226	-34.04
345.61	-38.11
345.993	-13.25
346.376	-25.23
346.759	6.41
347.142	32.4
347.525	51.83
347.908	74.21
348.291	61.1
348.674	99.74
349.057	100.42
349.44	120.08
349.823	128.67
350.206	167.54
350.588	181.77
350.971	186.52
351.354	214.54
351.737	229.68
352.119	256.35
352.502	255.45
352.884	267.87
353.267	269.46
353.65	292.73
354.032	315.33
354.414	294.77
354.797	318.27
355.179	318.27
355.562	319.85
355.944	317.36
356.326	306.29
356.709	318.72
357.091	350.13
357.473	336.12
357.855	336.8
358.238	333.41
358.62	347.19
359.002	344.03
359.384	342.9
359.766	334.77
360.148	337.03
360.53	325.05
360.912	310.59
361.294	332.73
361.676	327.53
362.057	302.45
362.439	337.48
362.821	299.51
363.203	318.72
363.584	328.66
363.966	305.16
364.348	329.79
364.729	314.2
365.111	311.49
365.493	313.3
365.874	325.73
366.256	321.21
366.637	311.71
367.019	308.78
367.4	323.92
367.781	323.47
368.163	303.81
368.544	332.73
368.925	297.93
369.306	299.29
369.688	289.34
370.069	293.41
370.45	292.28
370.831	322.34
371.212	309.91
371.593	318.95
371.974	322.79
372.355	300.64
372.736	316.91
373.117	324.82
373.498	312.62
373.879	316.01
374.26	317.82
374.641	316.01
375.021	308.78
375.402	329.12
375.783	331.6
376.163	341.54
376.544	324.82
376.925	317.36
377.305	316.46
377.686	321.66
378.066	304.94
378.447	312.62
378.827	321.88
379.208	326.18
379.588	342.22
379.968	320.3
380.349	323.92
380.729	293.41
381.109	316.91
381.489	341.32
381.87	334.54
382.25	313.07
382.63	365.27
383.01	316.91
383.39	334.77
383.77	335.22
384.15	349.45
384.53	353.07
384.91	352.62
385.29	333.64
385.67	327.31
386.049	338.38
386.429	335.9
386.809	338.15
387.189	344.48
387.568	357.36
387.948	340.87
388.328	367.53
388.707	360.08
389.087	352.39
389.466	351.71
389.846	347.19
390.225	364.14
390.605	359.4
390.984	346.97
391.363	355.1
391.743	369.11
392.122	357.59
392.501	358.27
392.881	363.01
393.26	358.04
393.639	368.21
394.018	359.17
394.397	356.69
394.776	371.37
395.155	367.76
395.534	378.38
395.913	361.21
396.292	360.53
396.671	363.24
397.05	373.63
397.429	376.57
397.808	388.55
398.186	373.86
398.565	368.66
398.944	388.55
399.323	377.02
399.701	367.31
400.08	382.9
400.458	369.34
400.837	387.65
401.215	379.74
401.594	387.19
401.972	378.61
402.351	377.48
402.729	392.16
403.107	387.65
403.486	374.54
403.864	389
404.242	387.42
404.62	406.18
404.999	402.33
405.377	400.07
405.755	400.07
406.133	395.33
406.511	402.79
406.889	413.63
407.267	416.12
407.645	407.08
408.023	407.53
408.401	429.9
408.779	415.22
409.156	432.39
409.534	417.47
409.912	409.57
410.29	411.15
410.667	435.55
411.045	418.83
411.422	444.59
411.8	414.99
412.178	433.75
412.555	400.98
412.933	453.18
413.31	446.17
413.687	454.54
414.065	441.66
414.442	471.94
414.819	426.51
415.197	463.58
415.574	457.25
415.951	472.39
416.328	469.22
416.705	445.27
417.082	482.56
417.46	476.23
417.837	490.92
418.214	461.54
418.591	455.44
418.967	460.86
419.344	502.22
419.721	472.16
420.098	472.84
420.475	477.59
420.852	483.69
421.228	488.66
421.605	491.37
421.982	518.94
422.358	509.9
422.735	514.65
423.111	502.9
423.488	499.96
423.864	520.75
424.241	497.25
424.617	544.7
424.994	508.09
425.37	503.57
425.746	527.98
426.123	522.33
426.499	541.54
426.875	525.95
427.251	547.87
427.627	563.46
428.003	547.19
428.379	530.69
428.756	547.87
429.132	555.1
429.507	561.2
429.883	559.17
430.259	564.82
430.635	580.63
431.011	579.96
431.387	578.15
431.763	601.42
432.138	593.52
432.514	609.33
432.89	596
433.265	589.67
433.641	614.53
434.016	608.66
434.392	594.42
434.767	619.05
435.143	620.63
435.518	619.28
435.894	636.9
436.269	619.05
436.644	650.24
437.02	646.4
437.395	640.52
437.77	637.36
438.145	672.38
438.52	644.14
438.895	677.81
439.271	687.3
439.646	685.26
440.021	682.33
440.395	687.75
440.77	674.64
441.145	696.79
441.52	706.05
441.895	687.07
442.27	689.56
442.645	686.62
443.019	694.53
443.394	707.41
443.769	709.9
444.143	699.73
444.518	729.56
444.892	721.87
445.267	718.48
445.641	712.38
446.016	724.13
446.39	728.2
446.764	744.25
447.139	734.98
447.513	759.61
447.887	732.04
448.262	760.52
448.636	744.25
449.01	758.03
449.384	771.36
449.758	765.26
450.132	767.52
450.506	810.23
450.88	772.72
451.254	782.44
451.628	775.66
452.002	789.67
452.376	801.42
452.75	785.37
453.123	796.9
453.497	806.84
453.871	823.34
454.244	822.89
454.618	854.75
454.992	849.33
455.365	847.75
455.739	843.45
456.112	864.92
456.486	879.61
456.859	875.77
457.232	866.95
457.606	884.36
457.979	910.34
458.352	929.1
458.725	925.94
459.099	929.33
459.472	917.8
459.845	946.5
460.218	975.88
460.591	948.99
460.964	943.79
461.337	989.21
461.71	1007.29
462.083	1013.62
462.456	992.6
462.829	1009.55
463.201	1025.14
463.574	1031.7
463.947	1033.5
464.32	1042.32
464.692	1073.5
465.065	1077.12
465.438	1086.16
465.81	1101.07
466.183	1112.37
466.555	1114.63
466.928	1121.19
467.3	1136.1
467.672	1140.17
468.045	1151.69
468.417	1150.11
468.789	1180.39
469.161	1217.45
469.534	1227.17
469.906	1229.2
470.278	1250.22
470.65	1277.79
471.022	1275.31
471.394	1285.02
471.766	1322.54
472.138	1329.09
472.51	1334.96
472.882	1365.47
473.253	1374.51
473.625	1407.28
473.997	1420.84
474.369	1434.4
474.74	1452.93
475.112	1477.56
475.484	1517.78
475.855	1552.13
476.227	1533.6
476.598	1577.67
476.97	1600.27
477.341	1641.62
477.713	1703.09
478.084	1660.83
478.455	1731.11
478.827	1730.43
479.198	1787.38
479.569	1772.02
479.94	1811.34
480.311	1852.92
480.682	1886.14
481.053	1906.25
481.424	1977.89
481.795	2015.17
482.166	2055.17
482.537	2041.61
482.908	2085.68
483.279	2130.2
483.65	2160.03
484.021	2183.53
484.391	2246.58
484.762	2246.81
485.133	2307.82
485.503	2327.93
485.874	2347.14
486.244	2433.24
486.615	2460.81
486.985	2466.46
487.356	2521.37
487.726	2541.49
488.097	2615.38
488.467	2609.06
488.837	2684.31
489.207	2705.32
489.578	2726.79
489.948	2796.4
490.318	2828.94
490.688	2868.48
491.058	2919.1
491.428	2914.58
491.798	2970.18
492.168	3031.42
492.538	3071.64
492.908	3076.84
493.278	3151.41
493.648	3131.08
494.017	3198.87
494.387	3223.95
494.757	3276.61
495.126	3284.74
495.496	3267.57
495.866	3382.14
496.235	3394.8
496.605	3395.48
496.974	3378.75
497.344	3472.31
497.713	3500.11
498.082	3531.97
498.452	3543.04
498.821	3548.92
499.19	3596.83
499.559	3603.61
499.928	3673.89
500.298	3646.54
500.667	3709.37
501.036	3686.09
501.405	3703.94
501.774	3772.64
502.143	3723.15
502.512	3800.21
502.88	3867.78
503.249	3813.09
503.618	3814.22
503.987	3877.04
504.356	3863.94
504.724	3896.25
505.093	3918.17
505.462	3921.34
505.83	3984.61
506.199	3991.62
506.567	4066.42
506.936	4049.47
507.304	4119.75
507.672	4117.72
508.041	4090.37
508.409	4158.39
508.777	4193.19
509.145	4195.91
509.514	4193.19
509.882	4204.49
510.25	4221.67
510.618	4237.94
510.986	4278.84
511.354	4291.72
511.722	4323.81
512.09	4296.92
512.458	4344.83
512.826	4382.79
513.193	4385.73
513.561	4366.3
513.929	4405.84
514.297	4452.4
514.664	4435.9
515.032	4504.37
515.4	4590.25
515.767	4507.99
516.135	4564.94
516.502	4477.26
516.869	4562
517.237	4584.37
517.604	4583.24
517.972	4609
518.339	4673.63
518.706	4661.43
519.073	4682.9
519.44	4708.89
519.808	4750.92
520.175	4714.76
520.542	4783.69
520.909	4773.74
521.276	4764.71
521.643	4866.85
522.009	4855.32
522.376	4875.89
522.743	4867.98
523.11	4948.43
523.477	4969.67
523.843	5009.22
524.21	5057.35
524.577	5065.94
524.943	5031.82
525.31	5094.41
525.676	5118.14
526.043	5143.23
526.409	5151.14
526.776	5244.92
527.142	5245.6
527.508	5284.69
527.874	5244.47
528.241	5264.58
528.607	5312.94
528.973	5337.8
529.339	5314.75
529.705	5405.37
530.071	5462.09
530.437	5451.01
530.803	5494.18
531.169	5520.17
531.535	5496.44
531.901	5495.99
532.267	5570.33
532.632	5587.96
532.998	5626.83
533.364	5668.86
533.73	5640.61
534.095	5719.26
534.461	5722.87
534.826	5803.32
535.192	5757.67
535.557	5777.56
535.923	5804.45
536.288	5861.85
536.653	5838.58
537.019	5888.29
537.384	5875.41
537.749	5898.23
538.114	5930.1
538.479	5884.68
538.845	5939.36
539.21	5947.95
539.575	6034.73
539.94	6065.24
540.305	6085.12
540.67	6077.67
541.034	6139.58
541.399	6189.98
541.764	6104.78
542.129	6143.2
542.494	6254.84
542.858	6223.88
543.223	6290.31
543.587	6274.04
543.952	6251.67
544.316	6337.09
544.681	6261.84
545.045	6391.78
545.41	6412.8
545.774	6400.14
546.138	6414.38
546.503	6471.78
546.867	6467.03
547.231	6466.36
547.595	6514.94
547.959	6536.41
548.324	6605.11
548.688	6607.14
549.052	6629.97
549.416	6636.52
549.779	6653.7
550.143	6685.33
550.507	6685.56
550.871	6747.03
551.235	6720.36
551.599	6748.83
551.962	6808.49
552.326	6834.26
552.689	6849.85
553.053	6859.34
553.417	6893.01
553.78	6968.26
554.143	6906.8
554.507	6954.48
554.87	7008.04
555.234	7012.1
555.597	7009.17
555.96	7087.81
556.323	7053.23
556.686	7139.56
557.05	7144.53
557.413	7131.65
557.776	7168.94
558.139	7176.39
558.502	7200.35
558.865	7203.51
559.228	7256.39
559.59	7269.27
559.953	7350.63
560.316	7382.26
560.679	7355.82
561.041	7387.46
561.404	7427.46
561.767	7530.06
562.129	7469.94
562.492	7531.41
562.854	7517.4
563.217	7550.85
563.579	7561.69
563.941	7614.8
564.304	7626.78
564.666	7717.4
565.028	7674.91
565.39	7700.22
565.753	7792.2
566.115	7796.04
566.477	7816.6
566.839	7771.18
567.201	7852.31
567.563	7937.5
567.925	7883.27
568.287	7954.23
568.648	7917.16
569.01	8010.72
569.372	8073.32
569.734	7999.42
570.095	8115.58
570.457	8116.26
570.819	8190.38
571.18	8160.1
571.542	8267.66
571.903	8302.24
572.265	8315.12
572.626	8351.05
572.987	8371.16
573.349	8439.18
573.71	8433.31
574.071	8542.91
574.432	8555.34
574.794	8682.79
575.155	8651.16
575.516	8655.68
575.877	8723.25
576.238	8812.96
576.599	8875.11
576.96	8956.01
577.32	8934.09
577.681	9067.64
578.042	9096.57
578.403	9154.87
578.763	9286.62
579.124	9344.47
579.485	9443.23
579.845	9553.73
580.206	9636.22
580.566	9744.91
580.927	9782.88
581.287	9951.46
581.648	10029.88
582.008	10210.21
582.368	10262.19
582.728	10416.76
583.089	10467.15
583.449	10673.93
583.809	10766.36
584.169	10942.85
584.529	11077.76
584.889	11290.86
585.249	11384.42
585.609	11491.08
585.969	11731.08
586.329	11885.42
586.688	12138.97
587.048	12248.8
587.408	12446.09
587.768	12528.34
588.127	12876.58
588.487	12947.99
588.846	13317.02
589.206	13423.46
589.565	13684.24
589.925	13887.63
590.284	14182.31
590.643	14384.57
591.003	14588.63
591.362	15000.14
591.721	15121.04
592.08	15328.95
592.44	15627.7
592.799	15842.38
593.158	16172.54
593.517	16413.66
593.876	16626.77
594.235	16892.75
594.593	17099.75
594.952	17439.63
595.311	17625.84
595.67	18011.36
596.029	18306.72
596.387	18660.39
596.746	19021.73
597.104	19091.79
597.463	19397.31
597.822	19604.99
598.18	19783.29
598.538	20139.67
598.897	20502.82
599.255	20569.04
599.613	21180.09
599.972	21282.01
600.33	21592.29
600.688	21721.32
601.046	22109.33
601.404	22472.04
601.762	22609.66
602.12	22973.49
602.478	23166.71
602.836	23495.96
603.194	23615.06
603.552	23951.32
603.91	24111.09
604.268	24460.68
604.625	24634.01
604.983	24983.61
605.341	25112.64
605.698	25503.14
606.056	25687.32
606.413	25874.21
606.771	26229.9
607.128	26466.73
607.485	26567.75
607.843	26741.3
608.2	27157.11
608.557	27397.78
608.914	27477.33
609.272	27753.48
609.629	27954.6
609.986	28131.55
610.343	28202.06
610.7	28661.7
611.057	28723.4
611.414	28905.31
611.771	29115.93
612.127	29456.71
612.484	29543.71
612.841	29733.54
613.198	29957.26
613.554	30100.31
613.911	30551.82
614.267	30592.5
614.624	30727.19
614.98	30888.31
615.337	31051.02
615.693	31163.56
616.05	31314.52
616.406	31673.83
616.762	31536.43
617.118	31821.17
617.475	31892.81
617.831	31987.04
618.187	32171.44
618.543	32398.33
618.899	32622.05
619.255	32777.3
619.611	32860.92
619.967	32890.97
620.323	33111.53
620.678	33121.02
621.034	33161.25
621.39	33236.27
621.746	33246.22
622.101	33672.87
622.457	33614.34
622.812	33735.24
623.168	34015.46
623.523	34014.11
623.879	34203.71
624.234	34083.03
624.589	34243.03
624.945	34351.5
625.3	34398.73
625.655	34531.83
626.01	34537.71
626.365	34768.89
626.72	34775.89
627.075	34699.74
627.43	34786.06
627.785	34758.72
628.14	34942.44
628.495	34983.12
628.85	35000.07
629.205	34966.17
629.559	35288.87
629.914	34967.07
630.269	35121.87
630.623	35027.19
630.978	35064.7
631.332	35189.22
631.687	35489.77
632.041	35291.81
632.396	35313.96
632.75	35273.51
633.104	35416.1
633.459	35328.65
633.813	35320.06
634.167	35363.45
634.521	35344.01
634.875	35532.26
635.229	35444.35
635.583	35279.38
635.937	35386.05
636.291	35307.86
636.645	35313.28
636.999	35331.13
637.352	35589.21
637.706	35276.22
638.06	35518.7
638.413	35473.73
638.767	35345.82
639.121	35419.04
639.474	35211.81
639.828	35294.98
640.181	35253.62
640.534	35401.64
640.888	35196.67
641.241	35120.97
641.594	35235.54
641.947	35285.03
642.301	35245.94
642.654	35266.95
643.007	35259.5
643.36	35222.44
643.713	35200.97
644.066	35467.4
644.419	35069.67
644.771	34970.01
645.124	34713.75
645.477	34647.54
645.83	34446.41
646.182	34308.34
646.535	34206.87
646.888	34366.64
647.24	34156.02
647.593	34332.74
647.945	34229.02
648.298	34092.97
648.65	33996.48
649.002	33980.21
649.355	34131.16
649.707	34087.32
650.059	34168.23
650.411	34610.25
650.763	34696.57
651.115	34915.55
651.467	34951.71
651.819	35013.18
652.171	34832.39
652.523	34888.88
652.875	34718.72
653.227	34632.62
653.578	34832.62
653.93	34738.83
654.282	34687.31
654.633	34732.28
654.985	34704.48
655.337	34777.93
655.688	34692.51
656.039	34865.16
656.391	34407.54
656.742	34583.13
657.094	34567.76
657.445	34711.26
657.796	34555.79
658.147	34532.74
658.498	34615.45
658.849	34696.57
659.2	34562.79
659.551	34498.16
659.902	34649.8
660.253	34608.21
660.604	34625.16
660.955	34423.81
661.306	34569.57
661.656	34541.1
662.007	34552.62
662.358	34487.99
662.708	34494.32
663.059	34475.56
663.409	34360.99
663.76	34462.46
664.11	34544.26
664.461	34536.8
664.811	34601.43
665.161	34512.4
665.511	34467.88
665.862	34462.91
666.212	34521.44
666.562	34589.01
666.912	34327.32
667.262	34450.7
667.612	34470.59
667.962	34443.02
668.312	34402.57
668.662	34569.8
669.011	34376.58
669.361	34463.59
669.711	34296.81
670.06	34316.02
670.41	34259.97
670.76	34159.64
671.109	34348.79
671.459	34352.18
671.808	34225.85
672.157	34272.4
672.507	34169.58
672.856	34132.97
673.205	34162.8
673.554	34340.88
673.904	34135.01
674.253	34227.66
674.602	34103.37
674.951	33746.09
675.3	33504.06
675.649	34029.25
675.998	34001.45
676.346	33989.25
676.695	34071.73
677.044	33984.95
677.393	33883.26
677.741	33998.51
678.09	33887.56
678.438	33878.52
678.787	33881.68
679.135	33979.98
679.484	33610.05
679.832	33843.94
680.181	33735.47
680.529	33757.39
680.877	33674.23
681.225	33736.37
681.573	33779.54
681.922	33475.81
682.27	33461.8
682.618	33513.33
682.966	33433.1
683.314	33574.57
683.661	33245.09
684.009	33271.07
684.357	33176.39
684.705	33056.39
685.053	33252.54
685.4	33137.07
685.748	32973.68
686.095	32903.63
686.443	32911.76
686.79	32839.9
687.138	32961.25
687.485	32829.96
687.832	32762.84
688.18	32836.96
688.527	32596.29
688.874	32672.45
689.221	32559.91
689.568	32412.11
689.915	32398.33
690.262	32311.33
690.609	32244.66
690.956	32100.48
691.303	31996.08
691.65	31980.71
691.997	31852.58
692.344	31783.66
692.69	31727.39
693.037	31716.54
693.383	31315.65
693.73	31613.04
694.077	31422.99
694.423	31351.8
694.769	31384.57
695.116	31274.52
695.462	31206.04
695.808	31103.67
696.155	31193.61
696.501	30874.08
696.847	30781.87
697.193	30781.2
697.539	30804.25
697.885	30460.07
698.231	30552.95
698.577	30568.09
698.923	30355.44
699.269	30363.35
699.614	30272.74
699.96	30169.46
700.306	30127.2
700.651	29910.94
700.997	29894.89
701.342	29889.24
701.688	29882.69
702.033	29709.36
702.379	29756.14
702.724	29523.83
703.069	29627.33
703.415	29276.15
703.76	29363.61
704.105	29306.88
704.45	29274.57
704.795	29041.13
705.14	28974.69
705.485	28961.81
705.83	28884.52
706.175	28889.72
706.52	28919.1
706.865	28790.29
707.209	28727.01
707.554	28579.67
707.899	28654.25
708.243	28565.21
708.588	28565.66
708.932	28314.37
709.277	28405.67
709.621	28277.76
709.966	28082.96
710.31	28176.29
710.654	27954.6
710.998	28084.54
711.342	28003.87
711.687	27904.66
712.031	27720.03
712.375	27729.98
712.719	27789.41
713.063	27673.26
713.407	27786.02
713.75	27606.82
714.094	27519.36
714.438	27435.75
714.782	27473.94
715.125	27339.25
715.469	27339.7
715.812	27215.87
716.156	27139.48
716.499	27197.34
716.843	27128.64
717.186	26922.99
717.53	27112.37
717.873	27029.43
718.216	26922.54
718.559	26857.23
718.902	26652.49
719.246	26709.44
719.589	26629.89
719.932	26538.37
720.275	26596.22
720.617	26455.89
720.96	26492.72
721.303	26435.32
721.646	26512.38
721.989	26310.58
722.331	26357.13
722.674	26262.9
723.016	26354.19
723.359	26269.45
723.701	26258.15
724.044	25985.62
724.386	26030.36
724.729	26025.39
725.071	25992.4
725.413	26040.98
725.755	26042.56
726.097	25910.82
726.439	25747.43
726.782	25753.08
727.124	25911.49
727.465	25661.78
727.807	25650.94
728.149	25548.57
728.491	25616.36
728.833	25645.29
729.175	25417.5
729.516	25476.7
729.858	25457.72
730.199	25408.46
730.541	25382.02
730.882	25292.75
731.224	25424.05
731.565	25164.17
731.906	25260.21
732.248	25227.22
732.589	25065.41
732.93	25013.21
733.271	24909.03
733.612	25039.88
733.953	25021.8
734.294	24921.92
734.635	24845.08
734.976	24972.08
735.317	24749.49
735.658	24857.06
735.999	24864.06
736.339	24735.25
736.68	24947.9
737.021	24807.79
737.361	24643.28
737.702	24829.04
738.042	24794.91
738.383	24688.48
738.723	24665.65
739.063	24592.66
739.404	24579.55
739.744	24511.08
740.084	24417.97
740.424	24410.29
740.764	24389.27
741.104	24406.67
741.444	24315.15
741.784	24125.55
742.124	24348.6
742.464	24220.69
742.804	24163.97
743.143	24177.53
743.483	24088.72
743.823	24032.9
744.162	23979.34
744.502	24064.08
744.841	23799.23
745.181	24055.72
745.52	23882.85
745.86	24007.36
746.199	23862.96
746.538	23806.01
746.877	23874.49
747.216	23831.1
747.556	23729.63
747.895	23872
748.234	23629.75
748.573	23632.68
748.911	23523.08
749.25	23570.99
749.589	23526.7
749.928	23524.21
750.267	23507.04
750.605	23438.11
750.944	23399.02
751.283	23272.02
751.621	23292.58
751.96	23188.18
752.298	23167.16
752.636	23239.02
752.975	23154.5
753.313	22997.9
753.651	23157.89
753.989	22963.77
754.327	23015.75
754.666	22947.73
755.004	22910.44
755.342	22932.36
755.679	22906.6
756.017	22759.71
756.355	22887.39
756.693	22665.93
757.031	22712.71
757.368	22562.66
757.706	22551.36
758.044	22458.03
758.381	22580.06
758.719	22398.82
759.056	22476.1
759.394	22413.05
759.731	22183.23
760.068	22303.68
760.405	22158.6
760.743	22098.03
