Data from hue_38_FLMS001491_00034.txt Node
Date: Tue Feb 07 17:31:25 GMT 2017
User: dcchb
Spectrometer: FLMS00149
Trigger mode: 0
Integration Time (sec): 2.000000E-2
Scans to average: 10
Electric dark correction enabled: true
Nonlinearity correction enabled: false
Boxcar width: 0
XAxis mode: Wavelengths
Number of Pixels in Spectrum: 2048
>>>>>Begin Spectral Data<<<<<
341.393	-17.17
341.776	-17.17
342.16	-17.17
342.543	-67.79
342.927	-77.51
343.31	-87.91
343.693	-73.44
344.077	-47.91
344.46	-60.11
344.843	-56.27
345.226	-52.43
345.61	-17.85
345.993	-17.85
346.376	-3.39
346.759	37.29
347.142	25.31
347.525	51.3
347.908	34.35
348.291	84.07
348.674	70.51
349.057	114.35
349.44	138.08
349.823	157.74
350.206	163.39
350.588	177.85
350.971	222.14
351.354	221.69
351.737	229.6
352.119	249.48
352.502	262.59
352.884	259.88
353.267	303.04
353.65	282.7
354.032	317.28
354.414	315.25
354.797	338.07
355.179	331.97
355.562	335.36
355.944	350.95
356.326	342.59
356.709	344.17
357.091	350.27
357.473	348.69
357.855	348.92
358.238	369.48
358.62	333.1
359.002	342.36
359.384	342.59
359.766	336.04
360.148	344.85
360.53	331.74
360.912	329.03
361.294	338.3
361.676	352.53
362.057	340.78
362.439	326.55
362.821	331.97
363.203	337.62
363.584	322.7
363.966	346.66
364.348	362.02
364.729	326.32
365.111	317.28
365.493	333.1
365.874	334.45
366.256	324.51
366.637	319.09
367.019	329.93
367.4	321.35
367.781	307.79
368.163	321.35
368.544	312.76
368.925	295.81
369.306	312.31
369.688	319.99
370.069	324.29
370.45	303.04
370.831	319.31
371.212	319.09
371.593	310.27
371.974	334
372.355	303.27
372.736	325.19
373.117	325.19
373.498	324.74
373.879	326.09
374.26	306.21
374.641	329.71
375.021	339.2
375.402	320.22
375.783	338.3
376.163	339.2
376.544	321.57
376.925	325.19
377.305	327.22
377.686	322.93
378.066	333.78
378.447	329.26
378.827	334.91
379.208	343.49
379.588	329.03
379.968	342.36
380.349	312.76
380.729	328.35
381.109	304.4
381.489	337.17
381.87	345.75
382.25	332.87
382.63	345.53
383.01	342.36
383.39	334.68
383.77	352.76
384.15	341.91
384.53	345.98
384.91	349.6
385.29	353.66
385.67	345.3
386.049	353.66
386.429	371.74
386.809	360.22
387.189	352.99
387.568	350.27
387.948	373.78
388.328	367.9
388.707	350.05
389.087	352.53
389.466	373.55
389.846	350.95
390.225	375.13
390.605	384.4
390.984	379.65
391.363	394.57
391.743	349.6
392.122	373.1
392.501	364.51
392.881	385.3
393.26	368.13
393.639	374.45
394.018	394.57
394.397	357.73
394.776	383.04
395.155	375.36
395.534	392.31
395.913	388.24
396.292	402.48
396.671	409.25
397.05	388.69
397.429	357.28
397.808	389.59
398.186	357.73
398.565	375.36
398.944	380.33
399.323	384.62
399.701	404.28
400.08	375.36
400.458	404.06
400.837	390.05
401.215	402.93
401.594	394.79
401.972	410.16
402.351	409.03
402.729	402.48
403.107	429.14
403.486	420.33
403.864	409.93
404.242	414
404.62	411.06
404.999	414.9
405.377	418.75
405.755	421.01
406.133	417.62
406.511	424.4
406.889	441.8
407.267	437.05
407.645	434.79
408.023	451.29
408.401	431.85
408.779	439.08
409.156	450.16
409.534	444.96
409.912	453.32
410.29	440.21
410.667	441.57
411.045	447.22
411.422	443.15
411.8	459.87
412.178	462.36
412.555	479.54
412.933	476.37
413.31	473.89
413.687	489.03
414.065	481.57
414.442	477.5
414.819	495.81
415.197	482.02
415.574	481.12
415.951	468.01
416.328	474.34
416.705	486.77
417.082	498.07
417.46	510.72
417.837	496.94
418.214	519.76
418.591	516.82
418.967	505.3
419.344	498.07
419.721	498.52
420.098	539.65
420.475	530.61
420.852	519.76
421.228	529.7
421.605	539.19
421.982	532.19
422.358	536.94
422.735	566.09
423.111	525.86
423.488	543.94
423.864	540.78
424.241	559.53
424.617	576.03
424.994	555.01
425.37	553.66
425.746	555.92
426.123	569.48
426.499	566.54
426.875	595.24
427.251	584.84
427.627	600.44
428.003	593.43
428.379	611.28
428.756	607.22
429.132	592.3
429.507	606.76
429.883	626.2
430.259	611.96
430.635	623.94
431.011	624.62
431.387	661
431.763	634.56
432.138	648.34
432.514	645.41
432.89	659.19
433.265	661.23
433.641	665.97
434.016	662.58
434.392	686.76
434.767	692.86
435.143	684.5
435.518	688.57
435.894	723.82
436.269	700.77
436.644	704.16
437.02	718.85
437.395	700.09
437.77	712.98
438.145	736.48
438.52	731.28
438.895	712.52
439.271	734.9
439.646	753.43
440.021	746.65
440.395	744.84
440.77	742.13
441.145	752.52
441.52	767.89
441.895	772.86
442.27	777.83
442.645	750.71
443.019	773.76
443.394	790.49
443.769	791.62
444.143	788.23
444.518	805.18
444.892	804.95
445.267	805.63
445.641	819.41
446.016	815.8
446.39	828.68
446.764	833.65
447.139	829.58
447.513	816.25
447.887	859.41
448.262	844.27
448.636	839.98
449.01	841.33
449.384	857.6
449.758	858.51
450.132	886.08
450.506	874.33
450.88	882.01
451.254	872.52
451.628	872.97
452.002	879.52
452.376	903.71
452.75	887.66
453.123	917.04
453.497	930.15
453.871	923.37
454.244	942.12
454.618	927.21
454.992	973.08
455.365	958.17
455.739	977.6
456.112	984.15
456.486	978.51
456.859	1021.89
457.232	1028.45
457.606	1005.62
457.979	1010.82
458.352	1034.32
458.725	1043.81
459.099	1079.07
459.472	1106.19
459.845	1089.46
460.218	1109.58
460.591	1099.86
460.964	1091.95
461.337	1131.95
461.71	1131.72
462.083	1169.46
462.456	1140.76
462.829	1157.94
463.201	1201.55
463.574	1200.42
463.947	1207.65
464.32	1251.94
464.692	1229.57
465.065	1280.19
465.438	1289.68
465.81	1281.55
466.183	1303.02
466.555	1318.61
466.928	1347.31
467.3	1367.87
467.672	1363.35
468.045	1421.21
468.417	1430.02
468.789	1431.6
469.161	1431.83
469.534	1496.01
469.906	1496.91
470.278	1530.36
470.65	1545.27
471.022	1604.25
471.394	1614.19
471.766	1624.59
472.138	1675.21
472.51	1668.2
472.882	1757.24
473.253	1753.17
473.625	1774.87
473.997	1814.42
474.369	1845.38
474.74	1879.5
475.112	1928.99
475.484	1914.53
475.855	2017.35
476.227	2017.57
476.598	2087.63
476.97	2157.91
477.341	2198.81
477.713	2250.11
478.084	2272.93
478.455	2389.77
478.827	2406.49
479.198	2468.18
479.569	2504.34
479.94	2624.56
480.311	2633.83
480.682	2734.39
481.053	2759.7
481.424	2844.22
481.795	2913.14
482.166	2990.66
482.537	3050.09
482.908	3136.64
483.279	3190.42
483.65	3300.03
484.021	3352
484.391	3457.31
484.762	3526.46
485.133	3590.19
485.503	3687.36
485.874	3797.87
486.244	3890.07
486.615	3970.52
486.985	4017.3
487.356	4152.89
487.726	4213.67
488.097	4363.73
488.467	4381.35
488.837	4566.89
489.207	4618.86
489.578	4771.85
489.948	4872.64
490.318	4979.08
490.688	5043.48
491.058	5165.51
491.428	5235.79
491.798	5370.93
492.168	5512.17
492.538	5560.53
492.908	5692.28
493.278	5806.18
493.648	5850.47
494.017	5951.93
494.387	6094.3
494.757	6171.59
495.126	6292.26
495.496	6306.27
495.866	6421.3
496.235	6569.32
496.605	6692.25
496.974	6758.69
497.344	6790.33
497.713	6942.87
498.082	7016.31
498.452	7109.64
498.821	7241.17
499.19	7243.88
499.559	7379.02
499.928	7522.97
500.298	7585.11
500.667	7641.83
501.036	7658.78
501.405	7772
501.774	7801.38
502.143	7979.45
502.512	7983.97
502.88	8126.34
503.249	8149.16
503.618	8292.89
503.987	8368.59
504.356	8434.35
504.724	8484.52
505.093	8553.9
505.462	8629.15
505.83	8727.45
506.199	8801.8
506.567	8973.78
506.936	8931.52
507.304	9076.37
507.672	9109.14
508.041	9177.16
508.409	9223.03
508.777	9329.92
509.145	9399.07
509.514	9460.09
509.882	9589.13
510.25	9615.57
510.618	9722.91
510.986	9716.13
511.354	9811.27
511.722	9929.23
512.09	9980.98
512.458	10009.91
512.826	10034.31
513.193	10186.17
513.561	10171.26
513.929	10251.48
514.297	10365.83
514.664	10497.8
515.032	10538.93
515.4	10525.37
515.767	10638.36
516.135	10756.78
516.502	10615.31
516.869	10749.1
517.237	10889.43
517.604	10883.78
517.972	10998.13
518.339	11045.81
518.706	11043.33
519.073	11227.5
519.44	11199.03
519.808	11364.22
520.175	11318.35
520.542	11476.31
520.909	11500.26
521.276	11569.19
521.643	11697.55
522.009	11713.59
522.376	11835.17
522.743	11868.61
523.11	11963.3
523.477	12064.54
523.843	12128.27
524.21	12219.57
524.577	12312.67
524.943	12328.04
525.31	12484.19
525.676	12581.59
526.043	12623.17
526.409	12689.16
526.776	12855.03
527.142	12862.94
527.508	12960.34
527.874	13022.71
528.241	13117.17
528.607	13115.59
528.973	13304.28
529.339	13196.26
529.705	13416.14
530.071	13507.67
530.437	13557.61
530.803	13661.11
531.169	13708.57
531.535	13625.86
531.901	13753.76
532.267	13803.25
532.632	13956.92
532.998	13975.9
533.364	14030.37
533.73	14124.15
534.095	14236.24
534.461	14196.69
534.826	14276.01
535.192	14344.03
535.557	14471.26
535.923	14504.7
536.288	14566.4
536.653	14633.74
537.019	14558.94
537.384	14743.79
537.749	14847.75
538.114	14771.36
538.479	14786.5
538.845	14990.11
539.21	14914.41
539.575	14981.53
539.94	15061.07
540.305	15158.92
540.67	15131.81
541.034	15241.18
541.399	15252.03
541.764	15343.55
542.129	15312.37
542.494	15444.79
542.858	15551.91
543.223	15428.29
543.587	15696.31
543.952	15630.55
544.316	15712.36
544.681	15796.19
545.045	15869.64
545.41	15937.21
545.774	16013.14
546.138	16037.32
546.503	16086.36
546.867	16177.88
547.231	16250.87
547.595	16229.63
547.959	16292.68
548.324	16312.11
548.688	16470.98
549.052	16510.3
549.416	16506.46
549.779	16550.53
550.143	16553.24
550.507	16598.43
550.871	16718.88
551.235	16682.05
551.599	16913
551.962	16939.44
552.326	16971.76
552.689	17030.29
553.053	17026.22
553.417	17130.4
553.78	17248.59
554.143	17238.64
554.507	17309.15
554.87	17455.81
555.234	17616.71
555.597	17521.12
555.96	17488.58
556.323	17734.22
556.686	17628.69
557.05	17781.68
557.413	17829.81
557.776	17836.14
558.139	17999.3
558.502	17994.1
558.865	18039.3
559.228	18156.58
559.59	18187.32
559.953	18329.24
560.316	18490.59
560.679	18380.99
561.041	18483.36
561.404	18602.22
561.767	18733.74
562.129	18587.76
562.492	18803.57
562.854	18818.94
563.217	18813.97
563.579	18930.35
563.941	18974.87
564.304	19162.21
564.666	19218.25
565.028	19207.18
565.39	19283.56
565.753	19385.03
566.115	19480.17
566.477	19575.53
566.839	19604
567.201	19631.35
567.563	19771.68
567.925	19893.26
568.287	19939.59
568.648	19954.73
569.01	20023.65
569.372	20159.24
569.734	20034.73
570.095	20350.88
570.457	20314.95
570.819	20441.95
571.18	20423.87
571.542	20672.45
571.903	20644.65
572.265	20694.6
572.626	20796.52
572.987	20816.85
573.349	20955.83
573.71	21094.36
574.071	21168.48
574.432	21280.57
574.794	21354.47
575.155	21497.29
575.516	21464.52
575.877	21702.25
576.238	21767.79
576.599	21886.66
576.96	21875.58
577.32	22070.61
577.681	22201.22
578.042	22415
578.403	22366.87
578.763	22481.44
579.124	22667.43
579.485	22763.92
579.845	23106.74
580.206	23193.29
580.566	23369.78
580.927	23378.59
581.287	23558.93
581.648	23722.99
582.008	23946.26
582.368	24115.07
582.728	24157.1
583.089	24286.37
583.449	24475.97
583.809	24675.06
584.169	24856.75
584.529	24944.65
584.889	25271.65
585.249	25297.64
585.609	25514.58
585.969	25795.93
586.329	25878.19
586.688	26158.63
587.048	26378.52
587.408	26570.15
587.768	26660.99
588.127	26908.22
588.487	27019.85
588.846	27357.92
589.206	27392.95
589.565	27685.15
589.925	27928.98
590.284	28129.43
590.643	28303.89
591.003	28540.27
591.362	28842.18
591.721	28961.72
592.08	29094.6
592.44	29543.4
592.799	29552.44
593.158	29762.38
593.517	29950.17
593.876	30223.16
594.235	30401.46
594.593	30592.42
594.952	30838.74
595.311	30904.27
595.67	31297.26
596.029	31560.98
596.387	31818.15
596.746	32001.19
597.104	32019.05
597.463	32138.59
597.822	32514.85
598.18	32529.31
598.538	32787.61
598.897	33010.66
599.255	32914.61
599.613	33601.83
599.972	33493.81
600.33	33737.87
600.688	33710.07
601.046	34019.9
601.404	34386.21
601.762	34336.95
602.12	34745.08
602.478	34730.61
602.836	34993.66
603.194	35004.73
603.552	35129.92
603.91	35249.92
604.268	35449.24
604.625	35502.34
604.983	35930.35
605.341	35915.21
605.698	36020.75
606.056	36188.2
606.413	36402.88
606.771	36621.18
607.128	36661.63
607.485	36603.78
607.843	36891.91
608.2	37081.96
608.557	37209.42
608.914	37169.42
609.272	37505.91
609.629	37646.69
609.986	37882.39
610.343	37757.88
610.7	37992
611.057	38065.89
611.414	38133.69
611.771	38462.04
612.127	38634.92
612.484	38598.08
612.841	38804.86
613.198	38681.69
613.554	38829.04
613.911	39060.22
614.267	39129.59
614.624	39265.41
614.98	39474.67
615.337	39693.87
615.693	39620.43
616.05	39613.2
616.406	40019.06
616.762	39891.61
617.118	40008.67
617.475	40043.24
617.831	40133.18
618.187	40247.53
618.543	40540.63
618.899	40639.16
619.255	40661.98
619.611	40703.34
619.967	40784.69
620.323	40991.46
620.678	40781.75
621.034	40909.21
621.39	41066.72
621.746	40933.84
622.101	41414.28
622.457	41206.15
622.812	41330.21
623.168	41316.88
623.523	41387.84
623.879	41715.51
624.234	41311.91
624.589	41354.17
624.945	41432.36
625.3	41695.63
625.655	41527.95
626.01	41657.66
626.365	41847.94
626.72	41710.54
627.075	41720.71
627.43	41846.36
627.785	41658.34
628.14	41840.03
628.495	41923.87
628.85	41841.16
629.205	41851.55
629.559	41873.25
629.914	41829.41
630.269	41987.6
630.623	41876.19
630.978	41792.8
631.332	42015.84
631.687	42110.53
632.041	41863.53
632.396	41993.02
632.75	41832.57
633.104	42061.04
633.459	41808.62
633.813	42008.39
634.167	41901.05
634.521	41905.56
634.875	41971.33
635.229	42117.76
635.583	41810.43
635.937	41882.97
636.291	41848.39
636.645	41875.96
636.999	41777.88
637.352	41962.51
637.706	41670.99
638.06	41805.68
638.413	41682.97
638.767	41633.48
639.121	41723.65
639.474	41489.98
639.828	41626.02
640.181	41655.4
640.534	41638.91
640.888	41625.8
641.241	41472.58
641.594	41556.65
641.947	41590.09
642.301	41410.44
642.654	41537.66
643.007	41487.72
643.36	41539.25
643.713	41306.48
644.066	41566.59
644.419	41307.61
644.771	41088.64
645.124	40713.05
645.477	40594.64
645.83	40577.46
646.182	40365.49
646.535	40219.28
646.888	40383.12
647.24	40217.47
647.593	40376.79
647.945	40376.57
648.298	40107.87
648.65	40126.85
649.002	40073.52
649.355	40220.19
649.707	40099.96
650.059	40298.6
650.411	40767.52
650.763	40778.14
651.115	41052.25
651.467	41056.55
651.819	41038.92
652.171	40929.09
652.523	40701.98
652.875	40854.97
653.227	40634.41
653.578	41060.39
653.93	40946.04
654.282	40724.8
654.633	40658.59
654.985	40695.43
655.337	40686.39
655.688	40690.91
656.039	40931.81
656.391	40534.3
656.742	40688.2
657.094	40675.54
657.445	40787.63
657.796	40765.26
658.147	40684.81
658.498	40572.04
658.849	40686.39
659.2	40586.96
659.551	40461.53
659.902	40734.3
660.253	40666.95
660.604	40621.53
660.955	40502.21
661.306	40465.6
661.656	40521.42
662.007	40481.42
662.358	40480.07
662.708	40487.97
663.059	40499.05
663.409	40166.18
663.76	40543.34
664.11	40511.93
664.461	40576.33
664.811	40621.98
665.161	40431.48
665.511	40265.16
665.862	40476.22
666.212	40453.85
666.562	40524.58
666.912	40296.79
667.262	40356.9
667.612	40282.1
667.962	40537.01
668.312	40386.96
668.662	40398.03
669.011	40366.4
669.361	40331.59
669.711	40379.28
670.06	40283.91
670.41	40244.59
670.76	40156.91
671.109	40249.79
671.459	40445.94
671.808	40130.47
672.157	40340.63
672.507	40091.83
672.856	40032.17
673.205	40018.83
673.554	40220.41
673.904	39977.71
674.253	40295.21
674.602	40090.92
674.951	39522.58
675.3	39443.03
675.649	40094.31
675.998	39932.96
676.346	39993.07
676.695	40119.62
677.044	39874.21
677.393	39928.44
677.741	39949.68
678.09	39791.95
678.438	39691.39
678.787	39769.8
679.135	39930.7
679.484	39616.59
679.832	39857.26
680.181	39606.19
680.529	39712.85
680.877	39558.06
681.225	39523.93
681.573	39760.76
681.922	39371.62
682.27	39413.65
682.618	39362.81
682.966	39260.89
683.314	39308.34
683.661	39087.56
684.009	39015.7
684.357	39036.94
684.705	38855.25
685.053	39016.6
685.4	38880.56
685.748	38625.2
686.095	38654.35
686.443	38696.16
686.79	38490.97
687.138	38682.82
687.485	38568.48
687.832	38472.89
688.18	38385.21
688.527	38329.16
688.874	38245.1
689.221	38166
689.568	38168.49
689.915	38043.97
690.262	38009.85
690.609	37845.11
690.956	37945.44
691.303	37814.82
691.65	37607.6
691.997	37591.33
692.344	37363.76
692.69	37481.73
693.037	37402.63
693.383	37073.15
693.73	37214.39
694.077	36990.44
694.423	36896.88
694.769	36870.22
695.116	36814.4
695.462	36711.13
695.808	36527.4
696.155	36729.43
696.501	36362.66
696.847	36525.37
697.193	36255.32
697.539	36305.26
697.885	36039.28
698.231	36030.24
698.577	35940.07
698.923	36013.06
699.269	35805.16
699.614	35619.85
699.96	35552.29
700.306	35522.23
700.651	35433.64
700.997	35254.44
701.342	35200.43
701.688	35177.61
702.033	35106.2
702.379	34874.56
702.724	34976.71
703.069	35095.35
703.415	34658.52
703.76	34574.23
704.105	34665.53
704.45	34628.69
704.795	34456.27
705.14	34343.73
705.485	34267.57
705.83	34132.66
706.175	34324.75
706.52	34060.35
706.865	34036.85
707.209	33951.2
707.554	33860.8
707.899	33977.19
708.243	33812.67
708.588	33720.92
708.932	33537.88
709.277	33445
709.621	33432.57
709.966	33229.18
710.31	33297.2
710.654	32935.86
710.998	33124.33
711.342	33081.16
711.687	32999.13
712.031	32868.06
712.375	32714.85
712.719	32886.14
713.063	32672.36
713.407	32872.58
713.75	32490.22
714.094	32551.01
714.438	32439.6
714.782	32461.07
715.125	32306.04
715.469	32364.12
715.812	32127.52
716.156	32144.24
716.499	32029.67
716.843	32085.94
717.186	31871.48
717.53	31997.58
717.873	31920.29
718.216	31931.59
718.559	31749
718.902	31575.89
719.246	31645.5
719.589	31441.66
719.932	31322.57
720.275	31295.67
720.617	31381.55
720.96	31170.03
721.303	31332.74
721.646	31414.32
721.989	30989.69
722.331	31230.37
722.674	31115.34
723.016	31014.55
723.359	31013.65
723.701	31083.7
724.044	30895.68
724.386	30746.54
724.729	30778.85
725.071	30715.8
725.413	30670.38
725.755	30789.47
726.097	30736.14
726.439	30623.6
726.782	30441.01
727.124	30665.18
727.465	30443.95
727.807	30337.51
728.149	30343.38
728.491	30311.07
728.833	30302.25
729.175	30175.48
729.516	30143.61
729.858	30021.81
730.199	30135.25
730.541	30001.7
730.882	29966.22
731.224	30040.57
731.565	29809.16
731.906	29809.16
732.248	29905.65
732.589	29674.02
732.93	29673.8
733.271	29633.57
733.612	29683.06
733.953	29615.94
734.294	29505.89
734.635	29418.66
734.976	29454.59
735.317	29298.44
735.658	29304.77
735.999	29274.48
736.339	29256.41
736.68	29431.54
737.021	29249.85
737.361	29173.92
737.702	29248.27
738.042	29142.96
738.383	29062.96
738.723	29201.49
739.063	29130.31
739.404	29017.99
739.744	28955.17
740.084	28819.81
740.424	28788.4
740.764	28841.95
741.104	28816.19
741.444	28673.37
741.784	28715.18
742.124	28807.6
742.464	28657.1
742.804	28538.23
743.143	28569.87
743.483	28540.72
743.823	28325.36
744.162	28374.4
744.502	28358.58
744.841	28272.25
745.181	28286.26
745.52	28189.99
745.86	28244.23
746.199	28130.33
746.538	28085.82
746.877	28173.27
747.216	28334.4
747.556	28074.06
747.895	28063.22
748.234	27966.27
748.573	27860.28
748.911	27859.15
749.25	27812.15
749.589	27747.74
749.928	27764.47
750.267	27802.66
750.605	27623.91
750.944	27532.38
751.283	27419.62
751.621	27551.37
751.96	27301.2
752.298	27383.23
752.636	27415.1
752.975	27105.05
753.313	27160.64
753.651	27299.85
753.989	27093.98
754.327	27051.72
754.666	26918.61
755.004	26946.86
755.342	27080.42
755.679	26886.52
756.017	26799.97
756.355	26857.6
756.693	26639.98
757.031	26748
