Data from hue_24_FLMS001491_00043.txt Node
Date: Tue Feb 07 17:12:19 GMT 2017
User: dcchb
Spectrometer: FLMS00149
Trigger mode: 0
Integration Time (sec): 2.000000E-2
Scans to average: 10
Electric dark correction enabled: true
Nonlinearity correction enabled: false
Boxcar width: 0
XAxis mode: Wavelengths
Number of Pixels in Spectrum: 2048
>>>>>Begin Spectral Data<<<<<
341.393	-19.24
341.776	-19.24
342.16	-19.24
342.543	-53.36
342.927	-66.92
343.31	-84.55
343.693	-84.09
344.077	-60.82
344.46	-82.06
344.843	-41.84
345.226	-54.26
345.61	-35.73
345.993	-13.14
346.376	-3.19
346.759	-2.06
347.142	32.29
347.525	61.89
347.908	78.61
348.291	82.46
348.674	96.24
349.057	110.25
349.44	120.87
349.823	155.9
350.206	142.11
350.588	196.58
350.971	195.22
351.354	220.53
351.737	232.51
352.119	245.62
352.502	254.88
352.884	289.23
353.267	259.4
353.65	278.83
354.032	306.86
354.414	317.7
354.797	312.51
355.179	300.98
355.562	323.58
355.944	323.35
356.326	325.84
356.709	343.69
357.091	322.45
357.473	331.04
357.855	339.17
358.238	344.14
358.62	347.08
359.002	337.59
359.384	350.92
359.766	320.42
360.148	360.64
360.53	340.75
360.912	338.27
361.294	325.84
361.676	324.93
362.057	328.78
362.439	321.55
362.821	311.15
363.203	322.22
363.584	330.58
363.966	318.38
364.348	313.41
364.729	319.74
365.111	339.4
365.493	298.49
365.874	324.48
366.256	332.84
366.637	312.05
367.019	321.32
367.4	331.26
367.781	303.92
368.163	303.92
368.544	306.18
368.925	306.86
369.306	318.61
369.688	331.04
370.069	322.45
370.45	302.56
370.831	301.43
371.212	309.57
371.593	310.02
371.974	291.72
372.355	308.89
372.736	321.32
373.117	310.25
373.498	312.73
373.879	333.3
374.26	288.78
374.641	324.03
375.021	302.11
375.402	310.7
375.783	315.9
376.163	326.97
376.544	333.52
376.925	314.99
377.305	333.97
377.686	330.81
378.066	317.93
378.447	333.97
378.827	342.11
379.208	330.81
379.588	330.81
379.968	336.69
380.349	342.11
380.729	353.86
381.109	342.34
381.489	333.3
381.87	341.21
382.25	336.23
382.63	359.74
383.01	336.01
383.39	359.06
383.77	343.92
384.15	348.66
384.53	354.09
384.91	349.34
385.29	340.53
385.67	351.15
386.049	343.69
386.429	360.64
386.809	343.24
387.189	348.66
387.568	372.84
387.948	345.95
388.328	336.91
388.707	342.34
389.087	370.36
389.466	377.36
389.846	362.45
390.225	369.91
390.605	381.88
390.984	362.9
391.363	370.58
391.743	370.58
392.122	360.41
392.501	376.23
392.881	371.26
393.26	375.33
393.639	364.48
394.018	365.16
394.397	376.91
394.776	385.95
395.155	379.62
395.534	401.09
395.913	385.72
396.292	392.05
396.671	364.93
397.05	381.88
397.429	389.79
397.808	392.73
398.186	405.84
398.565	416.91
398.944	396.12
399.323	394.76
399.701	380.53
400.08	408.32
400.458	412.16
400.837	397.25
401.215	412.16
401.594	393.86
401.972	430.92
402.351	406.74
402.729	411.71
403.107	391.37
403.486	427.76
403.864	443.35
404.242	432.95
404.62	409
404.999	428.66
405.377	421.66
405.755	429.11
406.133	426.63
406.511	418.72
406.889	443.12
407.267	443.35
407.645	427.08
408.023	451.03
408.401	447.64
408.779	450.58
409.156	448.1
409.534	453.75
409.912	450.58
410.29	482.67
410.667	454.42
411.045	448.32
411.422	474.54
411.8	467.3
412.178	451.71
412.555	466.17
412.933	486.74
413.31	479.51
413.687	496.91
414.065	487.64
414.442	476.34
414.819	488.55
415.197	496.46
415.574	500.98
415.951	507.53
416.328	507.53
416.705	506.63
417.082	509.11
417.46	517.02
417.837	533.74
418.214	529.9
418.591	525.61
418.967	534.65
419.344	525.83
419.721	529.9
420.098	543.69
420.475	520.64
420.852	546.85
421.228	546.62
421.605	558.6
421.982	543.91
422.358	541.65
422.735	564.7
423.111	567.64
423.488	572.61
423.864	563.57
424.241	577.36
424.617	567.19
424.994	583.91
425.37	566.74
425.746	572.84
426.123	573.74
426.499	587.75
426.875	589.56
427.251	604.93
427.627	609.45
428.003	628.2
428.379	605.83
428.756	627.75
429.132	644.47
429.507	615.55
429.883	637.02
430.259	660.75
430.635	627.07
431.011	639.5
431.387	648.54
431.763	653.97
432.138	663.46
432.514	671.59
432.89	681.76
433.265	674.53
433.641	693.29
434.016	691.03
434.392	719.5
434.767	711.37
435.143	712.5
435.518	721.53
435.894	713.85
436.269	710.91
436.644	746.39
437.02	710.91
437.395	710.69
437.77	731.25
438.145	759.27
438.52	744.13
438.895	764.7
439.271	757.92
439.646	776.67
440.021	777.35
440.395	757.69
440.77	764.02
441.145	776.9
441.52	794.08
441.895	787.97
442.27	808.54
442.645	802.21
443.019	806.5
443.394	823.45
443.769	811.25
444.143	801.31
444.518	822.55
444.892	836.33
445.267	822.55
445.641	845.6
446.016	837.92
446.39	846.73
446.764	871.59
447.139	841.76
447.513	867.97
447.887	874.3
448.262	881.98
448.636	878.14
449.01	871.59
449.384	853.06
449.758	896.22
450.132	895.54
450.506	886.5
450.88	913.17
451.254	920.4
451.628	922.21
452.002	930.79
452.376	904.35
452.75	952.94
453.123	936.44
453.497	977.8
453.871	965.6
454.244	970.79
454.618	1000.17
454.992	991.58
455.365	997.91
455.739	1043.33
456.112	1043.33
456.486	1044.69
456.859	1036.33
457.232	1065.03
457.606	1063.22
457.979	1070.45
458.352	1079.49
458.725	1097.12
459.099	1105.48
459.472	1134.18
459.845	1105.25
460.218	1126.95
460.591	1147.06
460.964	1140.96
461.337	1158.81
461.71	1169.21
462.083	1201.07
462.456	1204.69
462.829	1220.73
463.201	1221.63
463.574	1248.07
463.947	1262.76
464.32	1274.97
464.692	1283.1
465.065	1294.4
465.438	1336.66
465.81	1332.59
466.183	1348.18
466.555	1363.78
466.928	1369.2
467.3	1373.95
467.672	1389.09
468.045	1437.45
468.417	1439.03
468.789	1432.25
469.161	1470.44
469.534	1496.43
469.906	1517.45
470.278	1535.52
470.65	1552.02
471.022	1584.79
471.394	1602.64
471.766	1656.2
472.138	1639.48
472.51	1660.27
472.882	1693.49
473.253	1714.05
473.625	1737.33
473.997	1794.27
474.369	1790.43
474.74	1807.61
475.112	1852.8
475.484	1887.61
475.855	1904.33
476.227	1937.32
476.598	1943.2
476.97	2038.34
477.341	2046.25
477.713	2100.03
478.084	2083.08
478.455	2151.1
478.827	2162.4
479.198	2243.3
479.569	2266.13
479.94	2318.55
480.311	2333.24
480.682	2411.21
481.053	2444.65
481.424	2523.52
481.795	2574.82
482.166	2581.37
482.537	2625.21
482.908	2677.87
483.279	2693.69
483.65	2769.39
484.021	2848.94
484.391	2859.33
484.762	2932.55
485.133	2942.27
485.503	2997.18
485.874	3077.18
486.244	3080.34
486.615	3188.36
486.985	3223.16
487.356	3221.13
487.726	3335.93
488.097	3367.11
488.467	3389.49
488.837	3502.48
489.207	3533.66
489.578	3584.28
489.948	3629.48
490.318	3686.2
490.688	3668.35
491.058	3780.44
491.428	3874.22
491.798	3902.92
492.168	3979.08
492.538	4002.58
492.908	4044.39
493.278	4082.58
493.648	4078.28
494.017	4163.7
494.387	4194.21
494.757	4217.04
495.126	4317.82
495.496	4287.32
495.866	4346.98
496.235	4440.53
496.605	4488.44
496.974	4450.48
497.344	4505.62
497.713	4538.38
498.082	4570.93
498.452	4638.04
498.821	4655.89
499.19	4659.06
499.559	4718.27
499.928	4752.16
500.298	4798.49
500.667	4848.88
501.036	4847.53
501.405	4886.85
501.774	4901.99
502.143	4973.63
502.512	4987.19
502.88	5043.23
503.249	5064.47
503.618	5044.13
503.987	5096.79
504.356	5165.03
504.724	5191.02
505.093	5201.87
505.462	5177.01
505.83	5258.14
506.199	5255.88
506.567	5357.8
506.936	5327.52
507.304	5391.69
507.672	5424.91
508.041	5408.87
508.409	5489.54
508.777	5487.51
509.145	5534.06
509.514	5525.7
509.882	5573.16
510.25	5597.79
510.618	5580.16
510.986	5650.44
511.354	5689.09
511.722	5746.49
512.09	5738.13
512.458	5800.5
512.826	5769.99
513.193	5847.05
513.561	5862.42
513.929	5902.64
514.297	5936.54
514.664	5976.09
515.032	6045.01
515.4	6040.94
515.767	5980.38
516.135	6089.08
516.502	6085.69
516.869	6113.26
517.237	6123.88
517.604	6103.54
517.972	6139.47
518.339	6200.26
518.706	6215.4
519.073	6276.64
519.44	6314.61
519.808	6337.66
520.175	6334.04
520.542	6386.24
520.909	6416.75
521.276	6375.17
521.643	6461.95
522.009	6469.86
522.376	6539.23
522.743	6565.22
523.11	6630.08
523.477	6686.58
523.843	6673.24
524.21	6708.5
524.577	6767.48
524.943	6805.44
525.31	6816.29
525.676	6865.78
526.043	6921.15
526.409	6932.9
526.776	6986.45
527.142	7001.37
527.508	7011.54
527.874	7079.56
528.241	7158.88
528.607	7130.18
528.973	7195.94
529.339	7204.08
529.705	7273.9
530.071	7353.9
530.437	7338.76
530.803	7378.31
531.169	7400.46
531.535	7379.89
531.901	7422.38
532.267	7502.6
532.632	7560.68
532.998	7598.42
533.364	7604.74
533.73	7598.42
534.095	7682.71
534.461	7660.56
534.826	7797.05
535.192	7767
535.557	7889.71
535.923	7805.64
536.288	7900.78
536.653	7903.49
537.019	7936.94
537.384	7947.56
537.749	8051.96
538.114	8093.77
538.479	8047.9
538.845	8104.39
539.21	8096.26
539.575	8096.26
539.94	8177.38
540.305	8239.98
540.67	8236.37
541.034	8290.83
541.399	8257.61
541.764	8322.01
542.129	8329.7
542.494	8329.7
542.858	8448.56
543.223	8453.99
543.587	8504.83
543.952	8505.28
544.316	8588.9
544.681	8550.71
545.045	8552.52
545.41	8663.25
545.774	8703.47
546.138	8625.51
546.503	8688.33
546.867	8678.39
547.231	8853.52
547.595	8830.7
547.959	8832.73
548.324	8918.38
548.688	8973.07
549.052	8953.18
549.416	8987.98
549.779	8990.92
550.143	9058.49
550.507	9025.72
550.871	9128.09
551.235	9095.55
551.599	9157.25
551.962	9220.52
552.326	9145.95
552.689	9259.84
553.053	9265.26
553.417	9220.52
553.78	9392.04
554.143	9443.79
554.507	9391.36
554.87	9391.82
555.234	9505.26
555.597	9492.38
555.96	9550
556.323	9546.84
556.686	9532.15
557.05	9615.54
557.413	9600.85
557.776	9587.06
558.139	9720.62
558.502	9719.94
558.865	9781.86
559.228	9875.19
559.59	9824.12
559.953	9876.77
560.316	9994.74
560.679	9931.69
561.041	9987.73
561.404	10085.36
561.767	10133.49
562.129	10156.77
562.492	10211.45
562.854	10182.75
563.217	10225.01
563.579	10182.3
563.941	10296.42
564.304	10305.01
564.666	10351.56
565.028	10376.42
565.39	10446.25
565.753	10483.31
566.115	10509.98
566.477	10566.93
566.839	10556.76
567.201	10668.39
567.563	10565.12
567.925	10729.86
568.287	10810.99
568.648	10789.07
569.01	10855.28
569.372	10949.29
569.734	10853.92
570.095	10971.66
570.457	11100.02
570.819	11042.17
571.18	11061.15
571.542	11146.8
571.903	11183.86
572.265	11281.26
572.626	11239.45
572.987	11318.77
573.349	11353.35
573.71	11451.87
574.071	11416.17
574.432	11550.63
574.794	11672.89
575.155	11634.47
575.516	11578.2
575.877	11833.11
576.238	11907.91
576.599	11889.83
576.96	11996.49
577.32	11998.98
577.681	12139.31
578.042	12209.82
578.403	12295.69
578.763	12425.41
579.124	12431.96
579.485	12645.51
579.845	12784.72
580.206	12802.57
580.566	12909.69
580.927	13027.43
581.287	13152.17
581.648	13315.1
582.008	13545.83
582.368	13660.18
582.728	13781.53
583.089	13905.37
583.449	14154.85
583.809	14283.89
584.169	14496.09
584.529	14611.56
584.889	14824.44
585.249	14945.12
585.609	15032.12
585.969	15364.77
586.329	15532.67
586.688	15806.34
587.048	16027.12
587.408	16207.68
587.768	16418.75
588.127	16596.82
588.487	16895.8
588.846	17225.96
589.206	17309.8
589.565	17627.76
589.925	17964.02
590.284	18201.3
590.643	18505.02
591.003	18841.96
591.362	19046.25
591.721	19318.79
592.08	19564.43
592.44	19930.75
592.799	20166.45
593.158	20433.78
593.517	20740.22
593.876	21040.77
594.235	21291.39
594.593	21619.97
594.952	22003.01
595.311	22157.58
595.67	22473.73
596.029	22913.72
596.387	23223.32
596.746	23560.71
597.104	23746.69
597.463	23940.13
597.822	24367.47
598.18	24652.43
598.538	24973.55
598.897	25369.7
599.255	25541
599.613	26113.64
599.972	26214.42
600.33	26608.76
600.688	26846.27
601.046	27117.9
601.404	27542.07
601.762	27705.01
602.12	28243.75
602.478	28386.57
602.836	28710.4
603.194	28845.31
603.552	29080.56
603.91	29342.25
604.268	29747.66
604.625	30038.73
604.983	30369.12
605.341	30403.92
605.698	30801.65
606.056	31193.5
606.413	31433.27
606.771	31815.18
607.128	32050.88
607.485	31982.86
607.843	32363.64
608.2	32819
608.557	32945.32
608.914	33184.86
609.272	33576.72
609.629	33809.48
609.986	34152.97
610.343	34177.15
610.7	34665.73
611.057	34829.11
611.414	34859.17
611.771	34978.26
612.127	35400.62
612.484	35499.83
612.841	35885.36
613.198	35918.8
613.554	36002.41
613.911	36519.92
614.267	36592.46
614.624	36666.13
614.98	36944.31
615.337	37248.48
615.693	37327.35
616.05	37447.57
616.406	37744.52
616.762	37868.58
617.118	38002.14
617.475	38213.43
617.831	38463.82
618.187	38560.77
618.543	38633.98
618.899	38989.91
619.255	39219.51
619.611	39118.49
619.967	39457.01
620.323	39533.85
620.678	39587.86
621.034	39527.07
621.39	39715.76
621.746	39732.49
622.101	40398.91
622.457	40035.98
622.812	40240.5
623.168	40457.67
623.523	40400.94
623.879	40740.14
624.234	40542.63
624.589	40750.99
624.945	40966.35
625.3	41046.12
625.655	40991.66
626.01	41215.39
626.365	41186.23
626.72	41248.83
627.075	41235.95
627.43	41294.93
627.785	41312.78
628.14	41511.65
628.495	41684.75
628.85	41697.63
629.205	41462.84
629.559	41936.72
629.914	41633.45
630.269	41706.9
630.623	41768.14
630.978	41781.7
631.332	41972.65
631.687	42031.86
632.041	41990.05
632.396	42084.74
632.75	41964.97
633.104	42082.71
633.459	41906.67
633.813	41935.82
634.167	42015.36
634.521	42142.37
634.875	42167.45
635.229	42206.32
635.583	42013.78
635.937	42052.43
636.291	42049.04
636.645	42054.91
636.999	42034.8
637.352	42124.51
637.706	41860.79
638.06	42199.31
638.413	42025.31
638.767	41950.28
639.121	42144.17
639.474	41866.89
639.828	42029.38
640.181	42077.74
640.534	42146.43
640.888	41959.77
641.241	41785.31
641.594	42007
641.947	42042.03
642.301	41762.49
642.654	41979.88
643.007	41920.23
643.36	42012.43
643.713	42062.59
644.066	41965.2
644.419	41981.92
644.771	41489.73
645.124	41273.69
645.477	41229.17
645.83	40889.97
646.182	40979.69
646.535	40855.17
646.888	40977.2
647.24	40610.88
647.593	41010.64
647.945	40847.03
648.298	40688.62
648.65	40581.28
649.002	40662.18
649.355	40764.55
649.707	40667.6
650.059	40859.01
650.411	41348.26
650.763	41328.15
651.115	41775.82
651.467	41596.39
651.819	41582.16
652.171	41574.02
652.523	41522.95
652.875	41468.03
653.227	41306.46
653.578	41582.38
653.93	41560.91
654.282	41286.12
654.633	41333.8
654.985	41426.91
655.337	41494.7
655.688	41562.04
656.039	41569.73
656.391	41171.09
656.742	41364.99
657.094	41326.57
657.445	41385.78
657.796	41460.12
658.147	41354.36
658.498	41360.69
658.849	41418.09
659.2	41375.38
659.551	41276.85
659.902	41534.7
660.253	41422.61
660.604	41383.29
660.955	41162.05
661.306	41264.88
661.656	41406.79
662.007	41322.5
662.358	41296.29
662.708	41259.45
663.059	41183.07
663.409	41098.33
663.76	41387.58
664.11	41319.34
664.461	41359.11
664.811	41350.07
665.161	41221.26
665.511	41084.09
665.862	41287.47
666.212	41218.77
666.562	41266.91
666.912	41325.44
667.262	41222.84
667.612	41041.38
667.962	41206.12
668.312	41155.5
668.662	41231.88
669.011	41060.81
669.361	41116.86
669.711	41063.98
670.06	41040.7
670.41	40916.64
670.76	41014.03
671.109	41083.41
671.459	41082.28
671.808	40914.15
672.157	41137.65
672.507	40693.37
672.856	40837.54
673.205	40930.87
673.554	40989.18
673.904	40785.79
674.253	41061.49
674.602	40937.43
674.951	40396.42
675.3	40313.71
675.649	40783.76
675.998	40778.33
676.346	40803.42
676.695	40976.52
677.044	40633.48
677.393	40782.18
677.741	40850.88
678.09	40591.22
678.438	40651.56
678.787	40692.69
679.135	40677.77
679.484	40399.14
679.832	40584.44
680.181	40191.01
680.529	40396.2
680.877	40371.34
681.225	40160.27
681.573	40443.2
681.922	40304.67
682.27	40029.2
682.618	40234.39
682.966	40113.27
683.314	40039.37
683.661	39943.1
684.009	39837.12
684.357	39828.98
684.705	39631.47
685.053	39881.63
685.4	39678.25
685.748	39433.51
686.095	39485.26
686.443	39294.98
686.79	39353.06
687.138	39426.28
687.485	39457.47
687.832	39356
688.18	39314.64
688.527	39209.34
688.874	38981.32
689.221	39015.22
689.568	38942.22
689.915	38825.39
690.262	38850.25
690.609	38751.95
690.956	38716.24
691.303	38713.98
691.65	38504.95
691.997	38473.08
692.344	38177.5
692.69	38195.13
693.037	38132.3
693.383	37859.54
693.73	38043.04
694.077	37889.82
694.423	37750.62
694.769	37728.25
695.116	37597.18
695.462	37580
695.808	37528.7
696.155	37559.89
696.501	37229.05
696.847	37448.03
697.193	36975.95
697.539	37121.48
697.885	36885.1
698.231	36875.61
698.577	36860.02
698.923	36773.24
699.269	36651.66
699.614	36462.52
699.96	36355.4
700.306	36288.74
700.651	36194.05
700.997	36248.06
701.342	36083.54
701.688	36069.53
702.033	35841.97
702.379	35729.2
702.724	35794.74
703.069	35919.03
703.415	35379.83
703.76	35522.2
704.105	35546.61
704.45	35392.94
704.795	35176.22
705.14	35102.1
705.485	35032.72
705.83	34970.13
706.175	35060.29
706.52	34844.25
706.865	34829.34
707.209	34736.69
707.554	34585.73
707.899	34646.07
708.243	34499.63
708.588	34512.06
708.932	34166.98
709.277	34145.06
709.621	34231.39
709.966	34021
710.31	34163.82
710.654	33718.86
710.998	33842.02
711.342	33885.86
711.687	33812.64
712.031	33608.35
712.375	33513.67
712.719	33536.27
713.063	33636.83
713.407	33504.85
713.75	33421.47
714.094	33300.57
714.438	33328.36
714.782	33243.62
715.125	33109.38
715.469	33256.5
715.812	32988.03
716.156	32764.53
716.499	32863.97
716.843	32798.66
717.186	32648.83
717.53	32878.88
717.873	32891.31
718.216	32801.14
718.559	32564.31
718.902	32244.32
719.246	32454.26
719.589	32317.09
719.932	32113.48
720.275	32291.1
720.617	32161.16
720.96	32047.49
721.303	32210.88
721.646	32187.37
721.989	31886.59
722.331	31977.44
722.674	31941.5
723.016	31982.18
723.359	31854.5
723.701	31920.26
724.044	31742.87
724.386	31500.84
724.729	31739.48
725.071	31524.79
725.413	31570.89
725.755	31472.82
726.097	31311.46
726.439	31242.09
726.782	31237.57
727.124	31349.43
727.465	31115.09
727.807	31211.13
728.149	31129.77
728.491	31057.01
728.833	31078.93
729.175	30887.97
729.516	30891.59
729.858	30738.6
730.199	30849.1
730.541	30729.11
730.882	30703.57
731.224	30859.95
731.565	30620.64
731.906	30644.59
732.248	30577.92
732.589	30313.75
732.93	30337.93
733.271	30339.74
733.612	30430.13
733.953	30358.5
734.294	30296.12
734.635	30184.71
734.976	30184.26
735.317	30045.28
735.658	30062.68
735.999	30123.93
736.339	30060.65
736.68	30077.6
737.021	29956.02
737.361	29838.96
737.702	30031.05
738.042	29972.07
738.383	29886.19
738.723	29878.28
739.063	29705.18
739.404	29737.95
739.744	29765.29
740.084	29618.85
740.424	29668.8
740.764	29603.94
741.104	29718.06
741.444	29384.51
741.784	29363.27
742.124	29371.63
742.464	29432.87
742.804	29305.64
743.143	29317.84
743.483	29320.33
743.823	29124.86
744.162	28981.13
744.502	29237.17
744.841	29058.64
745.181	29109.49
745.52	28972.77
745.86	29060
746.199	29050.28
746.538	28923.96
746.877	28996.05
747.216	28957.18
747.556	28870.4
747.895	28844.19
748.234	28827.91
748.573	28749.95
748.911	28636.73
749.25	28655.94
749.589	28593.57
749.928	28644.42
750.267	28656.85
750.605	28576.17
750.944	28525.55
751.283	28380.02
751.621	28374.14
751.96	28244.88
752.298	28389.28
752.636	28337.53
752.975	28194.26
753.313	28158.1
753.651	28179.8
753.989	28065.45
754.327	28056.18
754.666	27909.52
755.004	27902.97
755.342	27886.02
755.679	27831.78
756.017	27741.16
756.355	27845.79
756.693	27628.62
757.031	27649.64
757.368	27514.5
757.706	27526.25
758.044	27436.54
758.381	27377.56
758.719	27373.72
759.056	27292.59
759.394	27193.61
