Data from hue_320_FLMS001491_63.txt Node
Date: Mon Feb 06 15:47:31 GMT 2017
User: dcchb
Spectrometer: FLMS00149
Trigger mode: 0
Integration Time (sec): 2.000000E-2
Scans to average: 10
Electric dark correction enabled: true
Nonlinearity correction enabled: false
Boxcar width: 0
XAxis mode: Wavelengths
Number of Pixels in Spectrum: 2048
>>>>>Begin Spectral Data<<<<<
341.393	-11.91
341.776	-11.91
342.16	-11.91
342.543	-58.91
342.927	-73.37
343.31	-61.85
343.693	-56.43
344.077	-75.86
344.46	-76.99
344.843	-71.11
345.226	-44.9
345.61	-33.6
345.993	-8.29
346.376	-2.87
346.759	-2.19
347.142	31.03
347.525	57.24
347.908	57.02
348.291	92.05
348.674	80.75
349.057	116
349.44	115.55
349.823	156.22
350.206	161.65
350.588	191.7
350.971	202.78
351.354	206.17
351.737	238.03
352.119	235.54
352.502	258.14
352.884	273.51
353.267	287.07
353.65	286.62
354.032	278.71
354.414	316.22
354.797	301.31
355.179	308.76
355.562	312.15
355.944	330.68
356.326	340.17
356.709	299.5
357.091	331.14
357.473	343.56
357.855	329.78
358.238	343.79
358.62	329.33
359.002	351.25
359.384	346.95
359.766	317.35
360.148	321.42
360.53	329.55
360.912	334.3
361.294	333.62
361.676	321.19
362.057	332.04
362.439	316.45
362.821	333.17
363.203	283.45
363.584	305.15
363.966	334.75
364.348	317.12
364.729	307.41
365.111	325.71
365.493	329.33
365.874	326.84
366.256	318.48
366.637	317.58
367.019	311.93
367.4	284.36
367.781	292.27
368.163	330.01
368.544	310.34
368.925	309.22
369.306	317.8
369.688	318.93
370.069	305.15
370.45	301.31
370.831	301.76
371.212	289.33
371.593	300.18
371.974	312.6
372.355	325.03
372.736	293.4
373.117	304.47
373.498	320.29
373.879	295.88
374.26	316.67
374.641	312.15
375.021	301.76
375.402	326.62
375.783	313.73
376.163	304.02
376.544	316.22
376.925	339.04
377.305	313.73
377.686	315.32
378.066	318.93
378.447	326.62
378.827	317.8
379.208	324.36
379.588	308.99
379.968	299.72
380.349	356.45
380.729	316.22
381.109	332.04
381.489	346.95
381.87	328.2
382.25	331.81
382.63	340.63
383.01	323.45
383.39	324.81
383.77	343.34
384.15	357.12
384.53	329.33
384.91	343.34
385.29	332.49
385.67	345.37
386.049	348.31
386.429	330.46
386.809	345.37
387.189	361.19
387.568	336.56
387.948	337.01
388.328	349.21
388.707	360.06
389.087	347.86
389.466	352.15
389.846	348.31
390.225	363.45
390.605	340.4
390.984	348.31
391.363	364.35
391.743	352.6
392.122	370
392.501	352.15
392.881	368.2
393.26	374.98
393.639	363
394.018	358.48
394.397	363.22
394.776	364.35
395.155	367.29
395.534	370.68
395.913	360.74
396.292	368.87
396.671	380.63
397.05	369.55
397.429	381.76
397.808	361.64
398.186	370.46
398.565	369.78
398.944	386.28
399.323	368.65
399.701	398.93
400.08	355.54
400.458	377.69
400.837	372.26
401.215	391.92
401.594	386.73
401.972	386.73
402.351	389.21
402.729	374.07
403.107	404.35
403.486	409.55
403.864	401.42
404.242	404.35
404.62	434.41
404.999	415.65
405.377	425.82
405.755	433.05
406.133	418.36
406.511	413.85
406.889	433.96
407.267	440.29
407.645	424.69
408.023	451.13
408.401	437.35
408.779	438.7
409.156	445.48
409.534	455.2
409.912	448.65
410.29	462.66
410.667	435.09
411.045	476.67
411.422	476.22
411.8	462.21
412.178	481.87
412.555	489.32
412.933	468.08
413.31	498.14
413.687	509.89
414.065	513.28
414.442	509.66
414.819	492.26
415.197	530
415.574	536.1
415.951	521.86
416.328	553.95
416.705	529.77
417.082	566.16
417.46	568.19
417.837	568.64
418.214	551.24
418.591	559.38
418.967	564.58
419.344	572.03
419.721	597.34
420.098	591.02
420.475	608.42
420.852	625.82
421.228	622.2
421.605	608.64
421.982	654.06
422.358	647.51
422.735	638.7
423.111	648.87
423.488	673.27
423.864	660.84
424.241	651.8
424.617	643.44
424.994	679.6
425.37	680.05
425.746	703.33
426.123	698.58
426.499	673.27
426.875	690.22
427.251	724.8
427.627	714.85
428.003	743.78
428.379	743.55
428.756	743.1
429.132	769.09
429.507	767.73
429.883	767.51
430.259	770.67
430.635	805.25
431.011	783.78
431.387	792.82
431.763	801.63
432.138	794.4
432.514	807.28
432.89	815.19
433.265	840.73
433.641	843.89
434.016	858.35
434.392	859.03
434.767	862.19
435.143	902.42
435.518	866.26
435.894	893.83
436.269	902.65
436.644	911.69
437.02	903.55
437.395	919.14
437.77	941.06
438.145	950.78
438.52	946.49
438.895	951.68
439.271	978.8
439.646	967.05
440.021	984.23
440.395	980.38
440.77	988.29
441.145	994.62
441.52	999.82
441.895	976.09
442.27	995.75
442.645	1003.43
443.019	1042.3
443.394	1027.39
443.769	1010.44
444.143	1028.52
444.518	1064
444.892	1038.69
445.267	1026.48
445.641	1037.33
446.016	1055.64
446.39	1060.38
446.764	1064.9
447.139	1078.01
447.513	1066.03
447.887	1071.68
448.262	1072.81
448.636	1068.07
449.01	1096.31
449.384	1078.23
449.758	1080.04
450.132	1099.93
450.506	1102.41
450.88	1110.32
451.254	1136.76
451.628	1117.1
452.002	1120.49
452.376	1134.05
452.75	1139.25
453.123	1159.36
453.497	1140.38
453.871	1165.46
454.244	1185.58
454.618	1152.81
454.992	1173.15
455.365	1187.84
455.739	1222.19
456.112	1237.33
456.486	1194.62
456.859	1217.67
457.232	1219.47
457.606	1215.63
457.979	1269.19
458.352	1238.23
458.725	1271.9
459.099	1288.85
459.472	1289.08
459.845	1307.61
460.218	1321.62
460.591	1325.01
460.964	1312.35
461.337	1348.96
461.71	1355.29
462.083	1353.93
462.456	1365.23
462.829	1365.91
463.201	1400.49
463.574	1400.94
463.947	1400.26
464.32	1419.02
464.692	1410.88
465.065	1457.43
465.438	1447.26
465.81	1463.99
466.183	1451.56
466.555	1482.52
466.928	1485.68
467.3	1470.77
467.672	1503.76
468.045	1550.54
468.417	1558.9
468.789	1535.85
469.161	1561.16
469.534	1599.58
469.906	1574.94
470.278	1613.36
470.65	1596.19
471.022	1637.54
471.394	1653.59
471.766	1678.44
472.138	1674.38
472.51	1707.37
472.882	1710.08
473.253	1736.97
473.625	1724.77
473.997	1773.13
474.369	1772.91
474.74	1808.61
475.112	1829.85
475.484	1830.53
475.855	1853.36
476.227	1873.47
476.598	1936.97
476.97	1936.52
477.341	1947.59
477.713	1987.14
478.084	1974.71
478.455	1999.11
478.827	2061.49
479.198	2069.62
479.569	2056.74
479.94	2122.73
480.311	2137.87
480.682	2150.75
481.053	2189.62
481.424	2230.07
481.795	2260.8
482.166	2240.46
482.537	2273.46
482.908	2316.39
483.279	2312.78
483.65	2334.47
484.021	2372.66
484.391	2409.05
484.762	2424.41
485.133	2436.84
485.503	2480.68
485.874	2476.62
486.244	2502.6
486.615	2592.77
486.985	2554.13
487.356	2591.41
487.726	2618.76
488.097	2658.98
488.467	2672.77
488.837	2722.94
489.207	2730.17
489.578	2730.17
489.948	2800.9
490.318	2782.82
490.688	2785.31
491.058	2834.12
491.428	2893.78
491.798	2928.58
492.168	2959.99
492.538	2926.32
492.908	2992.76
493.278	3010.84
493.648	3017.39
494.017	3024.17
494.387	3032.76
494.757	3091.74
495.126	3139.88
495.496	3106.43
495.866	3109.14
496.235	3169.93
496.605	3165.41
496.974	3214
497.344	3193.21
497.713	3178.52
498.082	3224.84
498.452	3261.91
498.821	3300.55
499.19	3268.23
499.559	3295.35
499.928	3334.45
500.298	3345.97
500.667	3354.78
501.036	3336.71
501.405	3377.61
501.774	3379.87
502.143	3423.26
502.512	3427.78
502.88	3396.14
503.249	3424.84
503.618	3483.14
503.987	3467.55
504.356	3459.41
504.724	3485.63
505.093	3518.85
505.462	3530.37
505.83	3539.64
506.199	3557.27
506.567	3588
506.936	3544.16
507.304	3620.09
507.672	3601.56
508.041	3588.45
508.409	3654.44
508.777	3617.15
509.145	3627.77
509.514	3676.58
509.882	3699.41
510.25	3679.97
510.618	3661.67
510.986	3681.56
511.354	3693.53
511.722	3750.93
512.09	3761.1
512.458	3751.38
512.826	3769.46
513.193	3780.76
513.561	3766.07
513.929	3757.26
514.297	3814.89
514.664	3821.89
515.032	3804.04
515.4	3821.21
515.767	3852.85
516.135	3857.37
516.502	3808.11
516.869	3933.07
517.237	3920.65
517.604	3845.62
517.972	3876.8
518.339	3876.58
518.706	3894.88
519.073	3904.6
519.44	3886.3
519.808	3954.77
520.175	3951.38
520.542	3966.29
520.909	3952.28
521.276	3976.46
521.643	4028.44
522.009	3997.03
522.376	4014.88
522.743	4067.76
523.11	4030.25
523.477	4095.56
523.843	4115.67
524.21	4109.12
524.577	4157.48
524.943	4162.22
525.31	4148.89
525.676	4175.55
526.043	4222.33
526.409	4223.24
526.776	4224.82
527.142	4247.64
527.508	4277.02
527.874	4304.59
528.241	4350.24
528.607	4300.75
528.973	4368.32
529.339	4338.04
529.705	4449.67
530.071	4423.68
530.437	4447.64
530.803	4433.17
531.169	4487.64
531.535	4478.14
531.901	4514.53
532.267	4528.31
532.632	4561.08
532.998	4597.24
533.364	4606.73
533.73	4598.59
534.095	4562.89
534.461	4658.03
534.826	4675.88
535.192	4679.5
535.557	4740.06
535.923	4707.29
536.288	4732.38
536.653	4780.96
537.019	4732.38
537.384	4714.75
537.749	4775.99
538.114	4792.71
538.479	4812.6
538.845	4868.64
539.21	4814.41
539.575	4874.07
539.94	4869.32
540.305	4910.9
540.67	4914.29
541.034	4979.15
541.399	4978.47
541.764	4969.21
542.129	5006.27
542.494	5015.98
542.858	5047.85
543.223	5032.48
543.587	5103.67
543.952	5053.5
544.316	5093.95
544.681	5127.17
545.045	5189.54
545.41	5161.74
545.774	5210.56
546.138	5200.39
546.503	5230.67
546.867	5241.74
547.231	5296.88
547.595	5273.83
547.959	5309.31
548.324	5322.42
548.688	5323.09
549.052	5388.63
549.416	5353.15
549.779	5379.36
550.143	5422.53
550.507	5448.74
550.871	5467.72
551.235	5446.93
551.599	5500.72
551.962	5495.52
552.326	5526.03
552.689	5547.27
553.053	5566.25
553.417	5545.01
553.78	5551.11
554.143	5659.81
554.507	5622.52
554.87	5643.54
555.234	5740.03
555.597	5637.89
555.96	5675.85
556.323	5704.33
556.686	5728.51
557.05	5748.17
557.413	5700.49
557.776	5731.45
558.139	5830.65
558.502	5779.81
558.865	5803.76
559.228	5856.87
559.59	5887.15
559.953	5914.04
560.316	5884.89
560.679	5899.8
561.041	5948.39
561.404	5957.2
561.767	5960.14
562.129	5959.01
562.492	6005.34
562.854	5993.59
563.217	6009.86
563.579	6049.86
563.941	6038.33
564.304	6099.57
564.666	6140.93
565.028	6124.43
565.39	6166.69
565.753	6088.5
566.115	6185.67
566.477	6265.67
566.839	6191.32
567.201	6241.94
567.563	6258.89
567.925	6276.29
568.287	6245.56
568.648	6340.47
569.01	6330.07
569.372	6366.23
569.734	6416.63
570.095	6435.61
570.457	6484.42
570.819	6489.62
571.18	6492.1
571.542	6526
571.903	6605.77
572.265	6637.64
572.626	6626.34
572.987	6748.37
573.349	6734.36
573.71	6739.1
574.071	6764.64
574.432	6793.34
574.794	6972.54
575.155	6913.79
575.516	6989.49
575.877	6965.09
576.238	7064.97
576.599	7184.97
576.96	7193.33
577.32	7247.56
577.681	7337.28
578.042	7439.87
578.403	7477.39
578.763	7573.66
579.124	7689.59
579.485	7733.43
579.845	7826.08
580.206	7939.52
580.566	7957.15
580.927	8168.9
581.287	8287.54
581.648	8358.72
582.008	8561.88
582.368	8604.14
582.728	8798.03
583.089	8893.17
583.449	9044.13
583.809	9249.54
584.169	9348.53
584.529	9509.88
584.889	9774.5
585.249	9806.14
585.609	10031.22
585.969	10262.4
586.329	10466.69
586.688	10641.37
587.048	10821.03
587.408	11005.88
587.768	11274.8
588.127	11464.85
588.487	11687.22
588.846	12041.79
589.206	12108
589.565	12364.49
589.925	12726.97
590.284	12870.24
590.643	13142.55
591.003	13417.8
591.362	13753.38
591.721	13921.74
592.08	14248.28
592.44	14528.5
592.799	14711.1
593.158	15033.35
593.517	15235.38
593.876	15518.31
594.235	15794.01
594.593	16109.7
594.952	16433.76
595.311	16673.76
595.67	16945.16
596.029	17341.99
596.387	17625.82
596.746	17946.94
597.104	18153.49
597.463	18351.23
597.822	18857.2
598.18	19011.1
598.538	19308.49
598.897	19734.69
599.255	19782.83
599.613	20423.71
599.972	20426.2
600.33	20758.62
600.688	20937.37
601.046	21323.58
601.404	21618.71
601.762	21845.15
602.12	22264.12
602.478	22443.32
602.836	22712.24
603.194	22841.5
603.552	23203.98
603.91	23264.54
604.268	23684.42
604.625	23763.51
604.983	24169.38
605.341	24406.89
605.698	24615.69
606.056	24939.98
606.413	25063.14
606.771	25486.41
607.128	25731.37
607.485	25909.9
607.843	26163.68
608.2	26447.06
608.557	26687.73
608.914	26750.1
609.272	27148.96
609.629	27364.32
609.986	27683.64
610.343	27661.72
610.7	28080.24
611.057	28241.14
611.414	28347.12
611.771	28596.15
612.127	28938.29
612.484	28887.67
612.841	29206.76
613.198	29216.93
613.554	29545.06
613.911	29715.67
614.267	29945.72
614.624	29975.33
614.98	30183.01
615.337	30478.37
615.693	30546.16
616.05	30668.19
616.406	30963.55
616.762	30932.59
617.118	31089.65
617.475	31294.39
617.831	31554.04
618.187	31619.13
618.543	31781.16
618.899	32024.09
619.255	32153.8
619.611	32241.48
619.967	32404.19
620.323	32524.64
620.678	32505.66
621.034	32534.36
621.39	32721.47
621.746	32779.55
622.101	33186.99
622.457	33063.83
622.812	33112.19
623.168	33283.72
623.523	33479.19
623.879	33610.94
624.234	33485.29
624.589	33738.17
624.945	33729.81
625.3	33875.11
625.655	33933.87
626.01	34067.88
626.365	34172.05
626.72	34044.6
627.075	34152.17
627.43	34171.38
627.785	34213.18
628.14	34324.59
628.495	34427.64
628.85	34461.76
629.205	34546.05
629.559	34684.13
629.914	34516.9
630.269	34574.08
630.623	34536.34
630.978	34593.74
631.332	34770.46
631.687	34908.98
632.041	34779.95
632.396	34872.15
632.75	34778.14
633.104	34875.09
633.459	34785.37
633.813	34784.92
634.167	34915.99
634.521	34838.7
634.875	34876.89
635.229	34884.13
635.583	34792.15
635.937	34825.37
636.291	34785.82
636.645	34926.84
636.999	34818.36
637.352	34901.75
637.706	34893.39
638.06	34934.07
638.413	34925.93
638.767	34750.12
639.121	34978.59
639.474	34653.17
639.828	34890.23
640.181	34925.03
640.534	34993.05
640.888	34847.06
641.241	34740.63
641.594	34843.22
641.947	35010.68
642.301	34817.91
642.654	34856.1
643.007	34956.89
643.36	34818.82
643.713	34863.56
644.066	34946.04
644.419	34706.73
644.771	34588.99
645.124	34270.36
645.477	34276.91
645.83	33987.65
646.182	34076.46
646.535	33797.83
646.888	33980.19
647.24	33711.27
647.593	33890.93
647.945	33821.1
648.298	33676.7
648.65	33654.33
649.002	33490.49
649.355	33672.41
649.707	33616.14
650.059	33901.33
650.411	34161.88
650.763	34365.95
651.115	34668.31
651.467	34550.57
651.819	34592.38
652.171	34591.93
652.523	34329.56
652.875	34417.92
653.227	34178.38
653.578	34537.92
653.93	34523.68
654.282	34323.01
654.633	34221.54
654.985	34171.6
655.337	34345.61
655.688	34351.94
656.039	34475.55
656.391	34137.93
656.742	34214.76
657.094	34191.71
657.445	34507.19
657.796	34261.54
658.147	34340.18
658.498	34249.34
658.849	34231.71
659.2	34159.4
659.551	34149
659.902	34268.32
660.253	34178.38
660.604	34122.79
660.955	34175.67
661.306	34167.53
661.656	34105.61
662.007	34177.93
662.358	34050.93
662.708	34084.82
663.059	34151.72
663.409	33865.39
663.76	34125.73
664.11	34098.16
664.461	34133.41
664.811	34174.31
665.161	34064.94
665.511	33963.02
665.862	34135.22
666.212	34130.7
666.562	34073.52
666.912	34236.68
667.262	34042.34
667.612	33998.95
667.962	33937.03
668.312	33967.77
668.662	34136.8
669.011	34084.37
669.361	34047.31
669.711	33949.69
670.06	33909.91
670.41	33820.88
670.76	34008.44
671.109	34056.58
671.459	33916.01
671.808	33790.37
672.157	34010.25
672.507	33716.25
672.856	33813.42
673.205	33730.03
673.554	33789.46
673.904	33885.73
674.253	33940.87
674.602	33739.3
674.951	33326.65
675.3	33278.97
675.649	33720.99
675.998	33690.26
676.346	33697.04
676.695	33830.82
677.044	33606.19
677.393	33625.18
677.741	33761.22
678.09	33693.42
678.438	33493.65
678.787	33501.56
679.135	33581.11
679.484	33362.36
679.832	33520.55
680.181	33368.01
680.529	33472.41
680.877	33252.3
681.225	33247.33
681.573	33532.07
681.922	33252.98
682.27	33171.85
682.618	33057.05
682.966	33152.65
683.314	33125.08
683.661	32994.91
684.009	33003.27
684.357	32855.48
684.705	32872.65
685.053	32736.16
685.4	32756.05
685.748	32509.27
686.095	32621.36
686.443	32462.95
686.79	32359.45
687.138	32624.3
687.485	32400.35
687.832	32291.2
688.18	32402.38
688.527	32180.92
688.874	32267.92
689.221	32054.6
689.568	32226.12
689.915	32004.43
690.262	32046.91
690.609	32037.42
690.956	31799.01
691.303	31728.05
691.65	31531.44
691.997	31520.15
692.344	31400.83
692.69	31522.18
693.037	31485.57
693.383	31165.13
693.73	31260.94
694.077	31230.44
694.423	31113.83
694.769	31046.94
695.116	31003.55
695.462	30914.74
695.808	30824.34
696.155	30810.56
696.501	30545.26
696.847	30724.23
697.193	30534.63
697.539	30512.94
697.885	30325.83
698.231	30337.8
698.577	30335.09
698.923	30232.5
699.269	30091.03
699.614	29943.46
699.96	29910.47
700.306	29905.27
700.651	29886.29
700.997	29633.64
701.342	29629.35
701.688	29672.96
702.033	29459.63
702.379	29569.01
702.724	29412.86
703.069	29384.16
703.415	28956.6
703.76	28996.6
704.105	29195.69
704.45	29089.48
704.795	28885.19
705.14	28810.61
705.485	28898.75
705.83	28721.12
706.175	28821.01
706.52	28611.3
706.865	28517.96
707.209	28496.04
707.554	28414.24
707.899	28524.74
708.243	28355.94
708.588	28260.12
708.932	28126.79
709.277	28124.3
709.621	28016.74
709.966	27885.44
710.31	28014.25
710.654	27724.77
710.998	27760.47
711.342	27825.55
711.687	27640.25
712.031	27641.6
712.375	27452.91
712.719	27644.77
713.063	27527.26
713.407	27578.33
713.75	27470.76
714.094	27404.32
714.438	27269.86
714.782	27322.97
715.125	27097.89
715.469	27252.46
715.812	26998.46
716.156	26917.55
716.499	26907.39
716.843	26848.63
717.186	26751.91
717.53	27022.41
717.873	26942.64
718.216	26786.48
718.559	26646.15
718.902	26579.71
719.246	26582.65
719.589	26423.1
719.932	26380.39
720.275	26425.82
720.617	26341.3
720.96	26287.29
721.303	26386.04
721.646	26327.29
721.989	26114.19
722.331	26297.91
722.674	26198.48
723.016	26156.67
723.359	26039.39
723.701	26108.08
724.044	25861.09
724.386	25881.42
724.729	25923.46
725.071	25709.23
725.413	25898.37
725.755	25830.35
726.097	25682.56
726.439	25515.56
726.782	25483.92
727.124	25642.33
727.465	25535.44
727.807	25459.06
728.149	25436.01
728.491	25359.63
728.833	25546.74
729.175	25335.68
729.516	25327.09
729.858	25247.99
730.199	25209.13
730.541	25125.51
730.882	25211.39
731.224	25379.52
731.565	25040.99
731.906	25024.05
732.248	25080.54
732.589	24893.2
732.93	24885.74
733.271	24859.3
733.612	24847.55
733.953	24872.41
734.294	24752.41
734.635	24722.81
734.976	24690.72
735.317	24639.2
735.658	24619.08
735.999	24659.54
736.339	24594.9
736.68	24608.01
737.021	24583.61
737.361	24434.91
737.702	24525.3
738.042	24436.72
738.383	24504.96
738.723	24423.16
739.063	24323.27
739.404	24388.13
739.744	24335.7
740.084	24191.3
740.424	24092.77
740.764	24128.25
741.104	24312.43
741.444	24036.95
741.784	23977.75
742.124	23952.21
742.464	24071.53
742.804	23884.64
743.143	23974.58
743.483	23790.41
743.823	23733.46
744.162	23770.29
744.502	23832.89
744.841	23711.31
745.181	23707.7
745.52	23585.21
745.86	23645.32
746.199	23572.11
746.538	23613.69
746.877	23555.61
747.216	23569.62
747.556	23484.88
747.895	23441.71
748.234	23389.96
748.573	23389.06
748.911	23363.07
749.25	23268.84
749.589	23239.91
749.928	23237.88
750.267	23257.99
750.605	23177.31
750.944	23106.13
751.283	23073.36
751.621	23091.21
751.96	22846.25
752.298	22968.73
752.636	22823.43
752.975	22761.73
753.313	22725.57
753.651	22760.38
753.989	22662.3
754.327	22707.27
754.666	22553.15
755.004	22667.27
755.342	22577.33
755.679	22595.63
756.017	22300.28
756.355	22456.2
756.693	22339.14
757.031	22317.9
757.368	22278.58
757.706	22202.65
758.044	22038.81
758.381	22192.03
758.719	22049.21
759.056	22017.12
759.394	21835.2
759.731	21886.5
760.068	21784.81
