Data from hue_140_FLMS001491_00073.txt Node
Date: Tue Feb 07 16:56:23 GMT 2017
User: dcchb
Spectrometer: FLMS00149
Trigger mode: 0
Integration Time (sec): 2.000000E-2
Scans to average: 10
Electric dark correction enabled: true
Nonlinearity correction enabled: false
Boxcar width: 0
XAxis mode: Wavelengths
Number of Pixels in Spectrum: 2048
>>>>>Begin Spectral Data<<<<<
341.393	-6.95
341.776	-6.95
342.16	-6.95
342.543	-60.28
342.927	-77.46
343.31	-65.03
343.693	-70.22
344.077	-56.21
344.46	-64.8
344.843	-37.91
345.226	-43.11
345.61	-42.43
345.993	-19.83
346.376	-19.15
346.759	2.09
347.142	43.45
347.525	48.19
347.908	67.85
348.291	57.46
348.674	81.64
349.057	118.02
349.44	125.93
349.823	141.3
350.206	167.96
350.588	199.83
350.971	198.7
351.354	237.11
351.737	236.21
352.119	247.51
352.502	244.8
352.884	280.73
353.267	294.74
353.65	275.98
354.032	271.69
354.414	308.07
354.797	306.72
355.179	301.52
355.562	313.04
355.944	323.44
356.326	327.73
356.709	357.34
357.091	336.54
357.473	348.3
357.855	332.25
358.238	332.03
358.62	325.47
359.002	347.17
359.384	338.35
359.766	349.2
360.148	334.06
360.53	338.35
360.912	328.86
361.294	334.06
361.676	334.96
362.057	336.09
362.439	334.74
362.821	337.22
363.203	323.44
363.584	311.23
363.966	339.71
364.348	324.34
364.729	329.77
365.111	334.74
365.493	332.48
365.874	313.27
366.256	309.2
366.637	313.49
367.019	293.83
367.4	295.87
367.781	304
368.163	326.83
368.544	311.23
368.925	303.55
369.306	320.73
369.688	302.65
370.069	306.49
370.45	311.69
370.831	325.92
371.212	294.06
371.593	338.35
371.974	311.23
372.355	299.26
372.736	335.19
373.117	322.99
373.498	320.73
373.879	301.74
374.26	326.83
374.641	315.98
375.021	321.63
375.402	321.18
375.783	319.14
376.163	331.57
376.544	321.18
376.925	340.16
377.305	318.92
377.686	308.3
378.066	304.46
378.447	318.69
378.827	336.09
379.208	327.28
379.588	320.5
379.968	321.18
380.349	343.55
380.729	318.69
381.109	332.03
381.489	328.86
381.87	353.95
382.25	341.06
382.63	350.33
383.01	342.65
383.39	352.36
383.77	335.87
384.15	351.91
384.53	334.28
384.91	349.2
385.29	357.11
385.67	344.68
386.049	371.12
386.429	351.46
386.809	340.84
387.189	377.45
387.568	368.41
387.948	354.62
388.328	356.88
388.707	369.09
389.087	359.14
389.466	359.14
389.846	367.5
390.225	368.63
390.605	362.31
390.984	360.27
391.363	355.98
391.743	367.73
392.122	376.32
392.501	378.8
392.881	374.96
393.26	382.87
393.639	380.16
394.018	387.16
394.397	378.8
394.776	388.29
395.155	384.68
395.534	384
395.913	379.71
396.292	402.31
396.671	380.61
397.05	394.17
397.429	402.98
397.808	377.22
398.186	390.1
398.565	401.63
398.944	390.33
399.323	383.1
399.701	409.76
400.08	406.6
400.458	420.38
400.837	400.95
401.215	382.19
401.594	409.99
401.972	403.89
402.351	426.03
402.729	406.6
403.107	417.45
403.486	433.94
403.864	431.68
404.242	445.47
404.62	424.23
404.999	419.03
405.377	409.76
405.755	426.26
406.133	459.25
406.511	416.99
406.889	440.95
407.267	449.54
407.645	447.95
408.023	442.76
408.401	451.34
408.779	452.93
409.156	457.45
409.534	435.53
409.912	473.49
410.29	472.81
410.667	450.44
411.045	461.51
411.422	469.42
411.8	485.02
412.178	486.37
412.555	479.82
412.933	484.56
413.31	486.6
413.687	486.15
414.065	513.49
414.442	482.53
414.819	501.51
415.197	525.24
415.574	530.21
415.951	536.09
416.328	488.86
416.705	515.52
417.082	512.36
417.46	535.64
417.837	491.12
418.214	505.35
418.591	530.44
418.967	539.93
419.344	529.31
419.721	535.18
420.098	531.12
420.475	559.82
420.852	551.23
421.228	540.83
421.605	537.44
421.982	572.47
422.358	555.3
422.735	578.8
423.111	554.84
423.488	567.95
423.864	576.76
424.241	595.75
424.617	588.97
424.994	583.09
425.37	593.49
425.746	595.75
426.123	621.28
426.499	603.88
426.875	597.1
427.251	607.27
427.627	626.25
428.003	627.38
428.379	625.58
428.756	621.96
429.132	627.84
429.507	631.45
429.883	668.06
430.259	653.37
430.635	671.45
431.011	675.74
431.387	677.33
431.763	667.84
432.138	682.07
432.514	681.62
432.89	701.96
433.265	713.94
433.641	708.51
434.016	693.15
434.392	714.16
434.767	733.82
435.143	740.15
435.518	747.38
435.894	726.82
436.269	739.25
436.644	759.36
437.02	768.85
437.395	772.69
437.77	773.6
438.145	774.5
438.52	779.7
438.895	790.09
439.271	812.01
439.646	790.77
440.021	803.88
440.395	842.29
440.77	807.27
441.145	826.25
441.52	836.19
441.895	838.9
442.27	838.9
442.645	839.81
443.019	840.94
443.394	864.89
443.769	875.51
444.143	878.68
444.518	873.03
444.892	846.59
445.267	902.41
445.641	848.62
446.016	894.95
446.39	903.54
446.764	904.44
447.139	911.22
447.513	936.76
447.887	918
448.262	911.22
448.636	930.88
449.01	933.82
449.384	950.09
449.758	941.95
450.132	942.63
450.506	972.46
450.88	959.81
451.254	957.32
451.628	990.76
452.002	976.08
452.376	1014.27
452.75	1002.29
453.123	998.67
453.497	1016.98
453.871	1054.72
454.244	1057.43
454.618	1053.59
454.992	1078.45
455.365	1061.5
455.739	1111.89
456.112	1079.58
456.486	1090.88
456.859	1126.13
457.232	1169.07
457.606	1122.51
457.979	1166.58
458.352	1196.86
458.725	1187.37
459.099	1199.57
459.472	1231.21
459.845	1238.89
460.218	1241.83
460.591	1245
460.964	1271.89
461.337	1286.58
461.71	1310.08
462.083	1340.81
462.456	1380.59
462.829	1337.65
463.201	1388.04
463.574	1378.78
463.947	1405.9
464.32	1426.91
464.692	1455.16
465.065	1428.27
465.438	1472.33
465.81	1480.47
466.183	1504.2
466.555	1547.13
466.928	1561.15
467.3	1573.57
467.672	1581.26
468.045	1634.14
468.417	1632.1
468.789	1659.67
469.161	1692.44
469.534	1706
469.906	1792.78
470.278	1810.63
470.65	1814.47
471.022	1845.66
471.394	1907.8
471.766	1920.23
472.138	1931.98
472.51	2007.46
472.882	2058.99
473.253	2094.01
473.625	2112.54
473.997	2203.16
474.369	2195.93
474.74	2234.12
475.112	2291.97
475.484	2372.88
475.855	2383.72
476.227	2410.84
476.598	2528.35
476.97	2568.58
477.341	2622.13
477.713	2670.27
478.084	2731.28
478.455	2834.33
478.827	2886.08
479.198	2995.46
479.569	3058.28
479.94	3153.19
480.311	3204.72
480.682	3322.91
481.053	3435.67
481.424	3505.05
481.795	3599.06
482.166	3659.85
482.537	3718.38
482.908	3868.66
483.279	3949.78
483.65	4053.28
484.021	4162.43
484.391	4250.57
484.762	4357.23
485.133	4522.65
485.503	4632.25
485.874	4771.68
486.244	4822.75
486.615	4946.82
486.985	5058.45
487.356	5199.02
487.726	5318.79
488.097	5509.74
488.467	5530.53
488.837	5716.52
489.207	5871.31
489.578	5962.39
489.948	6076.51
490.318	6269.5
490.688	6346.78
491.058	6548.13
491.428	6683.27
491.798	6787
492.168	7017.05
492.538	7070.15
492.908	7212.52
493.278	7343.37
493.648	7502.68
494.017	7535.45
494.387	7743.36
494.757	7834.65
495.126	8063.57
495.496	8184.7
495.866	8247.75
496.235	8413.39
496.605	8521.87
496.974	8617.46
497.344	8815.87
497.713	8903.33
498.082	8981.06
498.452	9159.36
498.821	9221.51
499.19	9330.88
499.559	9493.14
499.928	9487.04
500.298	9670.31
500.667	9799.35
501.036	9789.63
501.405	9973.81
501.774	9966.12
502.143	10175.61
502.512	10239.11
502.88	10360.01
503.249	10403.4
503.618	10532.21
503.987	10575.37
504.356	10701.47
504.724	10767.91
505.093	10865.99
505.462	10925.87
505.83	10938.75
506.199	11085.87
506.567	11225.3
506.936	11144.4
507.304	11402.02
507.672	11421.23
508.041	11517.49
508.409	11624.84
508.777	11629.58
509.145	11735.79
509.514	11725.85
509.882	11878.84
510.25	11884.26
510.618	11969.23
510.986	12012.85
511.354	12128.78
511.722	12122.68
512.09	12254.2
512.458	12245.16
512.826	12284.93
513.193	12427.53
513.561	12451.71
513.929	12410.8
514.297	12592.72
514.664	12703
515.032	12698.71
515.4	12725.15
515.767	12791.58
516.135	12852.6
516.502	12736.22
516.869	12991.58
517.237	13025.93
517.604	12946.61
517.972	12990.45
518.339	13044.69
518.706	13084.01
519.073	13114.29
519.44	13104.12
519.808	13190.22
520.175	13106.83
520.542	13336.65
520.909	13378.91
521.276	13297.33
521.643	13478.35
522.009	13457.33
522.376	13488.06
522.743	13504.11
523.11	13548.4
523.477	13589.98
523.843	13711.56
524.21	13796.3
524.577	13740.26
524.943	13738.9
525.31	13839.69
525.676	13921.95
526.043	13936.41
526.409	13860.93
526.776	14110.65
527.142	13932.12
527.508	14000.59
527.874	14021.61
528.241	14102.28
528.607	14073.81
528.973	14129.4
529.339	14041.27
529.705	14124.88
530.071	14246.46
530.437	14163.53
530.803	14240.81
531.169	14189.06
531.535	14105
531.901	14182.96
532.267	14170.08
532.632	14252.34
532.998	14155.16
533.364	14225.9
533.73	14204.2
534.095	14189.29
534.461	14150.87
534.826	14097.76
535.192	14235.61
535.557	14297.31
535.923	14118.78
536.288	14177.76
536.653	14169.85
537.019	14114.94
537.384	13996.3
537.749	14017.99
538.114	14048.73
538.479	13997.88
538.845	14007.82
539.21	13868.39
539.575	13965.79
539.94	13812.35
540.305	13907.71
540.67	13824.1
541.034	13871.33
541.399	13769.19
541.764	13787.72
542.129	13781.39
542.494	13706.59
542.858	13712.69
543.223	13660.26
543.587	13714.27
543.952	13606.48
544.316	13571
544.681	13539.36
545.045	13606.48
545.41	13640.83
545.774	13575.52
546.138	13493.49
546.503	13549.53
546.867	13345.69
547.231	13497.78
547.595	13506.37
547.959	13397.22
548.324	13330.55
548.688	13320.84
549.052	13334.85
549.416	13301.85
549.779	13233.15
550.143	13221.63
550.507	13204.68
550.871	13248.3
551.235	13047.62
551.599	13131.69
551.962	13086.49
552.326	13035.65
552.689	13025.02
553.053	12971.69
553.417	12944.35
553.78	13086.94
554.143	12968.98
554.507	13026.83
554.87	12979.6
555.234	13116.55
555.597	12889.21
555.96	12925.14
556.323	13035.42
556.686	12985.03
557.05	13011.47
557.413	12927.17
557.776	12804.47
558.139	12952.94
558.502	12869.55
558.865	12903.67
559.228	12983.9
559.59	12915.88
559.953	12841.53
560.316	13018.92
560.679	13022.31
561.041	12896.21
561.404	12963.11
561.767	13053.95
562.129	12917.91
562.492	13042.88
562.854	12860.28
563.217	12932.15
563.579	12967.85
563.941	13018.47
564.304	12945.7
564.666	13144.8
565.028	12995.2
565.39	13063.22
565.753	13159.03
566.115	12975.08
566.477	13104.8
566.839	13088.53
567.201	13101.63
567.563	13102.08
567.925	13194.74
568.287	13175.76
568.648	13210.1
569.01	13215.75
569.372	13277.45
569.734	13231.12
570.095	13255.98
570.457	13289.65
570.819	13305.02
571.18	13277.45
571.542	13330.1
571.903	13312.47
572.265	13302.98
572.626	13388.18
572.987	13449.65
573.349	13343.66
573.71	13401.74
574.071	13455.52
574.432	13383.89
574.794	13486.03
575.155	13557.89
575.516	13393.38
575.877	13461.17
576.238	13451.23
576.599	13453.94
576.96	13460.04
577.32	13457.56
577.681	13488.97
578.042	13533.94
578.403	13547.95
578.763	13439.7
579.124	13509.31
579.485	13547.27
579.845	13641.28
580.206	13521.96
580.566	13499.81
580.927	13506.59
581.287	13552.47
581.648	13515.41
582.008	13597.67
582.368	13567.38
582.728	13563.54
583.089	13570.77
583.449	13449.42
583.809	13535.29
584.169	13516.31
584.529	13435.86
584.889	13527.84
585.249	13485.58
585.609	13451.91
585.969	13466.37
586.329	13465.24
586.688	13453.94
587.048	13524.22
587.408	13441.96
587.768	13437.22
588.127	13345.92
588.487	13412.36
588.846	13436.31
589.206	13342.08
589.565	13279.71
589.925	13392.7
590.284	13395.64
590.643	13346.15
591.003	13344.34
591.362	13416.43
591.721	13343.43
592.08	13424.34
592.44	13391.12
592.799	13312.7
593.158	13340.95
593.517	13322.19
593.876	13340.5
594.235	13314.28
594.593	13299.59
594.952	13338.69
595.311	13249.43
595.67	13323.77
596.029	13333.94
596.387	13385.02
596.746	13338.69
597.104	13304.11
597.463	13270.22
597.822	13320.84
598.18	13281.52
598.538	13180.05
598.897	13298.46
599.255	13230.22
599.613	13360.38
599.972	13308.86
600.33	13285.36
600.688	13246.94
601.046	13407.61
601.404	13287.39
601.762	13313.15
602.12	13335.98
602.478	13312.93
602.836	13391.57
603.194	13289.65
603.552	13258.92
603.91	13257.11
604.268	13328.29
604.625	13232.93
604.983	13342.3
605.341	13257.79
605.698	13358.8
606.056	13303.44
606.413	13286.03
606.771	13343.43
607.128	13341.63
607.485	13309.76
607.843	13322.87
608.2	13373.94
608.557	13505.01
608.914	13356.09
609.272	13396.31
609.629	13391.79
609.986	13520.15
610.343	13415.3
610.7	13399.93
611.057	13474.05
611.414	13424.79
611.771	13491.23
612.127	13555.41
612.484	13529.64
612.841	13531.9
613.198	13439.48
613.554	13515.18
613.911	13566.03
614.267	13589.76
614.624	13507.27
614.98	13502.98
615.337	13606.03
615.693	13551.34
616.05	13583.43
616.406	13631.56
616.762	13639.92
617.118	13529.64
617.475	13565.35
617.831	13630.66
618.187	13591.34
618.543	13707.94
618.899	13652.8
619.255	13701.62
619.611	13661.39
619.967	13732.8
620.323	13735.51
620.678	13683.99
621.034	13623.2
621.39	13629.3
621.746	13623.65
622.101	13809.86
622.457	13610.09
622.812	13695.97
623.168	13763.54
623.523	13690.54
623.879	13699.81
624.234	13679.7
624.589	13804.67
624.945	13657.32
625.3	13863.65
625.655	13755.63
626.01	13732.58
626.365	13672.92
626.72	13672.24
627.075	13692.58
627.43	13653.71
627.785	13634.27
628.14	13668.17
628.495	13760.37
628.85	13730.32
629.205	13709.3
629.559	13768.73
629.914	13555.63
630.269	13705.01
630.623	13727.38
630.978	13565.8
631.332	13679.47
631.687	13641.28
632.041	13584.33
632.396	13590.21
632.75	13542.53
633.104	13544.79
633.459	13503.43
633.813	13437.44
634.167	13502.3
634.521	13469.53
634.875	13480.83
635.229	13426.14
635.583	13377.11
635.937	13381.17
636.291	13418.69
636.645	13415.3
636.999	13255.98
637.352	13451.91
637.706	13238.58
638.06	13278.8
638.413	13272.93
638.767	13258.01
639.121	13292.81
639.474	13261.18
639.828	13302.53
640.181	13281.97
640.534	13203.33
640.888	13147.73
641.241	13167.85
641.594	13184.34
641.947	13181.86
642.301	13181.86
642.654	13138.92
643.007	13141.41
643.36	13122.88
643.713	13073.61
644.066	13145.02
644.419	13051.46
644.771	13030
645.124	12911.81
645.477	12934.63
645.83	12827.29
646.182	12658.93
646.535	12695.54
646.888	12699.16
647.24	12670.23
647.593	12788.42
647.945	12729.44
648.298	12660.29
648.65	12639.72
649.002	12585.49
649.355	12714.98
649.707	12701.64
650.059	12648.99
650.411	12921.3
650.763	12878.81
651.115	13055.53
651.467	12951.13
651.819	12970.79
652.171	12944.57
652.523	12854.86
652.875	13038.58
653.227	12884.24
653.578	12973.73
653.93	12955.65
654.282	12906.61
654.633	12922.2
654.985	12885.37
655.337	12907.74
655.688	12893.95
656.039	12962.65
656.391	12887.18
656.742	12846.72
657.094	12932.82
657.445	12968.08
657.796	12912.26
658.147	12902.77
658.498	12921.98
658.849	12894.18
659.2	12863.22
659.551	12928.53
659.902	12868.87
660.253	12944.12
660.604	12956.78
660.955	12967.4
661.306	12963.11
661.656	12917.23
662.007	13021.18
662.358	12948.64
662.708	13002.65
663.059	12982.77
663.409	12934.41
663.76	12994.74
664.11	13015.31
664.461	12929.89
664.811	13002.88
665.161	12978.47
665.511	12959.04
665.862	13023.89
666.212	13025.48
666.562	13041.75
666.912	12957
667.262	13008.08
667.612	13001.07
667.962	12955.42
668.312	12946.16
668.662	13003.78
669.011	12954.07
669.361	12885.59
669.711	12898.02
670.06	12935.08
670.41	12821.64
670.76	12909.32
671.109	12941.64
671.459	12858.48
671.808	12925.14
672.157	12882.2
672.507	12827.06
672.856	12817.8
673.205	12860.74
673.554	12922.65
673.904	12832.49
674.253	12848.31
674.602	12769.66
674.951	12634.3
675.3	12645.37
675.649	12775.77
675.998	12773.28
676.346	12753.85
676.695	12824.8
677.044	12683.79
677.393	12691.47
677.741	12799.04
678.09	12678.59
678.438	12664.81
678.787	12736.9
679.135	12727.86
679.484	12598.37
679.832	12722.89
680.181	12650.12
680.529	12598.14
680.877	12603.57
681.225	12573.74
681.573	12573.74
681.922	12448.54
682.27	12505.49
682.618	12475.21
682.966	12478.15
683.314	12527.64
683.661	12343.69
684.009	12324.93
684.357	12390.24
684.705	12253.52
685.053	12300.52
685.4	12275.21
685.748	12217.14
686.095	12127.87
686.443	12209
686.79	12186.63
687.138	12127.42
687.485	12128.78
687.832	12083.13
688.18	12132.62
688.527	11948.89
688.874	12053.75
689.221	11925.84
689.568	11929.91
689.915	11887.88
690.262	11876.58
690.609	11845.17
690.956	11871.61
691.303	11777.6
691.65	11711.16
691.997	11726.98
692.344	11696.47
692.69	11619.41
693.037	11620.99
693.383	11543.71
693.73	11515.01
694.077	11520.21
694.423	11489.92
694.769	11416.93
695.116	11423.94
695.462	11362.24
695.808	11308.69
696.155	11375.35
696.501	11262.36
696.847	11209.71
697.193	11108.69
697.539	11195.92
697.885	11037.28
698.231	11044.74
698.577	11072.08
698.923	11027.34
699.269	10960.67
699.614	10889.94
699.96	10835.93
700.306	10888.58
700.651	10832.77
700.997	10810.39
701.342	10720.9
701.688	10734.01
702.033	10716.84
702.379	10677.52
702.724	10567.69
703.069	10670.51
703.415	10474.36
703.76	10559.33
704.105	10533.79
704.45	10465.09
704.795	10405.88
705.14	10421.7
705.485	10303.06
705.83	10294.93
706.175	10270.29
706.52	10252.22
706.865	10205.21
707.209	10122.05
707.554	10124.08
707.899	10205.44
708.243	10039.57
708.588	10061.26
708.932	9961.6
709.277	10031.43
709.621	9961.6
709.966	9967.48
710.31	9961.6
710.654	9868.72
710.998	9906.69
711.342	9876.41
711.687	9922.51
712.031	9802.28
712.375	9801.83
712.719	9789.4
713.063	9829.85
713.407	9785.56
713.75	9656.98
714.094	9749.4
714.438	9631.89
714.782	9642.06
715.125	9585.79
715.469	9666.24
715.812	9554.61
716.156	9490.65
716.499	9631.89
716.843	9573.82
717.186	9532.01
717.53	9586.92
717.873	9581.73
718.216	9493.14
718.559	9485.91
718.902	9415.85
719.246	9412.46
719.589	9395.74
719.932	9414.72
720.275	9396.42
720.617	9363.65
720.96	9370.43
721.303	9375.86
721.646	9323.88
721.989	9284.11
722.331	9407.04
722.674	9246.59
723.016	9243.88
723.359	9260.38
723.701	9312.35
724.044	9301.28
724.386	9231
724.729	9268.51
725.071	9213.37
725.413	9196.2
725.755	9210.44
726.097	9200.72
726.439	9158.01
726.782	9160.95
727.124	9161.85
727.465	9168.63
727.807	9148.29
728.149	9146.71
728.491	9087.05
728.833	9113.04
729.175	9085.69
729.516	9129.53
729.858	9094.73
730.199	9087.05
730.541	9120.95
730.882	9067.39
731.224	9099.48
731.565	9044.11
731.906	9063.55
732.248	9101.51
732.589	9038.91
732.93	9026.49
733.271	9016.32
733.612	9120.49
733.953	9058.8
734.294	9031.68
734.635	8984
734.976	9030.33
735.317	8979.93
735.658	8969.31
735.999	9032.14
736.339	9052.25
736.68	9092.47
737.021	9077.56
737.361	9060.16
737.702	9117.78
738.042	9053.6
738.383	9046.6
738.723	9099.03
739.063	9123.21
739.404	9122.53
739.744	9105.81
740.084	9098.12
740.424	9120.04
740.764	9136.09
741.104	9166.37
741.444	9161.4
741.784	9162.53
742.124	9136.77
742.464	9191
742.804	9194.84
743.143	9121.62
743.483	9200.49
743.823	9216.31
744.162	9269.87
744.502	9353.93
744.841	9340.38
745.181	9335.18
745.52	9322.52
745.86	9422.86
746.199	9381.05
746.538	9405.68
746.877	9562.97
747.216	9580.14
747.556	9562.29
747.895	9639.13
748.234	9663.76
748.573	9732.91
748.911	9692.91
749.25	9808.16
749.589	9818.1
749.928	9880.47
750.267	10018.32
750.605	10048.61
750.944	10063.29
751.283	10164.76
751.621	10309.16
751.96	10355.49
752.298	10370.41
752.636	10558.87
752.975	10605.88
753.313	10682.71
753.651	10868.92
753.989	10847
754.327	11018.3
754.666	11030.27
755.004	11211.06
755.342	11339.87
755.679	11548.91
756.017	11535.57
756.355	11773.98
756.693	11837.49
757.031	11947.76
757.368	12098.04
757.706	12181.21
758.044	12372.39
758.381	12541.65
758.719	12639.05
