Data from hue_310_FLMS001491_20.txt Node
Date: Mon Feb 06 15:48:55 GMT 2017
User: dcchb
Spectrometer: FLMS00149
Trigger mode: 0
Integration Time (sec): 2.000000E-2
Scans to average: 10
Electric dark correction enabled: true
Nonlinearity correction enabled: false
Boxcar width: 0
XAxis mode: Wavelengths
Number of Pixels in Spectrum: 2048
>>>>>Begin Spectral Data<<<<<
341.393	-0.73
341.776	-0.73
342.16	-0.73
342.543	-65.59
342.927	-83.67
343.31	-68.3
343.693	-73.5
344.077	-52.03
344.46	-60.17
344.843	-44.8
345.226	-52.03
345.61	-37.34
345.993	-15.65
346.376	-1.19
346.759	18.25
347.142	35.2
347.525	42.88
347.908	53.05
348.291	76.55
348.674	78.81
349.057	100.28
349.44	130.79
349.823	140.5
350.206	162.43
350.588	181.86
350.971	205.59
351.354	222.99
351.737	239.49
352.119	258.92
352.502	274.51
352.884	271.35
353.267	286.94
353.65	302.53
354.032	298.69
354.414	305.92
354.797	305.47
355.179	332.82
355.562	336.66
355.944	345.25
356.326	326.94
356.709	366.49
357.091	335.3
357.473	345.25
357.855	356.32
358.238	340.73
358.62	325.36
359.002	340.05
359.384	349.09
359.766	338.24
360.148	329.88
360.53	321.52
360.912	359.48
361.294	344.34
361.676	346.83
362.057	337.79
362.439	311.8
362.821	330.1
363.203	329.88
363.584	324.45
363.966	327.84
364.348	327.39
364.729	322.42
365.111	301.18
365.493	312.03
365.874	335.75
366.256	343.89
366.637	321.07
367.019	309.31
367.4	291.69
367.781	314.96
368.163	307.73
368.544	315.87
368.925	310.22
369.306	324.68
369.688	332.36
370.069	311.57
370.45	305.7
370.831	337.79
371.212	317
371.593	300.95
371.974	291.24
372.355	327.84
372.736	314.96
373.117	316.77
373.498	324.68
373.879	321.07
374.26	309.54
374.641	313.61
375.021	303.89
375.402	334.4
375.783	341.18
376.163	340.27
376.544	342.53
376.925	316.32
377.305	322.65
377.686	336.21
378.066	320.39
378.447	312.03
378.827	344.57
379.208	331.46
379.588	341.4
379.968	347.05
380.349	328.3
380.729	320.16
381.109	339.14
381.489	348.86
381.87	330.56
382.25	347.96
382.63	359.48
383.01	345.7
383.39	327.39
383.77	355.41
384.15	343.21
384.53	335.3
384.91	356.32
385.29	347.28
385.67	328.3
386.049	343.21
386.429	349.54
386.809	360.16
387.189	331.69
387.568	343.89
387.948	346.83
388.328	364.68
388.707	345.92
389.087	350.44
389.466	345.7
389.846	380.05
390.225	365.81
390.605	366.04
390.984	389.09
391.363	370.56
391.743	375.98
392.122	390.22
392.501	382.31
392.881	380.95
393.26	371.69
393.639	385.24
394.018	367.39
394.397	383.44
394.776	370.78
395.155	396.32
395.534	369.2
395.913	394.51
396.292	369.2
396.671	406.49
397.05	394.51
397.429	387.5
397.808	388.41
398.186	380.5
398.565	406.94
398.944	422.76
399.323	398.35
399.701	399.93
400.08	402.87
400.458	401.74
400.837	412.36
401.215	412.81
401.594	404.23
401.972	409.88
402.351	405.58
402.729	431.34
403.107	407.39
403.486	415.98
403.864	445.13
404.242	425.7
404.62	426.37
404.999	437.45
405.377	459.82
405.755	432.93
406.133	449.88
406.511	442.19
406.889	448.97
407.267	454.85
407.645	455.07
408.023	471.8
408.401	452.59
408.779	453.26
409.156	482.19
409.534	465.24
409.912	474.06
410.29	492.59
410.667	491.46
411.045	502.76
411.422	509.31
411.8	518.12
412.178	527.84
412.555	540.04
412.933	547.05
413.31	531.68
413.687	552.7
414.065	536.43
414.442	561.28
414.819	566.48
415.197	559.02
415.574	574.62
415.951	588.85
416.328	592.92
416.705	602.64
417.082	618.01
417.46	616.65
417.837	621.17
418.214	629.76
418.591	634.28
418.967	629.31
419.344	670.21
419.721	651
420.098	682.64
420.475	668.85
420.852	675.41
421.228	682.19
421.605	698.68
421.982	705.24
422.358	719.47
422.735	728.96
423.111	716.76
423.488	725.12
423.864	723.99
424.241	753.82
424.617	735.52
424.994	762.18
425.37	777.32
425.746	746.14
426.123	759.92
426.499	786.59
426.875	802.86
427.251	806.02
427.627	799.02
428.003	826.36
428.379	851.22
428.756	860.71
429.132	853.48
429.507	862.07
429.883	853.03
430.259	895.51
430.635	880.82
431.011	900.03
431.387	908.85
431.763	941.39
432.138	915.85
432.514	926.25
432.89	947.04
433.265	960.82
433.641	933.48
434.016	966.25
434.392	990.88
434.767	1006.92
435.143	1012.35
435.518	1032.01
435.894	1040.37
436.269	1026.13
436.644	1060.03
437.02	1062.97
437.395	1057.77
437.77	1093.93
438.145	1093.93
438.52	1083.53
438.895	1090.99
439.271	1079.92
439.646	1137.54
440.021	1126.92
440.395	1171.66
440.77	1122.17
441.145	1159.24
441.52	1195.39
441.895	1182.96
442.27	1155.62
442.645	1177.77
443.019	1166.01
443.394	1177.09
443.769	1178.9
444.143	1212.79
444.518	1217.99
444.892	1200.59
445.267	1199.23
445.641	1219.12
446.016	1264.77
446.39	1231.55
446.764	1245.33
447.139	1241.49
447.513	1239.46
447.887	1211.66
448.262	1236.07
448.636	1246.69
449.01	1253.02
449.384	1262.28
449.758	1271.32
450.132	1279.91
450.506	1284.2
450.88	1288.72
451.254	1280.81
451.628	1274.03
452.002	1314.71
452.376	1304.32
452.75	1312
453.123	1308.61
453.497	1329.4
453.871	1343.19
454.244	1378.21
454.618	1349.06
454.992	1375.95
455.365	1354.94
455.739	1392.9
456.112	1398.78
456.486	1432
456.859	1444.65
457.232	1433.13
457.606	1424.31
457.979	1443.97
458.352	1474.71
458.725	1489.62
459.099	1494.14
459.472	1507.47
459.845	1493.69
460.218	1528.94
460.591	1528.72
460.964	1522.39
461.337	1559.68
461.71	1569.17
462.083	1568.49
462.456	1579.79
462.829	1603.07
463.201	1579.56
463.574	1576.4
463.947	1605.55
464.32	1657.75
464.692	1660.92
465.065	1648.71
465.438	1645.78
465.81	1709.5
466.183	1679.9
466.555	1751.54
466.928	1748.6
467.3	1723.51
467.672	1773
468.045	1768.71
468.417	1785.89
468.789	1780.91
469.161	1785.21
469.534	1834.7
469.906	1848.48
470.278	1847.8
470.65	1865.66
471.022	1852.78
471.394	1926.67
471.766	1909.5
472.138	1910.4
472.51	1950.4
472.882	1969.38
473.253	2023.85
473.625	1986.78
473.997	2037.4
474.369	2046.22
474.74	2088.25
475.112	2064.97
475.484	2107.91
475.855	2121.47
476.227	2130.96
476.598	2156.5
476.97	2167.57
477.341	2225.42
477.713	2251.86
478.084	2270.17
478.455	2284.63
478.827	2307.23
479.198	2384.51
479.569	2384.97
479.94	2421.8
480.311	2406.21
480.682	2464.51
481.053	2475.36
481.424	2495.47
481.795	2535.02
482.166	2589.71
482.537	2604.17
482.908	2558.97
483.279	2625.19
483.65	2670.61
484.021	2707.22
484.391	2726.43
484.762	2716.26
485.133	2754
485.503	2786.08
485.874	2834.9
486.244	2823.6
486.615	2848.46
486.985	2930.04
487.356	2951.05
487.726	2936.14
488.097	2956.7
488.467	2989.02
488.837	3059.98
489.207	3072.86
489.578	3073.76
489.948	3126.87
490.318	3166.64
490.688	3146.53
491.058	3191.05
491.428	3247.32
491.798	3212.29
492.168	3277.37
492.538	3272.4
492.908	3305.85
493.278	3355.34
493.648	3341.1
494.017	3357.6
494.387	3404.37
494.757	3430.14
495.126	3457.48
495.496	3483.47
495.866	3499.29
496.235	3490.7
496.605	3542.22
496.974	3533.18
497.344	3539.51
497.713	3562.79
498.082	3564.82
498.452	3590.81
498.821	3603.69
499.19	3664.71
499.559	3670.81
499.928	3664.93
500.298	3685.5
500.667	3716.46
501.036	3716.68
501.405	3731.37
501.774	3755.55
502.143	3757.58
502.512	3767.08
502.88	3779.96
503.249	3812.95
503.618	3832.84
503.987	3787.64
504.356	3866.51
504.724	3875.77
505.093	3908.77
505.462	3863.12
505.83	3877.36
506.199	3920.52
506.567	3932.04
506.936	3926.62
507.304	3977.47
507.672	3972.49
508.041	4008.43
508.409	4028.54
508.777	4028.54
509.145	4067.63
509.514	4026.05
509.882	4062.66
510.25	4087.07
510.618	4067.41
510.986	4079.61
511.354	4062.66
511.722	4134.98
512.09	4140.17
512.458	4131.81
512.826	4158.25
513.193	4171.36
513.561	4210
513.929	4213.62
514.297	4206.61
514.664	4203.67
515.032	4242.77
515.4	4294.29
515.767	4240.74
516.135	4301.98
516.502	4276.22
516.869	4306.04
517.237	4339.94
517.604	4288.19
517.972	4379.49
518.339	4345.82
518.706	4343.78
519.073	4360.05
519.44	4360.73
519.808	4397.12
520.175	4400.96
520.542	4429.43
520.909	4462.2
521.276	4452.48
521.643	4484.12
522.009	4490.67
522.376	4500.84
522.743	4513.05
523.11	4558.92
523.477	4547.85
523.843	4581.74
524.21	4602.53
524.577	4637.34
524.943	4645.25
525.31	4654.96
525.676	4691.35
526.043	4709.42
526.409	4682.98
526.776	4793.72
527.142	4753.49
527.508	4820.38
527.874	4805.47
528.241	4854.51
528.607	4845.24
528.973	4916.65
529.339	4886.37
529.705	4957.78
530.071	4961.85
530.437	4949.19
530.803	5012.02
531.169	5013.82
531.535	5010.66
531.901	5062.64
532.267	5015.86
532.632	5088.85
532.998	5122.07
533.364	5138.57
533.73	5114.39
534.095	5195.97
534.461	5213.14
534.826	5261.27
535.192	5249.07
535.557	5322.06
535.923	5299.01
536.288	5291.1
536.653	5350.99
537.019	5330.2
537.384	5379.69
537.749	5398.45
538.114	5374.49
538.479	5349.63
538.845	5395.73
539.21	5430.99
539.575	5514.6
539.94	5443.64
540.305	5540.59
540.67	5503.75
541.034	5589.85
541.399	5578.55
541.764	5594.82
542.129	5623.75
542.494	5647.03
542.858	5667.82
543.223	5698.78
543.587	5731.54
543.952	5756.18
544.316	5784.42
544.681	5786.68
545.045	5791.66
545.41	5820.58
545.774	5843.63
546.138	5882.95
546.503	5908.49
546.867	5928.6
547.231	5956.62
547.595	5957.08
547.959	5978.77
548.324	5992.55
548.688	6014.02
549.052	6016.96
549.416	6062.83
549.779	6050.41
550.143	6117.97
550.507	6152.1
550.871	6173.34
551.235	6160.01
551.599	6211.08
551.962	6218.99
552.326	6191.87
552.689	6276.16
553.053	6223.96
553.417	6218.31
553.78	6331.75
554.143	6249.04
554.507	6313.9
554.87	6348.48
555.234	6456.04
555.597	6351.41
555.96	6375.14
556.323	6433.67
556.686	6454.24
557.05	6465.76
557.413	6470.28
557.776	6483.84
558.139	6549.38
558.502	6565.65
558.865	6556.83
559.228	6559.55
559.59	6550.73
559.953	6637.28
560.316	6687.23
560.679	6650.84
561.041	6723.16
561.404	6713.44
561.767	6729.48
562.129	6776.26
562.492	6769.93
562.854	6781.91
563.217	6766.09
563.579	6804.51
563.941	6830.72
564.304	6852.64
564.666	6958.86
565.028	6939.42
565.39	6922.02
565.753	6925.86
566.115	7002.02
566.477	7027.33
566.839	7021.23
567.201	7069.14
567.563	7058.97
567.925	7136.71
568.287	7126.08
568.648	7169.47
569.01	7190.49
569.372	7199.98
569.734	7218.96
570.095	7261.67
570.457	7275.46
570.819	7333.76
571.18	7346.64
571.542	7397.26
571.903	7407.43
572.265	7457.37
572.626	7529.24
572.987	7545.96
573.349	7616.01
573.71	7620.76
574.071	7703.7
574.432	7725.16
574.794	7775.78
575.155	7883.58
575.516	7869.34
575.877	7999.73
576.238	8027.98
576.599	8107.3
576.96	8157.7
577.32	8188.65
577.681	8307.07
578.042	8400.17
578.403	8399.04
578.763	8497.12
579.124	8632.71
579.485	8660.51
579.845	8878.58
580.206	8889.43
580.566	9006.49
580.927	9124.68
581.287	9258.23
581.648	9345.69
582.008	9575.96
582.368	9635.4
582.728	9750.87
583.089	9942.51
583.449	10095.72
583.809	10229.73
584.169	10385.66
584.529	10551.98
584.889	10852.54
585.249	10926.66
585.609	11088.69
585.969	11356.03
586.329	11551.73
586.688	11775.91
587.048	11954.88
587.408	12103.13
587.768	12406.62
588.127	12617.69
588.487	12837.12
588.846	13167.51
589.206	13279.37
589.565	13520.49
589.925	13942.18
590.284	14105.79
590.643	14353.46
591.003	14653.8
591.362	14932.88
591.721	15107.79
592.08	15459.88
592.44	15795.23
592.799	16016.92
593.158	16329.68
593.517	16623.24
593.876	16952.94
594.235	17149.1
594.593	17527.62
594.952	17790.89
595.311	18094.61
595.67	18408.5
596.029	18726.23
596.387	19088.48
596.746	19392.43
597.104	19612.31
597.463	19831.96
597.822	20248.68
598.18	20424.72
598.538	20785.61
598.897	21118.03
599.255	21167.07
599.613	21774.51
599.972	21884.11
600.33	22327.72
600.688	22451.78
601.046	22961.6
601.404	23253.34
601.762	23398.88
602.12	23807
602.478	24155.47
602.836	24340.77
603.194	24498.96
603.552	24710.93
603.91	24936.24
604.268	25294.42
604.625	25554.3
604.983	25921.52
605.341	26016.21
605.698	26523.99
606.056	26686.7
606.413	26983.41
606.771	27290.07
607.128	27460.46
607.485	27605.77
607.843	27891.41
608.2	28135.47
608.557	28460.66
608.914	28554.45
609.272	28956.7
609.629	29122.34
609.986	29417.93
610.343	29411.83
610.7	29915.32
611.057	30007.06
611.414	30115.99
611.771	30254.52
612.127	30703.99
612.484	30799.81
612.841	30982.86
613.198	31132.01
613.554	31327.03
613.911	31544.65
614.267	31743.52
614.624	31837.07
614.98	32111.87
615.337	32318.87
615.693	32472.76
616.05	32565.41
616.406	32938.74
616.762	32916.37
617.118	33029.36
617.475	33195.23
617.831	33502.79
618.187	33529.68
618.543	33634.31
618.899	33895.1
619.255	34054.42
619.611	34112.04
619.967	34263.68
620.323	34400.62
620.678	34518.81
621.034	34435.87
621.39	34711.35
621.746	34796.09
622.101	35187.94
622.457	35041.73
622.812	35114.73
623.168	35310.88
623.523	35384.78
623.879	35562.85
624.234	35461.16
624.589	35654.6
624.945	35746.8
625.3	35837.19
625.655	35792
626.01	36080.58
626.365	36108.37
626.72	36228.82
627.075	36194.92
627.43	36365.32
627.785	36220.01
628.14	36381.13
628.495	36420.45
628.85	36483.28
629.205	36477.63
629.559	36685.98
629.914	36564.18
630.269	36728.24
630.623	36542.03
630.978	36575.48
631.332	36798.3
631.687	36843.27
632.041	36745.19
632.396	36802.82
632.75	36821.8
633.104	36897.28
633.459	36782.48
633.813	36822.93
634.167	36815.47
634.521	36853.66
634.875	36902.25
635.229	36810.28
635.583	36678.75
635.937	36946.54
636.291	36700.67
636.645	37003.72
636.999	36885.75
637.352	37046.2
637.706	36830.39
638.06	37075.58
638.413	36870.84
638.767	36857.05
639.121	36897.28
639.474	36803.04
639.828	36854.12
640.181	36940.67
640.534	36836.49
640.888	36785.87
641.241	36662.26
641.594	36864.96
641.947	37014.34
642.301	36834.68
642.654	36839.2
643.007	36815.7
643.36	36786.09
643.713	36724.18
644.066	36962.14
644.419	36684.4
644.771	36456.84
645.124	36149.05
645.477	36168.03
645.83	35921.48
646.182	35714.03
646.535	35616.41
646.888	35876.51
647.24	35541.83
647.593	36013.01
647.945	35779.57
648.298	35493.02
648.65	35550.87
649.002	35423.42
649.355	35625.45
649.707	35571.89
650.059	35716.52
650.411	36161.48
650.763	36186.11
651.115	36633.1
651.467	36295.94
651.819	36455.26
652.171	36351.76
652.523	36255.71
652.875	36247.8
653.227	36233.12
653.578	36448.25
653.93	36317.18
654.282	36187.47
654.633	36089.84
654.985	36213.45
655.337	36256.62
655.688	36224.08
656.039	36297.52
656.391	36027.02
656.742	36083.29
657.094	36236.96
657.445	36191.08
657.796	36111.99
658.147	36094.59
658.498	35996.96
658.849	36100.01
659.2	35989.51
659.551	36105.66
659.902	36125.1
660.253	36060.69
660.604	36172.78
660.955	35841.26
661.306	36210.29
661.656	36016.62
662.007	36020.01
662.358	35947.7
662.708	36064.98
663.059	35956.29
663.409	35861.83
663.76	35996.06
664.11	35999.67
664.461	36019.79
664.811	35993.35
665.161	35948.15
665.511	35666.35
665.862	35835.61
666.212	36161.7
666.562	35889.62
666.912	35978.66
667.262	35767.14
667.612	35933.91
667.962	35863.86
668.312	35898.66
668.662	35980.69
669.011	35857.76
669.361	35868.38
669.711	35891.43
670.06	35789.51
670.41	35705.9
670.76	35694.6
671.109	35867.7
671.459	35882.84
671.808	35744.77
672.157	35766.23
672.507	35704.54
672.856	35610.53
673.205	35724.43
673.554	35737.53
673.904	35624.32
674.253	35931.43
674.602	35707.93
674.951	35173.93
675.3	35056.87
675.649	35487.6
675.998	35512.46
676.346	35672.23
676.695	35526.24
677.044	35327.15
677.393	35425.9
677.741	35496.19
678.09	35500.48
678.438	35297.09
678.787	35391.78
679.135	35400.14
679.484	35244.89
679.832	35456.19
680.181	35106.82
680.529	35327.15
680.877	35188.62
681.225	35277.43
681.573	35324.21
681.922	35030.21
682.27	34915.64
682.618	35092.35
682.966	34918.12
683.314	35051.23
683.661	34869.31
684.009	34731.69
684.357	34604.68
684.705	34578.7
685.053	34584.12
685.4	34589.32
685.748	34345.71
686.095	34444.01
686.443	34334.18
686.79	34349.1
687.138	34322.2
687.485	34413.05
687.832	34142.55
688.18	34247.4
688.527	34123.57
688.874	33967.41
689.221	33866.62
689.568	33777.13
689.915	33769.45
690.262	33633.64
690.609	33623.24
690.956	33432.96
691.303	33457.14
691.65	33336.02
691.997	33498.95
692.344	33137.38
692.69	33081.11
693.037	33146.42
693.383	32892.64
693.73	33150.48
694.077	32954.11
694.423	32938.74
694.769	32752.98
695.116	32703.26
695.462	32688.12
695.808	32506.66
696.155	32646.77
696.501	32305.99
696.847	32272.99
697.193	32070.06
697.539	32282.71
697.885	31965.66
698.231	31902.83
698.577	31985.09
698.923	31944.87
699.269	31660.58
699.614	31666.68
699.96	31654.7
700.306	31481.38
700.651	31409.06
700.997	31418.78
701.342	31314.37
701.688	31245.68
702.033	31226.92
702.379	31063.99
702.724	30970.2
703.069	30994.38
703.415	30794.39
703.76	30689.53
704.105	30645.92
704.45	30653.83
704.795	30564.34
705.14	30443.44
705.485	30339.26
705.83	30220.84
706.175	30368.41
706.52	30318.92
706.865	30146.27
707.209	30141.52
707.554	30038.25
707.899	30020.85
708.243	29895.43
708.588	29848.42
708.932	29624.48
709.277	29656.56
709.621	29701.31
709.966	29694.3
710.31	29643.91
710.654	29324.82
710.998	29360.98
711.342	29387.42
711.687	29302.45
712.031	29175.9
712.375	29047.99
712.719	29124.38
713.063	29010.03
713.407	29132.06
713.75	28860.43
714.094	28968.9
714.438	28667.44
714.782	28797.6
715.125	28542.7
715.469	28709.25
715.812	28485.52
716.156	28353.77
716.499	28403.94
716.843	28326.43
717.186	28233.33
717.53	28250.05
717.873	28404.39
718.216	28356.03
718.559	28156.94
718.902	28049.38
719.246	27850.06
719.589	27964.41
719.932	27816.84
720.275	27771.19
720.617	27845.77
720.96	27705.66
721.303	27683.06
721.646	27785.65
721.989	27663.62
722.331	27688.48
722.674	27584.98
723.016	27581.59
723.359	27480.35
723.701	27626.11
724.044	27383.18
724.386	27234.71
724.729	27323.97
725.071	27318.55
725.413	27238.1
725.755	27182.96
726.097	27136.18
726.439	27088.95
726.782	26997.65
727.124	27155.16
727.465	26964.21
727.807	26962.4
728.149	26887.37
728.491	26770.09
728.833	26830.2
729.175	26792.69
729.516	26662.52
729.858	26617.77
730.199	26685.12
730.541	26552.92
730.882	26501.39
731.224	26619.58
731.565	26438.34
731.906	26448.97
732.248	26603.54
732.589	26361.06
732.93	26158.35
733.271	26321.29
733.612	26298.01
733.953	26196.99
734.294	26130.56
734.635	26082.65
734.976	26191.12
735.317	25901.86
735.658	26010.56
735.999	25950.45
736.339	25933.27
736.68	26012.37
737.021	25853.95
737.361	25892.82
737.702	25966.04
738.042	25860.05
738.383	25764.24
738.723	25745.03
739.063	25767.4
739.404	25819.6
739.744	25641.3
740.084	25437.69
740.424	25519.95
740.764	25398.15
741.104	25591.14
741.444	25425.26
741.784	25350.92
742.124	25319.5
742.464	25304.81
742.804	25275.89
743.143	25275.21
743.483	25314.53
743.823	25171.26
744.162	25199.51
744.502	25038.83
744.841	25046.06
745.181	25193.86
745.52	24940.76
745.86	24929.46
746.199	24896.24
746.538	24860.53
746.877	24972.85
747.216	24892.85
747.556	24922.23
747.895	24786.86
748.234	24776.47
748.573	24665.96
748.911	24763.13
749.25	24727.43
749.589	24536.93
749.928	24554.78
750.267	24657.15
750.605	24466.42
750.944	24461.22
751.283	24367.66
751.621	24476.59
751.96	24338.51
752.298	24331.73
752.636	24269.14
752.975	24135.13
753.313	24138.29
753.651	24200.44
753.989	23978.97
754.327	23924.96
754.666	23781.01
755.004	23854.23
755.342	23950.95
755.679	23837.96
756.017	23687.68
756.355	23685.2
756.693	23599.32
757.031	23754.8
757.368	23479.78
757.706	23376.96
758.044	23321.59
758.381	23499.21
758.719	23319.1
759.056	23334.92
759.394	23257.64
759.731	23178.09
