Data from hue_330_FLMS001491_16.txt Node
Date: Mon Feb 06 15:44:59 GMT 2017
User: dcchb
Spectrometer: FLMS00149
Trigger mode: 0
Integration Time (sec): 2.000000E-2
Scans to average: 10
Electric dark correction enabled: true
Nonlinearity correction enabled: false
Boxcar width: 0
XAxis mode: Wavelengths
Number of Pixels in Spectrum: 2048
>>>>>Begin Spectral Data<<<<<
341.393	-7.29
341.776	-7.29
342.16	-7.29
342.543	-46.83
342.927	-68.53
343.31	-68.76
343.693	-76.44
344.077	-73.27
344.46	-67.63
344.843	-48.19
345.226	-47.74
345.61	-17.01
345.993	-22.2
346.376	-3.22
346.759	14.63
347.142	39.04
347.525	29.1
347.908	50.79
348.291	95.53
348.674	85.59
349.057	109.77
349.44	138.02
349.823	162.88
350.206	156.32
350.588	189.54
350.971	202.42
351.354	247.39
351.737	234.97
352.119	253.04
352.502	262.54
352.884	294.17
353.267	285.13
353.65	307.28
354.032	293.95
354.414	308.18
354.797	319.48
355.179	317.45
355.562	315.87
355.944	308.64
356.326	349.54
356.709	345.02
357.091	347.28
357.473	331.23
357.855	344.12
358.238	351.35
358.62	368.07
359.002	324.23
359.384	341.63
359.766	328.97
360.148	328.97
360.53	346.38
360.912	327.62
361.294	352.25
361.676	325.58
362.057	326.49
362.439	314.96
362.821	330.1
363.203	312.03
363.584	323.78
363.966	333.72
364.348	350.89
364.729	317.45
365.111	322.65
365.493	342.99
365.874	338.01
366.256	323.32
366.637	308.86
367.019	316.77
367.4	321.52
367.781	308.18
368.163	339.82
368.544	328.07
368.925	339.37
369.306	320.61
369.688	334.85
370.069	302.99
370.45	322.65
370.831	330.33
371.212	326.04
371.593	310.67
371.974	309.54
372.355	333.27
372.736	339.6
373.117	321.07
373.498	303.21
373.879	317.68
374.26	309.99
374.641	327.17
375.021	321.74
375.402	304.34
375.783	328.3
376.163	316.77
376.544	333.27
376.925	319.03
377.305	343.66
377.686	344.79
378.066	331.01
378.447	318.13
378.827	353.83
379.208	336.88
379.588	329.2
379.968	342.53
380.349	322.42
380.729	331.91
381.109	345.47
381.489	338.92
381.87	343.89
382.25	364.23
382.63	365.58
383.01	335.08
383.39	316.55
383.77	344.34
384.15	338.47
384.53	339.14
384.91	361.74
385.29	352.02
385.67	354.74
386.049	345.7
386.429	349.31
386.809	354.74
387.189	354.51
387.568	354.06
387.948	342.08
388.328	354.51
388.707	357.22
389.087	341.86
389.466	363.32
389.846	345.25
390.225	373.72
390.605	364.23
390.984	372.59
391.363	376.43
391.743	368.3
392.122	359.03
392.501	367.84
392.881	374.4
393.26	380.95
393.639	379.37
394.018	371.46
394.397	384.57
394.776	377.11
395.155	397
395.534	404.45
395.913	379.14
396.292	387.05
396.671	376.66
397.05	398.35
397.429	392.25
397.808	382.76
398.186	386.37
398.565	383.21
398.944	375.75
399.323	397.22
399.701	398.35
400.08	402.87
400.458	417.33
400.837	398.35
401.215	404.9
401.594	409.88
401.972	390.44
402.351	405.36
402.729	405.58
403.107	424.11
403.486	405.36
403.864	416.43
404.242	423.44
404.62	435.41
404.999	418.01
405.377	436.99
405.755	447.84
406.133	429.76
406.511	433.38
406.889	423.21
407.267	452.81
407.645	441.74
408.023	456.88
408.401	440.38
408.779	445.58
409.156	474.73
409.534	472.7
409.912	477.22
410.29	479.93
410.667	461.17
411.045	474.51
411.422	483.55
411.8	507.73
412.178	507.73
412.555	502.98
412.933	525.58
413.31	510.21
413.687	521.74
414.065	522.42
414.442	524
414.819	552.02
415.197	526.03
415.574	561.51
415.951	576.2
416.328	555.41
416.705	548.18
417.082	567.61
417.46	555.41
417.837	582.08
418.214	557.44
418.591	586.59
418.967	605.13
419.344	602.64
419.721	616.65
420.098	609.42
420.475	615.07
420.852	617.55
421.228	620.04
421.605	632.7
421.982	648.51
422.358	661.85
422.735	675.18
423.111	644.67
423.488	653.26
423.864	665.46
424.241	680.15
424.617	666.82
424.994	692.81
425.37	684.9
425.746	711.56
426.123	709.76
426.499	724.44
426.875	710.66
427.251	726.03
427.627	744.56
428.003	724.44
428.379	743.88
428.756	740.71
429.132	748.62
429.507	792.24
429.883	759.92
430.259	794.95
430.635	771.9
431.011	811.9
431.387	810.77
431.763	819.58
432.138	810.32
432.514	816.65
432.89	823.2
433.265	846.47
433.641	848.28
434.016	859.81
434.392	882.18
434.767	865.91
435.143	901.84
435.518	890.99
435.894	921.05
436.269	893.48
436.644	909.75
437.02	922.86
437.395	909.75
437.77	936.64
438.145	941.84
438.52	993.36
438.895	967.38
439.271	973.25
439.646	988.17
440.021	1010.09
440.395	1010.99
440.77	972.8
441.145	1009.86
441.52	1010.76
441.895	1029.75
442.27	1038.79
442.645	1015.28
443.019	1044.21
443.394	1054.61
443.769	1056.64
444.143	1033.81
444.518	1055.73
444.892	1045.34
445.267	1058.22
445.641	1074.49
446.016	1064.77
446.39	1074.04
446.764	1114.72
447.139	1073.59
447.513	1083.76
447.887	1103.64
448.262	1083.3
448.636	1105.45
449.01	1111.55
449.384	1108.61
449.758	1113.59
450.132	1123.76
450.506	1121.04
450.88	1137.31
451.254	1142.74
451.628	1135.05
452.002	1162.4
452.376	1169.86
452.75	1154.72
453.123	1163.98
453.497	1189.74
453.871	1188.61
454.244	1204.21
454.618	1194.26
454.992	1204.66
455.365	1202.62
455.739	1233.36
456.112	1241.94
456.486	1249.18
456.859	1253.02
457.232	1282.17
457.606	1258.44
457.979	1272.45
458.352	1284.66
458.725	1308.84
459.099	1319.68
459.472	1328.04
459.845	1311.77
460.218	1329.63
460.591	1346.57
460.964	1360.81
461.337	1377.08
461.71	1375.5
462.083	1396.74
462.456	1408.49
462.829	1407.14
463.201	1404.2
463.574	1426.8
463.947	1429.96
464.32	1442.62
464.692	1447.36
465.065	1471.54
465.438	1487.59
465.81	1478.77
466.183	1477.19
466.555	1537.53
466.928	1547.02
467.3	1550.19
467.672	1567.13
468.045	1576.85
468.417	1588.38
468.789	1615.04
469.161	1622.95
469.534	1627.7
469.906	1672.44
470.278	1657.75
470.65	1674.93
471.022	1698.66
471.394	1703.85
471.766	1744.08
472.138	1748.15
472.51	1790.86
472.882	1791.53
473.253	1814.81
473.625	1827.69
473.997	1889.16
474.369	1852.55
474.74	1903.62
475.112	1900.23
475.484	1929.84
475.855	1942.04
476.227	1965.32
476.598	1974.13
476.97	2052.54
477.341	2056.61
477.713	2052.09
478.084	2075.6
478.455	2137.06
478.827	2155.82
479.198	2189.94
479.569	2205.31
479.94	2240.11
480.311	2251.18
480.682	2296.83
481.053	2324.18
481.424	2374.57
481.795	2408.47
482.166	2415.02
482.537	2399.43
482.908	2477.84
483.279	2463.61
483.65	2487.34
484.021	2562.36
484.391	2580.89
484.762	2593.55
485.133	2603.26
485.503	2633.77
485.874	2722.58
486.244	2730.04
486.615	2775.24
486.985	2801.23
487.356	2769.81
487.726	2866.53
488.097	2889.36
488.467	2867.66
488.837	2919.64
489.207	2965.52
489.578	3026.98
489.948	3033.76
490.318	3069.92
490.688	3089.81
491.058	3062.91
491.428	3140.2
491.798	3156.02
492.168	3228.56
492.538	3189.46
492.908	3246.64
493.278	3324.15
493.648	3290.93
494.017	3299.74
494.387	3363.92
494.757	3358.73
495.126	3384.49
495.496	3439.18
495.866	3445.05
496.235	3466.75
496.605	3472.39
496.974	3519.4
497.344	3537.93
497.713	3557.82
498.082	3549.68
498.452	3612.73
498.821	3602.79
499.19	3604.82
499.559	3646.4
499.928	3680.3
500.298	3651.82
500.667	3690.47
501.036	3684.82
501.405	3752.61
501.774	3736.79
502.143	3701.54
502.512	3800.3
502.88	3809.79
503.249	3800.07
503.618	3848.43
503.987	3803.91
504.356	3801.2
504.724	3868.32
505.093	3858.83
505.462	3887.75
505.83	3907.86
506.199	3899.73
506.567	3957.35
506.936	3948.77
507.304	4007.3
507.672	3984.92
508.041	3999.39
508.409	4044.81
508.777	4068.09
509.145	4054.3
509.514	4076.45
509.882	4105.15
510.25	4067.41
510.618	4127.74
510.986	4100.63
511.354	4136.56
511.722	4177.46
512.09	4179.49
512.458	4153.05
512.826	4202.09
513.193	4206.84
513.561	4264.24
513.929	4223.56
514.297	4233.5
514.664	4290.23
515.032	4255.2
515.4	4320.51
515.767	4307.85
516.135	4304.69
516.502	4296.55
516.869	4357.57
517.237	4333.39
517.604	4361.64
517.972	4395.53
518.339	4377.91
518.706	4390.79
519.073	4417.68
519.44	4455.65
519.808	4454.29
520.175	4445.02
520.542	4481.63
520.909	4503.33
521.276	4504.23
521.643	4527.51
522.009	4563.44
522.376	4572.7
522.743	4537.23
523.11	4600.27
523.477	4592.82
523.843	4649.09
524.21	4692.25
524.577	4726.82
524.943	4697.45
525.31	4722.08
525.676	4739.93
526.043	4795.98
526.409	4748.75
526.776	4848.18
527.142	4836.2
527.508	4889.53
527.874	4862.19
528.241	4901.51
528.607	4871.68
528.973	4926.82
529.339	4964.11
529.705	4987.83
530.071	4989.87
530.437	5044.33
530.803	5067.83
531.169	5103.09
531.535	5090.43
531.901	5137.89
532.267	5104.89
532.632	5117.1
532.998	5157.55
533.364	5213.14
533.73	5194.16
534.095	5272.35
534.461	5226.7
534.826	5252.69
535.192	5313.02
535.557	5307.83
535.923	5369.97
536.288	5309.63
536.653	5416.3
537.019	5373.14
537.384	5407.26
537.749	5474.38
538.114	5410.87
538.479	5491.32
538.845	5523.64
539.21	5522.06
539.575	5548.5
539.94	5633.02
540.305	5591.89
540.67	5612.68
541.034	5670.3
541.399	5660.81
541.764	5666.24
542.129	5708.04
542.494	5761.83
542.858	5715.5
543.223	5740.58
543.587	5806.34
543.952	5814.48
544.316	5891.31
544.681	5808.38
545.045	5881.14
545.41	5909.17
545.774	5949.17
546.138	5933.8
546.503	5928.15
546.867	5998.2
547.231	5995.04
547.595	6053.57
547.959	6082.27
548.324	6101.03
548.688	6033.01
549.052	6129.05
549.416	6136.73
549.779	6145.32
550.143	6219.44
550.507	6169.27
550.871	6252.66
551.235	6239.1
551.599	6254.69
551.962	6248.14
552.326	6318.42
552.689	6339.21
553.053	6313
553.417	6321.13
553.78	6346.44
554.143	6349.61
554.507	6379.21
554.87	6376.72
555.234	6482.48
555.597	6416.5
555.96	6492.65
556.323	6497.4
556.686	6507.79
557.05	6600
557.413	6557.74
557.776	6576.95
558.139	6639.09
558.502	6641.8
558.865	6668.24
559.228	6661.01
559.59	6679.32
559.953	6696.49
560.316	6768.13
560.679	6750.73
561.041	6816.04
561.404	6853.32
561.767	6817.62
562.129	6820.78
562.492	6895.58
562.854	6890.84
563.217	6828.01
563.579	6908.69
563.941	6915.92
564.304	6966.31
564.666	7039.53
565.028	6999.08
565.39	7065.07
565.753	7047.22
566.115	7149.59
566.477	7086.08
566.839	7124.5
567.201	7143.71
567.563	7193.2
567.925	7249.47
568.287	7216.7
568.648	7283.59
569.01	7240.88
569.372	7334.89
569.734	7303.03
570.095	7396.81
570.457	7432.06
570.819	7451.27
571.18	7443.14
571.542	7541.67
571.903	7558.61
572.265	7576.92
572.626	7598.39
572.987	7652.4
573.349	7774.65
573.71	7783.92
574.071	7762.68
574.432	7889.91
574.794	7962.45
575.155	7955.67
575.516	7943.92
575.877	8081.99
576.238	8088.77
576.599	8123.8
576.96	8242.66
577.32	8346.39
577.681	8427.07
578.042	8466.39
578.403	8533.73
578.763	8568.53
579.124	8729.21
579.485	8798.36
579.845	8989.09
580.206	9026.37
580.566	9116.99
580.927	9225.46
581.287	9359.25
581.648	9429.75
582.008	9632.91
582.368	9704.77
582.728	9903.19
583.089	10018.89
583.449	10170.98
583.809	10393.34
584.169	10521.25
584.529	10595.6
584.889	10965.98
585.249	11060.67
585.609	11238.29
585.969	11500.43
586.329	11625.85
586.688	11816.36
587.048	12096.35
587.408	12294.31
587.768	12508.54
588.127	12701.98
588.487	12981.07
588.846	13239.6
589.206	13404.79
589.565	13670.32
589.925	13974.72
590.284	14110.31
590.643	14430.3
591.003	14765.88
591.362	15004.29
591.721	15237.96
592.08	15580.1
592.44	15879.3
592.799	16113.19
593.158	16419.85
593.517	16694.42
593.876	17054.86
594.235	17257.34
594.593	17583.44
594.952	17970.54
595.311	18153.36
595.67	18501.6
596.029	18935.26
596.387	19282.15
596.746	19489.15
597.104	19796.26
597.463	20054.33
597.822	20413.87
598.18	20612.06
598.538	20909.22
598.897	21227.41
599.255	21375.43
599.613	21964.79
599.972	22107.84
600.33	22502.63
600.688	22718.44
601.046	23152.1
601.404	23419.44
601.762	23734.46
602.12	24128.8
602.478	24259.42
602.836	24498.06
603.194	24736.47
603.552	25035.67
603.91	25202.9
604.268	25617.8
604.625	25748.65
604.983	26103.89
605.341	26199.93
605.698	26575.74
606.056	26874.94
606.413	27090.76
606.771	27443.52
607.128	27573.23
607.485	27779.1
607.843	28003.05
608.2	28282.36
608.557	28717.38
608.914	28736.82
609.272	29107.88
609.629	29310.59
609.986	29744.47
610.343	29695.43
610.7	30195.76
611.057	30219.26
611.414	30418.13
611.771	30626.03
612.127	30969.3
612.484	31106.92
612.841	31309.85
613.198	31319.12
613.554	31675.72
613.911	31851.54
614.267	32021.93
614.624	32245.2
614.98	32355.48
615.337	32587.34
615.693	32722.92
616.05	32759.53
616.406	33208.79
616.762	33180.09
617.118	33259.18
617.475	33468.44
617.831	33850.8
618.187	33850.13
618.543	33998.15
618.899	34272.49
619.255	34322.88
619.611	34376.67
619.967	34599.71
620.323	34767.62
620.678	34793.83
621.034	34796.09
621.39	34947.73
621.746	35043.09
622.101	35494.38
622.457	35282.86
622.812	35466.36
623.168	35681.49
623.523	35690.98
623.879	35922.39
624.234	35767.82
624.589	35946.57
624.945	36001.71
625.3	36079.9
625.655	36115.83
626.01	36322.6
626.365	36441.7
626.72	36401.47
627.075	36440.34
627.43	36559.43
627.785	36578.19
628.14	36743.16
628.495	36838.52
628.85	36779.99
629.205	36737.96
629.559	37018.18
629.914	36690.73
630.269	36958.07
630.623	37014.11
630.978	36837.17
631.332	37224.05
631.687	37236.7
632.041	37142.7
632.396	37288
632.75	37233.77
633.104	37193.99
633.459	37074.22
633.813	37057.73
634.167	37209.81
634.521	37301.79
634.875	37250.94
635.229	37273.99
635.583	37126.42
635.937	37168.91
636.291	37210.72
636.645	37222.92
636.999	37164.62
637.352	37399.64
637.706	37162.36
638.06	37472.18
638.413	37280.55
638.767	37094.79
639.121	37262.24
639.474	37148.35
639.828	37122.81
640.181	37283.48
640.534	37169.14
640.888	37177.72
641.241	37031.96
641.594	37062.02
641.947	37169.81
642.301	37120.32
642.654	37201.68
643.007	37176.14
643.36	37175.69
643.713	37142.02
644.066	37300.43
644.419	37090.49
644.771	36876.26
645.124	36469.72
645.477	36500.9
645.83	36155.83
646.182	36176.17
646.535	36148.15
646.888	36215.49
647.24	35997.19
647.593	36246.45
647.945	36152.89
648.298	35976.17
648.65	35955.16
649.002	35795.16
649.355	36119.45
649.707	35973.23
650.059	36107.47
650.411	36501.81
650.763	36636.95
651.115	37119.87
651.467	36858.41
651.819	36943.38
652.171	36738.41
652.523	36697.51
652.875	36835.36
653.227	36643.95
653.578	37011.17
653.93	36799.88
654.282	36600.56
654.633	36511.75
654.985	36678.98
655.337	36599.21
655.688	36742.93
656.039	36754.23
656.391	36414.35
656.742	36472.2
657.094	36594.46
657.445	36757.62
657.796	36630.17
658.147	36611.64
658.498	36553.11
658.849	36565.54
659.2	36544.29
659.551	36537.97
659.902	36586.33
660.253	36515.37
660.604	36579.09
660.955	36394.24
661.306	36478.76
661.656	36512.88
662.007	36499.1
662.358	36364.86
662.708	36361.47
663.059	36456.16
663.409	36281.48
663.76	36487.57
664.11	36523.95
664.461	36474.69
664.811	36489.38
665.161	36440.57
665.511	36358.76
665.862	36448.02
666.212	36437.4
666.562	36493.22
666.912	36463.84
667.262	36365.09
667.612	36468.36
667.962	36440.34
668.312	36410.06
668.662	36471.07
669.011	36381.59
669.361	36349.27
669.711	36327.8
670.06	36226.56
670.41	36258.65
670.76	36194.92
671.109	36374.13
671.459	36226.56
671.808	36340.91
672.157	36280.57
672.507	36085.1
672.856	36133.68
673.205	36201.48
673.554	36218.65
673.904	36090.97
674.253	36360.57
674.602	36078.32
674.951	35639.91
675.3	35553.58
675.649	35964.42
675.998	36078.09
676.346	35903.41
676.695	36122.16
677.044	35959.68
677.393	35973.46
677.741	35993.35
678.09	35895.5
678.438	35857.31
678.787	35890.53
679.135	35913.35
679.484	35763.75
679.832	35856.4
680.181	35674.26
680.529	35841.26
680.877	35665.22
681.225	35529.86
681.573	35705.22
681.922	35610.53
682.27	35504.09
682.618	35547.71
682.966	35383.87
683.314	35469.07
683.661	35377.54
684.009	35158.57
684.357	35077.67
684.705	35081.73
685.053	35171.67
685.4	35038.34
685.748	34865.24
686.095	34804.23
686.443	34830.21
686.79	34900.27
687.138	34790.22
687.485	34790.89
687.832	34708.41
688.18	34663.44
688.527	34502.31
688.874	34502.54
689.221	34489.66
689.568	34313.39
689.915	34306.61
690.262	34306.39
690.609	34159.95
690.956	33940.29
691.303	34003.12
691.65	33945.27
691.997	33867.3
692.344	33712.05
692.69	33677.93
693.037	33702.79
693.383	33437.03
693.73	33466.86
694.077	33317.94
694.423	33331.95
694.769	33299.18
695.116	33194.78
695.462	33098.73
695.808	33156.59
696.155	33069.36
696.501	32839.31
696.847	32814.9
697.193	32653.32
697.539	32696.48
697.885	32503.5
698.231	32469.6
698.577	32348.47
698.923	32340.11
699.269	32215.37
699.614	32063.73
699.96	31977.18
700.306	32000.46
700.651	31969.05
700.997	31736.51
701.342	31784.19
701.688	31768.15
702.033	31566.12
702.379	31621.03
702.724	31552.56
703.069	31586.68
703.415	31079.8
703.76	31281.83
704.105	31295.62
704.45	31223.76
704.795	30941.5
705.14	31023.99
705.485	30827.38
705.83	30765.69
706.175	30855.86
706.52	30687.95
706.865	30541.97
707.209	30528.18
707.554	30306.27
707.899	30467.84
708.243	30314.17
708.588	30251.8
708.932	30107.63
709.277	30164.57
709.621	30037.8
709.966	29921.64
710.31	30046.84
710.654	29734.75
710.998	29883.9
711.342	29753.96
711.687	29741.76
712.031	29621.76
712.375	29418.15
712.719	29455.67
713.063	29356.23
713.407	29502.22
713.75	29410.92
714.094	29371.83
714.438	29082.79
714.782	29381.54
715.125	29059.97
715.469	29138.39
715.812	28924.83
716.156	28839.86
716.499	28950.37
716.843	29000.54
717.186	28727.78
717.53	28942.46
717.873	28833.54
718.216	28702.01
718.559	28636.48
718.902	28395.36
719.246	28476.48
719.589	28403.49
719.932	28377.28
720.275	28327.11
720.617	28328.69
720.96	28191.97
721.303	28321.23
721.646	28179.09
721.989	28065.42
722.331	28170.73
722.674	28137.73
723.016	28082.14
723.359	27930.96
723.701	27946.1
724.044	27853
724.386	27689.61
724.729	27843.05
725.071	27665.2
725.413	27705.43
725.755	27622.04
726.097	27543.4
726.439	27413.91
726.782	27373.01
727.124	27444.65
727.465	27433.57
727.807	27345.21
728.149	27286.46
728.491	27237.87
728.833	27262.28
729.175	27175.05
729.516	27123.52
729.858	26979.35
730.199	27034.71
730.541	26979.35
730.882	27027.93
731.224	26993.81
731.565	26877.2
731.906	26882.63
732.248	26903.42
732.589	26735.51
732.93	26589.75
733.271	26659.81
733.612	26676.3
733.953	26695.06
734.294	26596.53
734.635	26589.53
734.976	26642.86
735.317	26468.85
735.658	26317.67
735.999	26456.42
736.339	26218.92
736.68	26365.35
737.021	26292.36
737.361	26193.83
737.702	26345.01
738.042	26186.15
738.383	26125.81
738.723	26271.34
739.063	26132.36
739.404	26162.42
739.744	26007.62
740.084	26033.16
740.424	25984.57
740.764	25830.9
741.104	25963.78
741.444	25795.2
741.784	25763.56
742.124	25875.2
742.464	25741.64
742.804	25720.4
743.143	25630.46
743.483	25543.23
743.823	25381.2
744.162	25400.86
744.502	25582.77
744.841	25386.39
745.181	25477.92
745.52	25436.34
745.86	25418.94
746.199	25347.75
746.538	25297.13
746.877	25341.42
747.216	25300.07
747.556	25220.07
747.895	25144.59
748.234	25055.78
748.573	25079.96
748.911	24911.15
749.25	24903.47
749.589	24826.18
749.928	24781.66
750.267	24990.02
750.605	24810.14
750.944	24782.79
751.283	24729.69
751.621	24767.88
751.96	24605.85
752.298	24614.89
752.636	24553.42
752.975	24540.09
753.313	24402.69
753.651	24495.34
753.989	24323.15
754.327	24306.2
754.666	24300.32
755.004	24305.29
755.342	24166.54
755.679	24077.95
756.017	24003.15
756.355	24111.85
756.693	23924.96
757.031	23945.08
757.368	23785.08
757.706	23776.04
758.044	23680.68
758.381	23815.81
758.719	23594.58
759.056	23563.62
759.394	23635.03
759.731	23382.15
