Data from hue_110_FLMS001491_00048.txt Node
Date: Tue Feb 07 17:01:23 GMT 2017
User: dcchb
Spectrometer: FLMS00149
Trigger mode: 0
Integration Time (sec): 2.000000E-2
Scans to average: 10
Electric dark correction enabled: true
Nonlinearity correction enabled: false
Boxcar width: 0
XAxis mode: Wavelengths
Number of Pixels in Spectrum: 2048
>>>>>Begin Spectral Data<<<<<
341.393	15.15
341.776	15.15
342.16	15.15
342.543	-54.9
342.927	-74.33
343.31	-90.38
343.693	-85.18
344.077	-74.79
344.46	-48.57
344.843	-44.73
345.226	-39.98
345.61	-35.24
345.993	-28.69
346.376	-1.79
346.759	18.09
347.142	25.1
347.525	49.5
347.908	52.89
348.291	97.41
348.674	85.89
349.057	120.46
349.44	124.3
349.823	143.74
350.206	172.21
350.588	188.48
350.971	219.67
351.354	220.12
351.737	242.49
352.119	256.28
352.502	252.66
352.884	286.33
353.267	296.73
353.65	313.23
354.032	287.69
354.414	299.44
354.797	302.15
355.179	331.3
355.562	329.95
355.944	326.56
356.326	343.96
356.709	338.99
357.091	338.31
357.473	336.05
357.855	344.64
358.238	337.18
358.62	340.12
359.002	349.38
359.384	341.7
359.766	325.43
360.148	330.17
360.53	354.81
360.912	328.14
361.294	324.53
361.676	336.5
362.057	350.74
362.439	329.95
362.821	324.98
363.203	329.72
363.584	345.54
363.966	320.23
364.348	310.51
364.729	337.63
365.111	320.46
365.493	334.47
365.874	334.69
366.256	333.34
366.637	320.68
367.019	325.88
367.4	314.36
367.781	329.95
368.163	301.25
368.544	327.01
368.925	325.43
369.306	324.07
369.688	335.6
370.069	313
370.45	313.23
370.831	313.23
371.212	301.25
371.593	329.72
371.974	322.04
372.355	309.84
372.736	323.4
373.117	327.46
373.498	334.24
373.879	322.27
374.26	334.24
374.641	332.43
375.021	323.85
375.402	323.4
375.783	315.49
376.163	338.31
376.544	331.98
376.925	312.32
377.305	334.92
377.686	341.02
378.066	324.98
378.447	337.86
378.827	353.9
379.208	334.69
379.588	348.93
379.968	349.16
380.349	349.61
380.729	358.42
381.109	333.56
381.489	354.36
381.87	355.26
382.25	361.36
382.63	340.34
383.01	361.59
383.39	346.9
383.77	362.94
384.15	356.39
384.53	348.03
384.91	336.73
385.29	346.22
385.67	358.2
386.049	374.24
386.429	357.07
386.809	377.18
387.189	349.16
387.568	356.39
387.948	374.02
388.328	376.73
388.707	377.41
389.087	384.18
389.466	407.46
389.846	372.66
390.225	373.34
390.605	376.73
390.984	370.17
391.363	391.42
391.743	390.06
392.122	382.38
392.501	412.43
392.881	397.97
393.26	416.73
393.639	407.46
394.018	393.9
394.397	402.26
394.776	402.72
395.155	389.16
395.534	405.2
395.913	397.07
396.292	404.52
396.671	429.38
397.05	427.8
397.429	427.8
397.808	406.33
398.186	419.21
398.565	401.81
398.944	414.92
399.323	415.14
399.701	434.35
400.08	430.06
400.458	430.74
400.837	413.79
401.215	432.77
401.594	447.91
401.972	424.86
402.351	437.52
402.729	435.26
403.107	424.18
403.486	433.68
403.864	431.87
404.242	437.29
404.62	443.39
404.999	458.99
405.377	449.27
405.755	451.3
406.133	451.08
406.511	467.8
406.889	458.08
407.267	477.29
407.645	461.02
408.023	438.87
408.401	470.74
408.779	472.54
409.156	471.64
409.534	486.78
409.912	479.55
410.29	475.71
410.667	492.88
411.045	479.55
411.422	494.69
411.8	517.74
412.178	529.04
412.555	500.34
412.933	534.46
413.31	498.53
413.687	517.29
414.065	531.75
414.442	548.02
414.819	518.87
415.197	550.96
415.574	525.2
415.951	545.99
416.328	558.42
416.705	530.85
417.082	520.9
417.46	543.95
417.837	551.19
418.214	556.16
418.591	548.7
418.967	579.66
419.344	583.5
419.721	573.11
420.098	588.02
420.475	598.64
420.852	594.57
421.228	600.68
421.605	609.94
421.982	607.68
422.358	605.65
422.735	621.24
423.111	610.39
423.488	606.33
423.864	643.84
424.241	609.26
424.617	629.83
424.994	630.28
425.37	637.06
425.746	638.64
426.123	641.81
426.499	645.87
426.875	654.23
427.251	661.69
427.627	671.41
428.003	654.91
428.379	657.4
428.756	679.09
429.132	678.64
429.507	678.87
429.883	711.86
430.259	690.62
430.635	718.64
431.011	719.54
431.387	725.42
431.763	734.23
432.138	726.77
432.514	751.86
432.89	740.33
433.265	758.86
433.641	766.77
434.016	750.5
434.392	804.74
434.767	791.63
435.143	802.93
435.518	821.69
435.894	794.8
436.269	821.01
436.644	833.21
437.02	819.88
437.395	873.89
437.77	825.98
438.145	854.45
438.52	880.67
438.895	876.38
439.271	870.05
439.646	898.52
440.021	898.3
440.395	933.77
440.77	896.49
441.145	905.53
441.52	904.85
441.895	915.24
442.27	929.03
442.645	943.04
443.019	938.75
443.394	917.96
443.769	942.59
444.143	951.4
444.518	956.83
444.892	955.7
445.267	967.45
445.641	985.3
446.016	980.78
446.39	988.24
446.764	1011.06
447.139	990.04
447.513	1019.87
447.887	986.88
448.262	1011.29
448.636	1030.95
449.01	1035.69
449.384	1035.02
449.758	1026.43
450.132	1051.06
450.506	1074.34
450.88	1078.18
451.254	1056.71
451.628	1082.7
452.002	1083.83
452.376	1109.59
452.75	1113.21
453.123	1124.05
453.497	1143.71
453.871	1171.51
454.244	1153.2
454.618	1181.45
454.992	1200.43
455.365	1188.46
455.739	1206.31
456.112	1266.2
456.486	1224.84
456.859	1270.26
457.232	1296.25
457.606	1306.42
457.979	1290.38
458.352	1325.63
458.725	1363.14
459.099	1369.24
459.472	1387.32
459.845	1396.81
460.218	1413.08
460.591	1455.8
460.964	1442.46
461.337	1473.42
461.71	1482.24
462.083	1519.07
462.456	1528.34
462.829	1533.76
463.201	1554.32
463.574	1563.81
463.947	1605.85
464.32	1600.65
464.692	1634.55
465.065	1639.97
465.438	1649.46
465.81	1709.57
466.183	1727.65
466.555	1783.47
466.928	1794.09
467.3	1789.12
467.672	1811.27
468.045	1898.5
468.417	1909.57
468.789	1940.98
469.161	1948.89
469.534	2002
469.906	2032.28
470.278	2087.87
470.65	2088.32
471.022	2140.07
471.394	2214.19
471.766	2229.33
472.138	2277.69
472.51	2327.41
472.882	2415.09
473.253	2416.45
473.625	2476.79
473.997	2509.78
474.369	2586.61
474.74	2630.23
475.112	2705.93
475.484	2744.35
475.855	2827.74
476.227	2874.06
476.598	2930.78
476.97	3000.16
477.341	3118.35
477.713	3153.6
478.084	3243.77
478.455	3361.96
478.827	3433.14
479.198	3571.67
479.569	3614.61
479.94	3800.14
480.311	3813.02
480.682	3900.7
481.053	4027.03
481.424	4154.93
481.795	4275.83
482.166	4408.71
482.537	4477.41
482.908	4635.15
483.279	4733
483.65	4833.79
484.021	5009.15
484.391	5073.33
484.762	5224.51
485.133	5322.59
485.503	5501.56
485.874	5635.57
486.244	5786.08
486.615	5990.82
486.985	6074.66
487.356	6258.61
487.726	6389.9
488.097	6531.82
488.467	6655.21
488.837	6925.48
489.207	7039.83
489.578	7250.67
489.948	7393.27
490.318	7562.08
490.688	7642.98
491.058	7890.43
491.428	8023.98
491.798	8164.09
492.168	8434.37
492.538	8497.42
492.908	8702.84
493.278	8937.86
493.648	9057.18
494.017	9246.1
494.387	9354.12
494.757	9490.61
495.126	9732.41
495.496	9782.13
495.866	9944.16
496.235	10158.62
496.605	10262.12
496.974	10435.45
497.344	10599.06
497.713	10700.07
498.082	10807.41
498.452	11016.9
498.821	11137.35
499.19	11164.01
499.559	11378.7
499.928	11534.17
500.298	11622.53
500.667	11752.25
501.036	11796.31
501.405	12039.02
501.774	12088.51
502.143	12221.61
502.512	12407.82
502.88	12482.4
503.249	12521.72
503.618	12686.23
503.987	12714.48
504.356	12856.63
504.724	13002.16
505.093	13112.44
505.462	13114.47
505.83	13235.82
506.199	13370.06
506.567	13505.87
506.936	13591.75
507.304	13776.38
507.672	13787
508.041	13766.88
508.409	14032.41
508.777	14033.77
509.145	14233.76
509.514	14203.71
509.882	14384.72
510.25	14438.96
510.618	14488.67
510.986	14568.44
511.354	14628.33
511.722	14823.58
512.09	14881.2
512.458	14876.01
512.826	15046.4
513.193	15017.25
513.561	15018.15
513.929	15171.59
514.297	15355.99
514.664	15330.23
515.032	15426.28
515.4	15540.85
515.767	15474.41
516.135	15576.33
516.502	15469.66
516.869	15615.42
517.237	15718.47
517.604	15733.39
517.972	15798.69
518.339	15877.56
518.706	15941.06
519.073	16007.5
519.44	16017.67
519.808	16114.39
520.175	16090.44
520.542	16200.27
520.909	16294.73
521.276	16262.19
521.643	16407.04
522.009	16404.1
522.376	16415.63
522.743	16536.75
523.11	16619.92
523.477	16790.08
523.843	16759.8
524.21	16892.68
524.577	16956.18
524.943	16860.59
525.31	16982.39
525.676	17177.19
526.043	17083.63
526.409	17139.45
526.776	17177.19
527.142	17167.92
527.508	17204.53
527.874	17262.16
528.241	17334.02
528.607	17377.64
528.973	17367.69
529.339	17372.66
529.705	17486.33
530.071	17472.55
530.437	17503.06
530.803	17552.55
531.169	17649.49
531.535	17445.21
531.901	17480.01
532.267	17521.14
532.632	17536.5
532.998	17530.4
533.364	17631.41
533.73	17556.61
534.095	17674.35
534.461	17593.9
534.826	17553.9
535.192	17649.04
535.557	17610.85
535.923	17568.82
536.288	17560.91
536.653	17514.13
537.019	17572.21
537.384	17454.7
537.749	17467.35
538.114	17408.82
538.479	17429.84
538.845	17419.9
539.21	17324.98
539.575	17318.43
539.94	17336.73
540.305	17327.02
540.67	17254.7
541.034	17216.06
541.399	17214.02
541.764	17175.83
542.129	17193.01
542.494	17013.35
542.858	17131.32
543.223	16946.01
543.587	17053.8
543.952	16989.85
544.316	17054.48
544.681	16965.9
545.045	16968.83
545.41	16949.17
545.774	16946.69
546.138	16815.62
546.503	16800.93
546.867	16725
547.231	16876.63
547.595	16753.7
547.959	16735.85
548.324	16650.65
548.688	16541.5
549.052	16612.01
549.416	16554.16
549.779	16512.35
550.143	16478.68
550.507	16535.62
550.871	16459.92
551.235	16376.31
551.599	16467.15
551.962	16408.17
552.326	16393.71
552.689	16369.98
553.053	16232.58
553.417	16244.56
553.78	16382.18
554.143	16283.43
554.507	16236.88
554.87	16233.49
555.234	16383.31
555.597	16253.82
555.96	16274.84
556.323	16327.27
556.686	16100.16
557.05	16211.11
557.413	16183.77
557.776	16190.1
558.139	16235.52
558.502	16118.46
558.865	16064.22
559.228	16159.36
559.59	16193.26
559.953	16214.5
560.316	16282.3
560.679	16208.4
561.041	16248.85
561.404	16336.76
561.767	16210.66
562.129	16247.04
562.492	16274.39
562.854	16249.98
563.217	16167.27
563.579	16271.45
563.941	16322.07
564.304	16314.16
564.666	16372.46
565.028	16380.15
565.39	16349.64
565.753	16329.53
566.115	16415.4
566.477	16419.7
566.839	16383.99
567.201	16445.46
567.563	16430.99
567.925	16486.13
568.287	16466.93
568.648	16462.63
569.01	16571.33
569.372	16467.6
569.734	16480.48
570.095	16571.33
570.457	16529.75
570.819	16643.19
571.18	16632.57
571.542	16717.09
571.903	16694.49
572.265	16721.83
572.626	16677.32
572.987	16632.57
573.349	16769.06
573.71	16743.98
574.071	16731.78
574.432	16773.81
574.794	16824.66
575.155	16783.53
575.516	16740.82
575.877	16766.58
576.238	16765
576.599	16799.12
576.96	16877.54
577.32	16823.75
577.681	16859.01
578.042	16871.43
578.403	16865.79
578.763	16946.91
579.124	16863.07
579.485	16978.32
579.845	16999.57
580.206	16759.12
580.566	16840.7
580.927	16842.06
581.287	16940.81
581.648	16770.87
582.008	16932.22
582.368	16788.5
582.728	16864.43
583.089	16898.78
583.449	16760.25
583.809	16754.15
584.169	16823.53
584.529	16774.26
584.889	16937.65
585.249	16778.33
585.609	16710.76
585.969	16834.6
586.329	16745.34
586.688	16712.57
587.048	16690.42
587.408	16656.3
587.768	16694.94
588.127	16683.87
588.487	16649.75
588.846	16809.74
589.206	16589.86
589.565	16573.82
589.925	16680.93
590.284	16601.16
590.643	16634.6
591.003	16640.03
591.362	16670.08
591.721	16677.54
592.08	16608.62
592.44	16607.94
592.799	16558.22
593.158	16588.5
593.517	16576.08
593.876	16488.62
594.235	16506.25
594.593	16524.33
594.952	16585.79
595.311	16480.48
595.67	16663.08
596.029	16642.06
596.387	16614.04
596.746	16572.23
597.104	16443.42
597.463	16453.37
597.822	16606.13
598.18	16498.56
598.538	16483.87
598.897	16624.44
599.255	16389.41
599.613	16620.14
599.972	16494.72
600.33	16528.17
600.688	16498.11
601.046	16561.61
601.404	16585.57
601.762	16461.95
602.12	16560.48
602.478	16637.09
602.836	16513.48
603.194	16395.52
603.552	16428.51
603.91	16360.94
604.268	16490.65
604.625	16464.21
604.983	16599.58
605.341	16360.04
605.698	16413.14
606.056	16462.41
606.413	16484.78
606.771	16492.46
607.128	16550.77
607.485	16433.71
607.843	16456.98
608.2	16509.41
608.557	16537.88
608.914	16418.11
609.272	16615.17
609.629	16569.97
609.986	16676.41
610.343	16633.7
610.7	16662.17
611.057	16655.4
611.414	16666.02
611.771	16675.96
612.127	16786.24
612.484	16773.81
612.841	16706.92
613.198	16654.04
613.554	16644.1
613.911	16707.6
614.267	16786.47
614.624	16727.48
614.98	16759.12
615.337	16800.93
615.693	16868.05
616.05	16711.21
616.406	16798.44
616.762	16841.15
617.118	16772
617.475	16831.21
617.831	16778.1
618.187	16780.59
618.543	16891.32
618.899	16925.9
619.255	16861.72
619.611	16857.65
619.967	16897.87
620.323	16959.34
620.678	16829.18
621.034	16930.42
621.39	16880.47
621.746	16834.15
622.101	17028.72
622.457	16872.56
622.812	16949.62
623.168	16965.9
623.523	17052.22
623.879	16974.94
624.234	16868.5
624.589	17007.7
624.945	16957.53
625.3	16968.38
625.655	16953.47
626.01	16966.35
626.365	16923.41
626.72	16938.78
627.075	16839.57
627.43	16915.05
627.785	16946.01
628.14	16809.06
628.495	16927.93
628.85	16841.61
629.205	16896.97
629.559	16924.31
629.914	16837.31
630.269	16886.12
630.623	16874.37
630.978	16816.75
631.332	16915.05
631.687	16935.61
632.041	16793.02
632.396	16790.31
632.75	16705.34
633.104	16818.1
633.459	16666.69
633.813	16745.11
634.167	16664.66
634.521	16655.62
634.875	16717.54
635.229	16558
635.583	16520.71
635.937	16596.41
636.291	16555.29
636.645	16550.54
636.999	16493.82
637.352	16557.77
637.706	16419.7
638.06	16430.77
638.413	16402.52
638.767	16406.14
639.121	16346.7
639.474	16294.95
639.828	16294.5
640.181	16347.15
640.534	16440.49
640.888	16310.32
641.241	16312.58
641.594	16327.27
641.947	16299.02
642.301	16247.5
642.654	16290.21
643.007	16317.33
643.36	16291.79
643.713	16204.33
644.066	16200.72
644.419	16208.85
644.771	16149.65
645.124	15963.66
645.477	15961.85
645.83	15916.21
646.182	15763.89
646.535	15794.4
646.888	15722.99
647.24	15669.21
647.593	15708.08
647.945	15719.37
648.298	15616.33
648.65	15533.17
649.002	15565.93
649.355	15654.07
649.707	15685.93
650.059	15765.02
650.411	15906.94
650.763	15899.48
651.115	16178.57
651.467	16082.3
651.819	16004.57
652.171	16081.17
652.523	16029.88
652.875	16008.41
653.227	15940.61
653.578	16063.09
653.93	16038.01
654.282	15914.85
654.633	15933.38
654.985	16018.35
655.337	16056.99
655.688	16013.6
656.039	16079.59
656.391	15944
656.742	16045.02
657.094	16002.53
657.445	15995.98
657.796	16114.17
658.147	16025.58
658.498	16014.73
658.849	16038.91
659.2	16120.72
659.551	16048.18
659.902	16048.18
660.253	16059.7
660.604	16099.25
660.955	15952.59
661.306	15958.24
661.656	16014.73
662.007	16031.23
662.358	16074.62
662.708	16147.16
663.059	16083.43
663.409	16055.41
663.76	16086.6
664.11	16152.81
664.461	16137.67
664.811	16107.39
665.161	16094.51
665.511	16109.87
665.862	16080.95
666.212	16163.43
666.562	16101.51
666.912	16090.21
667.262	16095.86
667.612	16113.71
667.962	16160.95
668.312	16198.01
668.662	16221.28
669.011	16104.22
669.361	16077.78
669.711	16071.91
670.06	15996.2
670.41	16089.99
670.76	16132.7
671.109	16106.48
671.459	16116.2
671.808	16084.34
672.157	16019.48
672.507	15971.57
672.856	15933.61
673.205	15933.83
673.554	16015.64
673.904	15921.63
674.253	15995.3
674.602	15910.33
674.951	15712.82
675.3	15625.82
675.649	15781.97
675.998	15905.13
676.346	15843.21
676.695	15844.8
677.044	15783.1
677.393	15837.56
677.741	15829.65
678.09	15720.28
678.438	15709.21
678.787	15756.89
679.135	15776.77
679.484	15630.79
679.832	15715.53
680.181	15627.63
680.529	15593.05
680.877	15539.72
681.225	15532.04
681.573	15664.01
681.922	15518.7
682.27	15463.11
682.618	15494.3
682.966	15410.46
683.314	15497.91
683.661	15439.83
684.009	15327.07
684.357	15235.77
684.705	15245.26
685.053	15301.53
685.4	15250.46
685.748	15135.44
686.095	15163.46
686.443	15083.01
686.79	15064.02
687.138	15102.22
687.485	15137.92
687.832	15066.28
688.18	15024.93
688.527	14971.37
688.874	14883.46
689.221	14884.14
689.568	14807.99
689.915	14826.97
690.262	14820.64
690.609	14703.13
690.956	14669.91
691.303	14614.55
691.65	14545.39
691.997	14593.08
692.344	14413.87
692.69	14365.51
693.037	14370.94
693.383	14262.69
693.73	14234.89
694.077	14220.43
694.423	14174.1
694.769	14133.65
695.116	14041
695.462	14030.38
695.808	14007.33
696.155	13989.93
696.501	13901.34
696.847	13897.73
697.193	13805.53
697.539	13784.51
697.885	13738.64
698.231	13675.59
698.577	13653.21
698.923	13584.29
699.269	13502.03
699.614	13412.99
699.96	13452.32
700.306	13394.92
700.651	13318.31
700.997	13270.4
701.342	13274.24
701.688	13252.55
702.033	13197.41
702.379	13083.96
702.724	13104.3
703.069	13115.6
703.415	12951.76
703.76	12960.13
704.105	12965.77
704.45	12887.13
704.795	12950.18
705.14	12759.68
705.485	12712.9
705.83	12701.83
706.175	12698.21
706.52	12653.92
706.865	12560.59
707.209	12586.12
707.554	12552
707.899	12551.55
708.243	12514.26
708.588	12451.89
708.932	12350.88
709.277	12296.41
709.621	12336.19
709.966	12230.65
710.31	12210.31
710.654	12136.19
710.998	12187.94
711.342	12081.96
711.687	12119.24
712.031	12029.98
712.375	12040.83
712.719	12074.72
713.063	11996.31
713.407	12036.08
713.75	11973.94
714.094	11926.71
714.438	11834.96
714.782	11930.55
715.125	11821.85
715.469	11888.97
715.812	11779.59
716.156	11756.77
716.499	11743.89
716.843	11760.61
717.186	11710.89
717.53	11707.28
717.873	11714.28
718.216	11621.63
718.559	11635.64
718.902	11535.08
719.246	11545.25
719.589	11558.81
719.932	11526.49
720.275	11467.51
720.617	11481.07
720.96	11449.43
721.303	11479.03
721.646	11512.93
721.989	11377.79
722.331	11475.42
722.674	11356.55
723.016	11383.44
723.359	11421.63
723.701	11447.4
724.044	11264.35
724.386	11291.92
724.729	11350
725.071	11341.18
725.413	11303.45
725.755	11308.87
726.097	11307.06
726.439	11240.62
726.782	11151.81
727.124	11312.26
727.465	11296.89
727.807	11280.17
728.149	11211.02
728.491	11246.5
728.833	11190
729.175	11152.04
729.516	11140.74
729.858	11146.39
730.199	11173.05
730.541	11151.13
730.882	11131.02
731.224	11224.13
731.565	11156.1
731.906	11110.23
732.248	11151.13
732.589	11100.74
732.93	11120.85
733.271	11103.45
733.612	11121.76
733.953	11119.27
734.294	11057.12
734.635	11115.88
734.976	11143.45
735.317	11069.55
735.658	11110.68
735.999	11120.4
736.339	11095.54
736.68	11178.7
737.021	11204.24
737.361	11119.04
737.702	11204.47
738.042	11229.1
738.383	11117.01
738.723	11203.79
739.063	11151.81
739.404	11212.83
739.744	11157.46
740.084	11266.38
740.424	11260.96
740.764	11250.11
741.104	11338.7
741.444	11260.06
741.784	11249.21
742.124	11294.18
742.464	11288.08
742.804	11334.63
743.143	11385.7
743.483	11374.63
743.823	11394.74
744.162	11365.82
744.502	11439.94
744.841	11498.02
745.181	11536.89
745.52	11464.12
745.86	11594.51
746.199	11634.28
746.538	11658.01
746.877	11825.69
747.216	11879.7
747.556	11865.69
747.895	11868.4
748.234	12023.65
748.573	12035.86
748.911	12125.35
749.25	12219.35
749.589	12243.99
749.928	12401.95
750.267	12442.17
750.605	12515.17
750.944	12569.4
751.283	12629.74
751.621	12847.13
751.96	12833.35
752.298	13038.09
752.636	13139.33
752.975	13232.43
753.313	13261.36
753.651	13441.24
753.989	13618.19
754.327	13631.07
754.666	13824.74
755.004	13984.51
755.342	14075.35
755.679	14285.51
756.017	14326.64
