Data from hue_32_FLMS001491_00030.txt Node
Date: Tue Feb 07 17:23:07 GMT 2017
User: dcchb
Spectrometer: FLMS00149
Trigger mode: 0
Integration Time (sec): 2.000000E-2
Scans to average: 10
Electric dark correction enabled: true
Nonlinearity correction enabled: false
Boxcar width: 0
XAxis mode: Wavelengths
Number of Pixels in Spectrum: 2048
>>>>>Begin Spectral Data<<<<<
341.393	-13.8
341.776	-13.8
342.16	-13.8
342.543	-61.93
342.927	-65.78
343.31	-63.97
343.693	-67.13
344.077	-56.96
344.46	-65.55
344.843	-56.06
345.226	-42.27
345.61	-33.23
345.993	-42.72
346.376	-1.6
346.759	4.51
347.142	47.44
347.525	50.83
347.908	43.6
348.291	63.49
348.674	107.55
349.057	112.07
349.44	104.84
349.823	146.2
350.206	164.28
350.588	187.55
350.971	225.97
351.354	231.84
351.737	265.06
352.119	242.69
352.502	249.92
352.884	287.89
353.267	285.18
353.65	297.83
354.032	293.31
354.414	309.13
354.797	312.07
355.179	321.33
355.562	324.05
355.944	334.21
356.326	331.73
356.709	322.69
357.091	339.86
357.473	345.74
357.855	353.87
358.238	328.11
358.62	350.26
359.002	345.51
359.384	343.93
359.766	327.66
360.148	319.07
360.53	347.32
360.912	350.49
361.294	335.34
361.676	341.45
362.057	326.08
362.439	331.5
362.821	302.12
363.203	332.18
363.584	335.57
363.966	333.31
364.348	324.72
364.729	322.92
365.111	340.09
365.493	327.66
365.874	300.77
366.256	319.3
366.637	298.96
367.019	325.63
367.4	300.09
367.781	331.5
368.163	309.81
368.544	339.86
368.925	319.98
369.306	318.17
369.688	328.34
370.069	305.29
370.45	305.29
370.831	329.47
371.212	296.7
371.593	340.77
371.974	312.52
372.355	331.95
372.736	311.39
373.117	315.23
373.498	336.47
373.879	304.16
374.26	310.26
374.641	322.01
375.021	305.51
375.402	305.74
375.783	329.02
376.163	330.6
376.544	337.38
376.925	321.56
377.305	337.6
377.686	328.11
378.066	322.24
378.447	343.03
378.827	340.32
379.208	344.38
379.588	314.33
379.968	319.98
380.349	314.55
380.729	316.14
381.109	333.31
381.489	337.38
381.87	334.67
382.25	340.54
382.63	342.8
383.01	360.88
383.39	339.64
383.77	348.68
384.15	330.37
384.53	356.13
384.91	345.51
385.29	358.39
385.67	359.3
386.049	346.19
386.429	338.51
386.809	351.39
387.189	368.11
387.568	368.11
387.948	364.72
388.328	370.37
388.707	365.4
389.087	373.08
389.466	376.47
389.846	371.05
390.225	381.22
390.605	364.95
390.984	372.63
391.363	354.1
391.743	362.69
392.122	381.67
392.501	373.76
392.881	368.79
393.26	378.96
393.639	387.55
394.018	375.34
394.397	379.64
394.776	371.28
395.155	377.83
395.534	371.95
395.913	379.18
396.292	380.99
396.671	395.68
397.05	397.49
397.429	382.8
397.808	407.21
398.186	392.74
398.565	408.34
398.944	385.96
399.323	398.17
399.701	418.28
400.08	394.33
400.458	401.11
400.837	413.08
401.215	414.89
401.594	411.05
401.972	396.36
402.351	387.77
402.729	402.24
403.107	415.57
403.486	406.3
403.864	411.05
404.242	410.82
404.62	419.64
404.999	420.31
405.377	433.87
405.755	435.45
406.133	430.26
406.511	439.75
406.889	445.62
407.267	440.88
407.645	426.42
408.023	458.05
408.401	455.57
408.779	453.76
409.156	460.99
409.534	429.81
409.912	451.27
410.29	447.66
410.667	466.64
411.045	465.96
411.422	490.82
411.8	459.86
412.178	472.29
412.555	488.11
412.933	469.58
413.31	482.23
413.687	495.11
414.065	479.75
414.442	465.74
414.819	507.77
415.197	490.37
415.574	512.97
415.951	489.46
416.328	516.13
416.705	501.22
417.082	502.57
417.46	534.21
417.837	505.06
418.214	532.4
418.591	512.97
418.967	522.46
419.344	534.21
419.721	537.82
420.098	519.52
420.475	522.23
420.852	521.33
421.228	541.44
421.605	538.95
421.982	550.03
422.358	556.36
422.735	538.28
423.111	553.87
423.488	559.52
423.864	565.85
424.241	560.88
424.617	561.1
424.994	596.81
425.37	570.59
425.746	595.9
426.123	585.73
426.499	578.73
426.875	599.07
427.251	584.83
427.627	590.48
428.003	599.97
428.379	605.62
428.756	613.76
429.132	640.87
429.507	636.81
429.883	614.43
430.259	646.3
430.635	635.22
431.011	664.83
431.387	649.46
431.763	648.33
432.138	663.25
432.514	652.17
432.89	685.62
433.265	697.82
433.641	689.23
434.016	684.04
434.392	715.9
434.767	695.33
435.143	711.61
435.518	692.62
435.894	724.26
436.269	735.56
436.644	734.66
437.02	735.33
437.395	758.84
437.77	754.54
438.145	741.21
438.52	765.39
438.895	775.11
439.271	758.84
439.646	770.36
440.021	751.38
440.395	798.61
440.77	780.3
441.145	774.65
441.52	792.73
441.895	805.16
442.27	811.26
442.645	816.01
443.019	826.63
443.394	791.6
443.769	822.56
444.143	812.85
444.518	823.69
444.892	815.56
445.267	829.79
445.641	858.27
446.016	863.92
446.39	876.57
446.764	863.24
447.139	866.86
447.513	831.38
447.887	889.68
448.262	856.46
448.636	882.45
449.01	885.61
449.384	894.43
449.758	919.06
450.132	904.59
450.506	909.57
450.88	904.37
451.254	912.5
451.628	936.46
452.002	911.6
452.376	912.5
452.75	923.13
453.123	975.33
453.497	960.86
453.871	970.81
454.244	993.18
454.618	995.67
454.992	1016.23
455.365	990.69
455.739	1039.28
456.112	1030.47
456.486	1054.65
456.859	1060.07
457.232	1049.22
457.606	1059.62
457.979	1071.37
458.352	1075.44
458.725	1107.3
459.099	1128.54
459.472	1144.36
459.845	1138.04
460.218	1130.58
460.591	1169.9
460.964	1173.74
461.337	1185.72
461.71	1215.55
462.083	1205.83
462.456	1242.89
462.829	1221.87
463.201	1249.22
463.574	1265.04
463.947	1293.96
464.32	1296.67
464.692	1306.17
465.065	1315.88
465.438	1330.57
465.81	1327.63
466.183	1375.99
466.555	1429.33
466.928	1420.06
467.3	1402.43
467.672	1443.11
468.045	1471.81
468.417	1451.7
468.789	1466.61
469.161	1495.31
469.534	1522.88
469.906	1577.57
470.278	1538.25
470.65	1588.19
471.022	1638.13
471.394	1646.72
471.766	1676.1
472.138	1704.8
472.51	1728.98
472.882	1785.48
473.253	1778.92
473.625	1795.87
473.997	1877
474.369	1881.74
474.74	1906.38
475.112	1966.94
475.484	1968.3
475.855	2045.13
476.227	2050.55
476.598	2095.07
476.97	2175.97
477.341	2211.68
477.713	2254.84
478.084	2245.35
478.455	2368.06
478.827	2421.62
479.198	2416.87
479.569	2486.47
479.94	2596.08
480.311	2578.9
480.682	2666.81
481.053	2722.85
481.424	2790.65
481.795	2847.59
482.166	2920.59
482.537	2938.21
482.908	3051.66
483.279	3097.53
483.65	3179.11
484.021	3299.11
484.391	3290.07
484.762	3380.24
485.133	3448.03
485.503	3522.61
485.874	3569.61
486.244	3677.18
486.615	3747.91
486.985	3843.27
487.356	3886.44
487.726	4026.77
488.097	4054.79
488.467	4102.02
488.837	4266.31
489.207	4342.92
489.578	4441.45
489.948	4480.09
490.318	4592.41
490.688	4638.51
491.058	4737.04
491.428	4852.29
491.798	4900.87
492.168	5090.93
492.538	5094.77
492.908	5183.8
493.278	5301.09
493.648	5320.98
494.017	5395.78
494.387	5514.19
494.757	5588.99
495.126	5636.9
495.496	5729.33
495.866	5773.17
496.235	5878.93
496.605	5953.05
496.974	6025.82
497.344	6060.84
497.713	6156.89
498.082	6200.27
498.452	6322.31
498.821	6332.7
499.19	6409.76
499.559	6536.99
499.928	6576.08
500.298	6579.93
500.667	6735.18
501.036	6762.52
501.405	6796.42
501.774	6884.32
502.143	6954.61
502.512	6964.32
502.88	7074.83
503.249	7066.92
503.618	7155.73
503.987	7242.28
504.356	7270.76
504.724	7270.08
505.093	7364.99
505.462	7417.64
505.83	7547.58
506.199	7567.47
506.567	7726.34
506.936	7649.28
507.304	7755.71
507.672	7820.12
508.041	7923.39
508.409	7930.17
508.777	8032.77
509.145	8046.78
509.514	8089.04
509.882	8140.56
510.25	8133.78
510.618	8229.83
510.986	8287.68
511.354	8354.12
511.722	8449.48
512.09	8479.76
512.458	8556.37
512.826	8593.43
513.193	8590.04
513.561	8652.64
513.929	8723.6
514.297	8826.19
514.664	8859.64
515.032	8847.89
515.4	8995.46
515.767	8914.1
516.135	9075
516.502	8975.34
516.869	9173.98
517.237	9120.88
517.604	9169.46
517.972	9260.76
518.339	9265.73
518.706	9321.77
519.073	9308.67
519.44	9410.36
519.808	9525.39
520.175	9495.56
520.542	9640.86
520.909	9620.52
521.276	9604.03
521.643	9801.08
522.009	9749.11
522.376	9874.53
522.743	9864.81
523.11	9974.64
523.477	10091.92
523.843	10119.95
524.21	10149.32
524.577	10277.23
524.943	10344.8
525.31	10402.42
525.676	10456.66
526.043	10495.76
526.409	10448.07
526.776	10660.72
527.142	10633.15
527.508	10756.09
527.874	10821.4
528.241	10768.52
528.607	11015.52
528.973	11002.18
529.339	10976.65
529.705	11135.06
530.071	11189.75
530.437	11199.69
530.803	11352.68
531.169	11310.2
531.535	11372.12
531.901	11392.23
532.267	11468.16
532.632	11510.42
532.998	11582.05
533.364	11680.36
533.73	11636.97
534.095	11765.33
534.461	11779.79
534.826	11877.19
535.192	11946.56
535.557	12021.36
535.923	11948.15
536.288	12114.02
536.653	12129.61
537.019	12087.13
537.384	12120.35
537.749	12223.39
538.114	12213.68
538.479	12269.04
538.845	12385.65
539.21	12402.37
539.575	12375.71
539.94	12446.21
540.305	12502.71
540.67	12544.06
541.034	12657.96
541.399	12638.3
541.764	12693.21
542.129	12750.39
542.494	12785.86
542.858	12880.1
543.223	12887.1
543.587	12936.59
543.952	13006.88
544.316	13080.77
544.681	13077.16
545.045	13181.56
545.41	13208
545.774	13280.54
546.138	13416.36
546.503	13348.56
546.867	13361.22
547.231	13518.27
547.595	13535.68
547.959	13502.23
548.324	13528.44
548.688	13624.49
549.052	13706.74
549.416	13686.63
549.779	13722.34
550.143	13732.96
550.507	13790.81
550.871	13913.74
551.235	13901.54
551.599	14044.81
551.962	14124.36
552.326	14138.82
552.689	14126.39
553.053	14077.81
553.417	14178.6
553.78	14309.44
554.143	14273.96
554.507	14366.84
554.87	14491.81
555.234	14596.21
555.597	14501.07
555.96	14545.37
556.323	14635.08
556.686	14678.92
557.05	14738.13
557.413	14751.46
557.776	14771.12
558.139	14834.17
558.502	14899.48
558.865	14896.77
559.228	15110.77
559.59	15080.95
559.953	15123.43
560.316	15220.6
560.679	15254.27
561.041	15307.38
561.404	15333.14
561.767	15480.48
562.129	15402.29
562.492	15581.5
562.854	15500.14
563.217	15595.28
563.579	15696.52
563.941	15695.84
564.304	15835.73
564.666	15869.4
565.028	15883.41
565.39	15962.96
565.753	15950.53
566.115	16097.64
566.477	16180.8
566.839	16171.09
567.201	16289.5
567.563	16386.9
567.925	16413.57
568.287	16391.19
568.648	16500.79
569.01	16576.05
569.372	16633.9
569.734	16642.71
570.095	16684.52
570.457	16776.95
570.819	16883.16
571.18	16958.86
571.542	16968.58
571.903	17126.99
572.265	17164.51
572.626	17280.44
572.987	17240.44
573.349	17371.28
573.71	17507.77
574.071	17583.03
574.432	17676.58
574.794	17831.61
575.155	17862.57
575.516	17842.45
575.877	17970.13
576.238	17980.76
576.599	18211.26
576.96	18305.49
577.32	18447.18
577.681	18508.2
578.042	18693.51
578.403	18803.56
578.763	18942.99
579.124	18961.97
579.485	19164.91
579.845	19409.65
580.206	19481.28
580.566	19559.92
580.927	19771.44
581.287	19993.13
581.648	20064.32
582.008	20315.61
582.368	20394.48
582.728	20592.89
583.089	20756.5
583.449	20846.22
583.809	21240.56
584.169	21363.94
584.529	21547.22
584.889	21944.49
585.249	21882.12
585.609	22094.09
585.969	22403.46
586.329	22693.63
586.688	22880.51
587.048	23125.48
587.408	23240.5
587.768	23511.68
588.127	23675.97
588.487	23860.83
588.846	24348.72
589.206	24335.17
589.565	24709.62
589.925	25056.28
590.284	25260.11
590.643	25378.75
591.003	25719.99
591.362	26052.63
591.721	26219.18
592.08	26559.51
592.44	26827.08
592.799	27118.82
593.158	27351.58
593.517	27505.48
593.876	28051.23
594.235	28187.27
594.593	28338
594.952	28672.23
595.311	28907.47
595.67	29127.81
596.029	29635.59
596.387	29758.75
596.746	30040.55
597.104	30228.34
597.463	30479.86
597.822	30812.74
598.18	30908.1
598.538	31085.27
598.897	31610.91
599.255	31516.45
599.613	32202.53
599.972	32278.01
600.33	32471
600.688	32721.84
601.046	33009.29
601.404	33349.84
601.762	33354.36
602.12	33856.95
602.478	33910.73
602.836	34228.01
603.194	34176.26
603.552	34437.5
603.91	34492.64
604.268	34900.31
604.625	34896.24
604.983	35293.07
605.341	35269.57
605.698	35676.34
606.056	36064.8
606.413	36044.69
606.771	36390.22
607.128	36559.7
607.485	36620.27
607.843	36864.33
608.2	37120.14
608.557	37177.54
608.914	37318.55
609.272	37688.94
609.629	37951.08
609.986	38149.04
610.343	38108.14
610.7	38464.29
611.057	38639.42
611.414	38597.84
611.771	38805.75
612.127	38957.38
612.484	39225.85
612.841	39327.99
613.198	39363.24
613.554	39440.53
613.911	39732.73
614.267	39836
614.624	39916.22
614.98	40235.54
615.337	40296.78
615.693	40376.1
616.05	40458.81
616.406	40756.2
616.762	40746.71
617.118	40791.23
617.475	40923.2
617.831	41096.76
618.187	41095.85
618.543	41379.69
618.899	41627.14
619.255	41618.33
619.611	41641.38
619.967	41854.7
620.323	42209.95
620.678	41961.37
621.034	41908.26
621.39	42245.43
621.746	42031.88
622.101	42575.36
622.457	42320.68
622.812	42546.21
623.168	42581.92
623.523	42702.59
623.879	42925.18
624.234	42719.31
624.589	42837.96
624.945	42804.74
625.3	43038.85
625.655	42987.78
626.01	43125.41
626.365	43039.53
626.72	42976.48
627.075	43086.54
627.43	43095.58
627.785	43077.27
628.14	43210.83
628.495	43318.39
628.85	43386.42
629.205	42995.92
629.559	43341.45
629.914	43284.95
630.269	43360.2
630.623	43454.44
630.978	43221.9
631.332	43643.81
631.687	43543.25
632.041	43506.86
632.396	43489.01
632.75	43327.66
633.104	43598.16
633.459	43329.47
633.813	43386.42
634.167	43527.88
634.521	43406.98
634.875	43519.97
635.229	43590.03
635.583	43365.85
635.937	43507.32
636.291	43372.18
636.645	43505.06
636.999	43410.37
637.352	43430.93
637.706	43314.55
638.06	43475.23
638.413	43436.81
638.767	43328.56
639.121	43460.54
639.474	43282.46
639.828	43193.88
640.181	43239.98
640.534	43197.27
640.888	43194.1
641.241	43064.84
641.594	43119.08
641.947	43280.2
642.301	43228.68
642.654	43156.37
643.007	43229.58
643.36	43175.12
643.713	43035.01
644.066	43196.36
644.419	42987.56
644.771	42830.95
645.124	42396.84
645.477	42349.15
645.83	42073
646.182	42005.89
646.535	41913.23
646.888	42068.48
647.24	41734.93
647.593	41895.16
647.945	41857.64
648.298	41782.84
648.65	41659
649.002	41643.64
649.355	41733.8
649.707	41764.31
650.059	41931.09
650.411	42350.96
650.763	42363.39
651.115	42770.39
651.467	42634.35
651.819	42665.53
652.171	42555.03
652.523	42630.73
652.875	42578.53
653.227	42444.97
653.578	42644.51
653.93	42637.28
654.282	42321.13
654.633	42325.88
654.985	42355.48
655.337	42369.72
655.688	42375.82
656.039	42574.01
656.391	42319.78
656.742	42424.18
657.094	42506.89
657.445	42505.76
657.796	42441.13
658.147	42274.13
658.498	42289.95
658.849	42442.94
659.2	42227.35
659.551	42230.29
659.902	42336.95
660.253	42089.5
660.604	42364.52
660.955	42138.99
661.306	42269.61
661.656	42308.7
662.007	42288.82
662.358	42139.22
662.708	42154.81
663.059	42274.58
663.409	41907.58
663.76	42122.72
664.11	42142.61
664.461	42258.54
664.811	42187.8
665.161	42134.02
665.511	42074.81
665.862	42032.1
666.212	42291.3
666.562	42298.31
666.912	42016.06
667.262	42021.25
667.612	41980.8
667.962	42102.16
668.312	42127.47
668.662	42254.92
669.011	42064.42
669.361	41991.2
669.711	42147.58
670.06	41952.33
670.41	41967.24
670.76	41937.41
671.109	42073.91
671.459	42053.34
671.808	41947.58
672.157	41977.64
672.507	41702.62
672.856	41739.68
673.205	41913.46
673.554	41800.47
673.904	41786.68
674.253	41985.77
674.602	41840.69
674.951	41278
675.3	41001.85
675.649	41785.55
675.998	41666.91
676.346	41682.05
676.695	41869.17
677.044	41554.6
677.393	41560.02
677.741	41637.08
678.09	41506.01
678.438	41488.39
678.787	41485.22
679.135	41604.77
679.484	41190.32
679.832	41381.72
680.181	41233.48
680.529	41313.48
680.877	41142.63
681.225	41226.02
681.573	41408.84
681.922	41022.86
682.27	40974.95
682.618	40944.45
682.966	40817.22
683.314	41005.69
683.661	40925.01
684.009	40734.96
684.357	40617
684.705	40671.91
685.053	40714.17
685.4	40710.33
685.748	40350.11
686.095	40459.94
686.443	40213.84
686.79	40268.31
687.138	40268.76
687.485	40300.17
687.832	40009.78
688.18	40113.28
688.527	39896.56
688.874	40043.68
689.221	39961.2
689.568	39664.71
689.915	39823.57
690.262	39590.81
690.609	39548.1
690.956	39336.13
691.303	39361.89
691.65	39171.61
691.997	39170.71
692.344	39078.96
692.69	38946.53
693.037	39037.15
693.383	38601.23
693.73	38945.4
694.077	38658.86
694.423	38580.44
694.769	38490.95
695.116	38318.75
695.462	38445.3
695.808	38202.15
696.155	38309.71
696.501	38115.82
696.847	38168.93
697.193	37832.89
697.539	38015.48
697.885	37690.29
698.231	37635.83
698.577	37632.44
698.923	37542.5
699.269	37373.69
699.614	37132.34
699.96	37366.46
700.306	37290.53
700.651	37075.17
700.997	36934.38
701.342	36736.65
701.688	36740.49
702.033	36617.1
702.379	36549.99
702.724	36498.91
703.069	36552.92
703.415	36162.88
703.76	36188.19
704.105	36242.87
704.45	36114.29
704.795	35864.13
705.14	35880.85
705.485	35755.66
705.83	35603.8
706.175	35662.33
706.52	35542.33
706.865	35547.3
707.209	35477.47
707.554	35376.23
707.899	35461.88
708.243	35110.93
708.588	35114.32
708.932	34922.91
709.277	34938.28
709.621	35033.41
709.966	34729.24
710.31	34903.47
710.654	34425.97
710.998	34522.02
711.342	34468.23
711.687	34412.87
712.031	34357.95
712.375	34329.7
712.719	34416.03
713.063	34164.06
713.407	34264.62
713.75	34066.43
714.094	34027.34
714.438	33773.34
714.782	33909.38
715.125	33749.15
715.469	33773.79
715.812	33616.5
716.156	33568.82
716.499	33579.67
716.843	33451.99
717.186	33339.9
717.53	33436.85
717.873	33418.54
718.216	33388.26
718.559	33208.15
718.902	32952.57
719.246	33014.49
719.589	32943.98
719.932	32917.99
720.275	32939.46
720.617	32886.58
720.96	32793.93
721.303	32711.89
721.646	32706.92
721.989	32390.77
722.331	32702.4
722.674	32604.33
723.016	32567.04
723.359	32468.51
723.701	32559.81
724.044	32323.66
724.386	32144.45
724.729	32267.61
725.071	32234.39
725.413	32093.83
725.755	32204.11
726.097	32125.92
726.439	31766.16
726.782	31848.41
727.124	31944.46
727.465	31721.64
727.807	31825.36
728.149	31711.02
728.491	31540.85
728.833	31724.35
729.175	31564.81
729.516	31460.18
729.858	31530.23
730.199	31416.33
730.541	31333.63
730.882	31489.33
731.224	31592.38
731.565	31212.72
731.906	31245.04
732.248	31334.76
732.589	31009.34
732.93	31140.18
733.271	30999.4
733.612	31027.19
733.953	31094.08
734.294	30912.85
734.635	30851.15
734.976	30797.82
735.317	30787.65
735.658	30818.16
735.999	30814.77
736.339	30594.44
736.68	30672.63
737.021	30669.01
737.361	30458.85
737.702	30672.63
738.042	30475.34
738.383	30427.21
738.723	30511.27
739.063	30332.3
739.404	30571.84
739.744	30406.64
740.084	30097.5
740.424	30319.87
740.764	30251.17
741.104	30294.33
741.444	30097.95
741.784	29996.03
742.124	30017.73
742.464	29968.46
742.804	29984.51
743.143	29840.33
743.483	29855.02
743.823	29706.78
744.162	29716.94
744.502	29747.9
744.841	29603.95
745.181	29816.83
745.52	29515.59
745.86	29577.74
746.199	29573.67
746.538	29577.97
746.877	29597.17
747.216	29489.38
747.556	29484.86
747.895	29402.15
748.234	29297.97
748.573	29332.55
748.911	29147.92
749.25	29201.93
749.589	28941.37
749.928	29053.23
750.267	29202.38
750.605	29046
750.944	28981.14
751.283	28828.61
751.621	29011.88
751.96	28721.72
752.298	28807.36
752.636	28708.61
752.975	28580.7
753.313	28447.83
753.651	28569.4
753.989	28379.58
754.327	28342.97
754.666	28196.31
755.004	28332.12
755.342	28284.44
755.679	28318.34
756.017	28130.09
756.355	28184.1
756.693	28137.55
757.031	28108.63
757.368	27888.97
