Data from hue_160_FLMS001491_00056.txt Node
Date: Tue Feb 07 16:51:23 GMT 2017
User: dcchb
Spectrometer: FLMS00149
Trigger mode: 0
Integration Time (sec): 2.000000E-2
Scans to average: 10
Electric dark correction enabled: true
Nonlinearity correction enabled: false
Boxcar width: 0
XAxis mode: Wavelengths
Number of Pixels in Spectrum: 2048
>>>>>Begin Spectral Data<<<<<
341.393	-6.95
341.776	-6.95
342.16	-6.95
342.543	-63.44
342.927	-60.73
343.31	-74.29
343.693	-46.04
344.077	-76.1
344.46	-68.87
344.843	-71.58
345.226	-34.74
345.61	-29.1
345.993	-21.41
346.376	14.75
346.759	-1.53
347.142	31.69
347.525	40.51
347.908	55.2
348.291	86.38
348.674	87.74
349.057	107.4
349.44	137
349.823	153.95
350.206	158.02
350.588	212.25
350.971	204.34
351.354	226.04
351.737	224.68
352.119	261.52
352.502	257.22
352.884	273.04
353.267	269.2
353.65	282.76
354.032	291.12
354.414	300.61
354.797	298.13
355.179	294.29
355.562	316.21
355.944	320.5
356.326	334.74
356.709	313.27
357.091	326.6
357.473	345.58
357.855	337.22
358.238	352.82
358.62	355.3
359.002	352.36
359.384	332.48
359.766	333.38
360.148	365.02
360.53	339.26
360.912	344
361.294	322.76
361.676	305.59
362.057	354.62
362.439	318.69
362.821	319.82
363.203	313.27
363.584	317.79
363.966	334.74
364.348	328.86
364.729	333.38
365.111	312.59
365.493	334.28
365.874	334.96
366.256	329.54
366.637	328.18
367.019	326.15
367.4	303.55
367.781	325.02
368.163	297.68
368.544	308.3
368.925	311.01
369.306	303.55
369.688	325.7
370.069	331.57
370.45	324.79
370.831	326.38
371.212	302.65
371.593	326.15
371.974	306.04
372.355	321.86
372.736	319.82
373.117	324.34
373.498	309.65
373.879	328.18
374.26	328.41
374.641	330.67
375.021	322.53
375.402	326.15
375.783	311.23
376.163	329.99
376.544	326.38
376.925	332.48
377.305	312.82
377.686	317.34
378.066	323.44
378.447	321.63
378.827	320.95
379.208	332.93
379.588	319.14
379.968	318.69
380.349	331.8
380.729	322.53
381.109	334.06
381.489	330.67
381.87	305.59
382.25	319.37
382.63	342.19
383.01	333.38
383.39	320.27
383.77	343.1
384.15	326.83
384.53	338.35
384.91	341.97
385.29	346.26
385.67	353.95
386.049	353.95
386.429	333.61
386.809	372.25
387.189	332.7
387.568	358.47
387.948	347.84
388.328	361.18
388.707	362.31
389.087	329.31
389.466	387.84
389.846	346.49
390.225	368.63
390.605	366.37
390.984	366.83
391.363	373.61
391.743	361.18
392.122	381.97
392.501	379.03
392.881	391.46
393.26	378.13
393.639	355.75
394.018	381.74
394.397	367.28
394.776	381.06
395.155	368.63
395.534	400.05
395.913	386.94
396.292	383.78
396.671	383.32
397.05	390.33
397.429	366.6
397.808	395.53
398.186	366.15
398.565	391.46
398.944	395.3
399.323	391.46
399.701	390.55
400.08	388.52
400.458	394.85
400.837	388.29
401.215	397.79
401.594	384.91
401.972	398.01
402.351	399.37
402.729	387.39
403.107	421.29
403.486	422.19
403.864	408.41
404.242	429.42
404.62	421.06
404.999	398.24
405.377	400.27
405.755	419.03
406.133	415.86
406.511	426.49
406.889	427.16
407.267	421.51
407.645	429.42
408.023	462.87
408.401	425.81
408.779	452.25
409.156	459.71
409.534	445.92
409.912	438.46
410.29	472.59
410.667	446.37
411.045	457.22
411.422	464.9
411.8	461.74
412.178	457.67
412.555	472.36
412.933	469.87
413.31	468.97
413.687	492.02
414.065	459.03
414.442	490.44
414.819	489.99
415.197	493.6
415.574	496.54
415.951	496.99
416.328	494.05
416.705	496.09
417.082	499.25
417.46	508.52
417.837	520.95
418.214	523.21
418.591	537.67
418.967	499.03
419.344	521.4
419.721	515.75
420.098	535.18
420.475	527.95
420.852	541.74
421.228	544.22
421.605	555.97
421.982	558.91
422.358	561.85
422.735	556.65
423.111	555.75
423.488	563.88
423.864	536.77
424.241	575.18
424.617	593.04
424.994	579.02
425.37	555.97
425.746	598.01
426.123	593.04
426.499	567.73
426.875	604.11
427.251	592.81
427.627	621.06
428.003	601.85
428.379	609.76
428.756	602.3
429.132	625.35
429.507	643.66
429.883	637.33
430.259	638.23
430.635	655.86
431.011	648.85
431.387	649.98
431.763	673.71
432.138	664.45
432.514	672.13
432.89	692.24
433.265	689.53
433.641	693.15
434.016	711
434.392	706.93
434.767	690.21
435.143	718.91
435.518	740.6
435.894	747.16
436.269	766.59
436.644	734.73
437.02	748.74
437.395	743.09
437.77	747.16
438.145	771.34
438.52	772.24
438.895	783.31
439.271	778.57
439.646	794.61
440.021	800.71
440.395	796.19
440.77	808.62
441.145	810.43
441.52	835.51
441.895	819.7
442.27	857.66
442.645	848.17
443.019	837.77
443.394	841.84
443.769	872.58
444.143	840.71
444.518	877.1
444.892	869.19
445.267	866.7
445.641	912.12
446.016	887.49
446.39	896.76
446.764	896.53
447.139	899.47
447.513	893.59
447.887	929.98
448.262	906.93
448.636	936.53
449.01	944.66
449.384	921.84
449.758	946.02
450.132	954.83
450.506	940.82
450.88	974.04
451.254	974.04
451.628	1002.97
452.002	1014.27
452.376	991.44
452.75	1004.32
453.123	1020.82
453.497	1032.12
453.871	1068.28
454.244	1038
454.618	1066.47
454.992	1070.08
455.365	1079.58
455.739	1103.76
456.112	1120.93
456.486	1122.06
456.859	1130.87
457.232	1137.88
457.606	1177.88
457.979	1170.65
458.352	1211.1
458.725	1205.9
459.099	1200.02
459.472	1225.11
459.845	1226.01
460.218	1247.93
460.591	1256.75
460.964	1264.2
461.337	1290.19
461.71	1295.39
462.083	1328.61
462.456	1331.55
462.829	1329.74
463.201	1355.95
463.574	1388.49
463.947	1417.19
464.32	1432.56
464.692	1466.23
465.065	1463.07
465.438	1478.21
465.81	1518.43
466.183	1536.74
466.555	1561.15
466.928	1602.27
467.3	1590.07
467.672	1607.25
468.045	1670.75
468.417	1660.13
468.789	1721.59
469.161	1725.43
469.534	1721.37
469.906	1782.83
470.278	1800.01
470.65	1861.93
471.022	1882.94
471.394	1934.24
471.766	1948.03
472.138	1975.37
472.51	2030.06
472.882	2041.13
473.253	2102.37
473.625	2158.19
473.997	2190.96
474.369	2197.96
474.74	2302.14
475.112	2350.5
475.484	2381.91
475.855	2419.43
476.227	2468.47
476.598	2564.06
476.97	2631.4
477.341	2685.64
477.713	2736.48
478.084	2786.65
478.455	2890.83
478.827	2906.65
479.198	3068.22
479.569	3080.65
479.94	3180.76
480.311	3249.01
480.682	3338.73
481.053	3449.01
481.424	3546.18
481.795	3650.81
482.166	3724.93
482.537	3776
482.908	3922.89
483.279	3966.05
483.65	4109.78
484.021	4222.54
484.391	4289.21
484.762	4404.01
485.133	4478.13
485.503	4568.75
485.874	4752.7
486.244	4854.39
486.615	5006.48
486.985	5102.52
487.356	5192.24
487.726	5306.58
488.097	5434.26
488.467	5505.45
488.837	5712.9
489.207	5824.31
489.578	5959.45
489.948	6042.16
490.318	6246.45
490.688	6299.78
491.058	6398.53
491.428	6575.02
491.798	6694.34
492.168	6912.87
492.538	7024.05
492.908	7065.63
493.278	7287.77
493.648	7300.43
494.017	7506.07
494.387	7584.72
494.757	7705.39
495.126	7838.49
495.496	7907.87
495.866	8034.2
496.235	8158.03
496.605	8214.98
496.974	8417.91
497.344	8516.44
497.713	8606.61
498.082	8688.87
498.452	8826.94
498.821	8912.82
499.19	8960.95
499.559	9118.46
499.928	9205.69
500.298	9254.05
500.667	9416.98
501.036	9476.19
501.405	9604.55
501.774	9633.02
502.143	9704.89
502.512	9775.17
502.88	9896.75
503.249	9890.64
503.618	10053.58
503.987	10101.26
504.356	10119.11
504.724	10210.18
505.093	10366.34
505.462	10327.92
505.83	10415.83
506.199	10555.94
506.567	10640.68
506.936	10599.78
507.304	10764.52
507.672	10780.79
508.041	10822.82
508.409	11042.25
508.777	10980.78
509.145	11119.99
509.514	11075.25
509.882	11165.41
510.25	11159.54
510.618	11265.97
510.986	11217.16
511.354	11396.37
511.722	11427.1
512.09	11514.56
512.458	11470.26
512.826	11586.87
513.193	11643.82
513.561	11638.62
513.929	11717.26
514.297	11684.5
514.664	11791.38
515.032	11800.42
515.4	11946.18
515.767	11935.56
516.135	11964.71
516.502	11899.18
516.869	12109.34
517.237	12092.62
517.604	11997.48
517.972	12152.28
518.339	12115.22
518.706	12119.51
519.073	12206.06
519.44	12240.19
519.808	12285.61
520.175	12288.09
520.542	12404.02
520.909	12452.38
521.276	12318.38
521.643	12452.38
522.009	12440.18
522.376	12557.01
522.743	12543.91
523.11	12568.77
523.477	12580.06
523.843	12623
524.21	12757.01
524.577	12790.23
524.943	12797.23
525.31	12767.63
525.676	12879.49
526.043	12863
526.409	12839.04
526.776	12875.65
527.142	12878.36
527.508	12902.99
527.874	12997.45
528.241	13016.44
528.607	12896.67
528.973	13087.62
529.339	12955.2
529.705	13058.7
530.071	13033.84
530.437	13072.71
530.803	13053.05
531.169	13064.8
531.535	12936.67
531.901	12992.26
532.267	12937.8
532.632	13052.82
532.998	12975.31
533.364	13060.73
533.73	12915.2
534.095	12936.89
534.461	13101.18
534.826	13000.62
535.192	13029.77
535.557	13004.69
535.923	12897.57
536.288	12891.69
536.653	12919.94
537.019	12820.74
537.384	12830.68
537.749	12856.89
538.114	12790.23
538.479	12745.94
538.845	12715.88
539.21	12641.31
539.575	12675.43
539.94	12729.44
540.305	12602.21
540.67	12636.56
541.034	12567.18
541.399	12555.66
541.764	12513.85
542.129	12495.1
542.494	12451.93
542.858	12426.85
543.223	12460.07
543.587	12465.49
543.952	12361.77
544.316	12343.91
544.681	12253.97
545.045	12210.81
545.41	12231.15
545.774	12264.82
546.138	12207.42
546.503	12060.98
546.867	12034.54
547.231	12116.57
547.595	12105.95
547.959	12023.7
548.324	12018.95
548.688	11981.66
549.052	11934.66
549.416	11968.1
549.779	11867.99
550.143	11847.2
550.507	11882.91
550.871	11878.84
551.235	11756.36
551.599	11761.1
551.962	11844.72
552.326	11682.46
552.689	11751.16
553.053	11539.64
553.417	11662.8
553.78	11747.54
554.143	11574.67
554.507	11607.66
554.87	11545.29
555.234	11659.86
555.597	11489.7
555.96	11423.48
556.323	11466.87
556.686	11470.94
557.05	11535.57
557.413	11454.9
557.776	11466.65
558.139	11473.88
558.502	11465.29
558.865	11448.8
559.228	11558.17
559.59	11458.96
559.953	11465.74
560.316	11448.12
560.679	11465.97
561.041	11491.28
561.404	11456.25
561.767	11501.67
562.129	11468.46
562.492	11559.53
562.854	11485.63
563.217	11453.54
563.579	11480.88
563.941	11508.68
564.304	11535.57
564.666	11487.44
565.028	11533.31
565.39	11518.62
565.753	11486.99
566.115	11523.6
566.477	11544.16
566.839	11519.98
567.201	11565.18
567.563	11549.13
567.925	11606.3
568.287	11526.31
568.648	11641.11
569.01	11607.66
569.372	11593.42
569.734	11623.25
570.095	11663.25
570.457	11693.53
570.819	11683.14
571.18	11651.73
571.542	11622.8
571.903	11737.15
572.265	11731.05
572.626	11701.67
572.987	11674.55
573.349	11734.66
573.71	11748
574.071	11809.69
574.432	11780.76
574.794	11827.09
575.155	11837.49
575.516	11720.43
575.877	11729.47
576.238	11783.25
576.599	11821.44
576.96	11788.22
577.32	11808.33
577.681	11860.76
578.042	11869.57
578.403	11791.16
578.763	11892.85
579.124	11896.92
579.485	11829.12
579.845	11832.29
580.206	11887.43
580.566	11855.34
580.927	11774.89
581.287	11911.61
581.648	11813.31
582.008	11861.44
582.368	11904.83
582.728	11827.99
583.089	11701.22
583.449	11810.59
583.809	11812.18
584.169	11818.5
584.529	11752.74
584.889	11898.5
585.249	11734.66
585.609	11703.7
585.969	11779.18
586.329	11669.81
586.688	11733.99
587.048	11827.32
587.408	11701.44
587.768	11713.65
588.127	11663.93
588.487	11698.28
588.846	11735.79
589.206	11600.88
589.565	11572.63
589.925	11733.31
590.284	11640.88
590.643	11603.14
591.003	11698.96
591.362	11650.15
591.721	11625.97
592.08	11687.21
592.44	11648.11
592.799	11578.06
593.158	11657.83
593.517	11562.92
593.876	11588
594.235	11533.99
594.593	11570.37
594.952	11597.27
595.311	11518.4
595.67	11584.38
596.029	11669.58
596.387	11678.39
596.746	11679.3
597.104	11580.99
597.463	11530.15
597.822	11567.89
598.18	11546.19
598.538	11581.9
598.897	11571.28
599.255	11506.87
599.613	11616.7
599.972	11591.62
600.33	11557.49
600.688	11541.9
601.046	11566.31
601.404	11583.71
601.762	11484.05
602.12	11629.13
602.478	11587.77
602.836	11559.75
603.194	11510.49
603.552	11487.66
603.91	11517.95
604.268	11541.45
604.625	11470.94
604.983	11543.71
605.341	11500.32
605.698	11557.94
606.056	11589.81
606.413	11545.29
606.771	11564.27
607.128	11599.75
607.485	11573.99
607.843	11541.9
608.2	11591.16
608.557	11609.92
608.914	11536.02
609.272	11645.4
609.629	11574.44
609.986	11602.46
610.343	11609.69
610.7	11689.01
611.057	11761.78
611.414	11632.07
611.771	11610.37
612.127	11672.29
612.484	11685.17
612.841	11679.3
613.198	11670.26
613.554	11709.35
613.911	11790.48
614.267	11703.93
614.624	11682.01
614.98	11705.06
615.337	11806.98
615.693	11710.71
616.05	11728.11
616.406	11804.72
616.762	11735.34
617.118	11650.37
617.475	11720.2
617.831	11769.24
618.187	11834.32
618.543	11712.97
618.899	11818.28
619.255	11833.64
619.611	11882.68
619.967	11909.8
620.323	11964.26
620.678	11829.58
621.034	11869.35
621.39	11861.21
621.746	11805.85
622.101	11912.74
622.457	11844.49
622.812	11896.24
623.168	11890.37
623.523	11901.89
623.879	12022.79
624.234	11872.29
624.589	11906.41
624.945	11921.55
625.3	11874.55
625.655	11818.95
626.01	11920.65
626.365	11900.31
626.72	11862.12
627.075	11871.61
627.43	11849.46
627.785	11838.16
628.14	11756.13
628.495	11889.69
628.85	11815.11
629.205	11767.43
629.559	11847.2
629.914	11729.01
630.269	11774.66
630.623	11790.48
630.978	11740.09
631.332	11791.84
631.687	11759.75
632.041	11796.36
632.396	11771.95
632.75	11751.16
633.104	11743.93
633.459	11667.32
633.813	11692.4
634.167	11687.43
634.521	11725.17
634.875	11646.98
635.229	11644.27
635.583	11623.71
635.937	11582.35
636.291	11637.72
636.645	11593.42
636.999	11558.17
637.352	11553.2
637.706	11505.52
638.06	11574.89
638.413	11531.28
638.767	11407.89
639.121	11508.91
639.474	11506.65
639.828	11488.79
640.181	11443.37
640.534	11442.47
640.888	11461
641.241	11384.39
641.594	11398.17
641.947	11480.43
642.301	11397.27
642.654	11381.68
643.007	11408.8
643.36	11412.41
643.713	11344.39
644.066	11405.63
644.419	11329.02
644.771	11298.52
645.124	11212.87
645.477	11134
645.83	11086.32
646.182	11060.33
646.535	10945.76
646.888	11028.47
647.24	10971.75
647.593	11026.66
647.945	11010.39
648.298	10938.98
648.65	10922.48
649.002	10910.28
649.355	11008.58
649.707	10974.23
650.059	11029.6
650.411	11092.42
650.763	11142.59
651.115	11271.4
651.467	11216.26
651.819	11174
652.171	11171.51
652.523	11259.65
652.875	11218.97
653.227	11155.7
653.578	11306.65
653.93	11273.21
654.282	11174.23
654.633	11067.34
654.985	11152.31
655.337	11200.21
655.688	11188.46
656.039	11253.77
656.391	11219.87
656.742	11146.2
657.094	11222.36
657.445	11229.37
657.796	11258.97
658.147	11188.69
658.498	11162.47
658.849	11219.65
659.2	11188.01
659.551	11207.67
659.902	11218.74
660.253	11178.52
660.604	11226.2
660.955	11188.91
661.306	11231.4
661.656	11284.73
662.007	11244.51
662.358	11288.57
662.708	11312.08
663.059	11274.11
663.409	11224.62
663.76	11287.67
664.11	11246.09
664.461	11252.87
664.811	11312.08
665.161	11265.3
665.511	11252.87
665.862	11196.37
666.212	11274.79
666.562	11263.04
666.912	11264.17
667.262	11242.7
667.612	11222.36
667.962	11303.71
668.312	11267.56
668.662	11267.56
669.011	11290.16
669.361	11258.74
669.711	11200.67
670.06	11264.17
670.41	11243.83
670.76	11241.57
671.109	11240.66
671.459	11293.32
671.808	11190.72
672.157	11211.29
672.507	11200.67
672.856	11134.9
673.205	11225.07
673.554	11218.74
673.904	11170.38
674.253	11222.59
674.602	11210.16
674.951	10987.79
675.3	10899.66
675.649	11078.86
675.998	11102.59
676.346	11166.77
676.695	11178.07
677.044	11104.17
677.393	11130.16
677.741	11018.3
678.09	11033.89
678.438	10966.32
678.787	11029.37
679.135	11026.43
679.484	10988.92
679.832	11019.43
680.181	10951.18
680.529	10965.42
680.877	10867.34
681.225	10960.67
681.573	10954.57
681.922	10927.45
682.27	10849.04
682.618	10857.17
682.966	10749.38
683.314	10818.53
683.661	10774.91
684.009	10686.33
684.357	10705.54
684.705	10705.99
685.053	10703.96
685.4	10617.4
685.748	10516.62
686.095	10644.97
686.443	10566.33
686.79	10542.38
687.138	10582.38
687.485	10579.21
687.832	10505.32
688.18	10488.82
688.527	10532.89
688.874	10465.77
689.221	10433.23
689.568	10441.36
689.915	10377.64
690.262	10292.89
690.609	10287.24
690.956	10353.46
691.303	10245.66
691.65	10152.78
691.997	10201.37
692.344	10137.87
692.69	10112.33
693.037	10153.46
693.383	9997.53
693.73	10108.94
694.077	9910.76
694.423	9936.07
694.769	9948.95
695.116	9947.59
695.462	9899.46
695.808	9803.64
696.155	9856.29
696.501	9685
696.847	9786.47
697.193	9704.89
697.539	9720.93
697.885	9594.61
698.231	9586.7
698.577	9623.98
698.923	9569.3
699.269	9566.58
699.614	9492.91
699.96	9427.83
700.306	9381.73
700.651	9322.75
700.997	9327.04
701.342	9311.68
701.688	9299.25
702.033	9277.55
702.379	9273.48
702.724	9181.06
703.069	9233.71
703.415	9091.57
703.76	9115.75
704.105	9123.66
704.45	9008.18
704.795	9057.9
705.14	9025.13
705.485	8922.08
705.83	8873.72
706.175	8913.04
706.52	8881.63
706.865	8829.43
707.209	8868.98
707.554	8767.28
707.899	8782.2
708.243	8774.74
708.588	8731.58
708.932	8676.89
709.277	8696.33
709.621	8677.57
709.966	8601.64
710.31	8650.45
710.654	8559.83
710.998	8574.52
711.342	8563.22
711.687	8485.48
712.031	8482.77
712.375	8456.33
712.719	8425.6
713.063	8394.64
713.407	8485.94
713.75	8404.36
714.094	8436.67
714.438	8326.62
714.782	8348.09
715.125	8314.41
715.469	8325.94
715.812	8307.86
716.156	8244.36
716.499	8295.88
716.843	8275.32
717.186	8205.72
717.53	8228.77
717.873	8313.28
718.216	8226.05
718.559	8211.37
718.902	8138.6
719.246	8148.77
719.589	8149.9
719.932	8081.43
720.275	8180.41
720.617	8130.46
720.96	8112.61
721.303	8151.71
721.646	8108.77
721.989	8028.55
722.331	8104.93
722.674	8049.79
723.016	8014.54
723.359	8041.88
723.701	8089.79
724.044	8002.78
724.386	7975.44
724.729	7994.2
725.071	8034.87
725.413	7954.2
725.755	7994.42
726.097	7945.38
726.439	7918.27
726.782	7974.99
727.124	7953.75
727.465	7963.91
727.807	7872.84
728.149	7946.06
728.491	7939.28
728.833	7928.21
729.175	7900.41
729.516	7927.08
729.858	7948.1
730.199	7933.18
730.541	7902.67
730.882	7887.08
731.224	7953.97
731.565	7925.72
731.906	7880.08
732.248	7877.14
732.589	7914.42
732.93	7898.15
733.271	7869.91
733.612	7852.05
733.953	7910.13
734.294	7836.69
734.635	7894.76
734.976	7858.38
735.317	7891.83
735.658	7913.97
735.999	7846.4
736.339	7898.83
736.68	7936.57
737.021	7936.12
737.361	7833.52
737.702	7912.39
738.042	7892.28
738.383	7972.73
738.723	7918.04
739.063	7899.51
739.404	7938.6
739.744	7963.69
740.084	7925.72
740.424	7945.16
740.764	8017.92
741.104	7996.68
741.444	8024.03
741.784	7977.02
742.124	8041.65
742.464	8019.51
742.804	8074.42
743.143	8086.4
743.483	8086.85
743.823	8048.43
744.162	8085.27
744.502	8133.85
744.841	8103.12
745.181	8167.3
745.52	8152.61
745.86	8258.82
746.199	8355.77
746.538	8352.83
746.877	8344.02
747.216	8395.32
747.556	8468.53
747.895	8491.81
748.234	8549.89
748.573	8496.56
748.911	8580.85
749.25	8697
749.589	8741.75
749.928	8763.22
750.267	8833.95
750.605	8854.96
750.944	8975.19
751.283	9060.84
751.621	9141.29
751.96	9197.55
752.298	9328.62
752.636	9416.08
752.975	9435.51
753.313	9575.62
753.651	9734.94
753.989	9700.59
754.327	9878.44
754.666	9903.3
755.004	10027.82
755.342	10199.11
755.679	10295.38
756.017	10407.92
756.355	10654.24
756.693	10572.66
757.031	10844.29
757.368	10886.78
757.706	10997.73
758.044	11171.51
758.381	11343.94
758.719	11382.36
759.056	11650.15
759.394	11767.88
759.731	11938.05
