Data from hue_330_FLMS001491_87.txt Node
Date: Mon Feb 06 15:46:03 GMT 2017
User: dcchb
Spectrometer: FLMS00149
Trigger mode: 0
Integration Time (sec): 2.000000E-2
Scans to average: 10
Electric dark correction enabled: true
Nonlinearity correction enabled: false
Boxcar width: 0
XAxis mode: Wavelengths
Number of Pixels in Spectrum: 2048
>>>>>Begin Spectral Data<<<<<
341.393	-17.47
341.776	-17.47
342.16	-17.47
342.543	-81.88
342.927	-70.8
343.31	-85.27
343.693	-68.32
344.077	-77.81
344.46	-54.31
344.843	-48.2
345.226	-41.43
345.61	-26.28
345.993	-15.89
346.376	4.22
346.759	4.68
347.142	25.01
347.525	37.89
347.908	55.3
348.291	73.83
348.674	87.38
349.057	129.19
349.44	131.9
349.823	154.73
350.206	168.29
350.588	201.96
350.971	210.09
351.354	231.11
351.737	246.02
352.119	257.78
352.502	252.13
352.884	268.4
353.267	285.12
353.65	287.83
354.032	303.42
354.414	297.32
354.797	301.62
355.179	336.19
355.562	320.37
355.944	315.4
356.326	319.69
356.709	353.59
357.091	324.44
357.473	341.16
357.855	332.12
358.238	336.42
358.62	348.85
359.002	335.51
359.384	341.16
359.766	344.1
360.148	334.38
360.53	359.69
360.912	314.95
361.294	329.41
361.676	324.89
362.057	330.99
362.439	338.45
362.821	332.35
363.203	329.41
363.584	320.82
363.966	313.37
364.348	317.21
364.729	324.44
365.111	326.7
365.493	336.42
365.874	334.38
366.256	314.5
366.637	312.24
367.019	327.83
367.4	306.81
367.781	319.47
368.163	322.18
368.544	316.31
368.925	297.1
369.306	314.95
369.688	334.16
370.069	322.86
370.45	303.65
370.831	320.6
371.212	333.93
371.593	325.8
371.974	310.2
372.355	317.44
372.736	321.5
373.117	306.59
373.498	301.39
373.879	327.6
374.26	328.28
374.641	332.35
375.021	299.13
375.402	309.53
375.783	305.23
376.163	343.65
376.544	338.45
376.925	352.69
377.305	314.05
377.686	330.54
378.066	349.75
378.447	330.09
378.827	331.9
379.208	342.29
379.588	331.22
379.968	351.33
380.349	354.04
380.729	339.81
381.109	335.29
381.489	335.51
381.87	348.85
382.25	358.79
382.63	352.69
383.01	331.67
383.39	353.59
383.77	353.82
384.15	360.37
384.53	344.78
384.91	358.11
385.29	333.25
385.67	360.15
386.049	359.69
386.429	338.45
386.809	352.91
387.189	360.82
387.568	361.5
387.948	352.91
388.328	350.43
388.707	354.5
389.087	368.96
389.466	362.86
389.846	356.3
390.225	379.35
390.605	378
390.984	390.65
391.363	375.29
391.743	381.84
392.122	362.86
392.501	365.12
392.881	375.96
393.26	403.53
393.639	368.96
394.018	352.24
394.397	378.68
394.776	382.29
395.155	388.39
395.534	390.43
395.913	392.46
396.292	400.6
396.671	384.78
397.05	387.72
397.429	410.31
397.808	380.94
398.186	399.69
398.565	428.62
398.944	384.1
399.323	410.54
399.701	399.69
400.08	408.96
400.458	399.01
400.837	409.41
401.215	387.49
401.594	412.8
401.972	413.48
402.351	421.61
402.729	429.97
403.107	427.04
403.486	398.34
403.864	427.26
404.242	424.33
404.62	436.75
404.999	435.62
405.377	443.31
405.755	431.1
406.133	448.73
406.511	445.12
406.889	443.31
407.267	443.99
407.645	453.48
408.023	471.56
408.401	452.12
408.779	455.51
409.156	472.69
409.534	450.99
409.912	487.6
410.29	486.92
410.667	502.97
411.045	498.67
411.422	490.54
411.8	508.84
412.178	506.36
412.555	524.89
412.933	529.41
413.31	509.29
413.687	519.92
414.065	543.64
414.442	541.16
414.819	537.54
415.197	569.18
415.574	554.49
415.951	580.71
416.328	570.31
416.705	584.55
417.082	568.05
417.46	605.11
417.837	609.63
418.214	613.47
418.591	611.44
418.967	624.32
419.344	626.35
419.721	621.61
420.098	644.66
420.475	649.18
420.852	640.14
421.228	662.06
421.605	649.4
421.982	673.13
422.358	665.22
422.735	688.72
423.111	654.15
423.488	669.29
423.864	690.08
424.241	685.56
424.617	703.19
424.994	707.26
425.37	712.45
425.746	727.82
426.123	716.75
426.499	737.09
426.875	745.45
427.251	743.86
427.627	771.43
428.003	780.47
428.379	778.89
428.756	767.37
429.132	792.45
429.507	795.84
429.883	804.43
430.259	839.91
430.635	825.9
431.011	823.18
431.387	839
431.763	823.18
432.138	860.7
432.514	860.02
432.89	862.05
433.265	880.13
433.641	888.49
434.016	908.38
434.392	909.96
434.767	921.49
435.143	908.61
435.518	922.17
435.894	956.06
436.269	949.96
436.644	966.68
437.02	947.48
437.395	978.43
437.77	974.37
438.145	1014.37
438.52	1018.89
438.895	1011.43
439.271	1028.6
439.646	1030.64
440.021	1046
440.395	1059.11
440.77	1071.09
441.145	1054.59
441.52	1084.42
441.895	1079.9
442.27	1066.12
442.645	1069.96
443.019	1066.34
443.394	1086
443.769	1097.53
444.143	1085.55
444.518	1109.5
444.892	1116.28
445.267	1119.22
445.641	1101.6
446.016	1143.18
446.39	1129.62
446.764	1153.35
447.139	1152.67
447.513	1125.32
447.887	1153.12
448.262	1155.61
448.636	1141.59
449.01	1166.45
449.384	1179.79
449.758	1182.05
450.132	1194.47
450.506	1202.61
450.88	1196.06
451.254	1210.07
451.628	1195.6
452.002	1215.04
452.376	1236.06
452.75	1245.32
453.123	1268.14
453.497	1250.52
453.871	1248.26
454.244	1272.66
454.618	1283.74
454.992	1298.43
455.365	1292.32
455.739	1312.89
456.112	1332.78
456.486	1310.18
456.859	1320.35
457.232	1357.63
457.606	1324.19
457.979	1374.36
458.352	1397.63
458.725	1406.9
459.099	1423.85
459.472	1443.96
459.845	1444.86
460.218	1446.45
460.591	1444.86
460.964	1464.07
461.337	1492.32
461.71	1520.12
462.083	1520.79
462.456	1512.88
462.829	1505.43
463.201	1515.6
463.574	1556.95
463.947	1563.28
464.32	1573.9
464.692	1575.93
465.065	1619.32
465.438	1628.59
465.81	1661.13
466.183	1653.67
466.555	1698.87
466.928	1690.51
467.3	1697.96
467.672	1715.59
468.045	1730.73
468.417	1738.87
468.789	1738.41
469.161	1778.87
469.534	1769.37
469.906	1848.02
470.278	1830.84
470.65	1852.08
471.022	1886.89
471.394	1896.38
471.766	1897.73
472.138	1938.18
472.51	1950.39
472.882	1953.1
473.253	1954.91
473.625	2043.04
473.997	2040.55
474.369	2068.8
474.74	2076.26
475.112	2107.22
475.484	2152.42
475.855	2156.48
476.227	2199.87
476.598	2237.16
476.97	2247.1
477.341	2283.26
477.713	2300.89
478.084	2344.27
478.455	2378.85
478.827	2396.02
479.198	2454.78
479.569	2462.92
479.94	2478.73
480.311	2532.29
480.682	2556.7
481.053	2630.37
481.424	2676.24
481.795	2666.75
482.166	2678.28
482.537	2731.83
482.908	2772.29
483.279	2826.52
483.65	2829.91
484.021	2882.11
484.391	2889.12
484.762	2930.02
485.133	2977.48
485.503	2958.95
485.874	3033.75
486.244	3092.5
486.615	3139.73
486.985	3171.37
487.356	3211.14
487.726	3273.74
488.097	3284.59
488.467	3277.13
488.837	3320.07
489.207	3371.59
489.578	3427.64
489.948	3421.76
490.318	3481.19
490.688	3462.21
491.058	3546.95
491.428	3541.31
491.798	3610
492.168	3681.87
492.538	3675.76
492.908	3692.49
493.278	3737.46
493.648	3774.29
494.017	3795.99
494.387	3805.03
494.757	3854.52
495.126	3894.52
495.496	3874.18
495.866	3947.85
496.235	3984.46
496.605	3996.89
496.974	4001.18
497.344	4059.94
497.713	4042.08
498.082	4069.65
498.452	4087.51
498.821	4140.84
499.19	4121.63
499.559	4173.6
499.928	4172.25
500.298	4177.45
500.667	4216.77
501.036	4225.36
501.405	4270.78
501.774	4294.28
502.143	4349.87
502.512	4294.05
502.88	4359.14
503.249	4353.94
503.618	4376.09
503.987	4400.72
504.356	4418.12
504.724	4461.28
505.093	4442.98
505.462	4452.47
505.83	4462.41
506.199	4545.8
506.567	4577.66
506.936	4568.4
507.304	4560.04
507.672	4545.8
508.041	4673.25
508.409	4646.59
508.777	4725.23
509.145	4662.41
509.514	4718
509.882	4699.92
510.25	4727.49
510.618	4764.1
510.986	4791.67
511.354	4790.09
511.722	4822.4
512.09	4888.16
512.458	4811.78
512.826	4843.64
513.193	4817.88
513.561	4911.21
513.929	4912.34
514.297	4991.44
514.664	4988.5
515.032	4941.27
515.4	5069.63
515.767	5015.84
516.135	5061.72
516.502	4986.01
516.869	5081.15
517.237	5051.32
517.604	5055.84
517.972	5120.02
518.339	5109.63
518.706	5089.74
519.073	5155.73
519.44	5177.65
519.808	5141.26
520.175	5161.38
520.542	5224.88
520.909	5280.92
521.276	5245.44
521.643	5322.5
522.009	5334.25
522.376	5333.8
522.743	5346.91
523.11	5398.88
523.477	5449.5
523.843	5400.92
524.21	5568.6
524.577	5502.84
524.943	5528.37
525.31	5588.26
525.676	5582.61
526.043	5637.52
526.409	5637.07
526.776	5700.8
527.142	5727.91
527.508	5735.37
527.874	5744.19
528.241	5831.64
528.607	5813.11
528.973	5877.51
529.339	5834.58
529.705	5883.39
530.071	5897.85
530.437	5929.27
530.803	5976.95
531.169	6050.62
531.535	6049.71
531.901	6056.72
532.267	6052.2
532.632	6141.91
532.998	6120.67
533.364	6171.07
533.73	6121.8
534.095	6275.47
534.461	6236.38
534.826	6302.59
535.192	6282.02
535.557	6322.48
535.923	6399.54
536.288	6326.54
536.653	6463.71
537.019	6412.64
537.384	6438.63
537.749	6456.71
538.114	6428.46
538.479	6521.79
538.845	6535.12
539.21	6528.8
539.575	6552.07
539.94	6598.63
540.305	6656.03
540.67	6602.92
541.034	6676.36
541.399	6718.17
541.764	6731.5
542.129	6784.84
542.494	6778.96
542.858	6789.13
543.223	6831.39
543.587	6928.11
543.952	6922.69
544.316	6877.04
544.681	6960.65
545.045	6952.29
545.41	6989.35
545.774	6999.97
546.138	7015.56
546.503	7073.42
546.867	7072.29
547.231	7117.71
547.595	7164.26
547.959	7173.07
548.324	7219.17
548.688	7211.04
549.052	7269.57
549.416	7308.21
549.779	7297.36
550.143	7298.04
550.507	7366.06
550.871	7375.55
551.235	7368.1
551.599	7374.88
551.962	7518.38
552.326	7463.91
552.689	7551.6
553.053	7475.89
553.417	7496.68
553.78	7638.82
554.143	7617.13
554.507	7630.69
554.87	7594.53
555.234	7678.6
555.597	7609.45
555.96	7684.47
556.323	7714.53
556.686	7770.57
557.05	7772.38
557.413	7798.82
557.776	7865.71
558.139	7818.25
558.502	7895.54
558.865	7862.1
559.228	7944.35
559.59	7968.08
559.953	7999.04
560.316	8047.85
560.679	8079.04
561.041	8047.85
561.404	8114.07
561.767	8095.31
562.129	8087.85
562.492	8267.28
562.854	8250.79
563.217	8175.76
563.579	8264.8
563.941	8258.47
564.304	8329.65
564.666	8369.43
565.028	8350.9
565.39	8402.42
565.753	8443.1
566.115	8415.53
566.477	8546.82
566.839	8516.99
567.201	8578.46
567.563	8597.22
567.925	8587.95
568.287	8644.45
568.648	8653.71
569.01	8692.36
569.372	8741.85
569.734	8732.58
570.095	8840.83
570.457	8835.18
570.819	8857.78
571.18	8892.35
571.542	8894.16
571.903	8993.82
572.265	9024.32
572.626	9094.38
572.987	9093.48
573.349	9198.56
573.71	9269.97
574.071	9203.98
574.432	9317.65
574.794	9398.1
575.155	9392.22
575.516	9435.61
575.877	9521.71
576.238	9591.32
576.599	9688.94
576.96	9782.95
577.32	9775.49
577.681	9886.22
578.042	9992.89
578.403	10097.29
578.763	10142.26
579.124	10245.76
579.485	10335.02
579.845	10503.38
580.206	10579.76
580.566	10619.54
580.927	10775.24
581.287	10902.24
581.648	11010.26
582.008	11171.16
582.368	11303.14
582.728	11416.58
583.089	11544.48
583.449	11786.51
583.809	11877.13
584.169	12044.36
584.529	12234.18
584.889	12473.95
585.249	12504.91
585.609	12735.41
585.969	13021.51
586.329	13250.88
586.688	13427.37
587.048	13574.71
587.408	13896.74
587.768	14120.91
588.127	14289.05
588.487	14456.05
588.846	14836.6
589.206	14938.75
589.565	15211.28
589.925	15531.95
590.284	15626.41
590.643	16011.49
591.003	16322.89
591.362	16663.45
591.721	16758.58
592.08	17132.81
592.44	17452.58
592.799	17644.66
593.158	18011.43
593.517	18172.33
593.876	18495.71
594.235	18750.17
594.593	18988.58
594.952	19427.89
595.311	19538.62
595.67	19959.18
596.029	20304.03
596.387	20624.47
596.746	21002.77
597.104	21098.58
597.463	21342.42
597.822	21749.87
598.18	21932.46
598.538	22260.14
598.897	22579
599.255	22816.05
599.613	23251.07
599.972	23364.51
600.33	23637.5
600.688	23920.66
601.046	24263.92
601.404	24748.66
601.762	24774.65
602.12	25180.74
602.478	25425.48
602.836	25756.09
603.194	25794.05
603.552	26195.4
603.91	26396.98
604.268	26778.43
604.625	27041.25
604.983	27124.41
605.341	27334.8
605.698	27608.47
606.056	28035.12
606.413	28240.09
606.771	28457.94
607.128	28736.12
607.485	28924.37
607.843	29175.43
608.2	29441.42
608.557	29713.95
608.914	29902.19
609.272	29986.94
609.629	30310.54
609.986	30696.98
610.343	30626.92
610.7	31087.93
611.057	31152.78
611.414	31470.29
611.771	31671.64
612.127	31896.72
612.484	31963.83
612.841	32281.57
613.198	32323.37
613.554	32550.71
613.911	32941.66
614.267	32960.19
614.624	33089.68
614.98	33267.53
615.337	33642.66
615.693	33684.02
616.05	33819.61
616.406	34166.04
616.762	34101.86
617.118	34252.81
617.475	34417.33
617.831	34736.64
618.187	34734.16
618.543	34937.99
618.899	35196.29
619.255	35170.76
619.611	35260.02
619.967	35578.43
620.323	35666.11
620.678	35639.67
621.034	35798.99
621.39	35898.19
621.746	35861.13
622.101	36329.14
622.457	36204.63
622.812	36346.32
623.168	36509.48
623.523	36482.36
623.879	36822.46
624.234	36574.11
624.589	36713.99
624.945	36878.51
625.3	37010.26
625.655	37003.7
626.01	37170.25
626.365	37162.57
626.72	37231.27
627.075	37301.77
627.43	37372.96
627.785	37346.29
628.14	37416.57
628.495	37592.39
628.85	37613.18
629.205	37480.53
629.559	37837.8
629.914	37650.69
630.269	37719.39
630.623	37730.01
630.978	37684.59
631.332	37868.31
631.687	37921.19
632.041	37764.13
632.396	37967.74
632.75	37848.2
633.104	37958.03
633.459	37979.72
633.813	37985.82
634.167	38144.24
634.521	37992.6
634.875	38115.31
635.229	38153.05
635.583	37906.28
635.937	37941.3
636.291	38019.72
636.645	38111.47
636.999	37977.69
637.352	38207.96
637.706	37965.26
638.06	38067.63
638.413	38103.33
638.767	37968.87
639.121	38115.54
639.474	37828.31
639.828	37916.45
640.181	38038.93
640.534	38078.48
640.888	37894.3
641.241	37735.43
641.594	37818.6
641.947	37946.28
642.301	38019.72
642.654	37970
643.007	37878.71
643.36	37868.09
643.713	37922.32
644.066	37887.97
644.419	37792.16
644.771	37637.36
645.124	37265.84
645.477	37203.02
645.83	37075.34
646.182	36878.06
646.535	36756.25
646.888	36853.42
647.24	36610.94
647.593	36854.33
647.945	36836.93
648.298	36752.41
648.65	36636.48
649.002	36511.51
649.355	36555.13
649.707	36702.92
650.059	36803.26
650.411	37125.05
650.763	37197.6
651.115	37557.36
651.467	37549.68
651.819	37512.62
652.171	37476.68
652.523	37360.75
652.875	37485.95
653.227	37277.59
653.578	37551.94
653.93	37379.96
654.282	37166.41
654.633	37172.06
654.985	37242.57
655.337	37235.79
655.688	37268.1
656.039	37399.85
656.391	37054.55
656.742	37204.15
657.094	37236.46
657.445	37329.8
657.796	37225.62
658.147	37205.5
658.498	37140.2
658.849	37212.96
659.2	37230.59
659.551	37118.73
659.902	37212.51
660.253	37160.76
660.604	37120.99
660.955	37003.7
661.306	37149.01
661.656	37093.64
662.007	37105.17
662.358	37127.99
662.708	37059.07
663.059	37169.57
663.409	36987.88
663.76	37191.04
664.11	37044.15
664.461	37139.29
664.811	37173.64
665.161	37132.74
665.511	37024.94
665.862	37073.3
666.212	37004.15
666.562	37104.72
666.912	37064.27
667.262	36959.41
667.612	36997.15
667.962	37066.98
668.312	36895.91
668.662	37126.41
669.011	37035.11
669.361	36751.51
669.711	36901.56
670.06	36969.8
670.41	36837.83
670.76	36816.59
671.109	37007.54
671.459	36873.76
671.808	36850.03
672.157	36901.33
672.507	36625.41
672.856	36806.87
673.205	36782.92
673.554	36871.95
673.904	36697.72
674.253	36915.12
674.602	36789.7
674.951	36269.94
675.3	36140.22
675.649	36648.68
675.998	36812.52
676.346	36757.61
676.695	36862.69
677.044	36407.56
677.393	36642.58
677.741	36703.6
678.09	36617.5
678.438	36603.94
678.787	36446.88
679.135	36548.12
679.484	36165.53
679.832	36457.95
680.181	36256.6
680.529	36360.1
680.877	36189.03
681.225	36225.42
681.573	36349.26
681.922	36223.61
682.27	36048.02
682.618	36143.61
682.966	35933.45
683.314	35991.53
683.661	35866.1
684.009	35711.31
684.357	35651.42
684.705	35578.43
685.053	35638.31
685.4	35630.86
685.748	35399.22
686.095	35422.73
686.443	35356.97
686.79	35353.58
687.138	35463.18
687.485	35293.92
687.832	35162.17
688.18	35261.83
688.527	35058.67
688.874	35051.44
689.221	35116.52
689.568	34935.06
689.915	34867.26
690.262	34773.03
690.609	34711.11
690.956	34640.6
691.303	34588.17
691.65	34482.19
691.997	34480.38
692.344	34205.58
692.69	34334.85
693.037	34121.07
693.383	34034.29
693.73	34110.44
694.077	33979.83
694.423	33975.31
694.769	33737.35
695.116	33736.44
695.462	33632.49
695.808	33558.82
696.155	33598.14
696.501	33343.46
696.847	33461.65
697.193	33130.36
697.539	33331.48
697.885	33109.34
698.231	32892.17
698.577	32955
698.923	32904.6
699.269	32667.55
699.614	32663.93
699.96	32553.2
700.306	32555.68
700.651	32442.69
700.997	32315.69
701.342	32444.27
701.688	32233.21
702.033	32228.69
702.379	32017.62
702.724	32002.7
703.069	32098.52
703.415	31750.28
703.76	31726.78
704.105	31848.58
704.45	31665.31
704.795	31568.14
705.14	31401.14
705.485	31447.69
705.83	31271.2
706.175	31394.13
706.52	31202.05
706.865	31164.99
707.209	31170.86
707.554	31012.9
707.899	31085.67
708.243	30955.05
708.588	30852.45
708.932	30627.82
709.277	30793.7
709.621	30724.09
709.966	30430.09
710.31	30435.06
710.654	30253.82
710.998	30236.42
711.342	30308.74
711.687	30235.29
712.031	30140.38
712.375	29965.47
712.719	30073.04
713.063	29934.51
713.407	30076.2
713.75	29925.92
714.094	29748.75
714.438	29731.8
714.782	29629.21
715.125	29587.85
715.469	29604.12
715.812	29421.08
716.156	29257.24
716.499	29401.42
716.843	29340.85
717.186	29186.28
717.53	29277.8
717.873	29308.54
718.216	29131.82
718.559	29091.59
718.902	28855.22
719.246	28898.38
719.589	28847.53
719.932	28810.02
720.275	28904.71
720.617	28831.26
720.96	28652.51
721.303	28659.06
721.646	28806.18
721.989	28505.17
722.331	28597.6
722.674	28431.95
723.016	28514.89
723.359	28411.39
723.701	28377.04
724.044	28184.95
724.386	28235.57
724.729	28369.13
725.071	28260.43
725.413	28301.11
725.755	28242.8
726.097	28018.4
726.439	27865.19
726.782	27875.35
727.124	28015.24
727.465	27741.8
727.807	27775.24
728.149	27666.77
728.491	27705.42
728.833	27684.17
729.175	27510.62
729.516	27668.13
729.858	27530.73
730.199	27586.32
730.541	27345.2
730.882	27405.54
731.224	27433.33
731.565	27361.7
731.906	27347.23
732.248	27321.24
732.589	27056.17
732.93	27001.93
733.271	27079.44
733.612	27130.52
733.953	27173.45
734.294	26992.89
734.635	26957.19
734.976	26959.9
735.317	26908.15
735.658	26848.71
735.999	26829.05
736.339	26791.09
736.68	26840.81
737.021	26732.33
737.361	26669.96
737.702	26682.17
738.042	26568.27
738.383	26538.21
738.723	26642.39
739.063	26481.94
739.404	26631.77
739.744	26475.39
740.084	26287.83
740.424	26505.22
740.764	26336.64
741.104	26525.79
741.444	26202.18
741.784	26145.68
742.124	26283.08
742.464	26270.43
742.804	26164.21
743.143	26026.14
743.483	25967.61
743.823	25830.89
744.162	25965.35
744.502	25996.76
744.841	25873.37
745.181	25959.7
745.52	25875.18
745.86	25873.15
746.199	25808.29
746.538	25768.52
746.877	25744.56
747.216	25723.09
747.556	25575.3
747.895	25686.71
748.234	25536.66
748.573	25447.85
748.911	25483.55
749.25	25387.74
749.589	25237.46
749.928	25337.34
750.267	25360.39
750.605	25244.01
750.944	25194.07
751.283	25116.11
751.621	25183
751.96	25040.63
752.298	25062.55
752.636	24970.57
752.975	24920.63
753.313	24827.75
753.651	24920.63
753.989	24771.48
754.327	24696.68
754.666	24628.43
755.004	24636.12
755.342	24683.35
755.679	24595.44
756.017	24457.82
756.355	24414.65
756.693	24388.89
757.031	24442.68
757.368	24219.86
757.706	24219.86
758.044	24105.06
758.381	24263.02
758.719	24101.89
759.056	24008.11
759.394	23978.96
759.731	23809.47
