Data from hue_24_FLMS001491_00080.txt Node
Date: Tue Feb 07 17:12:45 GMT 2017
User: dcchb
Spectrometer: FLMS00149
Trigger mode: 0
Integration Time (sec): 2.000000E-2
Scans to average: 10
Electric dark correction enabled: true
Nonlinearity correction enabled: false
Boxcar width: 0
XAxis mode: Wavelengths
Number of Pixels in Spectrum: 2048
>>>>>Begin Spectral Data<<<<<
341.393	-32.54
341.776	-32.54
342.16	-32.54
342.543	-66.44
342.927	-69.6
343.31	-66.21
343.693	-57.4
344.077	-58.98
344.46	-55.14
344.843	-55.82
345.226	-26.89
345.61	-21.69
345.993	-25.54
346.376	-23.5
346.759	5.88
347.142	13.56
347.525	43.84
347.908	37.97
348.291	92.2
348.674	95.36
349.057	102.37
349.44	114.8
349.823	163.16
350.206	169.71
350.588	226.43
350.971	226.66
351.354	227.56
351.737	267.79
352.119	255.13
352.502	246.32
352.884	273.44
353.267	287
353.65	305.75
354.032	299.43
354.414	322.48
354.797	312.31
355.179	312.99
355.562	317.73
355.944	331.97
356.326	335.13
356.709	331.97
357.091	354.11
357.473	342.14
357.855	339.65
358.238	365.87
358.62	331.52
359.002	351.86
359.384	334
359.766	340.56
360.148	336.26
360.53	360.44
360.912	350.73
361.294	347.56
361.676	338.07
362.057	334.45
362.439	334.91
362.821	330.39
363.203	349.82
363.584	336.94
363.966	333.1
364.348	339.43
364.729	313.44
365.111	316.83
365.493	317.51
365.874	346.21
366.256	334.68
366.637	332.87
367.019	312.31
367.4	309.82
367.781	321.35
368.163	317.51
368.544	326.32
368.925	317.73
369.306	320.44
369.688	311.63
370.069	323.16
370.45	313.44
370.831	328.35
371.212	309.82
371.593	327
371.974	340.78
372.355	349.14
372.736	305.75
373.117	331.52
373.498	323.83
373.879	313.66
374.26	306.88
374.641	333.55
375.021	329.71
375.402	309.82
375.783	341.46
376.163	346.21
376.544	324.96
376.925	317.28
377.305	331.52
377.686	326.32
378.066	327.68
378.447	352.76
378.827	337.17
379.208	344.17
379.588	340.33
379.968	347.79
380.349	363.83
380.729	353.21
381.109	329.71
381.489	347.11
381.87	372.19
382.25	343.95
382.63	346.66
383.01	362.02
383.39	334.91
383.77	348.47
384.15	363.83
384.53	349.37
384.91	364.28
385.29	353.89
385.67	378.75
386.049	360.44
386.429	349.14
386.809	373.1
387.189	351.86
387.568	364.28
387.948	366.09
388.328	352.08
388.707	352.08
389.087	362.48
389.466	374.45
389.846	361.8
390.225	379.43
390.605	359.76
390.984	379.88
391.363	385.07
391.743	378.52
392.122	391.63
392.501	370.39
392.881	385.75
393.26	391.63
393.639	373.55
394.018	375.36
394.397	390.5
394.776	377.39
395.155	384.17
395.534	395.7
395.913	377.39
396.292	367.9
396.671	414
397.05	373.1
397.429	398.86
397.808	371.52
398.186	385.07
398.565	389.14
398.944	409.03
399.323	401.57
399.701	397.28
400.08	390.95
400.458	407.45
400.837	403.61
401.215	395.7
401.594	413.32
401.972	422.36
402.351	418.29
402.729	414.45
403.107	401.8
403.486	417.16
403.864	414.9
404.242	419.65
404.62	405.19
404.999	409.93
405.377	438.86
405.755	439.76
406.133	423.72
406.511	455.58
406.889	441.57
407.267	454.9
407.645	446.54
408.023	439.08
408.401	454
408.779	447.22
409.156	449.03
409.534	454.68
409.912	456.26
410.29	486.77
410.667	461.23
411.045	443.38
411.422	461
411.8	478.18
412.178	479.76
412.555	483.6
412.933	465.07
413.31	469.37
413.687	490.83
414.065	471.85
414.442	485.41
414.819	495.58
415.197	501
415.574	499.65
415.951	492.87
416.328	498.52
416.705	515.47
417.082	516.6
417.46	520.44
417.837	523.83
418.214	510.5
418.591	513.88
418.967	528.8
419.344	520.66
419.721	537.16
420.098	536.48
420.475	533.77
420.852	537.16
421.228	548.01
421.605	553.88
421.982	541.23
422.358	527.22
422.735	556.37
423.111	547.78
423.488	557.27
423.864	559.53
424.241	561.57
424.617	562.25
424.994	564.28
425.37	572.64
425.746	573.09
426.123	594.79
426.499	569.02
426.875	585.3
427.251	584.62
427.627	578.97
428.003	601.57
428.379	601.79
428.756	600.89
429.132	607.22
429.507	617.38
429.883	616.03
430.259	629.36
430.635	633.43
431.011	633.2
431.387	629.14
431.763	666.65
432.138	642.47
432.514	658.97
432.89	628.91
433.265	672.07
433.641	686.08
434.016	672.3
434.392	675.24
434.767	691.73
435.143	671.85
435.518	713.2
435.894	719.3
436.269	729.7
436.644	704.84
437.02	701.45
437.395	712.75
437.77	709.13
438.145	738.06
438.52	749.58
438.895	739.87
439.271	733.77
439.646	763.82
440.021	766.08
440.395	755.69
440.77	780.77
441.145	780.09
441.52	779.19
441.895	769.02
442.27	797.04
442.645	766.76
443.019	767.44
443.394	787.55
443.769	792.07
444.143	806.53
444.518	824.16
444.892	800.88
445.267	823.93
445.641	825.74
446.016	818.96
446.39	824.16
446.764	857.83
447.139	842.69
447.513	855.57
447.887	837.49
448.262	850.83
448.636	856.02
449.01	866.42
449.384	842.69
449.758	876.59
450.132	857.15
450.506	882.24
450.88	883.14
451.254	913.87
451.628	916.81
452.002	911.39
452.376	926.08
452.75	935.34
453.123	926.08
453.497	951.39
453.871	937.83
454.244	980.09
454.618	946.87
454.992	962.46
455.365	998.84
455.739	1004.72
456.112	986.41
456.486	990.93
456.859	1019.86
457.232	1015.79
457.606	1014.89
457.979	1038.62
458.352	1042.23
458.725	1057.6
459.099	1083.36
459.472	1097.82
459.845	1120.87
460.218	1131.72
460.591	1150.03
460.964	1125.17
461.337	1160.2
461.71	1175.79
462.083	1170.14
462.456	1205.39
462.829	1173.53
463.201	1207.2
463.574	1201.78
463.947	1234.09
464.32	1255.79
464.692	1252.4
465.065	1252.85
465.438	1269.8
465.81	1275.67
466.183	1315.22
466.555	1335.56
466.928	1354.09
467.3	1333.98
467.672	1355.67
468.045	1387.76
468.417	1382.34
468.789	1398.38
469.161	1410.13
469.534	1441.09
469.906	1491.71
470.278	1490.58
470.65	1491.71
471.022	1543.24
471.394	1545.5
471.766	1561.77
472.138	1581.2
472.51	1620.3
472.882	1658.49
473.253	1660.52
473.625	1718.15
473.997	1746.39
474.369	1732.16
474.74	1752.27
475.112	1792.5
475.484	1823.23
475.855	1832.27
476.227	1872.95
476.598	1928.31
476.97	1924.92
477.341	1986.39
477.713	2017.35
478.084	2019.38
478.455	2089.66
478.827	2122.2
479.198	2166.5
479.569	2201.52
479.94	2224.35
480.311	2307.51
480.682	2293.73
481.053	2344.57
481.424	2413.95
481.795	2479.93
482.166	2476.77
482.537	2537.33
482.908	2621.85
483.279	2635.18
483.65	2639.03
484.021	2724.67
484.391	2778.91
484.762	2803.54
485.133	2805.12
485.503	2874.73
485.874	2949.75
486.244	2985.01
486.615	3047.6
486.985	3093.93
487.356	3185.9
487.726	3199.01
488.097	3229.52
488.467	3250.76
488.837	3313.59
489.207	3391.32
489.578	3463.86
489.948	3499.34
490.318	3536.18
490.688	3555.84
491.058	3604.2
491.428	3656.85
491.798	3681.94
492.168	3764.87
492.538	3826.11
492.908	3862.72
493.278	3931.87
493.648	3899.78
494.017	3987.69
494.387	4011.87
494.757	4088.93
495.126	4110.4
495.496	4146.78
495.866	4159.21
496.235	4214.35
496.605	4242.15
496.974	4256.61
497.344	4317.85
497.713	4330.28
498.082	4396.04
498.452	4431.97
498.821	4436.49
499.19	4479.2
499.559	4517.62
499.928	4584.96
500.298	4608.69
500.667	4628.58
501.036	4681.23
501.405	4686.43
501.774	4682.14
502.143	4755.13
502.512	4769.82
502.88	4803.49
503.249	4811.62
503.618	4859.53
503.987	4913.77
504.356	4899.53
504.724	4930.72
505.093	4925.52
505.462	4960.1
505.83	5030.15
506.199	5023.14
506.567	5109.92
506.936	5104.72
507.304	5174.78
507.672	5191.73
508.041	5204.38
508.409	5274.44
508.777	5277.15
509.145	5314.89
509.514	5302.23
509.882	5320.99
510.25	5391.5
510.618	5370.71
510.986	5392.85
511.354	5417.48
511.722	5463.36
512.09	5485.73
512.458	5491.83
512.826	5526.63
513.193	5532.28
513.561	5610.47
513.929	5647.08
514.297	5681.43
514.664	5696.57
515.032	5672.39
515.4	5728.66
515.767	5753.3
516.135	5769.34
516.502	5719.62
516.869	5831.03
517.237	5827.64
517.604	5857.02
517.972	5858.15
518.339	5981.31
518.706	5979.96
519.073	5954.42
519.44	5979.5
519.808	6036.68
520.175	6022.89
520.542	6075.32
520.909	6121.65
521.276	6115.77
521.643	6210.46
522.009	6152.15
522.376	6254.52
522.743	6231.25
523.11	6308.76
523.477	6387.63
523.843	6385.37
524.21	6453.16
524.577	6472.82
524.943	6540.17
525.31	6489.55
525.676	6564.12
526.043	6644.57
526.409	6648.64
526.776	6746.72
527.142	6691.12
527.508	6758.47
527.874	6742.87
528.241	6840.5
528.607	6798.24
528.973	6870.55
529.339	6878.01
529.705	6960.95
530.071	7007.27
530.437	6999.82
530.803	7063.09
531.169	7095.41
531.535	7061.96
531.901	7106.48
532.267	7206.59
532.632	7143.31
532.998	7252.24
533.364	7255.85
533.73	7324.33
534.095	7366.36
534.461	7389.41
534.826	7393.93
535.192	7485.23
535.557	7520.03
535.923	7514.83
536.288	7528.39
536.653	7513.7
537.019	7451.1
537.384	7596.41
537.749	7652.45
538.114	7653.13
538.479	7629.63
538.845	7701.72
539.21	7680.02
539.575	7779.68
539.94	7769.51
540.305	7854.48
540.67	7799.79
541.034	7843.41
541.399	7916.85
541.764	7932.9
542.129	7998.89
542.494	7993.91
542.858	8052.44
543.223	8079.11
543.587	8130.63
543.952	8148.49
544.316	8138.54
544.681	8174.47
545.045	8253.12
545.41	8256.96
545.774	8350.74
546.138	8315.04
546.503	8306.22
546.867	8385.54
547.231	8443.62
547.595	8466.9
547.959	8499.89
548.324	8512.09
548.688	8466.22
549.052	8500.12
549.416	8578.08
549.779	8566.55
550.143	8653.56
550.507	8656.04
550.871	8736.95
551.235	8671.86
551.599	8799.32
551.962	8792.54
552.326	8766.32
552.689	8828.02
553.053	8806.1
553.417	8870.5
553.78	8956.37
554.143	8944.62
554.507	8992.53
554.87	9045.86
555.234	9088.57
555.597	9085.86
555.96	9066.65
556.323	9162.24
556.686	9145.97
557.05	9240.44
557.413	9181.91
557.776	9241.11
558.139	9330.38
558.502	9327.66
558.865	9343.26
559.228	9360.21
559.59	9407.89
559.953	9397.94
560.316	9528.11
560.679	9498.51
561.041	9533.08
561.404	9602.46
561.767	9738.73
562.129	9638.16
562.492	9728.33
562.854	9781.66
563.217	9693.3
563.579	9776.92
563.941	9857.14
564.304	9907.31
564.666	9957.03
565.028	9904.82
565.39	9956.35
565.753	10062.11
566.115	10055.55
566.477	10066.63
566.839	10172.16
567.201	10119.73
567.563	10104.14
567.925	10225.04
568.287	10227.98
568.648	10323.34
569.01	10300.97
569.372	10409.67
569.734	10347.75
570.095	10426.39
570.457	10434.53
570.819	10447.41
571.18	10549.1
571.542	10682.66
571.903	10681.98
572.265	10679.04
572.626	10717.91
572.987	10857.12
573.349	10860.28
573.71	10866.15
574.071	10961.97
574.432	10988.41
574.794	11023.89
575.155	11130.78
575.516	11107.28
575.877	11278.57
576.238	11324
576.599	11420.49
576.96	11400.15
577.32	11615.29
577.681	11592.69
578.042	11677.43
578.403	11757.66
578.763	11826.58
579.124	12045.78
579.485	12136.4
579.845	12220.92
580.206	12211.2
580.566	12406.68
580.927	12537.98
581.287	12661.14
581.648	12690.06
582.008	12940.9
582.368	13006.66
582.728	13176.38
583.089	13316.71
583.449	13474.22
583.809	13620.88
584.169	13823.37
584.529	13998.95
584.889	14207.31
585.249	14297.93
585.609	14483.01
585.969	14713.29
586.329	14858.14
586.688	15078.47
587.048	15282.54
587.408	15543.77
587.768	15755.07
588.127	15905.8
588.487	16055.85
588.846	16513.46
589.206	16627.81
589.565	16868.03
589.925	17265.99
590.284	17380.79
590.643	17682.02
591.003	17952.52
591.362	18455.56
591.721	18456.46
592.08	18760.41
592.44	19240.4
592.799	19305.26
593.158	19631.8
593.517	19937.78
593.876	20340.26
594.235	20575.28
594.593	20846.01
594.952	21221.14
595.311	21359.66
595.67	21702.71
596.029	22175.91
596.387	22416.36
596.746	22745.39
597.104	22979.28
597.463	23224.02
597.822	23652.49
598.18	23868.07
598.538	24185.35
598.897	24551.44
599.255	24684.77
599.613	25384.19
599.972	25446.56
600.33	25811.3
600.688	25973.33
601.046	26278.86
601.404	26589.81
601.762	26942.79
602.12	27423.91
602.478	27737.58
602.836	28003.56
603.194	28070.22
603.552	28329.65
603.91	28594.5
604.268	28895.74
604.625	29152.91
604.983	29578.43
605.341	29626.11
605.698	30026.56
606.056	30287.11
606.413	30601
606.771	30909.24
607.128	31251.83
607.485	31196.47
607.843	31568.44
608.2	31826.96
608.557	32256.33
608.914	32354.86
609.272	32725.92
609.629	33006.82
609.986	33184.66
610.343	33243.42
610.7	33667.59
611.057	33898.54
611.414	33964.08
611.771	34287.01
612.127	34586.21
612.484	34771.97
612.841	35077.72
613.198	34950.72
613.554	35217.38
613.911	35556.35
614.267	35745.73
614.624	35844.26
614.98	36241.76
615.337	36317.69
615.693	36414.41
616.05	36511.13
616.406	36992.25
616.762	36911.35
617.118	37103.43
617.475	37269.53
617.831	37508.84
618.187	37748.84
618.543	37796.29
618.899	38093.01
619.255	38045.55
619.611	38074.48
619.967	38428.37
620.323	38656.61
620.678	38514.69
621.034	38663.39
621.39	38939.54
621.746	38916.72
622.101	39428.34
622.457	39096.6
622.812	39341.79
623.168	39552.86
623.523	39652.74
623.879	39845.96
624.234	39670.82
624.589	39778.84
624.945	40062.22
625.3	40066.29
625.655	40176.8
626.01	40259.96
626.365	40318.94
626.72	40347.41
627.075	40468.54
627.43	40505.15
627.785	40563.68
628.14	40713.28
628.495	40758.02
628.85	40702.43
629.205	40726.84
629.559	40954.86
629.914	40717.57
630.269	40741.08
630.623	40808.87
630.978	40797.12
631.332	40941.3
631.687	41022.65
632.041	41024.23
632.396	41122.31
632.75	41099.94
633.104	41129.54
633.459	40976.1
633.813	40951.24
634.167	41035.53
634.521	41150.56
634.875	41297.9
635.229	41194.62
635.583	41085.02
635.937	41111.24
636.291	41084.12
636.645	41091.12
636.999	41120.05
637.352	41161.4
637.706	41061.52
638.06	41219.26
638.413	41079.37
638.767	41051.8
639.121	41025.59
639.474	40905.82
639.828	41038.47
640.181	41001.86
640.534	41134.96
640.888	40971.8
641.241	40879.38
641.594	40990.33
641.947	41084.34
642.301	41005.7
642.654	41169.76
643.007	41095.64
643.36	41103.33
643.713	40998.02
644.066	41117.56
644.419	40980.62
644.771	40662.43
645.124	40322.78
645.477	40275.1
645.83	40096.12
646.182	39959.18
646.535	39859.74
646.888	40084.82
647.24	39831.04
647.593	40111.49
647.945	39934.32
648.298	39879.86
648.65	39702.01
649.002	39703.14
649.355	39889.8
649.707	39842.34
650.059	40096.57
650.411	40457.47
650.763	40529.33
651.115	40914.4
651.467	40803.22
651.819	40746.5
652.171	40597.8
652.523	40491.14
652.875	40507.41
653.227	40314.19
653.578	40663.56
653.93	40578.37
654.282	40456.56
654.633	40338.15
654.985	40540.4
655.337	40504.92
655.688	40570.91
656.039	40706.05
656.391	40258.15
656.742	40429.22
657.094	40440.29
657.445	40565.71
657.796	40433.29
658.147	40351.26
658.498	40457.02
658.849	40591.93
659.2	40495.88
659.551	40427.86
659.902	40412.5
660.253	40343.35
660.604	40486.85
660.955	40254.76
661.306	40464.02
661.656	40327.75
662.007	40430.8
662.358	40432.61
662.708	40393.29
663.059	40364.81
663.409	39949.01
663.76	40491.59
664.11	40300.18
664.461	40306.74
664.811	40284.36
665.161	40289.56
665.511	40255.44
665.862	40276.23
666.212	40241.2
666.562	40319.62
666.912	40216.57
667.262	40235.78
667.612	40266.29
667.962	40186.06
668.312	40209.11
668.662	40386.96
669.011	40246.4
669.361	40247.76
669.711	40071.26
670.06	40085.73
670.41	40066.52
670.76	40156.01
671.109	40201.2
671.459	40114.65
671.808	40093.64
672.157	40206.85
672.507	39830.37
672.856	39837.14
673.205	40021.55
673.554	40101.32
673.904	40034.43
674.253	40275.78
674.602	39955.33
674.951	39475.35
675.3	39279.19
675.649	39943.36
675.998	39867.65
676.346	40013.64
676.695	39937.93
677.044	39620.2
677.393	39742.23
677.741	39797.82
678.09	39755.11
678.438	39618.85
678.787	39723.25
679.135	39719.63
679.484	39400.77
679.832	39674.44
680.181	39436.48
680.529	39491.39
680.877	39339.3
681.225	39396.03
681.573	39478.28
681.922	39343.15
682.27	39240.78
682.618	39321.23
682.966	39202.81
683.314	39223.38
683.661	39161.68
684.009	38915.36
684.357	38931.18
684.705	38963.5
685.053	38841.92
685.4	38851.63
685.748	38673.79
686.095	38698.42
686.443	38516.28
686.79	38473.11
687.138	38502.04
687.485	38479.21
687.832	38398.54
688.18	38403.96
688.527	38087.59
688.874	38181.14
689.221	38145.66
689.568	37981.83
689.915	37981.37
690.262	37971.43
690.609	37735.96
690.956	37697.54
691.303	37549.52
691.65	37485.79
691.997	37514.49
692.344	37343.65
692.69	37292.13
693.037	37295.97
693.383	36957.9
693.73	37150.21
694.077	36916.32
694.423	36919.48
694.769	36982.98
695.116	36580.96
695.462	36654.18
695.808	36481.53
696.155	36606.04
696.501	36293.06
696.847	36361.98
697.193	36178.26
697.539	36259.61
697.885	35833.63
698.231	35986.17
698.577	35913.86
698.923	35873.41
699.269	35696.24
699.614	35602.45
699.96	35469.8
700.306	35371.73
700.651	35291.28
700.997	35141.67
701.342	35204.27
701.688	35126.08
702.033	35079.98
702.379	34876.15
702.724	34693.1
703.069	34857.61
703.415	34513.44
703.76	34509.83
704.105	34503.27
704.45	34600.22
704.795	34301.02
705.14	34157.97
705.485	34199.55
705.83	34051.76
706.175	34081.14
706.52	34064.87
706.865	33971.99
707.209	33830.3
707.554	33681.6
707.899	33805.89
708.243	33698.1
708.588	33571.77
708.932	33400.7
709.277	33336.52
709.621	33299.01
709.966	33187.6
710.31	33171.78
710.654	32831
710.998	32956.42
711.342	33024.67
711.687	32894.28
712.031	32802.08
712.375	32588.3
712.719	32633.94
713.063	32706.48
713.407	32720.95
713.75	32503.33
714.094	32440.95
714.438	32303.78
714.782	32429.2
715.125	32292.71
715.469	32317.79
715.812	32217.46
716.156	32040.97
716.499	32120.29
716.843	32089.78
717.186	31897.92
717.53	32014.98
717.873	31992.83
718.216	31887.98
718.559	31695.44
718.902	31573.86
719.246	31637.36
719.589	31599.62
719.932	31370.47
720.275	31428.1
720.617	31292.74
720.96	31298.16
721.303	31378.84
721.646	31202.8
721.989	31152.85
722.331	31163.25
722.674	31086.41
723.016	31159.63
723.359	31016.13
723.701	31026.3
724.044	30732.07
724.386	30706.09
724.729	30805.52
725.071	30635.8
725.413	30650.95
725.755	30519.65
726.097	30594.68
726.439	30482.14
726.782	30297.51
727.124	30510.61
727.465	30430.16
727.807	30391.74
728.149	30243.05
728.491	30289.15
728.833	30210.51
729.175	30191.52
729.516	30086.89
729.858	30191.52
730.199	30147.91
730.541	29944.3
730.882	29949.49
731.224	29972.77
731.565	29714.7
731.906	29857.52
732.248	29735.26
732.589	29665.43
732.93	29629.28
733.271	29671.54
733.612	29666.34
733.953	29709.05
734.294	29487.59
734.635	29528.94
734.976	29485.55
735.317	29308.61
735.658	29411.43
735.999	29315.61
736.339	29278.55
736.68	29360.36
737.021	29300.02
737.361	29181.38
737.702	29275.61
738.042	29134.6
738.383	29100.7
738.723	29112.91
739.063	28925.57
739.404	29169.85
739.744	28762.18
740.084	28923.76
740.424	28922.86
740.764	28800.82
741.104	28883.53
741.444	28712.01
741.784	28581.17
742.124	28773.71
742.464	28631.56
742.804	28587.04
743.143	28576.65
743.483	28553.6
743.823	28419.14
744.162	28469.53
744.502	28424.11
744.841	28371.91
745.181	28406.48
745.52	28305.02
745.86	28289.88
746.199	28272.02
746.538	28218.92
746.877	28302.31
747.216	28406.26
747.556	28244.91
747.895	28163.78
748.234	28076.1
748.573	27985.48
748.911	27984.35
749.25	27940.73
749.589	27823.68
749.928	27922.66
750.267	27933.05
750.605	27855.31
750.944	27808.53
751.283	27765.15
751.621	27913.62
751.96	27615.09
752.298	27659.39
752.636	27628.2
752.975	27461.88
753.313	27332.61
753.651	27723.56
753.989	27366.06
754.327	27323.12
754.666	27188.66
755.004	27229.57
755.342	27267.98
755.679	27233.18
756.017	27019.18
756.355	27133.07
756.693	26881.1
757.031	27016.01
757.368	26882.01
757.706	26818.96
758.044	26679.75
758.381	26724.72
758.719	26560.66
759.056	26703.7
759.394	26596.14
759.731	26274.79
