Data from hue_250_FLMS001491_00062.txt Node
Date: Tue Feb 07 16:01:18 GMT 2017
User: dcchb
Spectrometer: FLMS00149
Trigger mode: 0
Integration Time (sec): 2.000000E-2
Scans to average: 10
Electric dark correction enabled: true
Nonlinearity correction enabled: false
Boxcar width: 0
XAxis mode: Wavelengths
Number of Pixels in Spectrum: 2048
>>>>>Begin Spectral Data<<<<<
341.393	-18.43
341.776	-18.43
342.16	-18.43
342.543	-69.96
342.927	-59.11
343.31	-59.33
343.693	-75.83
344.077	-67.02
344.46	-60.46
344.843	-48.26
345.226	-33.35
345.61	-24.99
345.993	-38.77
346.376	-8.26
346.759	27.89
347.142	25.63
347.525	39.42
347.908	55.01
348.291	71.06
348.674	79.42
349.057	117.84
349.44	143.82
349.823	124.16
350.206	153.09
350.588	180.43
350.971	190.6
351.354	201
351.737	223.37
352.119	235.35
352.502	239.19
352.884	255.91
353.267	252.97
353.65	286.65
354.032	272.63
354.414	298.62
354.797	297.49
355.179	312.63
355.562	315.12
355.944	325.06
356.326	323.93
356.709	332.75
357.091	324.16
357.473	321.67
357.855	317.6
358.238	325.29
358.62	322.12
359.002	305.85
359.384	338.85
359.766	311.28
360.148	328.45
360.53	307.66
360.912	327.32
361.294	309.02
361.676	335.68
362.057	328.9
362.439	343.37
362.821	310.83
363.203	334.78
363.584	321.9
363.966	333.2
364.348	305.4
364.729	302.24
365.111	308.57
365.493	318.06
365.874	309.47
366.256	310.6
366.637	321.9
367.019	313.54
367.4	318.51
367.781	311.28
368.163	317.15
368.544	310.83
368.925	306.76
369.306	300.2
369.688	318.06
370.069	310.83
370.45	301.11
370.831	299.07
371.212	302.24
371.593	297.72
371.974	300.66
372.355	311.96
372.736	313.08
373.117	314.21
373.498	325.97
373.879	306.31
374.26	317.15
374.641	317.38
375.021	292.97
375.402	323.93
375.783	306.98
376.163	318.28
376.544	316.7
376.925	307.21
377.305	319.41
377.686	323.25
378.066	329.81
378.447	325.29
378.827	310.83
379.208	312.18
379.588	330.71
379.968	334.1
380.349	342.24
380.729	343.59
381.109	337.04
381.489	326.19
381.87	336.14
382.25	315.34
382.63	324.16
383.01	342.46
383.39	355.8
383.77	343.37
384.15	351.05
384.53	357.83
384.91	354.67
385.29	341.78
385.67	348.11
386.049	360.77
386.429	353.31
386.809	361.9
387.189	371.16
387.568	351.95
387.948	362.8
388.328	356.25
388.707	356.25
389.087	375.68
389.466	359.86
389.846	361.22
390.225	386.98
390.605	367.32
390.984	369.81
391.363	384.04
391.743	356.25
392.122	386.08
392.501	362.35
392.881	412.29
393.26	403.03
393.639	373.87
394.018	370.71
394.397	390.6
394.776	383.82
395.155	405.96
395.534	389.02
395.913	371.84
396.292	393.99
396.671	402.57
397.05	390.15
397.429	402.8
397.808	385.4
398.186	411.61
398.565	419.3
398.944	384.27
399.323	412.07
399.701	402.35
400.08	419.97
400.458	416.59
400.837	423.36
401.215	425.17
401.594	442.12
401.972	436.7
402.351	442.35
402.729	436.25
403.107	448.67
403.486	442.8
403.864	455.68
404.242	443.03
404.62	447.09
404.999	446.87
405.377	448.45
405.755	480.99
406.133	492.06
406.511	476.02
406.889	471.05
407.267	490.93
407.645	482.12
408.023	493.19
408.401	490.71
408.779	482.12
409.156	542.01
409.534	504.49
409.912	499.52
410.29	540.2
410.667	528.22
411.045	527.77
411.422	549.69
411.8	550.82
412.178	563.02
412.555	574.55
412.933	568.22
413.31	586.75
413.687	598.73
414.065	586.07
414.442	601.44
414.819	585.17
415.197	607.77
415.574	622.46
415.951	634.21
416.328	665.17
416.705	654.09
417.082	645.28
417.46	650.7
417.837	672.62
418.214	670.82
418.591	697.71
418.967	703.36
419.344	687.54
419.721	692.74
420.098	698.16
420.475	723.47
420.852	706.29
421.228	719.63
421.605	720.08
421.982	767.54
422.358	769.8
422.735	791.94
423.111	770.47
423.488	784.49
423.864	790.59
424.241	798.72
424.617	825.61
424.994	823.35
425.37	858.38
425.746	811.15
426.123	862.68
426.499	843.92
426.875	876.69
427.251	897.93
427.627	895.22
428.003	913.3
428.379	910.36
428.756	950.13
429.132	947.19
429.507	951.94
429.883	954.2
430.259	962.33
430.635	964.82
431.011	985.61
431.387	1004.37
431.763	1026.06
432.138	1014.54
432.514	1050.47
432.89	1053.4
433.265	1091.14
433.641	1080.07
434.016	1085.49
434.392	1102.67
434.767	1139.73
435.143	1154.19
435.518	1172.72
435.894	1166.17
436.269	1209.78
436.644	1242.1
437.02	1207.3
437.395	1224.7
437.77	1278.48
438.145	1285.26
438.52	1278.71
438.895	1298.6
439.271	1310.35
439.646	1362.1
440.021	1325.71
440.395	1365.71
440.77	1359.39
441.145	1430.57
441.52	1431.47
441.895	1409.33
442.27	1427.63
442.645	1440.06
443.019	1454.75
443.394	1468.31
443.769	1493.62
444.143	1484.35
444.518	1503.11
444.892	1510.12
445.267	1505.82
445.641	1520.28
446.016	1538.14
446.39	1596.44
446.764	1540.4
447.139	1566.61
447.513	1603.67
447.887	1600.51
448.262	1583.11
448.636	1613.62
449.01	1644.58
449.384	1647.29
449.758	1638.02
450.132	1691.35
450.506	1683.67
450.88	1690.68
451.254	1686.38
451.628	1742.65
452.002	1732.93
452.376	1771.8
452.75	1767.96
453.123	1774.97
453.497	1801.18
453.871	1835.76
454.244	1880.05
454.618	1873.95
454.992	1864
455.365	1881.41
455.739	1954.62
456.112	1966.37
456.486	1943.55
456.859	2009.31
457.232	1991.01
457.606	2003.89
457.979	2066.71
458.352	2086.82
458.725	2085.92
459.099	2093.6
459.472	2133.6
459.845	2153.71
460.218	2169.53
460.591	2200.04
460.964	2231.23
461.337	2270.55
461.71	2314.84
462.083	2325.69
462.456	2273.03
462.829	2295.86
463.201	2374.73
463.574	2365.01
463.947	2399.13
464.32	2447.94
464.692	2434.84
465.065	2499.69
465.438	2487.27
465.81	2533.82
466.183	2572.91
466.555	2616.3
466.928	2618.79
467.3	2603.42
467.672	2689.75
468.045	2714.38
468.417	2686.81
468.789	2739.24
469.161	2793.7
469.534	2847.03
469.906	2871.66
470.278	2898.78
470.65	2907.14
471.022	2967.93
471.394	3021.49
471.766	3063.07
472.138	3086.12
472.51	3139.68
472.882	3143.52
473.253	3172.9
473.625	3232.78
473.997	3331.31
474.369	3337.19
474.74	3368.15
475.112	3391.42
475.484	3451.76
475.855	3531.31
476.227	3555.26
476.598	3618.99
476.97	3630.74
477.341	3738.31
477.713	3771.3
478.084	3787.34
478.455	3889.71
478.827	3912.99
479.198	4020.11
479.569	4030.28
479.94	4140.78
480.311	4174.45
480.682	4187.56
481.053	4247.9
481.424	4386.2
481.795	4377.16
482.166	4454.22
482.537	4479.98
482.908	4579.41
483.279	4601.33
483.65	4643.14
484.021	4786.19
484.391	4840.2
484.762	4879.74
485.133	4896.02
485.503	4996.8
485.874	5067.31
486.244	5071.15
486.615	5148.66
486.985	5245.61
487.356	5263.46
487.726	5339.39
488.097	5426.62
488.467	5410.13
488.837	5508.43
489.207	5613.28
489.578	5644.7
489.948	5674.98
490.318	5745.94
490.688	5799.27
491.058	5827.74
491.428	5889.21
491.798	5987.06
492.168	6060.05
492.538	6068.19
492.908	6125.14
493.278	6250.56
493.648	6195.64
494.017	6283.1
494.387	6378.24
494.757	6394.28
495.126	6447.39
495.496	6485.8
495.866	6497.78
496.235	6548.18
496.605	6600.6
496.974	6633.82
497.344	6693.48
497.713	6736.87
498.082	6784.55
498.452	6818.45
498.821	6864.78
499.19	6884.21
499.559	6970.09
499.928	7008.73
500.298	6971.44
500.667	7047.82
501.036	6993.36
501.405	7092.34
501.774	7100.7
502.143	7170.08
502.512	7170.53
502.88	7229.74
503.249	7253.69
503.618	7276.97
503.987	7333.92
504.356	7328.04
504.724	7423.86
505.093	7451.43
505.462	7390.64
505.83	7410.53
506.199	7479.68
506.567	7589.96
506.936	7540.92
507.304	7656.39
507.672	7674.47
508.041	7651.88
508.409	7777.3
508.777	7782.72
509.145	7780.01
509.514	7811.87
509.882	7817.97
510.25	7858.2
510.618	7907.91
510.986	7935.71
511.354	8020.9
511.722	8062.71
512.09	8062.71
512.458	8083.5
512.826	8102.26
513.193	8085.08
513.561	8130.05
513.929	8191.52
514.297	8236.27
514.664	8227.45
515.032	8281.46
515.4	8260.45
515.767	8332.31
516.135	8333.89
516.502	8290.5
516.869	8484.4
517.237	8372.76
517.604	8454.57
517.972	8419.99
518.339	8500.44
518.706	8464.06
519.073	8525.07
519.44	8526.2
519.808	8617.27
520.175	8610.72
520.542	8696.82
520.909	8694.11
521.276	8708.57
521.643	8744.5
522.009	8782.69
522.376	8767.78
522.743	8780.43
523.11	8816.36
523.477	8939.52
523.843	8923.93
524.21	9034.66
524.577	9078.73
524.943	9128.45
525.31	9114.66
525.676	9157.6
526.043	9177.71
526.409	9216.58
526.776	9283.7
527.142	9324.15
527.508	9284.6
527.874	9304.49
528.241	9365.28
528.607	9369.34
528.973	9414.31
529.339	9387.42
529.705	9473.3
530.071	9556.23
530.437	9521.88
530.803	9577.25
531.169	9596.68
531.535	9521.88
531.901	9541.99
532.267	9611.82
532.632	9624.48
532.998	9655.44
533.364	9663.35
533.73	9674.42
534.095	9640.75
534.461	9711.03
534.826	9738.83
535.192	9713.52
535.557	9796.9
535.923	9751.93
536.288	9731.14
536.653	9808.65
537.019	9699.5
537.384	9714.87
537.749	9793.51
538.114	9758.71
538.479	9770.24
538.845	9774.08
539.21	9817.69
539.575	9807.98
539.94	9868.54
540.305	9836.22
540.67	9841.87
541.034	9803.91
541.399	9897.01
541.764	9866.51
542.129	9878.26
542.494	9872.38
542.858	9894.98
543.223	9938.59
543.587	9951.25
543.952	9819.73
544.316	9899.27
544.681	9878.94
545.045	9922.32
545.41	9994.64
545.774	9884.58
546.138	9900.18
546.503	9890.01
546.867	9911.48
547.231	10010.23
547.595	9945.6
547.959	9907.41
548.324	10012.72
548.688	9996.9
549.052	10061.53
549.416	9985.37
549.779	9955.54
550.143	9989.89
550.507	10037.35
550.871	9997.35
551.235	10039.16
551.599	10085.26
551.962	10117.35
552.326	10130.23
552.689	10123.9
553.053	10051.59
553.417	10098.59
553.78	10155.76
554.143	10110.34
554.507	10089.33
554.87	10101.08
555.234	10172.03
555.597	10156.44
555.96	10198.47
556.323	10167.97
556.686	10174.75
557.05	10206.61
557.413	10313.95
557.776	10230.79
558.139	10267.4
558.502	10274.86
558.865	10210
559.228	10325.93
559.59	10347.62
559.953	10369.54
560.316	10467.62
560.679	10455.42
561.041	10515.98
561.404	10516.21
561.767	10531.35
562.129	10577.22
562.492	10523.66
562.854	10583.1
563.217	10666.49
563.579	10634.4
563.941	10662.87
564.304	10702.42
564.666	10718.46
565.028	10732.25
565.39	10781.06
565.753	10860.15
566.115	10876.2
566.477	10944.9
566.839	10939.25
567.201	11000.49
567.563	10999.81
567.925	11008.4
568.287	11014.95
568.648	11030.32
569.01	11117.32
569.372	11259.01
569.734	11125.46
570.095	11216.98
570.457	11253.14
570.819	11271.21
571.18	11244.55
571.542	11337.43
571.903	11332.23
572.265	11354.38
572.626	11434.6
572.987	11329.07
573.349	11403.41
573.71	11491.77
574.071	11483.64
574.432	11443.87
574.794	11534.94
575.155	11589.17
575.516	11522.51
575.877	11638.44
576.238	11636.63
576.599	11736.29
576.96	11732.9
577.32	11719.79
577.681	11832.1
578.042	11822.61
578.403	11775.83
578.763	11877.75
579.124	11871.65
579.485	11876.4
579.845	11958.43
580.206	11941.25
580.566	11943.51
580.927	11929.5
581.287	12044.53
581.648	11917.53
582.008	12011.76
582.368	11993.91
582.728	12081.14
583.089	12037.75
583.449	12134.7
583.809	12127.01
584.169	12147.8
584.529	12161.81
584.889	12259.89
585.249	12171.3
585.609	12160.91
585.969	12228.93
586.329	12175.82
586.688	12267.57
587.048	12206.33
587.408	12192.32
587.768	12209.95
588.127	12253.56
588.487	12229.38
588.846	12376.04
589.206	12257.86
589.565	12344.18
589.925	12409.49
590.284	12291.98
590.643	12351.64
591.003	12387.12
591.362	12390.73
591.721	12385.76
592.08	12448.13
592.44	12432.54
592.799	12511.18
593.158	12412.65
593.517	12427.12
593.876	12504.18
594.235	12405.42
594.593	12464.18
594.952	12500.34
595.311	12451.75
595.67	12474.35
596.029	12558.41
596.387	12599.32
596.746	12615.36
597.104	12543.5
597.463	12609.71
597.822	12623.27
598.18	12532.65
598.538	12519.54
598.897	12608.13
599.255	12513.22
599.613	12670.05
599.972	12644.06
600.33	12566.1
600.688	12550.28
601.046	12591.86
601.404	12727.67
601.762	12712.08
602.12	12811.74
602.478	12752.53
602.836	12697.62
603.194	12606.32
603.552	12649.71
603.91	12711.63
604.268	12802.02
604.625	12685.19
604.983	12728.58
605.341	12690.16
605.698	12731.52
606.056	12747.11
606.413	12764.96
606.771	12788.46
607.128	12801.34
607.485	12783.72
607.843	12808.35
608.2	12923.37
608.557	12820.33
608.914	12773.55
609.272	12919.53
609.629	12847.9
609.986	12953.43
610.343	12911.17
610.7	12942.81
611.057	12938.06
611.414	12951.62
611.771	12992.07
612.127	13058.06
612.484	13009.47
612.841	13095.35
613.198	13048.34
613.554	13059.19
613.911	13054.44
614.267	13107.1
614.624	13032.75
614.98	12948.23
615.337	13153.65
615.693	13056.25
616.05	13130.38
616.406	13147.1
616.762	13091.96
617.118	13143.71
617.475	13080.66
617.831	13164.72
618.187	13146.42
618.543	13192.75
618.899	13238.85
619.255	13166.31
619.611	13139.87
619.967	13257.6
620.323	13330.14
620.678	13154.56
621.034	13184.84
621.39	13262.35
621.746	13210.6
622.101	13253.31
622.457	13187.1
622.812	13265.96
623.168	13269.13
623.523	13218.06
623.879	13271.84
624.234	13160.43
624.589	13276.81
624.945	13236.81
625.3	13328.34
625.655	13264.61
626.01	13233.88
626.365	13272.74
626.72	13169.24
627.075	13240.2
627.43	13213.99
627.785	13202.46
628.14	13166.31
628.495	13124.73
628.85	13198.62
629.205	13099.64
629.559	13202.69
629.914	13219.64
630.269	13211.05
630.623	13106.19
630.978	13029.13
631.332	13091.73
631.687	13160.66
632.041	13126.53
632.396	13190.49
632.75	13030.72
633.104	13014.9
633.459	12996.14
633.813	13000.44
634.167	12949.59
634.521	12985.29
634.875	12957.72
635.229	12982.13
635.583	12920.89
635.937	12930.83
636.291	12952.53
636.645	12861.23
636.999	12890.61
637.352	12901.91
637.706	12824.17
638.06	12879.31
638.413	12842.7
638.767	12760.44
639.121	12788.24
639.474	12778.52
639.828	12797.5
640.181	12787.11
640.534	12713.89
640.888	12605.64
641.241	12611.52
641.594	12687.9
641.947	12696.26
642.301	12648.58
642.654	12755.92
643.007	12664.4
643.36	12603.16
643.713	12619.43
644.066	12643.83
644.419	12597.51
644.771	12509.37
645.124	12443.39
645.477	12438.87
645.83	12228.7
646.182	12235.48
646.535	12237.29
646.888	12215.37
647.24	12100.8
647.593	12218.76
647.945	12140.34
648.298	12086.33
648.65	12081.59
649.002	12102.83
649.355	12182.38
649.707	12094.24
650.059	12270.74
650.411	12399.32
650.763	12327.46
651.115	12434.57
651.467	12365.65
651.819	12329.27
652.171	12302.15
652.523	12323.84
652.875	12385.31
653.227	12319.1
653.578	12360.68
653.93	12346.67
654.282	12330.4
654.633	12289.95
654.985	12363.84
655.337	12339.44
655.688	12334.01
656.039	12411.75
656.391	12266.89
656.742	12310.51
657.094	12274.13
657.445	12375.59
657.796	12303.5
658.147	12234.58
658.498	12288.36
658.849	12325.2
659.2	12286.78
659.551	12281.13
659.902	12296.95
660.253	12339.66
660.604	12263.96
660.955	12336.05
661.306	12191.87
661.656	12290.4
662.007	12207.01
662.358	12236.16
662.708	12227.35
663.059	12319.1
663.409	12172.43
663.76	12266.22
664.11	12258.76
664.461	12294.24
664.811	12270.96
665.161	12313
665.511	12322.49
665.862	12236.61
666.212	12211.53
666.562	12280.23
666.912	12284.97
667.262	12208.82
667.612	12251.08
667.962	12303.28
668.312	12233.68
668.662	12275.93
669.011	12298.76
669.361	12269.61
669.711	12243.39
670.06	12235.03
670.41	12171.53
670.76	12154.13
671.109	12234.58
671.459	12225.54
671.808	12162.94
672.157	12112.32
672.507	12175.15
672.856	12076.39
673.205	12267.8
673.554	12197.52
673.904	12070.29
674.253	12181.47
674.602	12134.24
674.951	11925.44
675.3	11873.23
675.649	12121.36
675.998	12080.91
676.346	12103.51
676.695	12104.41
677.044	12054.02
677.393	12018.99
677.741	12120.68
678.09	12066
678.438	11919.79
678.787	12021.25
679.135	12042.72
679.484	11846.57
679.832	11930.18
680.181	11851.54
680.529	11893.57
680.877	11848.6
681.225	11861.03
681.573	12006.56
681.922	11844.08
682.27	11768.15
682.618	11749.39
682.966	11713.46
683.314	11789.17
683.661	11705.78
684.009	11696.06
684.357	11690.19
684.705	11610.64
685.053	11638.44
685.4	11544.88
685.748	11585.78
686.095	11469.63
686.443	11509.63
686.79	11538.78
687.138	11461.27
687.485	11384.21
687.832	11380.36
688.18	11444.09
688.527	11379.23
688.874	11289.07
689.221	11277.32
689.568	11280.48
689.915	11246.81
690.262	11184.21
690.609	11160.26
690.956	11181.73
691.303	11103.99
691.65	11079.13
691.997	11051.33
692.344	11004.56
692.69	10938.57
693.037	10964.78
693.383	10892.24
693.73	10945.8
694.077	10907.61
694.423	10839.36
694.769	10896.08
695.116	10773.15
695.462	10743.32
695.808	10694.28
696.155	10775.63
696.501	10651.34
696.847	10622.42
697.193	10566.15
697.539	10617.67
697.885	10555.53
698.231	10493.16
698.577	10428.53
698.923	10412.03
699.269	10383.55
699.614	10394.4
699.96	10300.62
700.306	10282.09
700.651	10225.37
700.997	10264.69
701.342	10157.35
701.688	10178.36
702.033	10118.02
702.379	10144.69
702.724	10039.61
703.069	10084.35
703.415	9946.5
703.76	9945.6
704.105	9941.53
704.45	9934.53
704.795	9860.63
705.14	9897.24
705.485	9793.06
705.83	9763.01
706.175	9743.12
706.52	9758.94
706.865	9725.04
707.209	9669.45
707.554	9587.64
707.899	9618.38
708.243	9568.89
708.588	9602.56
708.932	9527.76
709.277	9533.63
709.621	9505.39
709.966	9454.09
710.31	9508.78
710.654	9372.06
710.998	9356.24
711.342	9373.64
711.687	9403.47
712.031	9333.64
712.375	9291.38
712.719	9317.14
713.063	9313.98
713.407	9332.96
713.75	9293.19
714.094	9259.97
714.438	9239.86
714.782	9202.34
715.125	9175.22
715.469	9214.09
715.812	9137.94
716.156	9151.72
716.499	9113.08
716.843	9121.89
717.186	9121.89
717.53	9048.67
717.873	9164.38
718.216	9090.26
718.559	9087.77
718.902	9036.02
719.246	8962.58
719.589	8983.59
719.932	8916.7
720.275	8909.92
720.617	8900.2
720.96	8844.39
721.303	8858.85
721.646	8869.92
721.989	8813.65
722.331	8871.05
722.674	8893.42
723.016	8847.1
723.359	8777.27
723.701	8845.29
724.044	8837.38
724.386	8733.88
724.729	8806.87
725.071	8834.67
725.413	8809.13
725.755	8726.88
726.097	8736.59
726.439	8714.67
726.782	8674.22
727.124	8749.25
727.465	8709.25
727.807	8698.18
728.149	8712.64
728.491	8680.77
728.833	8663.6
729.175	8650.49
729.516	8632.41
729.858	8650.94
730.199	8618.86
730.541	8633.32
730.882	8669.25
731.224	8692.75
731.565	8547.67
731.906	8580.89
732.248	8615.69
732.589	8569.14
732.93	8582.92
733.271	8481.91
733.612	8548.35
733.953	8597.16
734.294	8563.04
734.635	8504.96
734.976	8534.79
735.317	8541.57
735.658	8528.01
735.999	8561.46
736.339	8548.12
736.68	8554
737.021	8493.21
737.361	8418.18
737.702	8578.18
738.042	8452.08
738.383	8526.88
738.723	8517.84
739.063	8535.47
739.404	8572.53
739.744	8510.16
740.084	8491.18
740.424	8607.78
740.764	8587.67
741.104	8608.46
741.444	8449.14
741.784	8493.43
742.124	8530.72
742.464	8484.17
742.804	8522.36
743.143	8508.58
743.483	8555.13
743.823	8546.31
744.162	8465.41
744.502	8624.28
744.841	8631.28
745.181	8718.51
745.52	8626.09
745.86	8690.94
746.199	8670.61
746.538	8656.14
746.877	8698.85
747.216	8749.47
747.556	8704.73
747.895	8708.34
748.234	8850.04
748.573	8833.31
748.911	8859.3
749.25	8934.1
749.589	8881.45
749.928	8966.19
750.267	9035.57
750.605	9058.17
750.944	9130.03
751.283	9140.42
751.621	9211.16
751.96	9269.23
752.298	9272.4
752.636	9467.19
752.975	9427.87
753.313	9418.38
753.651	9560.75
753.989	9578.15
754.327	9651.37
754.666	9687.53
755.004	9828.09
755.342	9859.95
755.679	9848.88
756.017	9996.67
756.355	10138.36
756.693	10120.74
757.031	10307.62
757.368	10316.66
757.706	10421.97
758.044	10491.35
758.381	10652.47
758.719	10697.44
759.056	10862.64
759.394	10885.91
759.731	10947.38
760.068	11068.28
760.405	11068.96
