Data from hue_330_FLMS001491_38.txt Node
Date: Mon Feb 06 15:45:19 GMT 2017
User: dcchb
Spectrometer: FLMS00149
Trigger mode: 0
Integration Time (sec): 2.000000E-2
Scans to average: 10
Electric dark correction enabled: true
Nonlinearity correction enabled: false
Boxcar width: 0
XAxis mode: Wavelengths
Number of Pixels in Spectrum: 2048
>>>>>Begin Spectral Data<<<<<
341.393	-5.95
341.776	-5.95
342.16	-5.95
342.543	-51.59
342.927	-66.28
343.31	-53.4
343.693	-85.72
344.077	-79.62
344.46	-44.59
344.843	-61.31
345.226	-62.44
345.61	-36.91
345.993	-20.41
346.376	2.42
346.759	4.9
347.142	41.06
347.525	46.26
347.908	53.71
348.291	78.12
348.674	101.4
349.057	116.54
349.44	125.58
349.823	145.01
350.206	146.59
350.588	186.37
350.971	198.12
351.354	212.35
351.737	236.99
352.119	250.32
352.502	268.4
352.884	271.56
353.267	285.8
353.65	270.43
354.032	252.8
354.414	297.77
354.797	309.53
355.179	326.25
355.562	316.08
355.944	313.82
356.326	323.31
356.709	330.99
357.091	349.07
357.473	321.5
357.855	334.61
358.238	331.67
358.62	333.93
359.002	338
359.384	346.13
359.766	323.99
360.148	342.29
360.53	329.86
360.912	318.79
361.294	325.34
361.676	332.12
362.057	340.71
362.439	317.21
362.821	324.89
363.203	308.17
363.584	321.73
363.966	317.66
364.348	319.92
364.729	316.76
365.111	319.69
365.493	312.01
365.874	286.7
366.256	313.82
366.637	321.28
367.019	296.42
367.4	304.55
367.781	302.07
368.163	301.62
368.544	305.01
368.925	278.11
369.306	308.62
369.688	309.07
370.069	318.79
370.45	330.77
370.831	315.18
371.212	289.87
371.593	317.89
371.974	330.99
372.355	293.03
372.736	316.53
373.117	314.72
373.498	305.01
373.879	310.43
374.26	306.36
374.641	318.34
375.021	303.2
375.402	311.33
375.783	316.76
376.163	314.5
376.544	303.2
376.925	332.35
377.305	320.6
377.686	319.47
378.066	312.46
378.447	318.34
378.827	300.71
379.208	355.17
379.588	320.15
379.968	332.58
380.349	306.59
380.729	318.79
381.109	330.09
381.489	313.37
381.87	306.36
382.25	326.7
382.63	330.77
383.01	342.52
383.39	343.2
383.77	335.06
384.15	339.81
384.53	363.08
384.91	344.1
385.29	353.37
385.67	322.63
386.049	353.59
386.429	329.64
386.809	319.24
387.189	335.29
387.568	338
387.948	349.98
388.328	338.9
388.707	369.19
389.087	366.25
389.466	354.72
389.846	357.21
390.225	347.94
390.605	348.85
390.984	348.85
391.363	351.33
391.743	364.21
392.122	375.96
392.501	347.26
392.881	357.66
393.26	340.94
393.639	358.56
394.018	345.68
394.397	374.38
394.776	336.64
395.155	368.73
395.534	369.64
395.913	363.31
396.292	392.01
396.671	369.41
397.05	367.6
397.429	376.64
397.808	372.57
398.186	400.82
398.565	356.98
398.944	366.7
399.323	380.48
399.701	373.7
400.08	398.79
400.458	390.2
400.837	364.89
401.215	389.07
401.594	406.25
401.972	392.46
402.351	409.86
402.729	397.89
403.107	383.65
403.486	392.46
403.864	422.52
404.242	417.77
404.62	392.24
404.999	406.25
405.377	396.3
405.755	432.69
406.133	403.76
406.511	413.93
406.889	435.17
407.267	410.99
407.645	426.81
408.023	420.03
408.401	449.41
408.779	427.94
409.156	442.86
409.534	440.14
409.912	444.21
410.29	467.94
410.667	472.46
411.045	433.36
411.422	462.74
411.8	474.04
412.178	452.8
412.555	473.14
412.933	473.14
413.31	492.8
413.687	492.12
414.065	500.71
414.442	509.29
414.819	521.72
415.197	503.87
415.574	510.42
415.951	521.5
416.328	544.55
416.705	533.02
417.082	558.11
417.46	533.7
417.837	555.4
418.214	578.22
418.591	571.21
418.967	570.31
419.344	583.64
419.721	593.36
420.098	587.03
420.475	611.66
420.852	592.68
421.228	613.02
421.605	631.33
421.982	625.22
422.358	616.64
422.735	617.31
423.111	600.59
423.488	666.35
423.864	642.17
424.241	647.6
424.617	646.92
424.994	662.74
425.37	668.16
425.746	671.32
426.123	671.55
426.499	690.98
426.875	693.02
427.251	695.73
427.627	698.44
428.003	707.93
428.379	718.33
428.756	721.49
429.132	723.07
429.507	729.85
429.883	729.4
430.259	755.84
430.635	754.49
431.011	779.34
431.387	774.15
431.763	797.87
432.138	791.1
432.514	777.08
432.89	773.02
433.265	812.56
433.641	799
434.016	829.06
434.392	843.3
434.767	849.17
435.143	831.77
435.518	850.98
435.894	874.48
436.269	877.42
436.644	884.65
437.02	891.88
437.395	879
437.77	882.62
438.145	931.88
438.52	913.8
438.895	953.58
439.271	935.5
439.646	945.89
440.021	964.65
440.395	950.64
440.77	940.02
441.145	961.94
441.52	959.9
441.895	958.55
442.27	1001.71
442.645	988.6
443.019	982.28
443.394	968.72
443.769	1013.91
444.143	984.99
444.518	1008.94
444.892	1017.76
445.267	1004.2
445.641	1024.54
446.016	998.32
446.39	1043.07
446.764	1043.74
447.139	1036.51
447.513	1046
447.887	1041.94
448.262	1063.4
448.636	1038.09
449.01	1027.47
449.384	1048.26
449.758	1074.25
450.132	1059.56
450.506	1052.78
450.88	1083.74
451.254	1088.26
451.628	1116.96
452.002	1113.35
452.376	1076.74
452.75	1103.86
453.123	1139.79
453.497	1116.74
453.871	1127.13
454.244	1148.15
454.618	1113.8
454.992	1191.31
455.365	1142.5
455.739	1152.44
456.112	1180.69
456.486	1180.01
456.859	1200.35
457.232	1224.98
457.606	1208.03
457.979	1224.53
458.352	1255.72
458.725	1249.84
459.099	1250.74
459.472	1261.37
459.845	1274.7
460.218	1282.61
460.591	1273.12
460.964	1285.09
461.337	1302.04
461.71	1331.42
462.083	1342.72
462.456	1326.45
462.829	1326
463.201	1365.09
463.574	1375.71
463.947	1349.05
464.32	1405.99
464.692	1412.55
465.065	1384.98
465.438	1420.68
465.81	1422.49
466.183	1454.81
466.555	1455.94
466.928	1493.68
467.3	1461.81
467.672	1461.13
468.045	1507.46
468.417	1534.8
468.789	1516.05
469.161	1548.59
469.534	1568.48
469.906	1608.25
470.278	1598.98
470.65	1620.45
471.022	1619.55
471.394	1639.21
471.766	1675.14
472.138	1664.29
472.51	1687.57
472.882	1725.08
473.253	1721.47
473.625	1756.72
473.997	1730.73
474.369	1783.84
474.74	1799.43
475.112	1840.33
475.484	1828.58
475.855	1861.58
476.227	1872.87
476.598	1918.52
476.97	1924.4
477.341	1959.43
477.713	1949.71
478.084	1982.93
478.455	2040.55
478.827	2057.5
479.198	2094.11
479.569	2053.89
479.94	2165.52
480.311	2135.24
480.682	2174.56
481.053	2208.68
481.424	2232.64
481.795	2268.12
482.166	2298.17
482.537	2297.04
482.908	2318.96
483.279	2337.5
483.65	2397.83
484.021	2415.23
484.391	2465.63
484.762	2453.88
485.133	2497.72
485.503	2529.58
485.874	2559.18
486.244	2568
486.615	2629.46
486.985	2635.79
487.356	2669.46
487.726	2688.67
488.097	2699.75
488.467	2716.47
488.837	2777.48
489.207	2795.34
489.578	2834.21
489.948	2837.14
490.318	2917.59
490.688	2882.57
491.058	2917.82
491.428	3000.3
491.798	2980.42
492.168	3050.02
492.538	3065.16
492.908	3091.15
493.278	3109.45
493.648	3074.65
494.017	3158.49
494.387	3155.55
494.757	3226.29
495.126	3194.87
495.496	3220.18
495.866	3254.76
496.235	3243.69
496.605	3268.32
496.974	3331.37
497.344	3279.39
497.713	3320.07
498.082	3352.84
498.452	3405.04
498.821	3391.7
499.19	3424.02
499.559	3430.57
499.928	3446.62
500.298	3461.08
500.667	3487.3
501.036	3490.23
501.405	3534.75
501.774	3545.82
502.143	3525.49
502.512	3558.48
502.88	3530.68
503.249	3592.6
503.618	3575.2
503.987	3604.58
504.356	3639.38
504.724	3621.98
505.093	3631.02
505.462	3631.7
505.83	3652.26
506.199	3684.8
506.567	3735.65
506.936	3697.91
507.304	3709.21
507.672	3752.15
508.041	3737.23
508.409	3755.54
508.777	3787.85
509.145	3813.61
509.514	3762.32
509.882	3799.15
510.25	3800.28
510.618	3848.87
510.986	3850.68
511.354	3887.74
511.722	3906.04
512.09	3902.2
512.458	3901.3
512.826	3902.65
513.193	3934.74
513.561	3934.52
513.929	3963.44
514.297	3999.15
514.664	3965.7
515.032	3987.85
515.4	3997.79
515.767	3986.72
516.135	4009.99
516.502	3994.4
516.869	4043.44
517.237	4062.42
517.604	4005.47
517.972	4028.98
518.339	4125.92
518.706	4071.69
519.073	4074.62
519.44	4152.14
519.808	4129.09
520.175	4118.01
520.542	4205.69
520.909	4109.2
521.276	4168.63
521.643	4223.1
522.009	4180.16
522.376	4255.64
522.743	4220.16
523.11	4210.67
523.477	4308.29
523.843	4301.74
524.21	4284.34
524.577	4382.64
524.943	4361.4
525.31	4371.11
525.676	4420.15
526.043	4427.16
526.409	4438.23
526.776	4459.93
527.142	4426.71
527.508	4476.42
527.874	4524.78
528.241	4493.6
528.607	4538.12
528.973	4553.71
529.339	4577.66
529.705	4591
530.071	4651.78
530.437	4638.45
530.803	4680.94
531.169	4695.4
531.535	4699.47
531.901	4710.31
532.267	4725
532.632	4774.04
532.998	4741.73
533.364	4795.96
533.73	4831.67
534.095	4825.57
534.461	4852.68
534.826	4889.97
535.192	4886.81
535.557	4934.94
535.923	4939.91
536.288	4972.23
536.653	4972
537.019	4958.67
537.384	5006.13
537.749	5076.18
538.114	5011.1
538.479	5080.47
538.845	5049.97
539.21	5087.25
539.575	5128.16
539.94	5118.21
540.305	5150.08
540.67	5150.75
541.034	5219.68
541.399	5181.49
541.764	5206.12
542.129	5263.97
542.494	5291.09
542.858	5308.94
543.223	5330.41
543.587	5372.67
543.952	5350.3
544.316	5395.72
544.681	5374.93
545.045	5384.65
545.41	5432.33
545.774	5464.64
546.138	5457.19
546.503	5461.93
546.867	5487.02
547.231	5578.99
547.595	5546.9
547.959	5540.8
548.324	5581.48
548.688	5598.2
549.052	5618.31
549.416	5685.2
549.779	5601.59
550.143	5709.84
550.507	5701.02
550.871	5690.18
551.235	5735.6
551.599	5756.16
551.962	5785.09
552.326	5814.01
552.689	5806.1
553.053	5788.93
553.417	5814.24
553.78	5965.87
554.143	5899.44
554.507	5894.01
554.87	5897.18
555.234	5885.88
555.597	5896.95
555.96	5997.29
556.323	6003.84
556.686	5962.26
557.05	6008.81
557.413	6053.1
557.776	6026.44
558.139	6101.92
558.502	6103.5
558.865	6090.84
559.228	6140.56
559.59	6197.05
559.953	6106.21
560.316	6227.56
560.679	6227.11
561.041	6195.02
561.404	6237.96
561.767	6309.82
562.129	6264.17
562.492	6303.04
562.854	6302.36
563.217	6319.99
563.579	6365.41
563.941	6390.72
564.304	6412.19
564.666	6409.7
565.028	6444.51
565.39	6466.43
565.753	6436.14
566.115	6492.19
566.477	6534.9
566.839	6489.25
567.201	6590.94
567.563	6573.54
567.925	6624.16
568.287	6615.35
568.648	6665.52
569.01	6654.22
569.372	6706.87
569.734	6704.16
570.095	6700.09
570.457	6778.73
570.819	6895.57
571.18	6832.29
571.542	6861.44
571.903	6905.51
572.265	6909.8
572.626	7051.27
572.987	7047.65
573.349	7026.86
573.71	7159.52
574.071	7173.07
574.432	7115.22
574.794	7286.52
575.155	7267.08
575.516	7292.84
575.877	7427.08
576.238	7476.57
576.599	7471.82
576.96	7520.64
577.32	7615.55
577.681	7725.83
578.042	7827.97
578.403	7887.86
578.763	7960.4
579.124	8040.85
579.485	8179.38
579.845	8270.22
580.206	8298.02
580.566	8454.17
580.927	8573.26
581.287	8703.66
581.648	8848.96
582.008	8954.27
582.368	9014.83
582.728	9208.5
583.089	9359.01
583.449	9456.18
583.809	9624.31
584.169	9819.33
584.529	10027.91
584.889	10257.51
585.249	10264.52
585.609	10522.82
585.969	10721.68
586.329	10907.21
586.688	11120.77
587.048	11363.02
587.408	11550.13
587.768	11728.89
588.127	12045.04
588.487	12251.13
588.846	12540.62
589.206	12713.72
589.565	12880.49
589.925	13232.35
590.284	13388.05
590.643	13718.89
591.003	14013.57
591.362	14293.34
591.721	14483.39
592.08	14774.68
592.44	15050.16
592.799	15295.57
593.158	15631.38
593.517	15919.74
593.876	16212.16
594.235	16456.67
594.593	16662.77
594.952	17104.79
595.311	17313.37
595.67	17518.56
596.029	18054.37
596.387	18269.51
596.746	18590.4
597.104	18763.73
597.463	19025.87
597.822	19459.76
598.18	19551.28
598.538	19869.01
598.897	20240.75
599.255	20433.06
599.613	21055.19
599.972	21099.71
600.33	21448.4
600.688	21622.64
601.046	22026.47
601.404	22351.66
601.762	22603.85
602.12	22842.94
602.478	23123.62
602.836	23415.13
603.194	23520.21
603.552	23850.6
603.91	23977.83
604.268	24344.6
604.625	24360.42
604.983	24911.82
605.341	24886.96
605.698	25325.82
606.056	25707.28
606.413	25881.28
606.771	26217.32
607.128	26514.26
607.485	26521.27
607.843	26745.44
608.2	27172.55
608.557	27437.4
608.914	27531.86
609.272	27837.84
609.629	27966.88
609.986	28350.82
610.343	28466.75
610.7	28738.38
611.057	28917.59
611.414	29183.34
611.771	29347.18
612.127	29573.16
612.484	29764.8
612.841	29966.15
613.198	30030.1
613.554	30369.07
613.911	30553.48
614.267	30559.35
614.624	30742.17
614.98	30853.36
615.337	31198.43
615.693	31379.44
616.05	31516.84
616.406	31783.73
616.762	31811.3
617.118	31933.78
617.475	32126.09
617.831	32323.37
618.187	32440.66
618.543	32635.68
618.899	32892.4
619.255	32847.43
619.611	32974.66
619.967	33328.77
620.323	33360.86
620.678	33248.32
621.034	33421.65
621.39	33566.28
621.746	33574.64
622.101	34081.97
622.457	33779.83
622.812	34034.29
623.168	34151.57
623.523	34298.91
623.879	34436.76
624.234	34396.99
624.589	34524.22
624.945	34503.43
625.3	34714.95
625.655	34893.7
626.01	34938.22
626.365	34949.52
626.72	34972.8
627.075	34936.19
627.43	35011.21
627.785	35140.25
628.14	35282.84
628.495	35294.37
628.85	35349.51
629.205	35297.08
629.559	35507.02
629.914	35479
630.269	35500.01
630.623	35438.32
630.978	35443.74
631.332	35607.13
631.687	35790.63
632.041	35667.92
632.396	35809.61
632.75	35635.6
633.104	35759.89
633.459	35511.76
633.813	35751.53
634.167	35805.32
634.521	35763.28
634.875	35688.93
635.229	35743.62
635.583	35670.4
635.937	35761.47
636.291	35728.26
636.645	35683.28
636.999	35734.58
637.352	35868.82
637.706	35613.91
638.06	35754.24
638.413	35665.66
638.767	35671.08
639.121	35859.1
639.474	35629.73
639.828	35722.61
640.181	35690.97
640.534	35771.87
640.888	35711.08
641.241	35570.75
641.594	35684.87
641.947	35815.48
642.301	35639.67
642.654	35688.03
643.007	35711.98
643.36	35682.61
643.713	35574.14
644.066	35859.55
644.419	35553.34
644.771	35504.98
645.124	34952.91
645.477	35045.34
645.83	34903.87
646.182	34689.64
646.535	34625.01
646.888	34685.8
647.24	34572.13
647.593	34768.05
647.945	34667.27
648.298	34516.54
648.65	34577.1
649.002	34505.91
649.355	34570.32
649.707	34618.45
650.059	34688.73
650.411	35118.33
650.763	35159.46
651.115	35539.11
651.467	35383.63
651.819	35367.59
652.171	35335.27
652.523	35263.86
652.875	35159
653.227	35190.64
653.578	35258.44
653.93	35218.89
654.282	35111.1
654.633	35228.38
654.985	35220.47
655.337	35178.21
655.688	35252.56
656.039	35296.4
656.391	35020.93
656.742	34975.05
657.094	35146.8
657.445	35193.58
657.796	35146.58
658.147	35041.72
658.498	35008.05
658.849	35118.1
659.2	34965.56
659.551	34820.71
659.902	35101.61
660.253	34951.55
660.604	35155.16
660.955	34862.97
661.306	35138.21
661.656	34920.14
662.007	34928.95
662.358	34931.89
662.708	35040.36
663.059	34985.68
663.409	34836.53
663.76	35065.9
664.11	34988.16
664.461	34947.03
664.811	35073.58
665.161	34944.77
665.511	34942.74
665.862	35080.14
666.212	34930.08
666.562	35107.03
666.912	34996.52
667.262	35024.09
667.612	34998.78
667.962	35050.99
668.312	34783.87
668.662	35117.88
669.011	35030.65
669.361	34926.24
669.711	34836.75
670.06	34853.7
670.41	34781.16
670.76	34638.57
671.109	34963.76
671.459	34935.06
671.808	34775.51
672.157	34858.67
672.507	34676.76
672.856	34674.95
673.205	34594.27
673.554	34849.63
673.904	34612.35
674.253	34857.32
674.602	34626.59
674.951	34210.78
675.3	34071.35
675.649	34692.8
675.998	34506.14
676.346	34621.39
676.695	34767.15
677.044	34403.32
677.393	34658.68
677.741	34546.82
678.09	34588.62
678.438	34363.32
678.787	34376.43
679.135	34463.2
679.484	34340.04
679.832	34387.27
680.181	34249.42
680.529	34316.32
680.877	34154.29
681.225	34066.38
681.573	34507.95
681.922	34154.29
682.27	34072.71
682.618	34044.68
682.966	33991.13
683.314	34105.7
683.661	33900.05
684.009	33776.44
684.357	33711.13
684.705	33759.04
685.053	33731.02
685.4	33767.18
685.748	33581.19
686.095	33558.37
686.443	33457.35
686.79	33381.2
687.138	33367.64
687.485	33446.51
687.832	33349.79
688.18	33395.21
688.527	33108.21
688.874	33105.27
689.221	33166.74
689.568	32958.84
689.915	32904.6
690.262	32965.16
690.609	32750.48
690.956	32732.85
691.303	32701.67
691.65	32452.64
691.997	32496.02
692.344	32245.64
692.69	32246.31
693.037	32338.29
693.383	32029.82
693.73	32176.94
694.077	32025.75
694.423	31950.73
694.769	31931.52
695.116	31890.39
695.462	31873.89
695.808	31676.61
696.155	31798.87
696.501	31556.84
696.847	31591.87
697.193	31449.05
697.539	31502.6
697.885	31295.6
698.231	31191.65
698.577	31144.2
698.923	31066.01
699.269	30988.72
699.614	30760.48
699.96	30826.46
700.306	30751.66
700.651	30613.14
700.997	30525.23
701.342	30459.24
701.688	30428.51
702.033	30310.77
702.379	30383.09
702.724	30339.92
703.069	30405.23
703.415	29861.07
703.76	29964.34
704.105	29983.77
704.45	30011.8
704.795	29689.32
705.14	29738.58
705.485	29803.44
705.83	29565.71
706.175	29594.41
706.52	29475.54
706.865	29353.06
707.209	29377.01
707.554	29265.37
707.899	29313.06
708.243	29185.83
708.588	29183.79
708.932	28847.76
709.277	28920.3
709.621	28892.28
709.966	28738.16
710.31	28842.33
710.654	28584.71
710.998	28542.68
711.342	28651.61
711.687	28611.61
712.031	28400.54
712.375	28212.97
712.719	28361.67
713.063	28315.34
713.407	28309.24
713.75	28226.31
714.094	28159.64
714.438	27984.28
714.782	28044.62
715.125	27881.91
715.469	27826.09
715.812	27830.38
716.156	27692.76
716.499	27649.37
716.843	27619.09
717.186	27578.19
717.53	27756.04
717.873	27660.67
718.216	27477.17
718.559	27296.84
718.902	27180.46
719.246	27451.86
719.589	27303.17
719.932	27100.23
720.275	27200.34
720.617	27177.52
720.96	27081.93
721.303	27015.26
721.646	27120.12
721.989	26901.14
722.331	26937.75
722.674	26810.52
723.016	26883.97
723.359	26841.03
723.701	26789.73
724.044	26592.9
724.386	26528.95
724.729	26558.78
725.071	26487.14
725.413	26612.79
725.755	26475.62
726.097	26400.82
726.439	26316.98
726.782	26313.59
727.124	26371.89
727.465	26297.99
727.807	26287.15
728.149	26166.7
728.491	26106.36
728.833	26148.85
729.175	26136.87
729.516	26077.66
729.858	25991.11
730.199	25965.12
730.541	25921.28
730.882	25930.32
731.224	25932.58
731.565	25695.75
731.906	25760.16
732.248	25819.59
732.589	25704.34
732.93	25617.33
733.271	25619.37
733.612	25651.46
733.953	25612.36
734.294	25413.95
734.635	25531.69
734.976	25551.57
735.317	25428.41
735.658	25295.31
735.999	25435.87
736.339	25376.21
736.68	25378.02
737.021	25309.09
737.361	25231.58
737.702	25316.55
738.042	25157.91
738.383	25111.13
738.723	25176.44
739.063	25048.99
739.404	25041.08
739.744	25046.28
740.084	24992.94
740.424	24881.31
740.764	24957.24
741.104	24950.91
741.444	24745.27
741.784	24729.22
742.124	24837.02
742.464	24685.38
742.804	24587.53
743.143	24577.59
743.483	24540.53
743.823	24554.76
744.162	24417.59
744.502	24450.36
744.841	24379.63
745.181	24400.87
745.52	24393.86
745.86	24323.81
746.199	24382.34
746.538	24207.88
746.877	24266.64
747.216	24339.4
747.556	24190.25
747.895	24176.92
748.234	24055.12
748.573	24106.19
748.911	23985.06
749.25	24046.3
749.589	23929.02
749.928	23914.78
750.267	23900.77
750.605	23931.28
750.944	23846.08
751.283	23718.18
751.621	23860.77
751.96	23542.36
752.298	23504.85
752.636	23644.28
752.975	23443.15
753.313	23500.33
753.651	23572.42
753.989	23312.31
754.327	23409.03
754.666	23142.15
755.004	23228.92
755.342	23343.5
755.679	23218.98
756.017	23042.71
756.355	23177.17
756.693	22912.32
757.031	23114.58
757.368	22849.5
757.706	22890.4
758.044	22869.16
758.381	22745.32
758.719	22630.07
759.056	22686.56
759.394	22531.99
759.731	22569.05
760.068	22489.96
760.405	22299
760.743	22357.08
