Data from hue_310_FLMS001491_55.txt Node
Date: Mon Feb 06 15:49:53 GMT 2017
User: dcchb
Spectrometer: FLMS00149
Trigger mode: 0
Integration Time (sec): 2.000000E-2
Scans to average: 10
Electric dark correction enabled: true
Nonlinearity correction enabled: false
Boxcar width: 0
XAxis mode: Wavelengths
Number of Pixels in Spectrum: 2048
>>>>>Begin Spectral Data<<<<<
341.393	-13.22
341.776	-13.22
342.16	-13.22
342.543	-44.18
342.927	-67
343.31	-65.2
343.693	-59.77
344.077	-53.22
344.46	-54.12
344.843	-57.06
345.226	-37.4
345.61	-31.98
345.993	-13.9
346.376	3.73
346.759	-8.02
347.142	27.68
347.525	28.81
347.908	45.31
348.291	70.85
348.674	88.02
349.057	116.27
349.44	141.35
349.823	148.36
350.206	175.02
350.588	199.88
350.971	220.45
351.354	227.9
351.737	241.91
352.119	246.66
352.502	252.99
352.884	270.61
353.267	272.2
353.65	290.73
354.032	291.63
354.414	300.44
354.797	303.83
355.179	313.33
355.562	313.33
355.944	311.29
356.326	311.07
356.709	355.13
357.091	334.12
357.473	369.37
357.855	331.86
358.238	325.75
358.62	347.67
359.002	354.23
359.384	340.22
359.766	335.92
360.148	317.39
360.53	353.1
360.912	341.12
361.294	344.28
361.676	341.12
362.057	342.93
362.439	330.27
362.821	319.88
363.203	326.43
363.584	325.08
363.966	339.31
364.348	321.69
364.729	344.51
365.111	321.23
365.493	311.29
365.874	335.02
366.256	330.27
366.637	294.57
367.019	310.16
367.4	318.97
367.781	316.49
368.163	305.64
368.544	321.23
368.925	333.44
369.306	328.47
369.688	316.26
370.069	311.29
370.45	303.83
370.831	325.08
371.212	303.38
371.593	314
371.974	312.65
372.355	327.79
372.736	329.82
373.117	330.95
373.498	307.45
373.879	327.34
374.26	301.12
374.641	337.73
375.021	313.33
375.402	320.56
375.783	320.56
376.163	310.39
376.544	321.46
376.925	324.17
377.305	321.23
377.686	337.96
378.066	317.39
378.447	340.44
378.827	315.36
379.208	332.99
379.588	347
379.968	341.12
380.349	329.37
380.729	336.38
381.109	345.41
381.489	352.42
381.87	338.64
382.25	337.51
382.63	352.65
383.01	328.69
383.39	357.62
383.77	339.09
384.15	359.43
384.53	354.68
384.91	331.4
385.29	354
385.67	358.97
386.049	360.56
386.429	372.53
386.809	361.46
387.189	353.55
387.568	346.54
387.948	347
388.328	375.24
388.707	381.57
389.087	369.59
389.466	368.69
389.846	364.85
390.225	368.92
390.605	359.65
390.984	377.73
391.363	373.44
391.743	365.53
392.122	372.98
392.501	368.46
392.881	371.4
393.26	370.72
393.639	394.68
394.018	372.76
394.397	384.06
394.776	378.86
395.155	389.48
395.534	360.56
395.913	382.25
396.292	400.1
396.671	389.26
397.05	390.39
397.429	420.89
397.808	374.11
398.186	387.9
398.565	398.07
398.944	398.75
399.323	423.83
399.701	408.69
400.08	400.55
400.458	384.06
400.837	417.28
401.215	414.57
401.594	392.87
401.972	406.43
402.351	421.34
402.729	450.95
403.107	440.78
403.486	435.81
403.864	436.26
404.242	443.27
404.62	447.78
404.999	441.01
405.377	449.82
405.755	444.4
406.133	452.76
406.511	459.54
406.889	449.14
407.267	483.04
407.645	479.87
408.023	500.21
408.401	480.1
408.779	478.29
409.156	468.8
409.534	515.35
409.912	509.25
410.29	503.6
410.667	500.44
411.045	530.95
411.422	527.1
411.8	516.71
412.178	535.47
412.555	540.89
412.933	570.27
413.31	558.52
413.687	565.3
414.065	586.09
414.442	579.08
414.819	601
415.197	608.68
415.574	622.47
415.951	617.05
416.328	640.1
416.705	624.05
417.082	656.59
417.46	630.38
417.837	668.12
418.214	654.79
418.591	687.55
418.967	681.23
419.344	700.66
419.721	699.3
420.098	713.31
420.475	722.35
420.852	727.55
421.228	731.62
421.605	719.64
421.982	751.28
422.358	748.12
422.735	773.2
423.111	747.21
423.488	756.25
423.864	804.16
424.241	820.2
424.617	813.88
424.994	803.93
425.37	834.67
425.746	850.03
426.123	832.41
426.499	841.22
426.875	848.68
427.251	882.8
427.627	862.24
428.003	911.73
428.379	900.43
428.756	911.73
429.132	940.88
429.507	943.14
429.883	931.61
430.259	979.75
430.635	959.86
431.011	958.05
431.387	999.86
431.763	993.53
432.138	1005.51
432.514	1037.15
432.89	1042.57
433.265	1020.88
433.641	1074.44
434.016	1077.6
434.392	1064.49
434.767	1108.56
435.143	1071.72
435.518	1109.01
435.894	1118.5
436.269	1115.79
436.644	1148.56
437.02	1181.32
437.395	1177.26
437.77	1165.96
438.145	1209.12
438.52	1194.66
438.895	1219.52
439.271	1212.51
439.646	1259.97
440.021	1248.67
440.395	1238.95
440.77	1219.74
441.145	1268.1
441.52	1267.42
441.895	1264.49
442.27	1287.54
442.645	1303.36
443.019	1271.27
443.394	1294.99
443.769	1313.75
444.143	1298.61
444.518	1315.11
444.892	1349
445.267	1341.09
445.641	1321.21
446.016	1363.47
446.39	1355.33
446.764	1350.36
447.139	1345.39
447.513	1377.48
447.887	1355.78
448.262	1367.99
448.636	1391.94
449.01	1397.59
449.384	1407.08
449.758	1405.27
450.132	1434.2
450.506	1412.05
450.88	1420.87
451.254	1460.41
451.628	1455.22
452.002	1451.37
452.376	1469.23
452.75	1478.27
453.123	1496.12
453.497	1492.05
453.871	1493.63
454.244	1510.13
454.618	1535.67
454.992	1523.01
455.365	1530.47
455.739	1578.38
456.112	1549
456.486	1579.73
456.859	1574.76
457.232	1613.4
457.606	1560.07
457.979	1619.73
458.352	1630.8
458.725	1678.26
459.099	1656.34
459.472	1680.97
459.845	1660.41
460.218	1698.37
460.591	1683.46
460.964	1690.92
461.337	1750.58
461.71	1791.03
462.083	1780.86
462.456	1789.9
462.829	1780.63
463.201	1817.92
463.574	1807.98
463.947	1836.22
464.32	1863.79
464.692	1856.34
465.065	1851.36
465.438	1899.05
465.81	1918.93
466.183	1919.84
466.555	1955.09
466.928	1973.17
467.3	1959.84
467.672	1979.72
468.045	2012.94
468.417	1992.38
468.789	2020.17
469.161	2016.56
469.534	2048.19
469.906	2083.67
470.278	2090.45
470.65	2123
471.022	2139.72
471.394	2201.64
471.766	2179.94
472.138	2179.04
472.51	2215.87
472.882	2224.24
473.253	2233.05
473.625	2282.54
473.997	2309.88
474.369	2329.32
474.74	2352.14
475.112	2388.75
475.484	2444.12
475.855	2438.69
476.227	2469.65
476.598	2485.02
476.97	2508.3
477.341	2564.11
477.713	2579.25
478.084	2587.84
478.455	2633.49
478.827	2626.26
479.198	2723.66
479.569	2687.05
479.94	2793.26
480.311	2767.95
480.682	2773.15
481.053	2872.35
481.424	2914.61
481.795	2934.05
482.166	2929.98
482.537	2968.17
482.908	2989.86
483.279	3039.36
483.65	3055.85
484.021	3083.2
484.391	3141.73
484.762	3109.86
485.133	3170.2
485.503	3207.71
485.874	3247.26
486.244	3291.33
486.615	3334.49
486.985	3356.86
487.356	3398.22
487.726	3417.65
488.097	3490.42
488.467	3473.92
488.837	3526.12
489.207	3518.21
489.578	3624.2
489.948	3645.67
490.318	3616.06
490.688	3690.19
491.058	3727.7
491.428	3736.06
491.798	3790.3
492.168	3832.55
492.538	3841.14
492.908	3868.71
493.278	3899.9
493.648	3887.02
494.017	3968.37
494.387	3967.47
494.757	3979.44
495.126	4054.02
495.496	3999.78
495.866	4028.48
496.235	4089.72
496.605	4094.24
496.974	4150.96
497.344	4165.65
497.713	4179.21
498.082	4202.26
498.452	4217.18
498.821	4235.93
499.19	4233.45
499.559	4275.93
499.928	4312.54
500.298	4282.03
500.667	4354.12
501.036	4311.19
501.405	4355.7
501.774	4332.88
502.143	4395.7
502.512	4430.05
502.88	4474.8
503.249	4456.27
503.618	4478.41
503.987	4481.13
504.356	4513.89
504.724	4474.57
505.093	4507.57
505.462	4560.45
505.83	4527
506.199	4621.23
506.567	4624.62
506.936	4618.07
507.304	4598.86
507.672	4686.09
508.041	4643.83
508.409	4726.99
508.777	4696.94
509.145	4748.91
509.514	4792.3
509.882	4756.6
510.25	4783.72
510.618	4787.56
510.986	4807.67
511.354	4818.52
511.722	4841.57
512.09	4832.53
512.458	4931.28
512.826	4851.74
513.193	4920.89
513.561	4913.43
513.929	4949.14
514.297	4976.93
514.664	5019.64
515.032	5000.43
515.4	5013.54
515.767	5059.87
516.135	5079.3
516.502	5030.26
516.869	5086.98
517.237	5092.63
517.604	5068.68
517.972	5068.45
518.339	5101.45
518.706	5144.61
519.073	5171.5
519.44	5159.75
519.808	5177.15
520.175	5216.25
520.542	5232.29
520.909	5190.71
521.276	5251.27
521.643	5283.36
522.009	5310.48
522.376	5314.78
522.743	5362.23
523.11	5393.64
523.477	5412.85
523.843	5443.59
524.21	5495.79
524.577	5477.03
524.943	5543.92
525.31	5537.37
525.676	5564.71
526.043	5576.92
526.409	5583.47
526.776	5681.77
527.142	5697.14
527.508	5684.48
527.874	5750.47
528.241	5779.4
528.607	5777.36
528.973	5741.43
529.339	5754.31
529.705	5903.23
530.071	5922.67
530.437	5895.78
530.803	5940.52
531.169	5915.89
531.535	5985.94
531.901	6024.81
532.267	6033.85
532.632	6050.58
532.998	6084.47
533.364	6099.39
533.73	6096.22
534.095	6158.14
534.461	6198.37
534.826	6179.39
535.192	6211.93
535.557	6287.18
535.923	6264.81
536.288	6371.02
536.653	6339.16
537.019	6311.36
537.384	6335.99
537.749	6402.88
538.114	6423.9
538.479	6418.02
538.845	6492.82
539.21	6423.45
539.575	6499.15
539.94	6508.64
540.305	6561.75
540.67	6568.53
541.034	6612.37
541.399	6629.54
541.764	6707.73
542.129	6727.62
542.494	6745.25
542.858	6794.96
543.223	6754.74
543.587	6817.33
543.952	6774.17
544.316	6832.48
544.681	6883.55
545.045	6884
545.41	6941.17
545.774	6961.29
546.138	6972.13
546.503	7013.94
546.867	6990.66
547.231	7072.02
547.595	7114.73
547.959	7100.49
548.324	7142.52
548.688	7156.31
549.052	7222.75
549.416	7191.34
549.779	7194.5
550.143	7227.04
550.507	7248.28
550.871	7243.31
551.235	7298.9
551.599	7411.67
551.962	7366.7
552.326	7358.11
552.689	7396.3
553.053	7473.36
553.417	7431.1
553.78	7509.52
554.143	7480.59
554.507	7541.16
554.87	7526.69
555.234	7566.92
555.597	7521.27
555.96	7542.06
556.323	7596.75
556.686	7607.14
557.05	7734.37
557.413	7666.8
557.776	7697.76
558.139	7736.63
558.502	7750.87
558.865	7763.98
559.228	7882.39
559.59	7822.96
559.953	7937.98
560.316	7909.51
560.679	7905.44
561.041	7990.86
561.404	7997.87
561.767	8004.65
562.129	7991.32
562.492	8100.92
562.854	8065.89
563.217	8050.07
563.579	8144.98
563.941	8157.19
564.304	8201.03
564.666	8234.47
565.028	8220.69
565.39	8255.72
565.753	8274.47
566.115	8325.32
566.477	8356.96
566.839	8356.28
567.201	8376.62
567.563	8438.08
567.925	8503.39
568.287	8550.85
568.648	8550.62
569.01	8630.85
569.372	8689.38
569.734	8645.54
570.095	8648.02
570.457	8689.6
570.819	8740.45
571.18	8780.9
571.542	8848.47
571.903	8861.35
572.265	8906.09
572.626	8947.22
572.987	8961.91
573.349	8977.96
573.71	9072.19
574.071	9074.9
574.432	9224.28
574.794	9253.2
575.155	9322.58
575.516	9390.37
575.877	9388.11
576.238	9464.95
576.599	9574.55
576.96	9645.96
577.32	9757.82
577.681	9819.52
578.042	9860.64
578.403	9962.11
578.763	10116.46
579.124	10171.14
579.485	10311.03
579.845	10448.88
580.206	10467.63
580.566	10595.77
580.927	10732.26
581.287	10912.82
581.648	11006.6
582.008	11181.29
582.368	11339.02
582.728	11459.02
583.089	11638.68
583.449	11829.18
583.809	12004.09
584.169	12206.35
584.529	12360.69
584.889	12633.68
585.249	12750.96
585.609	12924.97
585.969	13300.55
586.329	13418.07
586.688	13617.83
587.048	13826.64
587.408	14076.58
587.768	14340.75
588.127	14570.13
588.487	14808.31
588.846	15178.02
589.206	15347.96
589.565	15610.1
589.925	15880.15
590.284	16201.72
590.643	16408.27
591.003	16746.34
591.362	17125.76
591.721	17276.49
592.08	17664.73
592.44	17946.31
592.799	18251.84
593.158	18536.57
593.517	18826.96
593.876	19313.28
594.235	19384.91
594.593	19776.77
594.952	20181.73
595.311	20417.2
595.67	20659.68
596.029	21165.66
596.387	21377.18
596.746	21876.83
597.104	21937.16
597.463	22376.02
597.822	22726.97
598.18	22920.64
598.538	23283.57
598.897	23658.02
599.255	23666.16
599.613	24317.21
599.972	24579.81
600.33	24792.91
600.688	25225.21
601.046	25472.89
601.404	25795.82
601.762	26045.76
602.12	26398.51
602.478	26632.86
602.836	26971.83
603.194	27015
603.552	27412.05
603.91	27503.12
604.268	27927.51
604.625	28240.27
604.983	28582.41
605.341	28656.99
605.698	29026.69
606.056	29353.47
606.413	29520.24
606.771	29779.22
607.128	30320.9
607.485	30175.59
607.843	30595.69
608.2	30822.35
608.557	31183.02
608.914	31282
609.272	31670.69
609.629	31985.49
609.986	32314.29
610.343	32296.21
610.7	32720.16
611.057	32950.21
611.414	33016.65
611.771	33292.12
612.127	33560.36
612.484	33654.14
612.841	33887.13
613.198	33866.79
613.554	34159.21
613.911	34590.39
614.267	34736.83
614.624	34882.81
614.98	35036.25
615.337	35291.39
615.693	35377.49
616.05	35639.63
616.406	35842.79
616.762	35758.95
617.118	35991.48
617.475	36078.03
617.831	36414.52
618.187	36510.79
618.543	36745.14
618.899	36946.94
619.255	37073.94
619.611	37211.11
619.967	37300.38
620.323	37490.43
620.678	37464.66
621.034	37620.37
621.39	37665.34
621.746	37770.87
622.101	38262.16
622.457	38037.53
622.812	38130.41
623.168	38385.54
623.523	38413.79
623.879	38574.01
624.234	38447.01
624.589	38632.32
624.945	38861.24
625.3	39009.48
625.655	38854.46
626.01	39071.18
626.365	39209.93
626.72	39279.98
627.075	39227.56
627.43	39397.95
627.785	39228.46
628.14	39425.29
628.495	39494.22
628.85	39516.81
629.205	39586.42
629.559	39891.27
629.914	39667.32
630.269	39815.79
630.623	39784.6
630.978	39677.71
631.332	39999.29
631.687	40051.26
632.041	40002.23
632.396	40009.23
632.75	39895.79
633.104	40008.33
633.459	39896.69
633.813	39983.02
634.167	39913.41
634.521	40077.03
634.875	40115.67
635.229	39978.27
635.583	39813.3
635.937	39956.8
636.291	40068.66
636.645	40033.86
636.999	39948.22
637.352	40209.45
637.706	39890.59
638.06	40213.97
638.413	39891.49
638.767	40051.04
639.121	40052.85
639.474	39907.76
639.828	39841.33
640.181	40017.14
640.534	40002.23
640.888	39970.36
641.241	39649.69
641.594	39794.32
641.947	39958.38
642.301	39827.77
642.654	39971.27
643.007	39848.78
643.36	39780.54
643.713	39760.2
644.066	39988.67
644.419	39646.98
644.771	39559.75
645.124	39183.94
645.477	39148.01
645.83	39015.13
646.182	38924.06
646.535	38654.01
646.888	38791.18
647.24	38552.32
647.593	38832.09
647.945	38716.84
648.298	38515.26
648.65	38534.02
649.002	38448.82
649.355	38520.23
649.707	38597.74
650.059	38666.67
650.411	39168.12
650.763	39332.64
651.115	39524.72
651.467	39381.22
651.819	39509.36
652.171	39477.27
652.523	39480.88
652.875	39462.35
653.227	39316.14
653.578	39701.22
653.93	39479.75
654.282	39343.26
654.633	39254.45
654.985	39391.39
655.337	39447.21
655.688	39314.11
656.039	39425.52
656.391	39060.1
656.742	39125.41
657.094	39344.62
657.445	39402.47
657.796	39132.19
658.147	39120.67
658.498	39101.46
658.849	39216.03
659.2	39120.21
659.551	38935.13
659.902	39319.31
660.253	38977.39
660.604	39205.41
660.955	38943.95
661.306	39098.07
661.656	39008.58
662.007	39096.49
662.358	39058.3
662.708	39038.41
663.059	38970.39
663.409	38849.26
663.76	39009.48
664.11	39018.52
664.461	39148.24
664.811	39054.91
665.161	39001.8
665.511	38945.53
665.862	38959.77
666.212	39145.3
666.562	38984.17
666.912	38990.73
667.262	38951.86
667.612	38971.52
667.962	39019.2
668.312	38859.2
668.662	39107.56
669.011	38857.85
669.361	39037.96
669.711	38875.25
670.06	38849.71
670.41	38747.57
670.76	38721.35
671.109	38950.73
671.459	38950.05
671.808	38745.08
672.157	38967.9
672.507	38594.13
672.856	38780.11
673.205	38807.45
673.554	38969.71
673.904	38699.89
674.253	38828.7
674.602	38789.38
674.951	38325.88
675.3	38153.69
675.649	38757.51
675.998	38531.53
676.346	38672.09
676.695	38682.03
677.044	38424.64
677.393	38564.97
677.741	38612.43
678.09	38423.74
678.438	38433.23
678.787	38457.18
679.135	38595.26
679.484	38341.03
679.832	38412.21
680.181	38208.6
680.529	38247.02
680.877	38120.24
681.225	38174.02
681.573	38394.81
681.922	37959.34
682.27	37931.77
682.618	38021.03
682.966	37859.68
683.314	38085.21
683.661	37910.08
684.009	37782.62
684.357	37600.03
684.705	37524.78
685.053	37628.5
685.4	37643.87
685.748	37403.88
686.095	37435.74
686.443	37308.74
686.79	37236.42
687.138	37314.84
687.485	37378.34
687.832	37204.33
688.18	37229.42
688.527	37015.64
688.874	36959.37
689.221	36987.62
689.568	36889.54
689.915	36767.06
690.262	36789.65
690.609	36546.72
690.956	36492.49
691.303	36450.45
691.65	36360.06
691.997	36330.23
692.344	36170.24
692.69	36129.78
693.037	36128.43
693.383	35899.51
693.73	35978.6
694.077	35769.79
694.423	35669.91
694.769	35604.37
695.116	35566.64
695.462	35593.75
695.808	35413.87
696.155	35392.85
696.501	35145.86
696.847	35105.63
697.193	34991.28
697.539	35107.66
697.885	34829.03
698.231	34697.28
698.577	34735.24
698.923	34718.07
699.269	34536.61
699.614	34310.62
699.96	34345.88
700.306	34264.3
700.651	34229.95
700.997	34127.13
701.342	34058.2
701.688	34022.04
702.033	33941.82
702.379	33942.72
702.724	33752.67
703.069	33914.02
703.415	33455.28
703.76	33482.4
704.105	33554.94
704.45	33401.27
704.795	33220.26
705.14	33298.9
705.485	33177.55
705.83	33027.27
706.175	33126.93
706.52	33003.76
706.865	32853.26
707.209	32707.73
707.554	32603.78
707.899	32727.16
708.243	32596.09
708.588	32519.94
708.932	32373.05
709.277	32330.56
709.621	32395.19
709.966	32220.96
710.31	32221.19
710.654	31971.48
710.998	32023.9
711.342	31917.01
711.687	31933.96
712.031	31820.07
712.375	31667.53
712.719	31838.15
713.063	31638.15
713.407	31775.55
713.75	31597.25
714.094	31490.58
714.438	31423.47
714.782	31382.11
715.125	31171.72
715.469	31366.52
715.812	31079.07
716.156	30997.04
716.499	30991.61
716.843	31010.6
717.186	30927.21
717.53	30983.48
717.873	30901
718.216	30799.53
718.559	30645.18
718.902	30466.2
719.246	30543.04
719.589	30495.58
719.932	30311.18
720.275	30465.3
720.617	30351.18
720.96	30299.43
721.303	30278.19
721.646	30307.79
721.989	30016.95
722.331	30176.04
722.674	30151.86
723.016	30161.13
723.359	30063.73
723.701	30097.63
724.044	29869.84
724.386	29748.71
724.729	29874.81
725.071	29714.59
725.413	29794.36
725.755	29581.93
726.097	29554.36
726.439	29387.36
726.782	29481.6
727.124	29554.14
727.465	29348.04
727.807	29415.84
728.149	29369.51
728.491	29277.08
728.833	29372.9
729.175	29143.3
729.516	29149.63
729.858	29163.19
730.199	29033.93
730.541	29053.36
730.882	28908.96
731.224	29040.25
731.565	28809.98
731.906	28856.76
732.248	28892.01
732.589	28668.96
732.93	28656.99
733.271	28617.67
733.612	28577.21
733.953	28587.16
734.294	28523.66
734.635	28369.76
734.976	28475.3
735.317	28394.17
735.658	28376.99
735.999	28318.46
736.339	28265.58
736.68	28511.68
737.021	28147.17
737.361	28029.66
737.702	28247.05
738.042	28156.66
738.383	28038.92
738.723	28117.79
739.063	27991.02
739.404	28152.82
739.744	28006.61
740.084	27860.62
740.424	27814.52
740.764	27916.22
741.104	27911.7
741.444	27705.83
741.784	27659.95
742.124	27713.73
742.464	27599.16
742.804	27528.65
743.143	27456.11
743.483	27538.82
743.823	27505.15
744.162	27379.28
744.502	27371.6
744.841	27298.83
745.181	27379.51
745.52	27075.56
745.86	27285.05
746.199	27122.56
746.538	27085.73
746.877	27136.57
747.216	27010.93
747.556	26944.26
747.895	26943.36
748.234	26898.84
748.573	26783.14
748.911	26751.73
749.25	26883.47
749.589	26697.72
749.928	26742.46
750.267	26742.69
750.605	26693.65
750.944	26589.02
751.283	26505.18
751.621	26604.61
751.96	26326.65
752.298	26306.99
752.636	26337.73
752.975	26210.95
753.313	26129.82
753.651	26278.52
753.989	26111.29
754.327	26151.52
754.666	25938.41
755.004	25966.89
755.342	25965.31
755.679	25909.94
756.017	25662.94
756.355	25900
756.693	25673.56
757.031	25629.72
757.368	25464.98
757.706	25535.94
758.044	25405.09
758.381	25511.98
758.719	25316.28
759.056	25408.71
759.394	25241.71
