Data from hue_230_FLMS001491_00062.txt Node
Date: Tue Feb 07 16:37:34 GMT 2017
User: dcchb
Spectrometer: FLMS00149
Trigger mode: 0
Integration Time (sec): 2.000000E-2
Scans to average: 10
Electric dark correction enabled: true
Nonlinearity correction enabled: false
Boxcar width: 0
XAxis mode: Wavelengths
Number of Pixels in Spectrum: 2048
>>>>>Begin Spectral Data<<<<<
341.393	3.14
341.776	3.14
342.16	3.14
342.543	-54.49
342.927	-53.36
343.31	-69.86
343.693	-61.5
344.077	-73.47
344.46	-59.01
344.843	-62.63
345.226	-52.23
345.61	-30.54
345.993	-19.01
346.376	5.17
346.759	7.43
347.142	29.8
347.525	37.71
347.908	67.99
348.291	59.63
348.674	106.64
349.057	113.87
349.44	137.14
349.823	148.44
350.206	157.48
350.588	192.96
350.971	205.84
351.354	220.53
351.737	230.7
352.119	244.26
352.502	260.08
352.884	270.25
353.267	273.18
353.65	280.64
354.032	292.85
354.414	311.15
354.797	331.71
355.179	325.39
355.562	320.42
355.944	319.51
356.326	330.81
356.709	333.07
357.091	333.75
357.473	351.37
357.855	330.13
358.238	347.31
358.62	342.79
359.002	347.76
359.384	339.85
359.766	350.92
360.148	346.86
360.53	333.07
360.912	350.92
361.294	336.46
361.676	317.25
362.057	314.77
362.439	325.39
362.821	324.48
363.203	308.21
363.584	309.12
363.966	323.81
364.348	320.42
364.729	331.26
365.111	306.4
365.493	304.37
365.874	304.82
366.256	293.07
366.637	310.47
367.019	321.77
367.4	305.5
367.781	321.09
368.163	295.11
368.544	296.91
368.925	316.35
369.306	313.64
369.688	298.72
370.069	288.33
370.45	314.54
370.831	307.08
371.212	328.1
371.593	305.27
371.974	315.44
372.355	308.44
372.736	310.02
373.117	309.12
373.498	318.83
373.879	340.98
374.26	290.36
374.641	296.69
375.021	321.09
375.402	324.26
375.783	297.59
376.163	328.32
376.544	325.39
376.925	335.78
377.305	306.63
377.686	316.35
378.066	319.51
378.447	335.78
378.827	327.65
379.208	342.34
379.588	311.83
379.968	328.78
380.349	343.69
380.729	316.57
381.109	322.45
381.489	337.14
381.87	325.84
382.25	335.56
382.63	340.53
383.01	338.49
383.39	343.92
383.77	311.83
384.15	320.42
384.53	336.69
384.91	342.79
385.29	341.43
385.67	338.49
386.049	366.52
386.429	357.48
386.809	340.98
387.189	336.69
387.568	335.1
387.948	344.82
388.328	334.65
388.707	345.73
389.087	352.73
389.466	342.56
389.846	353.18
390.225	351.83
390.605	347.53
390.984	354.09
391.363	352.05
391.743	351.83
392.122	359.96
392.501	357.48
392.881	356.12
393.26	366.29
393.639	360.87
394.018	373.75
394.397	380.3
394.776	360.41
395.155	370.81
395.534	378.72
395.913	375.78
396.292	382.11
396.671	368.55
397.05	390.7
397.429	372.17
397.808	378.94
398.186	378.49
398.565	390.02
398.944	383.69
399.323	389.57
399.701	402.45
400.08	402
400.458	390.02
400.837	399.96
401.215	392.96
401.594	424.82
401.972	406.97
402.351	418.49
402.729	398.15
403.107	404.93
403.486	417.36
403.864	414.65
404.242	425.72
404.62	425.27
404.999	436.34
405.377	416.23
405.755	436.57
406.133	444.25
406.511	438.38
406.889	439.96
407.267	457.13
407.645	461.2
408.023	464.37
408.401	463.91
408.779	464.14
409.156	460.3
409.534	480.41
409.912	452.39
410.29	479.28
410.667	487.42
411.045	507.08
411.422	494.65
411.8	505.5
412.178	518.15
412.555	501.65
412.933	527.19
413.31	517.02
413.687	553.63
414.065	553.63
414.442	544.82
414.819	550.47
415.197	564.7
415.574	567.41
415.951	587.75
416.328	600.63
416.705	583.01
417.082	587.3
417.46	621.42
417.837	604.02
418.214	573.52
418.591	636.79
418.967	617.13
419.344	625.94
419.721	640.41
420.098	640.41
420.475	642.44
420.852	650.58
421.228	657.13
421.605	684.02
421.982	699.61
422.358	691.25
422.735	688.99
423.111	713.17
423.488	717.92
423.864	742.1
424.241	740.07
424.617	750.01
424.994	753.17
425.37	785.94
425.746	780.97
426.123	789.33
426.499	801.53
426.875	820.74
427.251	828.88
427.627	818.03
428.003	823.9
428.379	848.99
428.756	832.72
429.132	880.63
429.507	894.86
429.883	865.49
430.259	896.45
430.635	880.17
431.011	912.04
431.387	943.22
431.763	952.26
432.138	918.14
432.514	955.2
432.89	959.95
433.265	1003.56
433.641	988.65
434.016	1004.92
434.392	1048.08
434.767	1061.41
435.143	1046.72
435.518	1065.48
435.894	1103.45
436.269	1103.22
436.644	1140.96
437.02	1133.28
437.395	1157.23
437.77	1202.43
438.145	1224.12
438.52	1202.65
438.895	1209.21
439.271	1248.75
439.646	1271.58
440.021	1279.26
440.395	1286.94
440.77	1276.55
441.145	1304.8
441.52	1327.85
441.895	1325.59
442.27	1325.36
442.645	1366.04
443.019	1385.7
443.394	1368.3
443.769	1449.65
444.143	1397
444.518	1392.03
444.892	1409.65
445.267	1440.84
445.641	1484
446.016	1456.2
446.39	1502.31
446.764	1486.71
447.139	1484.23
447.513	1505.69
447.887	1499.37
448.262	1487.84
448.636	1503.89
449.01	1534.39
449.384	1543.21
449.758	1570.33
450.132	1596.54
450.506	1592.92
450.88	1611
451.254	1600.83
451.628	1626.6
452.002	1631.12
452.376	1671.34
452.75	1667.05
453.123	1679.7
453.497	1716.99
453.871	1707.72
454.244	1749.08
454.618	1714.73
454.992	1804.22
455.365	1790.21
455.739	1803.99
456.112	1848.51
456.486	1839.92
456.859	1897.32
457.232	1890.32
457.606	1906.14
457.979	1915.85
458.352	1949.53
458.725	1972.8
459.099	1977.77
459.472	2015.51
459.845	2024.55
460.218	2053.48
460.591	2060.03
460.964	2053.03
461.337	2136.19
461.71	2169.41
462.083	2170.31
462.456	2165.56
462.829	2202.4
463.201	2219.8
463.574	2245.79
463.947	2240.59
464.32	2273.36
464.692	2316.75
465.065	2322.4
465.438	2360.81
465.81	2386.58
466.183	2423.86
466.555	2456.86
466.928	2465.22
467.3	2421.15
467.672	2468.16
468.045	2546.12
468.417	2555.16
468.789	2568.72
469.161	2619.56
469.534	2667.92
469.906	2686.91
470.278	2694.36
470.65	2736.17
471.022	2775.04
471.394	2821.82
471.766	2848.48
472.138	2888.71
472.51	2899.1
472.882	2955.37
473.253	2961.25
473.625	3031.53
473.997	3107.91
474.369	3099.33
474.74	3107.46
475.112	3162.37
475.484	3225.2
475.855	3292.99
476.227	3265.42
476.598	3354.23
476.97	3400.79
477.341	3471.74
477.713	3523.27
478.084	3497.51
478.455	3597.84
478.827	3669.48
479.198	3732.3
479.569	3676.71
479.94	3731.63
480.311	3841.45
480.682	3898.17
481.053	3958.51
481.424	4019.08
481.795	4045.06
482.166	4112.63
482.537	4167.32
482.908	4204.15
483.279	4247.77
483.65	4303.36
484.021	4394.66
484.391	4426.07
484.762	4479.63
485.133	4479.18
485.503	4541.55
485.874	4674.2
486.244	4646.63
486.615	4697.7
486.985	4773.86
487.356	4844.82
487.726	4888.2
488.097	4972.27
488.467	5003.46
488.837	5079.16
489.207	5127.52
489.578	5153.73
489.948	5261.75
490.318	5252.71
490.688	5314.18
491.058	5364.35
491.428	5384.69
491.798	5464.23
492.168	5569.77
492.538	5516.89
492.908	5573.61
493.278	5678.01
493.648	5713.95
494.017	5737.45
494.387	5796.66
494.757	5810.21
495.126	5873.49
495.496	5888.86
495.866	5872.59
496.235	5970.89
496.605	6067.61
496.974	6057.44
497.344	6104.44
497.713	6072.35
498.082	6124.56
498.452	6174.72
498.821	6209.53
499.19	6157.1
499.559	6309.86
499.928	6354.15
500.298	6305.57
500.667	6376.08
501.036	6343.76
501.405	6433.47
501.774	6386.7
502.143	6398.22
502.512	6413.59
502.88	6499.69
503.249	6495.17
503.618	6440.48
503.987	6529.97
504.356	6541.04
504.724	6578.1
505.093	6610.42
505.462	6594.37
505.83	6630.53
506.199	6683.41
506.567	6730.42
506.936	6693.36
507.304	6837.76
507.672	6818.78
508.041	6780.36
508.409	6856.06
508.777	6856.06
509.145	6893.8
509.514	6915.04
509.882	6955.5
510.25	6937.42
510.618	6917.3
510.986	6969.28
511.354	6997.08
511.722	6974.93
512.09	7044.31
512.458	7048.6
512.826	7097.41
513.193	7061.03
513.561	7082.72
513.929	7193
514.297	7118.65
514.664	7172.21
515.032	7139.22
515.4	7242.49
515.767	7222.15
516.135	7237.07
516.502	7172.44
516.869	7246.56
517.237	7223.28
517.604	7220.35
517.972	7237.3
518.339	7284.53
518.706	7298.76
519.073	7301.7
519.44	7348.93
519.808	7384.86
520.175	7371.08
520.542	7413.56
520.909	7371.08
521.276	7428.48
521.643	7448.59
522.009	7417.4
522.376	7451.3
522.743	7463.73
523.11	7485.88
523.477	7512.99
523.843	7555.71
524.21	7543.05
524.577	7620.56
524.943	7637.29
525.31	7567.91
525.676	7602.48
526.043	7686.32
526.409	7687.68
526.776	7665.08
527.142	7653.33
527.508	7637.06
527.874	7657.85
528.241	7727
528.607	7648.58
528.973	7790.28
529.339	7722.71
529.705	7689.49
530.071	7724.29
530.437	7733.78
530.803	7788.02
531.169	7767.23
531.535	7755.47
531.901	7758.19
532.267	7776.26
532.632	7776.04
532.998	7802.93
533.364	7753.44
533.73	7712.76
534.095	7765.42
534.461	7722.71
534.826	7771.74
535.192	7767.9
535.557	7796.38
535.923	7758.86
536.288	7783.27
536.653	7776.72
537.019	7746.21
537.384	7690.84
537.749	7703.5
538.114	7688.81
538.479	7712.09
538.845	7688.36
539.21	7650.84
539.575	7663.95
539.94	7636.38
540.305	7666.21
540.67	7615.36
541.034	7608.36
541.399	7595.03
541.764	7573.56
542.129	7559.55
542.494	7558.64
542.858	7569.72
543.223	7622.14
543.587	7567.23
543.952	7489.27
544.316	7562.26
544.681	7509.6
545.045	7493.11
545.41	7494.69
545.774	7483.62
546.138	7481.36
546.503	7475.48
546.867	7385.31
547.231	7504.86
547.595	7454.47
547.959	7504.86
548.324	7441.58
548.688	7429.61
549.052	7402.71
549.416	7366.78
549.779	7350.06
550.143	7398.2
550.507	7412.43
550.871	7363.62
551.235	7350.51
551.599	7378.76
551.962	7338.99
552.326	7359.55
552.689	7340.12
553.053	7289.05
553.417	7336.5
553.78	7346.45
554.143	7330.85
554.507	7285.43
554.87	7282.72
555.234	7322.27
555.597	7335.6
555.96	7245.2
556.323	7286.11
556.686	7244.08
557.05	7294.7
557.413	7309.38
557.776	7296.5
558.139	7310.06
558.502	7292.44
558.865	7276.16
559.228	7357.29
559.59	7329.27
559.953	7310.74
560.316	7292.89
560.679	7365.43
561.041	7385.77
561.404	7334.02
561.767	7367.46
562.129	7406.1
562.492	7393.68
562.854	7368.37
563.217	7408.59
563.579	7405.88
563.941	7404.07
564.304	7415.37
564.666	7524.97
565.028	7436.84
565.39	7455.82
565.753	7531.07
566.115	7512.54
566.477	7508.25
566.839	7514.8
567.201	7612.65
567.563	7530.85
567.925	7558.42
568.287	7602.71
568.648	7645.87
569.01	7601.58
569.372	7643.16
569.734	7618.98
570.095	7630.51
570.457	7748.02
570.819	7691.52
571.18	7759.99
571.542	7744.4
571.903	7750.73
572.265	7740.33
572.626	7810.16
572.987	7796.6
573.349	7758.19
573.71	7853.55
574.071	7888.35
574.432	7881.35
574.794	7937.84
575.155	7888.8
575.516	7882.25
575.877	7949.82
576.238	7975.81
576.599	8011.29
576.96	7966.99
577.32	7938.97
577.681	8016.26
578.042	8025.98
578.403	8015.58
578.763	8012.64
579.124	8062.36
579.485	8056.26
579.845	8081.57
580.206	8075.47
580.566	8075.47
580.927	8155.92
581.287	8163.15
581.648	8167.89
582.008	8200.43
582.368	8189.36
582.728	8188.91
583.089	8230.26
583.449	8172.41
583.809	8229.59
584.169	8242.24
584.529	8217.83
584.889	8271.39
585.249	8196.59
585.609	8216.7
585.969	8271.62
586.329	8236.82
586.688	8272.75
587.048	8251.73
587.408	8301.22
587.768	8304.61
588.127	8311.62
588.487	8268
588.846	8373.76
589.206	8297.15
589.565	8336.25
589.925	8425.29
590.284	8418.73
590.643	8327.66
591.003	8426.42
591.362	8460.09
591.721	8391.62
592.08	8467.77
592.44	8423.48
592.799	8499.86
593.158	8458.05
593.517	8484.04
593.876	8514.78
594.235	8474.78
594.593	8478.39
594.952	8517.71
595.311	8522.01
595.67	8512.97
596.029	8542.8
596.387	8522.91
596.746	8609.46
597.104	8526.75
597.463	8547.54
597.822	8558.39
598.18	8577.83
598.538	8577.37
598.897	8590.71
599.255	8535.11
599.613	8682
599.972	8526.53
600.33	8707.09
600.688	8585.73
601.046	8653.08
601.404	8654.21
601.762	8668.22
602.12	8670.93
602.478	8644.94
602.836	8718.16
603.194	8625.96
603.552	8662.57
603.91	8636.81
604.268	8654.21
604.625	8673.42
604.983	8699.18
605.341	8692.4
605.698	8696.24
606.056	8715.22
606.413	8676.35
606.771	8708.22
607.128	8727.2
607.485	8698.73
607.843	8740.53
608.2	8758.84
608.557	8774.43
608.914	8735.11
609.272	8797.03
609.629	8782.79
609.986	8738.95
610.343	8688.78
610.7	8805.39
611.057	8788.22
611.414	8799.74
611.771	8742.79
612.127	8837.93
612.484	8887.42
612.841	8891.49
613.198	8806.75
613.554	8844.26
613.911	8878.61
614.267	8869.12
614.624	8872.28
614.98	8918.83
615.337	8941.43
615.693	8886.74
616.05	8837.71
616.406	8940.98
616.762	8896.91
617.118	8935.1
617.475	8888.1
617.831	8944.14
618.187	8992.5
618.543	8919.96
618.899	8997.7
619.255	8992.5
619.611	8966.29
619.967	9027.08
620.323	8999.51
620.678	8964.71
621.034	9020.3
621.39	8998.38
621.746	8966.74
622.101	9041.09
622.457	8963.35
622.812	8971.04
623.168	8973.75
623.523	9006.74
623.879	9047.64
624.234	8986.4
624.589	8974.43
624.945	9074.76
625.3	9003.58
625.655	9012.39
626.01	9080.86
626.365	8990.24
626.72	8984.82
627.075	8988.21
627.43	8983.92
627.785	8996.35
628.14	8996.12
628.495	9005.61
628.85	8905.95
629.205	8906.63
629.559	8932.84
629.914	8913.18
630.269	8917.48
630.623	8953.18
630.978	8933.97
631.332	9009
631.687	9028.66
632.041	8868.89
632.396	8944.6
632.75	8927.65
633.104	8861.66
633.459	8888.78
633.813	8889
634.167	8870.02
634.521	8806.97
634.875	8775.79
635.229	8757.26
635.583	8805.84
635.937	8798.16
636.291	8775.79
636.645	8769.01
636.999	8783.47
637.352	8808.78
637.706	8728.78
638.06	8792.06
638.413	8708.44
638.767	8659.18
639.121	8754.32
639.474	8678.61
639.828	8680.42
640.181	8712.74
640.534	8669.35
640.888	8659.63
641.241	8673.87
641.594	8653.08
641.947	8637.71
642.301	8610.37
642.654	8600.65
643.007	8608.78
643.36	8641.78
643.713	8682
644.066	8625.73
644.419	8559.52
644.771	8547.77
645.124	8376.25
645.477	8429.58
645.83	8337.83
646.182	8339.19
646.535	8341.45
646.888	8342.58
647.24	8297.15
647.593	8335.57
647.945	8226.2
648.298	8232.75
648.65	8278.17
649.002	8245.18
649.355	8293.09
649.707	8304.16
650.059	8333.09
650.411	8446.76
650.763	8392.07
651.115	8486.3
651.467	8486.53
651.819	8465.96
652.171	8475.68
652.523	8495.12
652.875	8452.18
653.227	8432.97
653.578	8462.35
653.93	8462.57
654.282	8466.19
654.633	8517.94
654.985	8444.95
655.337	8442.24
655.688	8506.19
656.039	8483.14
656.391	8353.2
656.742	8435.46
657.094	8485.4
657.445	8486.3
657.796	8414.44
658.147	8391.16
658.498	8447.89
658.849	8434.1
659.2	8383.93
659.551	8457.83
659.902	8457.83
660.253	8410.15
660.604	8484.95
660.955	8426.64
661.306	8473.2
661.656	8451.27
662.007	8512.97
662.358	8506.87
662.708	8435.91
663.059	8468
663.409	8410.6
663.76	8449.69
664.11	8443.14
664.461	8453.31
664.811	8492.4
665.161	8476.36
665.511	8456.92
665.862	8414.44
666.212	8481.1
666.562	8466.42
666.912	8465.74
667.262	8445.4
667.612	8451.95
667.962	8449.02
668.312	8472.07
668.662	8458.96
669.011	8410.82
669.361	8418.51
669.711	8415.12
670.06	8357.94
670.41	8397.04
670.76	8399.98
671.109	8446.3
671.459	8456.02
671.808	8331.5
672.157	8482.69
672.507	8348.45
672.856	8400.43
673.205	8397.04
673.554	8374.21
673.904	8375.57
674.253	8405.63
674.602	8351.16
674.951	8281.79
675.3	8208.12
675.649	8296.25
675.998	8350.03
676.346	8340.77
676.695	8357.94
677.044	8333.54
677.393	8318.4
677.741	8278.17
678.09	8267.1
678.438	8261.68
678.787	8217.38
679.135	8214.22
679.484	8154.56
679.832	8159.98
680.181	8200.43
680.529	8146.42
680.877	8134.22
681.225	8167.44
681.573	8209.93
681.922	8129.93
682.27	8074.79
682.618	8132.87
682.966	8099.65
683.314	8069.59
683.661	8079.31
684.009	8095.35
684.357	8045.18
684.705	8032.53
685.053	8029.82
685.4	7972.87
685.748	7976.71
686.095	7864.4
686.443	7885.19
686.79	7915.24
687.138	7880.89
687.485	7888.13
687.832	7842.7
688.18	7891.74
688.527	7813.55
688.874	7788.24
689.221	7815.59
689.568	7742.82
689.915	7694.23
690.262	7677.28
690.609	7765.19
690.956	7680
691.303	7632.54
691.65	7607.68
691.997	7638.64
692.344	7569.26
692.69	7541.92
693.037	7528.36
693.383	7494.69
693.73	7560.9
694.077	7435.71
694.423	7426.67
694.769	7416.5
695.116	7415.6
695.462	7428.7
695.808	7358.42
696.155	7342.6
696.501	7301.7
696.847	7273.68
697.193	7251.08
697.539	7269.39
697.885	7246.79
698.231	7252.89
698.577	7206.79
698.923	7127.02
699.269	7148.94
699.614	7070.29
699.96	7038.88
700.306	7077.07
700.651	6948.49
700.997	7030.75
701.342	7008.15
701.688	6947.13
702.033	6931.09
702.379	6916.63
702.724	6863.75
703.069	6900.36
703.415	6817.65
703.76	6821.26
704.105	6823.3
704.45	6791.88
704.795	6759.79
705.14	6688.84
705.485	6706.46
705.83	6680.47
706.175	6660.36
706.52	6632.11
706.865	6609.06
707.209	6674.6
707.554	6637.54
707.899	6631.21
708.243	6588.5
708.588	6572
708.932	6601.61
709.277	6453.14
709.621	6501.72
709.966	6495.85
710.31	6458.78
710.654	6439.12
710.998	6472.12
711.342	6453.14
711.687	6405.91
712.031	6373.59
712.375	6374.95
712.719	6388.73
713.063	6329.75
713.407	6404.55
713.75	6311.67
714.094	6311.9
714.438	6289.07
714.782	6317.32
715.125	6248.85
715.469	6351.9
715.812	6284.33
716.156	6269.64
716.499	6276.19
716.843	6279.81
717.186	6235.97
717.53	6232.12
717.873	6250.88
718.216	6203.42
718.559	6211.56
718.902	6182.63
719.246	6179.02
719.589	6149.87
719.932	6170.2
720.275	6116.42
720.617	6171.11
720.96	6121.62
721.303	6157.32
721.646	6097.21
721.989	6071.45
722.331	6099.47
722.674	6037.1
723.016	6026.93
723.359	6051.79
723.701	6088.4
724.044	6060.15
724.386	6032.81
724.729	6057.44
725.071	6076.42
725.413	6000.27
725.755	5996.65
726.097	5979.25
726.439	6017.89
726.782	5994.84
727.124	6034.39
727.465	6005.92
727.807	5984.67
728.149	5943.32
728.491	5964.33
728.833	5970.21
729.175	5956.2
729.516	5963.66
729.858	5909.42
730.199	5955.07
730.541	5946.71
730.882	5942.19
731.224	5961.17
731.565	5939.02
731.906	5950.55
732.248	5952.13
732.589	5960.04
732.93	5926.14
733.271	5958.46
733.612	5924.34
733.953	5883.66
734.294	5877.33
734.635	5911.68
734.976	5926.82
735.317	5896.09
735.658	5932.7
735.999	5875.52
736.339	5950.1
736.68	5922.3
737.021	5969.76
737.361	5952.13
737.702	5953.04
738.042	5944
738.383	5929.99
738.723	5960.72
739.063	5898.57
739.404	5928.63
739.744	5972.7
740.084	5981.51
740.424	5968.63
740.764	5978.57
741.104	6047.72
741.444	6004.79
741.784	5992.36
742.124	5986.71
742.464	6068.29
742.804	6028.97
743.143	6030.77
743.483	6045.24
743.823	6050.21
744.162	6051.79
744.502	6085.91
744.841	6118.91
745.181	6143.99
745.52	6170.2
745.86	6186.48
746.199	6141.73
746.538	6258.11
746.877	6270.09
747.216	6227.38
747.556	6264.89
747.895	6292.91
748.234	6336.98
748.573	6403.65
748.911	6457.2
749.25	6466.02
749.589	6539.91
749.928	6574.49
750.267	6606.35
750.605	6636.41
750.944	6670.08
751.283	6697.65
751.621	6852.9
751.96	6827.36
752.298	6935.38
752.636	7058.77
752.975	7038.2
753.313	7092.44
753.651	7205.66
753.989	7227.13
754.327	7329.5
754.666	7351.87
755.004	7550.96
755.342	7665.08
755.679	7666.89
756.017	7717.28
756.355	7866.66
756.693	7959.31
757.031	8093.09
757.368	8069.14
757.706	8203.82
758.044	8253.09
758.381	8483.14
758.719	8521.78
759.056	8632.97
759.394	8717.03
759.731	8843.13
760.068	8942.34
760.405	9099.62
760.743	9160.18
761.08	9339.84
761.417	9371.48
761.754	9532.15
762.091	9653.28
762.428	9741.86
762.765	9848.98
763.102	9981.63
763.438	10172.36
763.775	10212.58
764.112	10301.17
764.449	10517.89
764.785	10513.59
765.122	10613.48
765.458	10730.09
765.795	10848.5
766.131	11006.91
766.467	11064.77
766.804	11177.76
767.14	11211.88
767.476	11366.23
767.812	11505.43
768.148	11517.64
768.485	11633.79
768.821	11658.2
769.157	11790.85
769.492	11888.25
769.828	11913.1
