Data from hue_170_FLMS001491_00047.txt Node
Date: Tue Feb 07 16:48:45 GMT 2017
User: dcchb
Spectrometer: FLMS00149
Trigger mode: 0
Integration Time (sec): 2.000000E-2
Scans to average: 10
Electric dark correction enabled: true
Nonlinearity correction enabled: false
Boxcar width: 0
XAxis mode: Wavelengths
Number of Pixels in Spectrum: 2048
>>>>>Begin Spectral Data<<<<<
341.393	-1.72
341.776	-1.72
342.16	-1.72
342.543	-77.2
342.927	-71.55
343.31	-74.72
343.693	-69.74
344.077	-57.99
344.46	-52.8
344.843	-43.76
345.226	-50.76
345.61	-38.78
345.993	-19.12
346.376	7.77
346.759	-15.51
347.142	36.24
347.525	28.78
347.908	76.92
348.291	74.43
348.674	75.79
349.057	123.25
349.44	123.25
349.823	151.72
350.206	170.25
350.588	185.16
350.971	217.71
351.354	209.57
351.737	235.33
352.119	256.35
352.502	254.77
352.884	284.82
353.267	281.66
353.65	278.27
354.032	303.13
354.414	302.9
354.797	281.66
355.179	293.86
355.562	334.09
355.944	324.6
356.326	333.18
356.709	330.92
357.091	340.19
357.473	334.09
357.855	331.15
358.238	327.99
358.62	329.34
359.002	347.87
359.384	346.52
359.766	327.53
360.148	340.64
360.53	341.32
360.912	331.6
361.294	344.03
361.676	336.57
362.057	339.74
362.439	316.91
362.821	337.03
363.203	318.72
363.584	310.13
363.966	309.46
364.348	324.37
364.729	307.65
365.111	331.15
365.493	317.82
365.874	330.25
366.256	304.71
366.637	289.57
367.019	304.71
367.4	303.58
367.781	296.35
368.163	318.04
368.544	324.82
368.925	304.71
369.306	302.22
369.688	286.63
370.069	291.6
370.45	326.18
370.831	295.9
371.212	309.91
371.593	304.71
371.974	312.62
372.355	312.62
372.736	309.23
373.117	354.43
373.498	323.47
373.879	314.65
374.26	309.46
374.641	322.34
375.021	323.24
375.402	318.72
375.783	321.43
376.163	331.15
376.544	311.94
376.925	334.31
377.305	313.75
377.686	309.46
378.066	320.53
378.447	356.91
378.827	327.08
379.208	323.69
379.588	334.54
379.968	310.59
380.349	339.74
380.729	313.07
381.109	329.34
381.489	339.96
381.87	332.96
382.25	348.32
382.63	332.73
383.01	333.64
383.39	346.52
383.77	325.5
384.15	337.93
384.53	354.88
384.91	362.34
385.29	349.45
385.67	372.05
386.049	356.69
386.429	349.91
386.809	363.01
387.189	352.39
387.568	369.57
387.948	368.89
388.328	349
388.707	352.62
389.087	353.07
389.466	357.59
389.846	374.31
390.225	379.96
390.605	356.01
390.984	367.76
391.363	372.05
391.743	358.27
392.122	363.69
392.501	374.31
392.881	386.97
393.26	377.48
393.639	373.86
394.018	385.39
394.397	382.9
394.776	392.62
395.155	389.91
395.534	406.4
395.913	389.23
396.292	393.52
396.671	363.47
397.05	393.75
397.429	388.1
397.808	412.96
398.186	401.66
398.565	407.76
398.944	393.75
399.323	382
399.701	400.98
400.08	414.76
400.458	420.19
400.837	405.27
401.215	422.67
401.594	421.32
401.972	421.54
402.351	415.44
402.729	417.47
403.107	434.42
403.486	436.91
403.864	431.03
404.242	422.22
404.62	434.2
404.999	439.17
405.377	437.81
405.755	440.53
406.133	454.31
406.511	442.56
406.889	452.5
407.267	467.42
407.645	477.81
408.023	463.12
408.401	459.73
408.779	452.05
409.156	501.77
409.534	477.36
409.912	492.73
410.29	472.16
410.667	492.95
411.045	524.82
411.422	519.85
411.8	505.83
412.178	520.98
412.555	525.95
412.933	526.4
413.31	530.01
413.687	543.35
414.065	536.34
414.442	561.43
414.819	569.56
415.197	551.93
415.574	548.09
415.951	575.21
416.328	565.95
416.705	595.55
417.082	591.48
417.46	599.84
417.837	581.54
418.214	597.81
418.591	595.78
418.967	602.55
419.344	597.81
419.721	607.53
420.098	614.31
420.475	622.44
420.852	618.83
421.228	633.29
421.605	637.13
421.982	664.47
422.358	649.33
422.735	668.54
423.111	669.22
423.488	655.89
423.864	686.17
424.241	689.33
424.617	704.92
424.994	705.83
425.37	715.32
425.746	711.7
426.123	737.92
426.499	714.42
426.875	746.05
427.251	739.5
427.627	754.19
428.003	767.3
428.379	771.82
428.756	775.21
429.132	788.54
429.507	770.01
429.883	807.3
430.259	788.99
430.635	816.79
431.011	818.14
431.387	842.55
431.763	825.37
432.138	866.28
432.514	864.69
432.89	871.47
433.265	903.56
433.641	888.65
434.016	902.89
434.392	922.32
434.767	915.54
435.143	936.33
435.518	937.91
435.894	946.73
436.269	979.72
436.644	993.5
437.02	991.7
437.395	977.01
437.77	1002.77
438.145	1052.49
438.52	1020.4
438.895	1053.16
439.271	1065.59
439.646	1083.45
440.021	1075.54
440.395	1092.03
440.77	1091.81
441.145	1088.19
441.52	1138.13
441.895	1127.51
442.27	1160.28
442.645	1141.3
443.019	1156.66
443.394	1169.55
443.769	1156.21
444.143	1181.3
444.518	1190.34
444.892	1184.01
445.267	1215.42
445.641	1240.96
446.016	1234.4
446.39	1221.3
446.764	1260.39
447.139	1245.7
447.513	1259.94
447.887	1259.26
448.262	1290.45
448.636	1297.68
449.01	1304.91
449.384	1315.98
449.758	1324.57
450.132	1368.41
450.506	1331.12
450.88	1358.92
451.254	1375.42
451.628	1386.71
452.002	1382.87
452.376	1409.77
452.75	1415.87
453.123	1470.78
453.497	1437.34
453.871	1474.17
454.244	1494.73
454.618	1496.77
454.992	1523.89
455.365	1534.28
455.739	1572.02
456.112	1556.65
456.486	1584.45
456.859	1622.64
457.232	1639.14
457.606	1655.63
457.979	1661.96
458.352	1679.59
458.725	1712.58
459.099	1706.93
459.472	1759.13
459.845	1788.74
460.218	1799.13
460.591	1800.49
460.964	1820.15
461.337	1884.78
461.71	1906.25
462.083	1921.16
462.456	1941.95
462.829	1953.48
463.201	1975.85
463.574	1993.7
463.947	2034.38
464.32	2077.77
464.692	2115.06
465.065	2135.85
465.438	2141.95
465.81	2216.52
466.183	2211.78
466.555	2311.89
466.928	2315.73
467.3	2310.08
467.672	2341.49
468.045	2421.72
468.417	2445.44
468.789	2439.79
469.161	2480.47
469.534	2531.54
469.906	2628.94
470.278	2625.55
470.65	2729.05
471.022	2765.66
471.394	2780.8
471.766	2830.74
472.138	2859.44
472.51	2901.7
472.882	3034.13
473.253	3025.54
473.625	3102.15
473.997	3158.87
474.369	3191.64
474.74	3270.73
475.112	3317.06
475.484	3414.23
475.855	3483.83
476.227	3578.75
476.598	3601.35
476.97	3699.42
477.341	3796.37
477.713	3877.95
478.084	3937.16
478.455	4051.73
478.827	4093.31
479.198	4268.9
479.569	4232.74
479.94	4449.46
480.311	4470.48
480.682	4596.57
481.053	4756.8
481.424	4782.33
481.795	4905.27
482.166	5074.08
482.537	5160.18
482.908	5265.71
483.279	5344.8
483.65	5482.88
484.021	5648.3
484.391	5690.1
484.762	5831.12
485.133	5876.77
485.503	6080.83
485.874	6241.05
486.244	6284.44
486.615	6414.15
486.985	6528.73
487.356	6712.9
487.726	6803.07
488.097	6979.56
488.467	7047.36
488.837	7216.84
489.207	7363.28
489.578	7499.32
489.948	7591.52
490.318	7724.4
490.688	7848.24
491.058	8023.38
491.428	8139.31
491.798	8255.46
492.168	8482.12
492.538	8454.78
492.908	8642.57
493.278	8832.39
493.648	8830.59
494.017	9059.51
494.387	9127.75
494.757	9156
495.126	9367.52
495.496	9337.92
495.866	9511.7
496.235	9648.64
496.605	9748.3
496.974	9818.13
497.344	9941.29
497.713	10003.66
498.082	10142.87
498.452	10259.02
498.821	10286.14
499.19	10407.95
499.559	10424.9
499.928	10554.61
500.298	10635.51
500.667	10762.06
501.036	10756.41
501.405	10790.08
501.774	10934.49
502.143	10968.38
502.512	11054.26
502.88	11134.93
503.249	11153.69
503.618	11238.43
503.987	11286.79
504.356	11363.63
504.724	11363.63
505.093	11466.68
505.462	11466.45
505.83	11589.16
506.199	11666.67
506.567	11863.05
506.936	11812.43
507.304	11914.35
507.672	11893.33
508.041	12005.42
508.409	12026.89
508.777	12122.03
509.145	12274.56
509.514	12231.85
509.882	12258.75
510.25	12217.84
510.618	12305.75
510.986	12409.7
511.354	12498.06
511.722	12533.54
512.09	12517.5
512.458	12609.92
512.826	12703.71
513.193	12678.85
513.561	12717.49
513.929	12762.91
514.297	12865.28
514.664	12924.49
515.032	12932.85
515.4	13017.37
515.767	12986.64
516.135	13039.97
516.502	12943.7
516.869	13149.8
517.237	13121.1
517.604	13070.48
517.972	13111.15
518.339	13225.95
518.706	13123.81
519.073	13181.89
519.44	13189.57
519.808	13341.88
520.175	13358.83
520.542	13503.46
520.909	13451.93
521.276	13368.09
521.643	13458.94
522.009	13568.77
522.376	13576.68
522.743	13546.62
523.11	13703
523.477	13752.94
523.843	13744.36
524.21	13833.17
524.577	13831.81
524.943	13756.33
525.31	13879.95
525.676	13969.89
526.043	13827.97
526.409	13892.83
526.776	14095.31
527.142	13980.28
527.508	13932.37
527.874	14090.11
528.241	14132.59
528.607	14019.6
528.973	14127.62
529.339	14040.39
529.705	14221.63
530.071	14218.92
530.437	14125.36
530.803	14163.1
531.169	14222.31
531.535	13982.77
531.901	14025.93
532.267	14021.64
532.632	14139.83
532.998	14080.17
533.364	14062.99
533.73	14108.19
534.095	14081.07
534.461	14089.66
534.826	14088.75
535.192	14011.69
535.557	14067.96
535.923	13978.47
536.288	14011.69
536.653	14077.68
537.019	13862.09
537.384	13942.09
537.749	13898.7
538.114	13868.87
538.479	13842.66
538.845	13790.91
539.21	13764.24
539.575	13666.62
539.94	13718.14
540.305	13727.86
540.67	13625.49
541.034	13614.87
541.399	13615.55
541.764	13608.54
542.129	13640.18
542.494	13479.73
542.858	13491.93
543.223	13375.55
543.587	13466.62
543.952	13402.44
544.316	13352.73
544.681	13309.57
545.045	13325.38
545.41	13282.67
545.774	13267.76
546.138	13191.38
546.503	13102.34
546.867	13073.64
547.231	13170.36
547.595	13063.7
547.959	13090.14
548.324	12996.35
548.688	12902.12
549.052	12985.96
549.416	12887.43
549.779	12804.72
550.143	12877.26
550.507	12818.28
550.871	12804.49
551.235	12730.6
551.599	12732.63
551.962	12619.64
552.326	12706.64
552.689	12625.74
553.053	12583.26
553.417	12552.3
553.78	12746.42
554.143	12552.07
554.507	12536.03
554.87	12493.77
555.234	12625.74
555.597	12464.39
555.96	12524.05
556.323	12432.53
556.686	12477.95
557.05	12483.82
557.413	12464.62
557.776	12406.09
558.139	12441.34
558.502	12387.33
558.865	12445.41
559.228	12433.66
559.59	12455.35
559.953	12413.54
560.316	12534.67
560.679	12381.23
561.041	12428.68
561.404	12423.71
561.767	12445.63
562.129	12397.27
562.492	12432.53
562.854	12413.09
563.217	12441.11
563.579	12396.59
563.941	12433.88
564.304	12516.82
564.666	12489.02
565.028	12389.59
565.39	12417.16
565.753	12490.38
566.115	12533.31
566.477	12458.74
566.839	12401.79
567.201	12571.73
567.563	12632.97
567.925	12621.67
568.287	12573.31
568.648	12590.71
569.01	12633.42
569.372	12669.13
569.734	12562.92
570.095	12660.99
570.457	12584.16
570.819	12621
571.18	12619.19
571.542	12700.77
571.903	12615.57
572.265	12688.11
572.626	12640.2
572.987	12688.79
573.349	12740.99
573.71	12710.49
574.071	12661.22
574.432	12717.72
574.794	12835.68
575.155	12760.65
575.516	12730.15
575.877	12832.74
576.238	12822.35
576.599	12797.49
576.96	12828.9
577.32	12794.55
577.681	12820.99
578.042	12857.83
578.403	12753.42
578.763	12741.44
579.124	12836.36
579.485	12790.03
579.845	12886.75
580.206	12791.16
580.566	12818.5
580.927	12747.55
581.287	12861.89
581.648	12776.7
582.008	12848.79
582.368	12678.17
582.728	12766.08
583.089	12719.07
583.449	12776.25
583.809	12825.06
584.169	12765.4
584.529	12707.77
584.889	12765.85
585.249	12734.21
585.609	12745.74
585.969	12763.36
586.329	12749.35
586.688	12709.13
587.048	12666.87
587.408	12620.09
587.768	12689.47
588.127	12623.26
588.487	12651.28
588.846	12662.12
589.206	12628.91
589.565	12642.01
589.925	12715.46
590.284	12615.8
590.643	12614.89
591.003	12606.98
591.362	12663.48
591.721	12664.61
592.08	12484.73
592.44	12593.2
592.799	12601.11
593.158	12550.94
593.517	12582.58
593.876	12556.59
594.235	12526.31
594.593	12479.08
594.952	12556.59
595.311	12516.59
595.67	12480.21
596.029	12584.61
596.387	12545.07
596.746	12596.82
597.104	12482.92
597.463	12492.86
597.822	12531.51
598.18	12477.72
598.538	12421.68
598.897	12546.42
599.255	12413.77
599.613	12586.65
599.972	12461.23
600.33	12518.17
600.688	12467.55
601.046	12522.24
601.404	12530.83
601.762	12453.54
602.12	12530.83
602.478	12497.61
602.836	12531.05
603.194	12501.9
603.552	12491.96
603.91	12411.74
604.268	12418.52
604.625	12365.18
604.983	12555.91
605.341	12458.97
605.698	12535.8
606.056	12454.9
606.413	12478.85
606.771	12547.78
607.128	12514.11
607.485	12511.17
607.843	12489.7
608.2	12551.85
608.557	12595.01
608.914	12541
609.272	12606.53
609.629	12547.33
609.986	12653.09
610.343	12519.98
610.7	12549.81
611.057	12639.53
611.414	12607.66
611.771	12628.68
612.127	12673.2
612.484	12677.27
612.841	12686.53
613.198	12634.33
613.554	12645.18
613.911	12685.4
614.267	12624.61
614.624	12626.19
614.98	12681.56
615.337	12784.83
615.693	12717.94
616.05	12665.97
616.406	12729.24
616.762	12693.54
617.118	12679.3
617.475	12646.98
617.831	12806.75
618.187	12811.95
618.543	12704.38
618.899	12838.39
619.255	12829.35
619.611	12814.66
619.967	12792.97
620.323	12842.01
620.678	12774.21
621.034	12776.47
621.39	12774.21
621.746	12756.36
622.101	12979.63
622.457	12846.98
622.812	12749.58
623.168	12846.3
623.523	12752.52
623.879	12863.02
624.234	12872.74
624.589	12837.94
624.945	12853.53
625.3	12859.18
625.655	12876.58
626.01	12797.49
626.365	12755.68
626.72	12786.87
627.075	12802.01
627.43	12849.24
627.785	12770.82
628.14	12794.55
628.495	12744.61
628.85	12741.9
629.205	12729.02
629.559	12806.53
629.914	12718.85
630.269	12723.14
630.623	12764.72
630.978	12670.71
631.332	12721.78
631.687	12697.83
632.041	12654.67
632.396	12666.64
632.75	12604.27
633.104	12658.51
633.459	12600.88
633.813	12512.98
634.167	12580.77
634.521	12604.05
634.875	12597.04
635.229	12568.57
635.583	12519.98
635.937	12450.38
636.291	12447.22
636.645	12470.94
636.999	12446.09
637.352	12488.12
637.706	12369.25
638.06	12445.63
638.413	12343.71
638.767	12350.49
639.121	12323.6
639.474	12364.28
639.828	12275.02
640.181	12363.83
640.534	12360.66
640.888	12378.52
641.241	12318.4
641.594	12327.22
641.947	12257.62
642.301	12226.88
642.654	12376.93
643.007	12252.19
643.36	12240.44
643.713	12095.59
644.066	12324.28
644.419	12161.57
644.771	12195.47
645.124	12011.52
645.477	11956.61
645.83	11883.39
646.182	11922.94
646.535	11816.72
646.888	11880.22
647.24	11824.86
647.593	11893.33
647.945	11833.67
648.298	11809.72
648.65	11802.49
649.002	11750.28
649.355	11788.02
649.707	11835.71
650.059	11871.41
650.411	11979.2
650.763	12002.71
651.115	12157.73
651.467	12002.93
651.819	12050.39
652.171	12039.99
652.523	12080.9
652.875	12037.96
653.227	11932.43
653.578	12074.8
653.93	12022.14
654.282	12008.81
654.633	12000.9
654.985	12088.58
655.337	12082.03
655.688	12060.11
656.039	12072.99
656.391	11923.61
656.742	12097.85
657.094	12047.9
657.445	12112.76
657.796	12075.47
658.147	12053.78
658.498	12053.1
658.849	12017.4
659.2	11988.02
659.551	12016.04
659.902	12064.85
660.253	12064.85
660.604	12080.22
660.955	12009.49
661.306	12043.16
661.656	12047
662.007	12036.15
662.358	11988.47
662.708	12080.9
663.059	12089.94
663.409	11978.3
663.76	12059.43
664.11	12153.89
664.461	12092.42
664.811	12106.43
665.161	12141.69
665.511	12078.86
665.862	12084.51
666.212	12111.63
666.562	12105.98
666.912	12073.44
667.262	12171.29
667.612	12051.97
667.962	12154.57
668.312	12095.36
668.662	12233.89
669.011	12145.98
669.361	12049.49
669.711	12113.89
670.06	12071.86
670.41	12141.91
670.76	12015.36
671.109	12052.2
671.459	12093.78
671.808	12108.69
672.157	12143.95
672.507	11957.06
672.856	12041.12
673.205	12005.42
673.554	12016.04
673.904	12000.22
674.253	12061.01
674.602	11951.41
674.951	11849.94
675.3	11771.98
675.649	11945.53
675.998	11924.97
676.346	11966.78
676.695	11904.18
677.044	11832.99
677.393	11875.03
677.741	11849.04
678.09	11907.57
678.438	11877.06
678.787	11880
679.135	11969.94
679.484	11803.16
679.832	11809.72
680.181	11701.02
680.529	11709.61
680.877	11634.13
681.225	11677.07
681.573	11778.31
681.922	11673.22
682.27	11546.67
682.618	11623.28
682.966	11607.46
683.314	11606.33
683.661	11579.22
684.009	11565.66
684.357	11512.1
684.705	11430.74
685.053	11467.58
685.4	11467.13
685.748	11433.68
686.095	11375.6
686.443	11331.31
686.79	11376.28
687.138	11340.8
687.485	11349.39
687.832	11281.82
688.18	11289.51
688.527	11240.02
688.874	11188.27
689.221	11132.22
689.568	11080.47
689.915	11116.63
690.262	11093.8
690.609	11056.07
690.956	11025.11
691.303	10951.21
691.65	10884.32
691.997	10926.8
692.344	10782.63
692.69	10828.5
693.037	10793.02
693.383	10693.14
693.73	10784.43
694.077	10675.96
694.423	10706.02
694.769	10609.75
695.116	10656.3
695.462	10591.22
695.808	10580.6
696.155	10561.39
696.501	10395.52
696.847	10419.92
697.193	10343.99
697.539	10394.84
697.885	10285.69
698.231	10332.24
698.577	10280.49
698.923	10204.11
699.269	10153.72
699.614	10105.58
699.96	10114.4
700.306	10102.87
700.651	9987.84
700.997	10044.34
701.342	9925.7
701.688	9932.25
702.033	9913.5
702.379	9898.58
702.724	9852.93
703.069	9898.81
703.415	9692.03
703.76	9713.95
704.105	9710.34
704.45	9689.32
704.795	9601.41
705.14	9631.02
705.485	9577.91
705.83	9563
706.175	9567.06
706.52	9449.33
706.865	9482.1
707.209	9426.5
707.554	9373.85
707.899	9446.16
708.243	9327.3
708.588	9351.48
708.932	9272.38
709.277	9276
709.621	9297.92
709.966	9233.97
710.31	9242.33
710.654	9207.53
710.998	9124.14
711.342	9106.74
711.687	9144.93
712.031	9083.01
712.375	9035.55
712.719	9061.09
713.063	9080.52
713.407	9019.28
713.75	8949.91
714.094	9001.43
714.438	8932.05
714.782	8942
715.125	8922.56
715.469	8925.5
715.812	8859.06
716.156	8827.88
716.499	8879.4
716.843	8823.81
717.186	8798.95
717.53	8892.73
717.873	8826.52
718.216	8769.8
718.559	8759.4
718.902	8742.68
719.246	8783.58
719.589	8679.4
719.932	8694.55
720.275	8701.32
720.617	8727.54
720.96	8681.21
721.303	8754.88
721.646	8669.91
721.989	8636.92
722.331	8662
722.674	8596.47
723.016	8598.73
723.359	8595.56
723.701	8618.62
724.044	8602.12
724.386	8541.1
724.729	8522.12
725.071	8565.74
725.413	8614.77
725.755	8596.02
726.097	8485.96
726.439	8438.73
726.782	8441.9
727.124	8521.67
727.465	8506.08
727.807	8477.38
728.149	8451.84
728.491	8516.47
728.833	8522.8
729.175	8513.31
729.516	8459.3
729.858	8456.36
730.199	8513.31
730.541	8456.81
730.882	8429.02
731.224	8486.87
731.565	8436.47
731.906	8484.83
732.248	8428.34
732.589	8384.95
732.93	8451.16
733.271	8453.65
733.612	8400.77
733.953	8442.35
734.294	8453.87
734.635	8464.72
734.976	8476.02
735.317	8425.17
735.658	8490.26
735.999	8489.13
736.339	8444.61
736.68	8429.47
737.021	8450.48
737.361	8381.11
737.702	8471.95
738.042	8446.42
738.383	8442.8
738.723	8488.9
739.063	8462.46
739.404	8531.39
739.744	8519.63
740.084	8460.65
740.424	8512.4
740.764	8440.77
741.104	8516.25
741.444	8498.39
741.784	8554.89
742.124	8584.72
742.464	8536.81
742.804	8568.9
743.143	8585.17
743.483	8683.02
743.823	8672.63
744.162	8675.56
744.502	8746.97
744.841	8745.62
745.181	8800.08
745.52	8802.34
745.86	8810.7
746.199	8835.11
746.538	8854.09
746.877	8981.77
747.216	8995.33
747.556	9032.39
747.895	9048.66
748.234	9070.13
748.573	9211.82
748.911	9215.89
749.25	9308.77
749.589	9304.25
749.928	9428.76
750.267	9488.42
750.605	9551.7
750.944	9564.58
751.283	9643.22
751.621	9740.17
751.96	9840.28
752.298	9899.03
752.636	10001.18
752.975	10054.06
753.313	10122.98
753.651	10325.24
753.989	10349.64
754.327	10465.8
754.666	10593.25
755.004	10647.49
755.342	10868.73
755.679	10974.26
756.017	11028.72
756.355	11223.97
756.693	11267.36
757.031	11492.21
757.368	11556.17
757.706	11672.55
758.044	11839.77
758.381	12132.65
