Data from hue_180_FLMS001491_00037.txt Node
Date: Tue Feb 07 16:46:54 GMT 2017
User: dcchb
Spectrometer: FLMS00149
Trigger mode: 0
Integration Time (sec): 2.000000E-2
Scans to average: 10
Electric dark correction enabled: true
Nonlinearity correction enabled: false
Boxcar width: 0
XAxis mode: Wavelengths
Number of Pixels in Spectrum: 2048
>>>>>Begin Spectral Data<<<<<
341.393	-10.72
341.776	-10.72
342.16	-10.72
342.543	-65.86
342.927	-92.53
343.31	-63.6
343.693	-77.84
344.077	-79.19
344.46	-48.01
344.843	-27.67
345.226	-45.07
345.61	-16.37
345.993	-19.08
346.376	2.61
346.759	8.94
347.142	9.84
347.525	31.76
347.908	60.24
348.291	60.69
348.674	94.14
349.057	108.6
349.44	122.38
349.823	132.33
350.206	148.6
350.588	173
350.971	210.52
351.354	229.05
351.737	239.44
352.119	224.75
352.502	264.53
352.884	286.67
353.267	267.92
353.65	283.51
354.032	290.51
354.414	316.28
354.797	302.49
355.179	314.02
355.562	309.05
355.944	330.51
356.326	320.12
356.709	335.03
357.091	349.27
357.473	347.46
357.855	335.49
358.238	359.44
358.62	349.04
359.002	354.69
359.384	323.96
359.766	322.6
360.148	336.16
360.53	336.39
360.912	328.71
361.294	321.93
361.676	329.61
362.057	329.84
362.439	314.24
362.821	311.31
363.203	347.46
363.584	326.67
363.966	328.93
364.348	320.8
364.729	335.49
365.111	323.73
365.493	321.47
365.874	315.6
366.256	323.51
366.637	324.64
367.019	316.05
367.4	293.45
367.781	303.4
368.163	307.01
368.544	312.66
368.925	308.37
369.306	317.41
369.688	331.42
370.069	318.08
370.45	321.47
370.831	315.37
371.212	319.21
371.593	314.02
371.974	302.04
372.355	332.1
372.736	316.73
373.117	310.63
373.498	344.98
373.879	309.72
374.26	311.31
374.641	320.12
375.021	312.21
375.402	323.96
375.783	306.11
376.163	293.23
376.544	330.74
376.925	322.83
377.305	343.39
377.686	317.63
378.066	338.2
378.447	321.02
378.827	342.49
379.208	330.51
379.588	334.58
379.968	330.97
380.349	339.1
380.729	333.23
381.109	332.55
381.489	344.75
381.87	318.76
382.25	334.58
382.63	335.49
383.01	345.65
383.39	322.38
383.77	341.59
384.15	351.98
384.53	342.94
384.91	339.78
385.29	337.07
385.67	370.51
386.049	357.41
386.429	331.64
386.809	353.11
387.189	338.42
387.568	371.42
387.948	361.47
388.328	358.99
388.707	356.95
389.087	367.8
389.466	357.18
389.846	361.25
390.225	350.17
390.605	360.34
390.984	373.9
391.363	363.96
391.743	356.05
392.122	358.08
392.501	386.78
392.881	364.86
393.26	381.81
393.639	363.28
394.018	380.46
394.397	374.58
394.776	379.55
395.155	379.33
395.534	385.88
395.913	389.04
396.292	411.42
396.671	376.16
397.05	407.57
397.429	383.17
397.808	401.7
398.186	399.21
398.565	388.59
398.944	412.09
399.323	380
399.701	401.92
400.08	405.09
400.458	428.82
400.837	427.69
401.215	432.66
401.594	410.96
401.972	426.1
402.351	439.89
402.729	449.15
403.107	417.52
403.486	444.41
403.864	431.53
404.242	426.56
404.62	441.02
404.999	451.64
405.377	447.35
405.755	434.92
406.133	446.22
406.511	469.72
406.889	492.54
407.267	474.01
407.645	472.43
408.023	466.56
408.401	499.55
408.779	489.83
409.156	509.27
409.534	504.29
409.912	490.96
410.29	500.45
410.667	530.06
411.045	523.5
411.422	518.76
411.8	528.25
412.178	540.9
412.555	527.8
412.933	579.09
413.31	548.81
413.687	563.95
414.065	597.63
414.442	564.41
414.819	578.19
415.197	584.52
415.574	617.06
415.951	601.47
416.328	611.64
416.705	617.06
417.082	643.73
417.46	631.97
417.837	646.89
418.214	650.96
418.591	668.13
418.967	674.69
419.344	646.21
419.721	672.65
420.098	685.08
420.475	700.67
420.852	695.93
421.228	706.1
421.605	690.28
421.982	731.63
422.358	738.86
422.735	747.23
423.111	743.61
423.488	773.67
423.864	784.74
424.241	796.94
424.617	789.48
424.994	807.11
425.37	799.65
425.746	826.09
426.123	841.91
426.499	837.39
426.875	844.17
427.251	871.97
427.627	895.02
428.003	904.74
428.379	896.6
428.756	898.18
429.132	928.46
429.507	922.59
429.883	947.22
430.259	953.1
430.635	976.37
431.011	991.97
431.387	980.89
431.763	981.12
432.138	999.2
432.514	1040.33
432.89	1045.3
433.265	1050.95
433.641	1066.54
434.016	1083.26
434.392	1096.37
434.767	1127.78
435.143	1139.76
435.518	1160.32
435.894	1186.54
436.269	1198.51
436.644	1205.97
437.02	1220.21
437.395	1252.52
437.77	1257.95
438.145	1279.64
438.52	1278.74
438.895	1301.11
439.271	1299.75
439.646	1332.07
440.021	1404.38
440.395	1391.95
440.77	1345.18
441.145	1393.76
441.52	1414.33
441.895	1435.8
442.27	1440.77
442.645	1493.87
443.019	1488.9
443.394	1478.73
443.769	1509.69
444.143	1508.11
444.518	1549.24
444.892	1518.05
445.267	1560.31
445.641	1565.74
446.016	1570.03
446.39	1590.59
446.764	1590.37
447.139	1594.66
447.513	1639.86
447.887	1633.3
448.262	1650.71
448.636	1675.34
449.01	1673.08
449.384	1690.93
449.758	1693.19
450.132	1702.68
450.506	1757.14
450.88	1751.72
451.254	1745.62
451.628	1788.33
452.002	1781.1
452.376	1814.77
452.75	1838.95
453.123	1847.31
453.497	1897.03
453.871	1903.35
454.244	1915.33
454.618	1948.32
454.992	1944.48
455.365	1993.75
455.739	2014.76
456.112	2033.75
456.486	2059.96
456.859	2081.88
457.232	2148.55
457.606	2135.89
457.979	2168.21
458.352	2184.93
458.725	2245.94
459.099	2263.57
459.472	2295.43
459.845	2325.72
460.218	2327.07
460.591	2392.61
460.964	2376.79
461.337	2465.15
461.71	2466.73
462.083	2492.26
462.456	2500.4
462.829	2499.04
463.201	2569.33
463.574	2573.17
463.947	2631.7
464.32	2683.45
464.692	2711.47
465.065	2750.34
465.438	2789.43
465.81	2845.48
466.183	2856.78
466.555	2956.89
466.928	2936.1
467.3	2967.05
467.672	2962.76
468.045	3097.45
468.417	3061.74
468.789	3151.91
469.161	3160.95
469.534	3289.53
469.906	3282.98
470.278	3299.93
470.65	3351.68
471.022	3431.45
471.394	3525.91
471.766	3540.15
472.138	3629.86
472.51	3710.76
472.882	3740.82
473.253	3798.9
473.625	3851.78
473.997	3938.55
474.369	3991.43
474.74	4032.56
475.112	4096.74
475.484	4180.13
475.855	4287.25
476.227	4319.79
476.598	4419.45
476.97	4508.03
477.341	4592.1
477.713	4686.78
478.084	4737.4
478.455	4847.91
478.827	4961.35
479.198	5075.25
479.569	5122.48
479.94	5240.89
480.311	5310.04
480.682	5407.67
481.053	5574.9
481.424	5645.85
481.795	5750.26
482.166	5827.32
482.537	5945.96
482.908	6035
483.279	6123.58
483.65	6263.92
484.021	6402.22
484.391	6555.43
484.762	6534.19
485.133	6678.82
485.503	6751.14
485.874	6892.6
486.244	6959.49
486.615	7183.89
486.985	7214.85
487.356	7397.9
487.726	7449.42
488.097	7608.06
488.467	7667.72
488.837	7858.23
489.207	7934.16
489.578	8011.89
489.948	8173.7
490.318	8271.1
490.688	8277.2
491.058	8391.09
491.428	8594.7
491.798	8710.86
492.168	8787.69
492.538	8870.4
492.908	8979.1
493.278	9123.28
493.648	9191.98
494.017	9295.02
494.387	9390.39
494.757	9415.02
495.126	9550.38
495.496	9559.88
495.866	9667.67
496.235	9761.45
496.605	9860.88
496.974	9965.97
497.344	9983.14
497.713	10068.11
498.082	10067.88
498.452	10194.66
498.821	10260.42
499.19	10275.34
499.559	10361.66
499.928	10458.16
500.298	10488.44
500.667	10572.73
501.036	10529.12
501.405	10673.29
501.774	10614.99
502.143	10692.5
502.512	10758.49
502.88	10802.1
503.249	10856.11
503.618	10950.57
503.987	10924.81
504.356	11024.7
504.724	11005.71
505.093	11045.94
505.462	11123.9
505.83	11172.71
506.199	11258.59
506.567	11346.04
506.936	11299.27
507.304	11438.7
507.672	11379.71
508.041	11496.32
508.409	11530.22
508.777	11526.38
509.145	11626.71
509.514	11592.82
509.882	11603.44
510.25	11644.57
510.618	11705.13
510.986	11727.05
511.354	11749.2
511.722	11807.05
512.09	11917.55
512.458	11879.81
512.826	11946.71
513.193	11966.14
513.561	12026.48
513.929	12016.99
514.297	12086.59
514.664	12179.24
515.032	12088.62
515.4	12220.82
515.767	12168.85
516.135	12233.7
516.502	12044.1
516.869	12295.85
517.237	12249.75
517.604	12210.43
517.972	12325.23
518.339	12352.34
518.706	12295.4
519.073	12318
519.44	12406.58
519.808	12429.18
520.175	12378.56
520.542	12511.21
520.909	12556.86
521.276	12504.21
521.643	12521.83
522.009	12570.19
522.376	12625.33
522.743	12712.79
523.11	12656.97
523.477	12655.84
523.843	12705.1
524.21	12715.05
524.577	12861.03
524.943	12788.27
525.31	12776.29
525.676	12876.4
526.043	12930.18
526.409	12847.92
526.776	12945.55
527.142	12899
527.508	12887.7
527.874	12887.7
528.241	12977.19
528.607	12901.03
528.973	12944.87
529.339	13008.37
529.705	12857.19
530.071	13009.5
530.437	12932.89
530.803	12892.44
531.169	13016.51
531.535	12805.67
531.901	12762.05
532.267	12859.45
532.632	12754.37
532.998	12946.91
533.364	12776.74
533.73	12788.27
534.095	12819.45
534.461	12770.41
534.826	12814.93
535.192	12784.2
535.557	12848.38
535.923	12673.01
536.288	12586.24
536.653	12677.31
537.019	12595.95
537.384	12662.17
537.749	12543.75
538.114	12588.04
538.479	12516.63
538.845	12481.38
539.21	12373.59
539.575	12397.09
539.94	12411.55
540.305	12371.78
540.67	12290.88
541.034	12221.05
541.399	12249.97
541.764	12240.03
542.129	12151.9
542.494	12056.53
542.858	12186.7
543.223	12052.92
543.587	12007.95
543.952	11957.1
544.316	11928.63
544.681	11903.54
545.045	11839.36
545.41	11867.16
545.774	11791.46
546.138	11808.63
546.503	11729.76
546.867	11661.52
547.231	11680.72
547.595	11623.32
547.959	11649.09
548.324	11617.67
548.688	11522.31
549.052	11424.46
549.416	11452.03
549.779	11339.49
550.143	11355.99
550.507	11391.24
550.871	11362.77
551.235	11302.2
551.599	11269.44
551.962	11171.58
552.326	11217.69
552.689	11158.48
553.053	11082.77
553.417	11118.7
553.78	11120.51
554.143	11042.77
554.507	11034.64
554.87	10987.86
555.234	11083.9
555.597	10977.47
555.96	10887.07
556.323	10934.08
556.686	10887.07
557.05	10898.6
557.413	10859.95
557.776	10821.99
558.139	10899.73
558.502	10852.72
558.865	10805.72
559.228	10860.18
559.59	10876.23
559.953	10782.44
560.316	10856.56
560.679	10779.5
561.041	10817.47
561.404	10918.03
561.767	10819.96
562.129	10739.28
562.492	10835.32
562.854	10794.87
563.217	10749
563.579	10740.18
563.941	10724.14
564.304	10800.3
564.666	10756.68
565.028	10780.86
565.39	10751.26
565.753	10800.52
566.115	10837.81
566.477	10828.09
566.839	10831.71
567.201	10822.44
567.563	10816.34
567.925	10892.04
568.287	10866.51
568.648	10855.66
569.01	10905.6
569.372	10960.52
569.734	10829.22
570.095	10872.38
570.457	10907.64
570.819	10916.45
571.18	10897.02
571.542	10884.36
571.903	10922.33
572.265	10935.43
572.626	10988.31
572.987	10917.81
573.349	10816.57
573.71	10921.65
574.071	10949.67
574.432	10970.01
574.794	11006.62
575.155	10998.48
575.516	10953.29
575.877	11010.91
576.238	10920.97
576.599	11030.12
576.96	11012.94
577.32	10996.22
577.681	10992.38
578.042	11023.57
578.403	10982.21
578.763	10943.34
579.124	11022.21
579.485	10967.97
579.845	10978.6
580.206	10979.05
580.566	10988.54
580.927	10936.11
581.287	10947.41
581.648	10929.11
582.008	10965.26
582.368	10939.95
582.728	10946.96
583.089	10951.93
583.449	10891.37
583.809	10939.05
584.169	10944.02
584.529	10923.91
584.889	10978.37
585.249	10936.79
585.609	10863.57
585.969	10911.48
586.329	10872.84
586.688	10830.12
587.048	10810.01
587.408	10816.11
587.768	10829.45
588.127	10843.23
588.487	10773.18
588.846	10907.18
589.206	10764.82
589.565	10741.54
589.925	10841.42
590.284	10798.49
590.643	10763.69
591.003	10789.45
591.362	10729.79
591.721	10728.43
592.08	10757.81
592.44	10808.2
592.799	10742.22
593.158	10723.69
593.517	10714.87
593.876	10742.22
594.235	10718.94
594.593	10703.8
594.952	10710.35
595.311	10696.8
595.67	10696.8
596.029	10746.51
596.387	10707.87
596.746	10736.34
597.104	10627.64
597.463	10671.71
597.822	10657.02
598.18	10584.71
598.538	10656.34
598.897	10736.34
599.255	10567.31
599.613	10754.42
599.972	10657.7
600.33	10661.09
600.688	10519.62
601.046	10646.63
601.404	10642.11
601.762	10554.65
602.12	10696.34
602.478	10702.67
602.836	10731.14
603.194	10605.72
603.552	10589.23
603.91	10524.37
604.268	10696.34
604.625	10584.71
604.983	10613.41
605.341	10570.47
605.698	10591.04
606.056	10633.29
606.413	10613.86
606.771	10582.9
607.128	10718.49
607.485	10625.61
607.843	10607.98
608.2	10637.14
608.557	10748.32
608.914	10752.39
609.272	10697.47
609.629	10784.93
609.986	10761.2
610.343	10657.7
610.7	10733.4
611.057	10683.24
611.414	10672.16
611.771	10698.15
612.127	10756.91
612.484	10762.56
612.841	10880.07
613.198	10783.57
613.554	10720.07
613.911	10810.01
614.267	10768.43
614.624	10777.02
614.98	10789
615.337	10813.63
615.693	10803.01
616.05	10777.92
616.406	10879.84
616.762	10779.96
617.118	10774.08
617.475	10819.05
617.831	10880.74
618.187	10847.98
618.543	10873.74
618.899	10877.13
619.255	10865.15
619.611	10784.7
619.967	10873.74
620.323	10918.03
620.678	10856.34
621.034	10780.63
621.39	10894.08
621.746	10781.09
622.101	10920.52
622.457	10828.09
622.812	10860.86
623.168	10906.28
623.523	10926.85
623.879	10892.95
624.234	10806.17
624.589	10880.97
624.945	10823.8
625.3	10931.82
625.655	10890.46
626.01	10926.39
626.365	10858.37
626.72	10814.53
627.075	10780.18
627.43	10837.13
627.785	10881.2
628.14	10827.19
628.495	10833.29
628.85	10813.63
629.205	10775.21
629.559	10840.07
629.914	10804.81
630.269	10797.81
630.623	10754.19
630.978	10724.82
631.332	10764.14
631.687	10777.47
632.041	10762.33
632.396	10737.47
632.75	10659.96
633.104	10744.48
633.459	10679.85
633.813	10690.24
634.167	10685.95
634.521	10729.11
634.875	10648.43
635.229	10667.19
635.583	10609.57
635.937	10558.27
636.291	10572.96
636.645	10615.89
636.999	10563.69
637.352	10607.53
637.706	10495.22
638.06	10545.16
638.413	10480.53
638.767	10445.73
639.121	10539.96
639.474	10454.09
639.828	10427.65
640.181	10432.62
640.534	10420.42
640.888	10417.48
641.241	10422
641.594	10358.05
641.947	10456.35
642.301	10423.58
642.654	10355.56
643.007	10387.65
643.36	10350.59
643.713	10329.35
644.066	10346.07
644.419	10298.84
644.771	10311.04
645.124	10206.41
645.477	10207.54
645.83	10146.98
646.182	10042.12
646.535	10033.31
646.888	10059.52
647.24	9990.82
647.593	10029.47
647.945	9966.42
648.298	9973.65
648.65	9966.42
649.002	9918.51
649.355	10008.68
649.707	9910.15
650.059	10036.93
650.411	10120.99
650.763	10166.41
651.115	10192.4
651.467	10224.72
651.819	10178.16
652.171	10140.88
652.523	10188.33
652.875	10148.33
653.227	10213.42
653.578	10255.45
653.93	10071.73
654.282	10215.45
654.633	10108.34
654.985	10155.34
655.337	10227.2
655.688	10238.73
656.039	10228.33
656.391	10198.28
656.742	10157.83
657.094	10159.86
657.445	10191.5
657.796	10158.73
658.147	10116.92
658.498	10226.07
658.849	10204.83
659.2	10163.02
659.551	10201.67
659.902	10216.13
660.253	10162.12
660.604	10202.12
660.955	10178.84
661.306	10190.14
661.656	10201.89
662.007	10265.17
662.358	10170.26
662.708	10243.7
663.059	10265.85
663.409	10191.05
663.76	10193.76
664.11	10184.94
664.461	10288.44
664.811	10222.23
665.161	10251.83
665.511	10227.88
665.862	10173.19
666.212	10218.62
666.562	10287.09
666.912	10236.02
667.262	10269.46
667.612	10231.04
667.962	10222.46
668.312	10169.58
668.662	10316.69
669.011	10181.78
669.361	10176.58
669.711	10208.9
670.06	10155.11
670.41	10205.06
670.76	10162.12
671.109	10217.49
671.459	10152.63
671.808	10149.24
672.157	10195.11
672.507	10144.72
672.856	10115.34
673.205	10118.05
673.554	10157.15
673.904	10069.47
674.253	10156.02
674.602	10103.14
674.951	9983.59
675.3	9932.75
675.649	10035.34
675.998	10080.54
676.346	10083.48
676.695	10151.5
677.044	10016.59
677.393	10061.78
677.741	10038.06
678.09	9996.47
678.438	10002.12
678.787	10007.32
679.135	10011.39
679.484	9928
679.832	9976.36
680.181	9888.68
680.529	9963.93
680.877	9881.9
681.225	9818.63
681.573	9913.54
681.922	9836.48
682.27	9826.76
682.618	9868.12
682.966	9780.89
683.314	9785.86
683.661	9713.32
684.009	9678.06
684.357	9722.13
684.705	9713.77
685.053	9648.46
685.4	9611.4
685.748	9599.42
686.095	9627.22
686.443	9528.69
686.79	9514.23
687.138	9522.36
687.485	9509.48
687.832	9523.94
688.18	9514.91
688.527	9474.91
688.874	9447.79
689.221	9378.41
689.568	9413.21
689.915	9320.79
690.262	9371.63
690.609	9341.58
690.956	9268.13
691.303	9261.8
691.65	9292.54
691.997	9172.09
692.344	9174.35
692.69	9155.59
693.037	9164.41
693.383	9032.88
693.73	8990.4
694.077	8987.69
694.423	9008.25
694.769	8973.68
695.116	8975.71
695.462	8971.19
695.808	8868.59
696.155	8873.11
696.501	8878.09
696.847	8750.86
697.193	8670.63
697.539	8768.94
697.885	8696.17
698.231	8649.84
698.577	8641.26
698.923	8651.88
699.269	8597.42
699.614	8467.25
699.96	8490.75
700.306	8448.94
700.651	8415.5
700.997	8405.1
701.342	8450.98
701.688	8354.48
702.033	8287.37
702.379	8342.28
702.724	8273.81
703.069	8296.63
703.415	8257.99
703.76	8198.1
704.105	8159.69
704.45	8135.96
704.795	8118.11
705.14	8109.74
705.485	8041.27
705.83	8006.47
706.175	8090.76
706.52	8038.56
706.865	7943.2
707.209	7965.34
707.554	7841.28
707.899	7930.77
708.243	7861.16
708.588	7871.56
708.932	7775.74
709.277	7784.56
709.621	7804.22
709.966	7734.61
710.31	7786.59
710.654	7651.45
710.998	7656.42
711.342	7606.71
711.687	7663.43
712.031	7629.53
712.375	7572.58
712.719	7544.79
713.063	7549.31
713.407	7547.27
713.75	7570.32
714.094	7545.47
714.438	7479.48
714.782	7506.37
715.125	7455.3
715.469	7492.36
715.812	7436.77
716.156	7422.08
716.499	7489.87
716.843	7411.46
717.186	7363.78
717.53	7409.88
717.873	7439.03
718.216	7384.57
718.559	7384.11
718.902	7312.7
719.246	7295.3
719.589	7317.45
719.932	7332.82
720.275	7294.4
720.617	7284.91
720.96	7286.49
721.303	7316.09
721.646	7317
721.989	7273.38
722.331	7276.77
722.674	7276.77
723.016	7215.3
723.359	7279.26
723.701	7220.73
724.044	7156.55
724.386	7163.55
724.729	7186.15
725.071	7215.98
725.413	7187.51
725.755	7210.56
726.097	7169.43
726.439	7149.32
726.782	7144.35
727.124	7174.18
727.465	7104.12
727.807	7128.75
728.149	7126.95
728.491	7091.01
728.833	7126.04
729.175	7095.76
729.516	7140.5
729.858	7094.86
730.199	7135.08
730.541	7088.3
730.882	7014.63
731.224	7148.64
731.565	7038.81
731.906	7082.2
732.248	7104.57
732.589	7073.84
732.93	7065.03
733.271	7016.67
733.612	7116.1
733.953	7093.73
734.294	7086.49
734.635	7045.82
734.976	7140.5
735.317	7077
735.658	7050.79
735.999	7055.53
736.339	7078.13
736.68	7088.08
737.021	7084.69
737.361	7107.51
737.702	7133.72
738.042	7116.78
738.383	7119.94
738.723	7145.93
739.063	7100.51
739.404	7097.34
739.744	7115.42
740.084	7103.67
740.424	7159.03
740.764	7143.44
741.104	7241.97
741.444	7161.52
741.784	7196.32
742.124	7206.27
742.464	7259.15
742.804	7215.53
743.143	7276.55
743.483	7270.22
743.823	7233.84
744.162	7315.64
744.502	7352.25
744.841	7336.21
745.181	7385.47
745.52	7383.21
745.86	7425.02
746.199	7517.44
746.538	7501.17
746.877	7563.54
747.216	7588.18
747.556	7621.4
747.895	7656.42
748.234	7679.25
748.573	7698.68
748.911	7793.82
749.25	7845.57
749.589	7883.99
749.928	7996.08
750.267	8035.62
750.605	8140.48
750.944	8162.17
751.283	8201.04
751.621	8302.73
751.96	8333.47
752.298	8351.09
752.636	8577.08
752.975	8556.74
753.313	8700.46
753.651	8807.35
753.989	8886.9
754.327	8943.62
754.666	9031.75
755.004	9217.29
755.342	9323.27
755.679	9411.86
756.017	9517.39
756.355	9730.27
756.693	9776.82
757.031	9995.12
757.368	10031.5
757.706	10177.49
758.044	10233.08
758.381	10482.11
758.719	10551.04
759.056	10810.92
759.394	10875.55
759.731	11020.18
