Data from hue_270_FLMS001491_00081.txt Node
Date: Tue Feb 07 15:57:48 GMT 2017
User: dcchb
Spectrometer: FLMS00149
Trigger mode: 0
Integration Time (sec): 2.000000E-2
Scans to average: 10
Electric dark correction enabled: true
Nonlinearity correction enabled: false
Boxcar width: 0
XAxis mode: Wavelengths
Number of Pixels in Spectrum: 2048
>>>>>Begin Spectral Data<<<<<
341.393	-23.12
341.776	-23.12
342.16	-23.12
342.543	-49.79
342.927	-76.68
343.31	-52.05
343.693	-76.68
344.077	-54.31
344.46	-52.27
344.843	-46.62
345.226	-46.4
345.61	-43.46
345.993	-15.66
346.376	-10.24
346.759	16.65
347.142	24.34
347.525	29.76
347.908	55.52
348.291	89.19
348.674	87.38
349.057	94.84
349.44	121.06
349.823	134.84
350.206	163.31
350.588	196.31
350.971	208.29
351.354	220.94
351.737	224.1
352.119	273.59
352.502	260.49
352.884	274.5
353.267	260.49
353.65	292.13
354.032	301.62
354.414	301.62
354.797	297.77
355.179	338
355.562	323.31
355.944	310.2
356.326	314.95
356.709	320.15
357.091	329.64
357.473	349.75
357.855	344.55
358.238	315.85
358.62	330.54
359.002	351.33
359.384	337.32
359.766	332.8
360.148	344.1
360.53	310.2
360.912	323.76
361.294	330.99
361.676	345.23
362.057	319.02
362.439	341.16
362.821	314.95
363.203	319.69
363.584	342.75
363.966	320.37
364.348	314.72
364.729	319.92
365.111	313.14
365.493	334.38
365.874	327.15
366.256	308.62
366.637	312.01
367.019	302.97
367.4	312.24
367.781	318.34
368.163	326.25
368.544	309.98
368.925	334.38
369.306	307.72
369.688	304.55
370.069	313.37
370.45	307.94
370.831	326.02
371.212	328.51
371.593	324.21
371.974	301.62
372.355	298.23
372.736	303.2
373.117	313.37
373.498	333.48
373.879	328.73
374.26	312.24
374.641	320.82
375.021	295.29
375.402	317.44
375.783	320.82
376.163	329.41
376.544	317.44
376.925	310.43
377.305	334.61
377.686	312.24
378.066	339.36
378.447	324.67
378.827	322.41
379.208	321.5
379.588	341.39
379.968	338
380.349	344.33
380.729	335.74
381.109	338.68
381.489	342.07
381.87	341.62
382.25	360.82
382.63	349.98
383.01	330.77
383.39	357.43
383.77	365.34
384.15	333.03
384.53	357.66
384.91	355.63
385.29	341.62
385.67	344.1
386.049	356.3
386.429	340.71
386.809	357.43
387.189	348.62
387.568	359.02
387.948	359.24
388.328	358.11
388.707	349.52
389.087	358.11
389.466	360.82
389.846	354.72
390.225	370.99
390.605	367.38
390.984	381.61
391.363	366.02
391.743	368.06
392.122	389.07
392.501	386.36
392.881	395.63
393.26	380.71
393.639	380.48
394.018	382.74
394.397	382.07
394.776	413.03
395.155	393.82
395.534	390.88
395.913	387.49
396.292	422.97
396.671	416.19
397.05	405.34
397.429	406.02
397.808	394.5
398.186	384.78
398.565	396.53
398.944	437.21
399.323	401.05
399.701	416.19
400.08	432.69
400.458	398.34
400.837	408.51
401.215	411.67
401.594	423.65
401.972	434.27
402.351	440.82
402.729	428.39
403.107	431.56
403.486	429.52
403.864	438.56
404.242	423.2
404.62	434.95
404.999	447.83
405.377	458.45
405.755	463.42
406.133	471.78
406.511	447.15
406.889	476.75
407.267	478.33
407.645	458.67
408.023	492.35
408.401	509.75
408.779	488.05
409.156	487.15
409.534	531.21
409.912	499.8
410.29	513.36
410.667	533.47
411.045	535.28
411.422	523.31
411.8	529.18
412.178	535.73
412.555	536.64
412.933	562.63
413.31	534.83
413.687	572.12
414.065	582.51
414.442	582.06
414.819	585.68
415.197	622.06
415.574	612.57
415.951	608.95
416.328	603.08
416.705	613.92
417.082	625.9
417.46	622.51
417.837	649.63
418.214	634.49
418.591	668.84
418.967	677.88
419.344	662.74
419.721	674.71
420.098	676.3
420.475	694.6
420.852	659.12
421.228	714.03
421.605	709.06
421.982	737.31
422.358	741.6
422.735	724.66
423.111	742.96
423.488	765.33
423.864	783.86
424.241	808.27
424.617	789.51
424.994	805.33
425.37	804.65
425.746	824.77
426.123	837.87
426.499	837.42
426.875	878.78
427.251	868.83
427.627	894.6
428.003	903.86
428.379	914.93
428.756	909.06
429.132	918.55
429.507	915.84
429.883	934.14
430.259	943.63
430.635	959
431.011	959.68
431.387	1010.75
431.763	1001.26
432.138	1021.37
432.514	1060.92
432.89	1033.8
433.265	1066.34
433.641	1043.52
434.016	1073.8
434.392	1097.3
434.767	1121.03
435.143	1141.37
435.518	1161.25
435.894	1168.49
436.269	1188.82
436.644	1192.21
437.02	1205.77
437.395	1226.34
437.77	1246
438.145	1248.03
438.52	1269.73
438.895	1330.74
439.271	1306.34
439.646	1317.18
440.021	1323.06
440.395	1323.96
440.77	1349.5
441.145	1386.56
441.52	1422.49
441.895	1402.15
442.27	1391.31
442.645	1403.51
443.019	1454.13
443.394	1425.2
443.769	1454.58
444.143	1462.49
444.518	1497.74
444.892	1455.48
445.267	1479.44
445.641	1509.04
446.016	1523.05
446.39	1554.46
446.764	1542.94
447.139	1533.67
447.513	1548.36
447.887	1562.83
448.262	1568.7
448.636	1570.06
449.01	1559.89
449.384	1596.05
449.758	1616.16
450.132	1637.63
450.506	1614.12
450.88	1668.59
451.254	1636.95
451.628	1656.83
452.002	1694.8
452.376	1703.16
452.75	1709.49
453.123	1697.96
453.497	1747.91
453.871	1753.56
454.244	1761.92
454.618	1805.08
454.992	1820.45
455.365	1791.29
455.739	1836.04
456.112	1874.23
456.486	1877.17
456.859	1870.61
457.232	1927.34
457.606	1888.02
457.979	1988.58
458.352	1969.14
458.725	2003.04
459.099	1995.81
459.472	2048.46
459.845	2063.83
460.218	2055.92
460.591	2080.1
460.964	2096.37
461.337	2111.96
461.71	2146.31
462.083	2175.01
462.456	2173.66
462.829	2170.04
463.201	2227.22
463.574	2224.5
463.947	2248.23
464.32	2332.52
464.692	2289.13
465.065	2334.11
465.438	2339.53
465.81	2384.5
466.183	2381.34
466.555	2423.14
466.928	2441.67
467.3	2436.48
467.672	2463.37
468.045	2541.11
468.417	2559.41
468.789	2573.87
469.161	2592.4
469.534	2599.64
469.906	2629.69
470.278	2650.71
470.65	2675.34
471.022	2751.72
471.394	2739.07
471.766	2783.36
472.138	2802.12
472.51	2849.12
472.882	2918.27
473.253	2915.11
473.625	2926.63
473.997	3018.16
474.369	2999.4
474.74	3014.54
475.112	3077.14
475.484	3143.8
475.855	3177.7
476.227	3179.51
476.598	3259.05
476.97	3252.95
477.341	3346.51
477.713	3362.55
478.084	3397.13
478.455	3468.76
478.827	3459.5
479.198	3564.13
479.569	3522.77
479.94	3652.71
480.311	3628.08
480.682	3702.66
481.053	3763.22
481.424	3863.78
481.795	3857.23
482.166	3905.36
482.537	3915.98
482.908	4006.83
483.279	4055.64
483.65	4124.34
484.021	4181.06
484.391	4162.31
484.762	4205.47
485.133	4242.76
485.503	4309.65
485.874	4345.13
486.244	4374.05
486.615	4488.17
486.985	4527.04
487.356	4570.88
487.726	4584.89
488.097	4672.12
488.467	4689.75
488.837	4770.43
489.207	4806.81
489.578	4857.88
489.948	4864.89
490.318	4941.04
490.688	4958.67
491.058	5023.53
491.428	5058.55
491.798	5069.63
492.168	5183.75
492.538	5183.07
492.908	5209.06
493.278	5273.69
493.648	5278.89
494.017	5302.84
494.387	5359.56
494.757	5403.63
495.126	5432.33
495.496	5438.2
495.866	5475.04
496.235	5478.66
496.605	5571.31
496.974	5582.38
497.344	5608.82
497.713	5593
498.082	5680.23
498.452	5734.47
498.821	5757.52
499.19	5742.15
499.559	5773.79
499.928	5797.97
500.298	5860.34
500.667	5864.41
501.036	5935.37
501.405	5936.95
501.774	5920.68
502.143	5985.08
502.512	5977.17
502.88	6010.17
503.249	5991.86
503.618	6012.88
503.987	6020.56
504.356	6121.12
504.724	6051.97
505.093	6096.27
505.462	6106.44
505.83	6183.27
506.199	6239.09
506.567	6261.46
506.936	6210.84
507.304	6296.26
507.672	6297.16
508.041	6317.73
508.409	6306.88
508.777	6389.14
509.145	6392.53
509.514	6347.56
509.882	6389.59
510.25	6384.85
510.618	6378.52
510.986	6384.39
511.354	6392.08
511.722	6506.88
512.09	6599.08
512.458	6473.43
512.826	6567.67
513.193	6600.21
513.561	6590.26
513.929	6591.17
514.297	6665.97
514.664	6654.22
515.032	6682.69
515.4	6733.54
515.767	6646.53
516.135	6763.82
516.502	6680.66
516.869	6743.93
517.237	6755.68
517.604	6717.94
517.972	6790.71
518.339	6794.33
518.706	6806.76
519.073	6756.14
519.44	6798.85
519.808	6872.52
520.175	6864.38
520.542	6924.49
520.909	6875.45
521.276	6890.37
521.643	6972.63
522.009	6913.19
522.376	6914.78
522.743	6978.95
523.11	6965.85
523.477	7042.68
523.843	7099.4
524.21	7157.48
524.577	7180.76
524.943	7152.06
525.31	7127.43
525.676	7186.86
526.043	7225.28
526.409	7227.54
526.776	7331.49
527.142	7250.59
527.508	7312.28
527.874	7302.11
528.241	7401.99
528.607	7362.45
528.973	7442.67
529.339	7423.24
529.705	7466.63
530.071	7489.68
530.437	7500.75
530.803	7502.56
531.169	7582.78
531.535	7536.45
531.901	7521.77
532.267	7601.54
532.632	7593.63
532.998	7594.08
533.364	7585.49
533.73	7585.94
534.095	7645.83
534.461	7693.51
534.826	7663.46
535.192	7691.48
535.557	7686.73
535.923	7659.84
536.288	7710.01
536.653	7693.74
537.019	7692.38
537.384	7721.31
537.749	7763.57
538.114	7779.16
538.479	7703.46
538.845	7784.81
539.21	7797.24
539.575	7822.55
539.94	7820.06
540.305	7761.76
540.67	7779.84
541.034	7792.72
541.399	7853.51
541.764	7869.1
542.129	7830.91
542.494	7810.35
542.858	7924.47
543.223	7874.52
543.587	7930.57
543.952	7921.98
544.316	7895.77
544.681	7838.59
545.045	7954.52
545.41	7901.19
545.774	7966.5
546.138	7928.31
546.503	7967.86
546.867	7939.61
547.231	7957.69
547.595	8000.4
547.959	7970.34
548.324	7961.53
548.688	7988.19
549.052	8041.53
549.416	8016.44
549.779	8058.7
550.143	8037.46
550.507	8079.94
550.871	8078.14
551.235	8034.29
551.599	8054.86
551.962	8102.09
552.326	8135.31
552.689	8107.51
553.053	8110.45
553.417	8100.06
553.78	8174.18
554.143	8140.28
554.507	8186.15
554.87	8185.7
555.234	8255.53
555.597	8186.83
555.96	8202.65
556.323	8197.45
556.686	8268.64
557.05	8242.65
557.413	8321.74
557.776	8240.62
558.139	8325.13
558.502	8335.76
558.865	8303.89
559.228	8424.11
559.59	8396.77
559.953	8439.03
560.316	8498.91
560.679	8408.52
561.041	8512.47
561.404	8536.65
561.767	8569.87
562.129	8597.22
562.492	8653.04
562.854	8649.87
563.217	8617.56
563.579	8691.9
563.941	8693.26
564.304	8709.53
564.666	8768.06
565.028	8804.44
565.39	8831.79
565.753	8830.43
566.115	8907.04
566.477	8911.79
566.839	9023.87
567.201	8954.72
567.563	8937.55
567.925	9005.34
568.287	9023.65
568.648	9066.81
569.01	9071.56
569.372	9125.79
569.734	9130.54
570.095	9109.07
570.457	9231.55
570.819	9178.9
571.18	9236.75
571.542	9247.6
571.903	9226.35
572.265	9320.59
572.626	9303.41
572.987	9382.73
573.349	9399.68
573.71	9469.51
574.071	9488.95
574.432	9519.23
574.794	9579.34
575.155	9539.79
575.516	9567.14
575.877	9604.2
576.238	9719.67
576.599	9709.05
576.96	9717.87
577.32	9765.1
577.681	9827.02
578.042	9760.58
578.403	9851.87
578.763	9874.92
579.124	9882.83
579.485	9903.62
579.845	9962.15
580.206	9923.51
580.566	9936.17
580.927	10048.03
581.287	10086.9
581.648	10019.33
582.008	10154.69
582.368	10087.57
582.728	10220.23
583.089	10213.22
583.449	10236.5
583.809	10270.39
584.169	10242.82
584.529	10360.79
584.889	10408.02
585.249	10300.9
585.609	10300.22
585.969	10346.1
586.329	10330.96
586.688	10452.08
587.048	10518.75
587.408	10453.67
587.768	10573.66
588.127	10510.39
588.487	10483.72
588.846	10580.89
589.206	10592.42
589.565	10595.36
589.925	10665.41
590.284	10677.84
590.643	10713.55
591.003	10743.83
591.362	10745.18
591.721	10839.87
592.08	10817.95
592.44	10798.74
592.799	10814.79
593.158	10829.7
593.517	10852.53
593.876	10911.28
594.235	10875.8
594.593	10873.32
594.952	10892.75
595.311	10883.03
595.67	10942.92
596.029	11018.17
596.387	11027.66
596.746	11068.56
597.104	11097.26
597.463	11045.51
597.822	11092.07
598.18	11038.28
598.538	11126.64
598.897	11038.96
599.255	11111.95
599.613	11169.58
599.972	11122.35
600.33	11148.79
600.688	11183.14
601.046	11237.15
601.404	11242.57
601.762	11315.11
602.12	11277.37
602.478	11315.34
602.836	11347.88
603.194	11260.65
603.552	11305.85
603.91	11342.68
604.268	11312.63
604.625	11284.15
604.983	11364.15
605.341	11318.28
605.698	11420.19
606.056	11434.88
606.413	11373.42
606.771	11468.33
607.128	11449.57
607.485	11447.31
607.843	11422.68
608.2	11441.21
608.557	11497.48
608.914	11469.46
609.272	11559.17
609.629	11555.78
609.986	11634.43
610.343	11510.14
610.7	11635.56
611.057	11577.03
611.414	11550.36
611.771	11555.56
612.127	11629
612.484	11629
612.841	11606.18
613.198	11605.73
613.554	11683.69
613.911	11717.81
614.267	11750.13
614.624	11802.33
614.98	11709.23
615.337	11686.63
615.693	11746.97
616.05	11720.07
616.406	11874.42
616.762	11792.84
617.118	11828.77
617.475	11821.54
617.831	11822.9
618.187	11810.47
618.543	11867.87
618.899	11918.71
619.255	11858.6
619.611	11816.12
619.967	11846.4
620.323	11904.7
620.678	11914.64
621.034	11863.8
621.39	11890.69
621.746	11831.03
622.101	12000.29
622.457	11854.31
622.812	11864.93
623.168	11974.08
623.523	11900.86
623.879	11930.46
624.234	11885.94
624.589	11956
624.945	11873.29
625.3	11979.28
625.655	11938.37
626.01	11900.41
626.365	11909.9
626.72	11863.57
627.075	11852.05
627.43	11872.39
627.785	11922.33
628.14	11937.69
628.495	11904.25
628.85	11890.46
629.205	11843.69
629.559	11892.05
629.914	11864.02
630.269	11882.78
630.623	11881.2
630.978	11743.35
631.332	11842.33
631.687	11854.08
632.041	11724.37
632.396	11828.32
632.75	11753.52
633.104	11792.84
633.459	11709.45
633.813	11704.48
634.167	11712.39
634.521	11747.19
634.875	11777.7
635.229	11666.97
635.583	11659.74
635.937	11678.04
636.291	11678.94
636.645	11657.7
636.999	11595.56
637.352	11614.09
637.706	11480.53
638.06	11649.57
638.413	11570.25
638.767	11518.27
639.121	11612.96
639.474	11479.85
639.828	11530.93
640.181	11455.9
640.534	11595.33
640.888	11465.16
641.241	11456.35
641.594	11432.17
641.947	11493.41
642.301	11465.16
642.654	11431.49
643.007	11407.77
643.36	11442.57
643.713	11374.32
644.066	11497.71
644.419	11375.68
644.771	11300.2
645.124	11206.64
645.477	11166.19
645.83	11107.21
646.182	11019.3
646.535	10996.48
646.888	10977.27
647.24	10999.41
647.593	11085.29
647.945	11062.46
648.298	10931.39
648.65	10981.56
649.002	10923.94
649.355	10999.41
649.707	10972.07
650.059	11019.98
650.411	11220.65
650.763	11147.88
651.115	11269.69
651.467	11280.76
651.819	11262.01
652.171	11202.35
652.523	11235.79
652.875	11237.15
653.227	11176.81
653.578	11293.19
653.93	11239.18
654.282	11217.49
654.633	11136.13
654.985	11135.46
655.337	11212.06
655.688	11266.3
656.039	11304.26
656.391	11135.23
656.742	11178.17
657.094	11212.97
657.445	11203.25
657.796	11193.53
658.147	11188.11
658.498	11230.37
658.849	11281.21
659.2	11268.79
659.551	11231.5
659.902	11220.43
660.253	11230.59
660.604	11261.1
660.955	11174.1
661.306	11196.02
661.656	11193.99
662.007	11196.92
662.358	11211.16
662.708	11220.65
663.059	11229.46
663.409	11204.61
663.76	11249.58
664.11	11216.81
664.461	11299.07
664.811	11272.85
665.161	11222.01
665.511	11182.91
665.862	11215.45
666.212	11279.18
666.562	11240.31
666.912	11179.97
667.262	11225.17
667.612	11233.76
667.962	11287.09
668.312	11267.66
668.662	11223.36
669.011	11244.15
669.361	11216.13
669.711	11204.83
670.06	11198.5
670.41	11182.01
670.76	11109.69
671.109	11151.95
671.459	11210.48
671.808	11106.08
672.157	11092.52
672.507	11087.32
672.856	11074.21
673.205	11133.65
673.554	11142.24
673.904	11146.98
674.253	11155.79
674.602	11098.17
674.951	10929.13
675.3	10875.8
675.649	11068.11
675.998	11008.91
676.346	11116.02
676.695	11087.1
677.044	11030.6
677.393	11054.1
677.741	11101.11
678.09	10969.81
678.438	10992.86
678.787	10986.31
679.135	10999.87
679.484	10849.36
679.832	10917.38
680.181	10902.47
680.529	10930.94
680.877	10931.62
681.225	10892.52
681.573	10868.34
681.922	10823.6
682.27	10770.04
682.618	10799.19
682.966	10742.47
683.314	10785.86
683.661	10794.9
684.009	10737.95
684.357	10692.08
684.705	10628.8
685.053	10723.72
685.4	10684.85
685.748	10530.05
686.095	10581.57
686.443	10520.33
686.79	10497.05
687.138	10463.16
687.485	10493.44
687.832	10477.17
688.18	10506.09
688.527	10395.81
688.874	10424.97
689.221	10355.59
689.568	10332.77
689.915	10324.63
690.262	10275.82
690.609	10233.11
690.956	10285.31
691.303	10182.94
691.65	10170.96
691.997	10165.31
692.344	10108.36
692.69	10074.47
693.037	10051.64
693.383	9928.03
693.73	10060.46
694.077	9943.17
694.423	9931.87
694.769	9892.55
695.116	9855.26
695.462	9890.74
695.808	9828.37
696.155	9868.6
696.501	9780.69
696.847	9691.88
697.193	9627.92
697.539	9675.16
697.885	9533.92
698.231	9564.2
698.577	9653.91
698.923	9525.78
699.269	9428.61
699.614	9441.26
699.96	9455.5
700.306	9411.43
700.651	9431.77
700.997	9356.07
701.342	9291.44
701.688	9264.77
702.033	9227.94
702.379	9262.74
702.724	9144.32
703.069	9204.21
703.415	9120.59
703.76	9100.03
704.105	9088.73
704.45	9046.02
704.795	8989.75
705.14	8966.25
705.485	8916.98
705.83	8911.33
706.175	8954.72
706.52	8865.68
706.865	8830.88
707.209	8860.49
707.554	8761.96
707.899	8745.01
708.243	8813.26
708.588	8761.73
708.932	8676.09
709.277	8698.68
709.621	8682.41
709.966	8608.74
710.31	8622.3
710.654	8579.36
710.998	8517.9
711.342	8514.51
711.687	8513.38
712.031	8534.85
712.375	8434.96
712.719	8460.27
713.063	8455.07
713.407	8439.71
713.75	8406.71
714.094	8449.2
714.438	8387.96
714.782	8402.19
715.125	8369.2
715.469	8379.82
715.812	8321.29
716.156	8239.94
716.499	8294.17
716.843	8349.77
717.186	8225.02
717.53	8272.25
717.873	8308.41
718.216	8294.4
718.559	8186.83
718.902	8199.26
719.246	8253.27
719.589	8129.21
719.932	8168.3
720.275	8097.57
720.617	8182.99
720.96	8164.01
721.303	8111.58
721.646	8188.64
721.989	8082.65
722.331	8106.38
722.674	8111.81
723.016	8149.77
723.359	8036.78
723.701	8063.9
724.044	8030.23
724.386	8001.53
724.729	8026.39
725.071	7980.51
725.413	8033.39
725.755	8016.67
726.097	7982.09
726.439	7903.68
726.782	7955.88
727.124	7962.43
727.465	7972.83
727.807	7940.74
728.149	7884.92
728.491	7943
728.833	7936.44
729.175	7929.89
729.516	7926.5
729.858	7911.36
730.199	7869.55
730.541	7909.1
730.882	7886.28
731.224	7902.09
731.565	7852.15
731.906	7888.08
732.248	7853.28
732.589	7830.23
732.93	7818.25
733.271	7858.93
733.612	7874.75
733.953	7873.62
734.294	7862.55
734.635	7890.57
734.976	7878.14
735.317	7836.79
735.658	7802.44
735.999	7876.33
736.339	7837.69
736.68	7837.24
737.021	7863.45
737.361	7817.8
737.702	7871.13
738.042	7856.67
738.383	7860.74
738.723	7895.77
739.063	7866.84
739.404	7923.79
739.744	7849.67
740.084	7890.12
740.424	7905.03
740.764	7924.01
741.104	7925.82
741.444	7894.19
741.784	7961.3
742.124	7918.82
742.464	7892.6
742.804	7935.09
743.143	7980.28
743.483	7983.9
743.823	7954.07
744.162	8029.55
744.502	8015.31
744.841	7992.94
745.181	8105.93
745.52	8100.51
745.86	8152.03
746.199	8185.7
746.538	8239.49
746.877	8303.21
747.216	8224.8
747.556	8310.9
747.895	8286.04
748.234	8363.78
748.573	8397.45
748.911	8421.85
749.25	8522.87
749.589	8583.88
749.928	8588.86
750.267	8635.63
750.605	8712.02
750.944	8809.19
751.283	8771.68
751.621	8935.74
751.96	8937.77
752.298	9092.12
752.636	9150.88
752.975	9189.52
753.313	9226.35
753.651	9419.57
753.989	9463.41
754.327	9589.06
754.666	9601.71
755.004	9742.95
755.342	9881.25
755.679	10026.11
756.017	10091.64
756.355	10266.55
756.693	10334.57
757.031	10541.8
757.368	10661.12
757.706	10752.87
758.044	10969.36
758.381	11088.23
758.719	11132.74
759.056	11316.24
759.394	11412.74
759.731	11540.42
760.068	11713.07
760.405	11832.84
760.743	12039.84
761.08	12239.83
761.417	12332.71
761.754	12525.02
762.091	12627.39
762.428	12788.07
