Data from hue_90_FLMS001491_2.txt Node
Date: Mon Feb 06 15:24:35 GMT 2017
User: dcchb
Spectrometer: FLMS00149
Trigger mode: 0
Integration Time (sec): 2.000000E-2
Scans to average: 10
Electric dark correction enabled: true
Nonlinearity correction enabled: false
Boxcar width: 0
XAxis mode: Wavelengths
Number of Pixels in Spectrum: 2048
>>>>>Begin Spectral Data<<<<<
341.393	6.17
341.776	6.17
342.16	6.17
342.543	-57.78
342.927	-69.76
343.31	-45.8
343.693	-70.66
344.077	-58.91
344.46	-53.71
344.843	-80.15
345.226	-27.5
345.61	-20.72
345.993	-16.43
346.376	-23.88
346.759	5.49
347.142	23.57
347.525	35.55
347.908	56.79
348.291	76
348.674	103.12
349.057	97.24
349.44	116.9
349.823	137.02
350.206	165.94
350.588	190.35
350.971	214.3
351.354	219.5
351.737	217.47
352.119	230.57
352.502	266.5
352.884	255.88
353.267	260.63
353.65	279.84
354.032	274.19
354.414	285.03
354.797	308.99
355.179	327.07
355.562	313.28
355.944	338.59
356.326	320.51
356.709	335.2
357.091	335.43
357.473	323.68
357.855	323.23
358.238	328.88
358.62	327.52
359.002	339.5
359.384	330.23
359.766	326.39
360.148	340.63
360.53	343.34
360.912	333.85
361.294	334.3
361.676	348.08
362.057	329.55
362.439	338.14
362.821	315.77
363.203	324.13
363.584	336.56
363.966	323.68
364.348	321.42
364.729	354.41
365.111	322.32
365.493	313.51
365.874	301.31
366.256	314.19
366.637	312.38
367.019	306.5
367.4	319.84
367.781	325.26
368.163	309.22
368.544	320.51
368.925	306.28
369.306	318.25
369.688	311.25
370.069	320.51
370.45	296.11
370.831	320.97
371.212	307.86
371.593	305.83
371.974	292.04
372.355	308.76
372.736	306.73
373.117	291.14
373.498	327.52
373.879	311.93
374.26	331.81
374.641	299.05
375.021	304.7
375.402	319.16
375.783	304.7
376.163	338.14
376.544	302.66
376.925	330.01
377.305	310.8
377.686	302.21
378.066	302.89
378.447	319.16
378.827	333.4
379.208	324.58
379.588	334.3
379.968	308.31
380.349	326.62
380.729	332.49
381.109	309.44
381.489	337.91
381.87	327.29
382.25	339.5
382.63	328.42
383.01	323.9
383.39	345.15
383.77	348.31
384.15	330.91
384.53	327.07
384.91	326.39
385.29	347.86
385.67	359.84
386.049	351.93
386.429	344.69
386.809	347.18
387.189	330.68
387.568	352.83
387.948	335.88
388.328	337.24
388.707	357.58
389.087	336.11
389.466	339.04
389.846	351.02
390.225	341.3
390.605	315.99
390.984	339.72
391.363	362.09
391.743	365.71
392.122	371.81
392.501	372.49
392.881	366.84
393.26	371.59
393.639	378.82
394.018	374.75
394.397	349.44
394.776	366.39
395.155	375.43
395.534	381.3
395.913	379.04
396.292	368.2
396.671	396.44
397.05	389.66
397.429	392.38
397.808	379.04
398.186	379.72
398.565	403.68
398.944	393.51
399.323	382.66
399.701	405.71
400.08	403
400.458	389.44
400.837	396.22
401.215	407.29
401.594	379.72
401.972	400.29
402.351	394.18
402.729	390.34
403.107	412.72
403.486	401.87
403.864	420.4
404.242	408.87
404.62	416.1
404.999	406.84
405.377	433.96
405.755	418.14
406.133	439.38
406.511	405.71
406.889	431.92
407.267	422.43
407.645	438.48
408.023	427.18
408.401	437.8
408.779	461.3
409.156	446.39
409.534	442.09
409.912	438.48
410.29	429.66
410.667	436.9
411.045	472.37
411.422	458.36
411.8	466.73
412.178	451.13
412.555	476.89
412.933	482.32
413.31	474.41
413.687	457.46
414.065	458.36
414.442	475.76
414.819	459.72
415.197	491.81
415.574	495.42
415.951	501.75
416.328	476.89
416.705	487.52
417.082	478.7
417.46	496.78
417.837	510.79
418.214	504.46
418.591	506.05
418.967	494.97
419.344	524.58
419.721	484.58
420.098	509.66
420.475	520.96
420.852	507.4
421.228	522.54
421.605	528.42
421.982	524.58
422.358	531.81
422.735	528.64
423.111	539.49
423.488	529.55
423.864	559.15
424.241	554.41
424.617	556.21
424.994	555.08
425.37	589.21
425.746	534.07
426.123	553.28
426.499	586.5
426.875	568.64
427.251	609.55
427.627	563.22
428.003	591.24
428.379	593.95
428.756	601.41
429.132	597.57
429.507	616.1
429.883	593.5
430.259	615.42
430.635	627.85
431.011	621.52
431.387	629.88
431.763	668.75
432.138	628.3
432.514	648.87
432.89	642.09
433.265	648.87
433.641	650.22
434.016	672.82
434.392	685.02
434.767	682.31
435.143	689.32
435.518	684.35
435.894	702.43
436.269	686.38
436.644	727.74
437.02	711.92
437.395	712.14
437.77	717.11
438.145	743.1
438.52	743.1
438.895	732.03
439.271	715.76
439.646	754.63
440.021	738.13
440.395	743.78
440.77	745.59
441.145	777.23
441.52	786.94
441.895	773.16
442.27	765.02
442.645	806.6
443.019	797.56
443.394	819.03
443.769	797.34
444.143	790.56
444.518	841.63
444.892	781.29
445.267	832.82
445.641	812.48
446.016	848.86
446.39	826.94
446.764	843.44
447.139	834.17
447.513	865.13
447.887	862.87
448.262	852.03
448.636	848.64
449.01	878.01
449.384	884.57
449.758	855.64
450.132	884.79
450.506	920.95
450.88	903.1
451.254	905.13
451.628	948.75
452.002	926.15
452.376	924.34
452.75	921.85
453.123	938.35
453.497	942.87
453.871	975.86
454.244	944.68
454.618	1000.04
454.992	994.85
455.365	992.59
455.739	999.82
456.112	1009.54
456.486	1041.4
456.859	1037.78
457.232	1040.95
457.606	1050.66
457.979	1064.45
458.352	1075.97
458.725	1081.17
459.099	1086.82
459.472	1127.5
459.845	1149.87
460.218	1134.73
460.591	1155.75
460.964	1149.42
461.337	1187.16
461.71	1189.42
462.083	1209.98
462.456	1240.94
462.829	1231.22
463.201	1247.72
463.574	1273.03
463.947	1291.34
464.32	1332.92
464.692	1315.97
465.065	1339.47
465.438	1354.16
465.81	1365.46
466.183	1374.72
466.555	1416.08
466.928	1415.17
467.3	1447.72
467.672	1463.31
468.045	1503.08
468.417	1491.33
468.789	1520.03
469.161	1539.24
469.534	1575.4
469.906	1600.93
470.278	1634.6
470.65	1652.68
471.022	1717.99
471.394	1722.06
471.766	1743.08
472.138	1761.61
472.51	1826.01
472.882	1866.01
473.253	1895.61
473.625	1886.8
473.997	1960.25
474.369	1977.65
474.74	2002.5
475.112	2105.1
475.484	2075.95
475.855	2173.57
476.227	2211.54
476.598	2283.85
476.97	2292.89
477.341	2337.41
477.713	2400.23
478.084	2461.25
478.455	2562.04
478.827	2584.18
479.198	2681.36
479.569	2687.01
479.94	2796.61
480.311	2863.72
480.682	2927.68
481.053	3067.79
481.424	3119.08
481.795	3177.39
482.166	3216.71
482.537	3298.51
482.908	3422.13
483.279	3436.36
483.65	3562.46
484.021	3675.45
484.391	3745.06
484.762	3856.92
485.133	3911.15
485.503	3999.51
485.874	4173.52
486.244	4255.78
486.615	4311.6
486.985	4428.2
487.356	4578.26
487.726	4663.45
488.097	4776.67
488.467	4830.68
488.837	5044.46
489.207	5096.21
489.578	5221.4
489.948	5346.37
490.318	5465.69
490.688	5567.16
491.058	5674.5
491.428	5755.63
491.798	5949.07
492.168	6081.72
492.538	6148.84
492.908	6258.89
493.278	6428.83
493.648	6503.63
494.017	6622.72
494.387	6712.66
494.757	6785.43
495.126	7033.56
495.496	7004.63
495.866	7173.67
496.235	7271.07
496.605	7406.43
496.974	7484.85
497.344	7595.13
497.713	7679.87
498.082	7822.01
498.452	7899.52
498.821	8048.45
499.19	8010.93
499.559	8186.97
499.928	8311.04
500.298	8415.89
500.667	8509.9
501.036	8535.44
501.405	8641.43
501.774	8677.13
502.143	8785.15
502.512	8838.93
502.88	9001.42
503.249	9033.73
503.618	9092.94
503.987	9124.12
504.356	9276.66
504.724	9315.76
505.093	9429.88
505.462	9408.86
505.83	9500.61
506.199	9626.71
506.567	9759.36
506.936	9759.36
507.304	9885.23
507.672	9909.64
508.041	9961.62
508.409	10052.46
508.777	10171.1
509.145	10233.02
509.514	10173.59
509.882	10282.96
510.25	10237.54
510.618	10369.29
510.986	10444.09
511.354	10541.94
511.722	10569.06
512.09	10669.17
512.458	10651.54
512.826	10667.59
513.193	10756.4
513.561	10797.53
513.929	10768.38
514.297	10916.39
514.664	10945.32
515.032	11007.69
515.4	11078.88
515.767	11089.04
516.135	11108.03
516.502	11047.24
516.869	11251.75
517.237	11241.81
517.604	11167.01
517.972	11257.18
518.339	11388.92
518.706	11269.15
519.073	11341.69
519.44	11397.29
519.808	11512.76
520.175	11441.8
520.542	11547.79
520.909	11698.52
521.276	11463.5
521.643	11590.95
522.009	11654.23
522.376	11690.84
522.743	11702.59
523.11	11808.57
523.477	11803.6
523.843	11842.7
524.21	11993.65
524.577	11997.27
524.943	11980.55
525.31	11980.55
525.676	12068.68
526.043	12034.33
526.409	12119.53
526.776	12146.42
527.142	12113.42
527.508	12060.32
527.874	12218.28
528.241	12227.09
528.607	12192.52
528.973	12201.11
529.339	12299.18
529.705	12296.24
530.071	12305.06
530.437	12362.46
530.803	12347.54
531.169	12293.98
531.535	12246.53
531.901	12307.32
532.267	12276.36
532.632	12332.4
532.998	12316.36
533.364	12400.87
533.73	12301.89
534.095	12372.85
534.461	12299.86
534.826	12315
535.192	12346.64
535.557	12359.29
535.923	12324.94
536.288	12286.75
536.653	12260.09
537.019	12188
537.384	12178.73
537.749	12250.6
538.114	12159.07
538.479	12207.89
538.845	12090.15
539.21	12015.57
539.575	12018.29
539.94	12059.64
540.305	12077.27
540.67	11987.78
541.034	12078.17
541.399	12013.31
541.764	11928.8
542.129	11947.1
542.494	11979.87
542.858	11926.76
543.223	11869.82
543.587	11912.07
543.952	11863.49
544.316	11885.41
544.681	11832.98
545.045	11809.7
545.41	11911.4
545.774	11782.59
546.138	11750.5
546.503	11675.7
546.867	11701.23
547.231	11732.19
547.595	11694.68
547.959	11673.44
548.324	11662.14
548.688	11568.58
549.052	11627.11
549.416	11540.56
549.779	11556.83
550.143	11527.23
550.507	11626.21
550.871	11541.46
551.235	11473.44
551.599	11481.58
551.962	11499.66
552.326	11523.38
552.689	11488.81
553.053	11330.17
553.417	11400
553.78	11435.7
554.143	11396.16
554.507	11314.58
554.87	11302.6
555.234	11397.29
555.597	11199.55
555.96	11339.43
556.323	11329.26
556.686	11311.19
557.05	11303.73
557.413	11319.32
557.776	11258.31
558.139	11275.03
558.502	11346.66
558.865	11267.8
559.228	11353.22
559.59	11285.88
559.953	11218.31
560.316	11334.46
560.679	11346.89
561.041	11366.78
561.404	11342.37
561.767	11362.94
562.129	11294.46
562.492	11360.45
562.854	11339.89
563.217	11345.31
563.579	11400.9
563.941	11380.11
564.304	11417.17
564.666	11442.26
565.028	11381.69
565.39	11452.65
565.753	11424.18
566.115	11482.71
566.477	11513.89
566.839	11422.82
567.201	11593.66
567.563	11498.53
567.925	11576.72
568.287	11501.69
568.648	11619.43
569.01	11557.73
569.372	11551.86
569.734	11517.06
570.095	11671.85
570.457	11697.16
570.819	11643.83
571.18	11617.39
571.542	11739.87
571.903	11682.25
572.265	11653.32
572.626	11740.78
572.987	11785.98
573.349	11743.94
573.71	11740.55
574.071	11821.68
574.432	11747.11
574.794	11886.54
575.155	11832.08
575.516	11850.83
575.877	11818.97
576.238	11828.91
576.599	11836.6
576.96	11877.5
577.32	11889.7
577.681	11799.99
578.042	11933.32
578.403	11879.98
578.763	11837.95
579.124	11877.72
579.485	11991.62
579.845	11945.75
580.206	11933.32
580.566	11923.15
580.927	11856.03
581.287	11947.78
581.648	11852.87
582.008	11947.1
582.368	11895.58
582.728	11838.63
583.089	11865.75
583.449	11834.79
583.809	11942.81
584.169	11895.58
584.529	11796.82
584.889	11912.07
585.249	11835.24
585.609	11796.14
585.969	11902.58
586.329	11797.27
586.688	11836.82
587.048	11821.45
587.408	11834.11
587.768	11817.16
588.127	11806.99
588.487	11809.48
588.846	11897.16
589.206	11744.62
589.565	11727.22
589.925	11836.6
590.284	11714.56
590.643	11739.87
591.003	11758.63
591.362	11793.21
591.721	11685.64
592.08	11713.43
592.44	11792.08
592.799	11748.24
593.158	11741.23
593.517	11702.36
593.876	11816.94
594.235	11724.73
594.593	11724.73
594.952	11746.2
595.311	11626.43
595.67	11682.93
596.029	11730.61
596.387	11729.93
596.746	11674.11
597.104	11687.67
597.463	11734.68
597.822	11684.51
598.18	11602.93
598.538	11635.24
598.897	11724.96
599.255	11555.25
599.613	11745.98
599.972	11684.51
600.33	11773.32
600.688	11687.45
601.046	11662.14
601.404	11726.32
601.762	11684.96
602.12	11746.2
602.478	11636.83
602.836	11694.23
603.194	11719.99
603.552	11621.91
603.91	11611.97
604.268	11610.39
604.625	11750.27
604.983	11698.07
605.341	11667.56
605.698	11667.33
606.056	11712.76
606.413	11666.88
606.771	11692.87
607.128	11710.05
607.485	11729.25
607.843	11705.98
608.2	11658.97
608.557	11837.5
608.914	11798.18
609.272	11780.33
609.629	11719.54
609.986	11821.91
610.343	11742.81
610.7	11814
611.057	11821.45
611.414	11845.86
611.771	11775.81
612.127	11779.65
612.484	11891.06
612.841	11826.2
613.198	11932.86
613.554	11860.1
613.911	11884.96
614.267	11871.4
614.624	11909.36
614.98	11868.46
615.337	11973.77
615.693	11970.15
616.05	11854
616.406	12008.34
616.762	11961.56
617.118	11923.37
617.475	11963.37
617.831	11980.32
618.187	11961.11
618.543	11993.2
618.899	12029.81
619.255	11989.13
619.611	12034.56
619.967	12017.83
620.323	12097.61
620.678	11970.38
621.034	11990.94
621.39	12000.21
621.746	11948.91
622.101	12104.39
622.457	12051.96
622.812	12116.36
623.168	12033.2
623.523	12078.4
623.879	12059.19
624.234	11995.69
624.589	12132.41
624.945	12045.86
625.3	12122.69
625.655	12136.7
626.01	12106.87
626.365	12093.99
626.72	12129.92
627.075	12010.83
627.43	12015.57
627.785	11999.3
628.14	11994.56
628.495	12049.25
628.85	12032.75
629.205	11999.3
629.559	12065.74
629.914	11966.08
630.269	11972.64
630.623	11883.6
630.978	11956.37
631.332	11973.99
631.687	11942.36
632.041	11886.54
632.396	11996.59
632.75	11943.26
633.104	11935.8
633.459	11880.89
633.813	11912.75
634.167	11811.74
634.521	11866.2
634.875	11838.4
635.229	11871.85
635.583	11758.63
635.937	11812.42
636.291	11745.75
636.645	11750.5
636.999	11700.55
637.352	11694.68
637.706	11674.34
638.06	11696.26
638.413	11674.11
638.767	11608.35
639.121	11700.33
639.474	11541.24
639.828	11642.7
640.181	11626.66
640.534	11741
640.888	11559.77
641.241	11494.68
641.594	11542.37
641.947	11583.49
642.301	11532.87
642.654	11563.61
643.007	11572.42
643.36	11562.93
643.713	11525.64
644.066	11549.82
644.419	11534
644.771	11409.04
645.124	11309.83
645.477	11290.17
645.83	11224.18
646.182	11116.61
646.535	11133.11
646.888	11185.09
647.24	11090.63
647.593	11175.14
647.945	11194.58
648.298	11099.67
648.65	11096.28
649.002	11024.19
649.355	11088.59
649.707	11068.25
650.059	11150.51
650.411	11265.09
650.763	11313.22
651.115	11386.89
651.467	11364.97
651.819	11329.26
652.171	11322.94
652.523	11297.17
652.875	11298.98
653.227	11277.06
653.578	11392.54
653.93	11324.52
654.282	11282.49
654.633	11333.11
654.985	11388.25
655.337	11284.52
655.688	11300.79
656.039	11327
656.391	11288.81
656.742	11267.8
657.094	11263.96
657.445	11372.2
657.796	11274.35
658.147	11291.53
658.498	11290.85
658.849	11339.66
659.2	11302.15
659.551	11229.15
659.902	11362.94
660.253	11320.22
660.604	11286.33
660.955	11281.58
661.306	11357.29
661.656	11323.16
662.007	11294.46
662.358	11285.65
662.708	11296.72
663.059	11289.72
663.409	11310.51
663.76	11365.2
664.11	11305.99
664.461	11347.34
664.811	11370.62
665.161	11365.2
665.511	11313.22
665.862	11363.16
666.212	11425.53
666.562	11419.43
666.912	11392.31
667.262	11261.24
667.612	11385.99
667.962	11337.4
668.312	11321.81
668.662	11413.78
669.011	11313.45
669.361	11296.5
669.711	11253.11
670.06	11291.07
670.41	11306.44
670.76	11270.28
671.109	11372.2
671.459	11327.68
671.808	11283.62
672.157	11349.83
672.507	11177.4
672.856	11259.66
673.205	11289.27
673.554	11330.85
673.904	11182.6
674.253	11280.9
674.602	11229.61
674.951	11153.22
675.3	11054.92
675.649	11216.95
675.998	11129.5
676.346	11200.23
676.695	11158.87
677.044	11139.89
677.393	11117.07
677.741	11154.13
678.09	11144.41
678.438	11082.49
678.787	11050.63
679.135	11158.87
679.484	11051.08
679.832	11089.95
680.181	11041.59
680.529	11068.03
680.877	10989.39
681.225	10971.08
681.573	11079.1
681.922	10967.01
682.27	10922.04
682.618	10951.42
682.966	10877.3
683.314	10890.41
683.661	10803.4
684.009	10842.72
684.357	10761.37
684.705	10756.62
685.053	10760.24
685.4	10725.21
685.748	10711.88
686.095	10693.12
686.443	10599.34
686.79	10679.79
687.138	10585.55
687.485	10577.65
687.832	10571.54
688.18	10607.25
688.527	10490.19
688.874	10521.15
689.221	10485.67
689.568	10432.34
689.915	10408.84
690.262	10423.75
690.609	10449.51
690.956	10332.68
691.303	10308.5
691.65	10298.56
691.997	10280.93
692.344	10177.88
692.69	10153.93
693.037	10180.37
693.383	10143.76
693.73	10185.57
694.077	10081.16
694.423	10055.17
694.769	10037.55
695.116	9934.95
695.462	9967.72
695.808	9939.47
696.155	9952.8
696.501	9865.57
696.847	9822.86
697.193	9793.49
697.539	9758.01
697.885	9727.05
698.231	9660.61
698.577	9699.7
698.923	9603.66
699.269	9572.02
699.614	9511.68
699.96	9485.24
700.306	9544.45
700.651	9465.58
700.997	9433.49
701.342	9435.08
701.688	9336.77
702.033	9312.14
702.379	9334.06
702.724	9337.68
703.069	9319.15
703.415	9140.85
703.76	9168.64
704.105	9198.25
704.45	9134.07
704.795	9090.91
705.14	9058.59
705.485	9089.32
705.83	9026.95
706.175	8997.12
706.52	8985.37
706.865	8977.69
707.209	8906.28
707.554	8926.62
707.899	8934.3
708.243	8908.54
708.588	8820.63
708.932	8745.38
709.277	8724.14
709.621	8833.74
709.966	8688.66
710.31	8706.51
710.654	8616.34
710.998	8655.66
711.342	8678.49
711.687	8665.61
712.031	8600.75
712.375	8585.83
712.719	8588.55
713.063	8560.07
713.407	8547.19
713.75	8497.25
714.094	8545.16
714.438	8462
714.782	8514.42
715.125	8452.5
715.469	8462.9
715.812	8406.4
716.156	8344.26
716.499	8376.12
716.843	8336.35
717.186	8355.78
717.53	8398.49
717.873	8354.88
718.216	8379.74
718.559	8318.72
718.902	8216.13
719.246	8303.36
719.589	8259.74
719.932	8224.71
720.275	8243.92
720.617	8231.49
720.96	8186.07
721.303	8207.99
721.646	8217.93
721.989	8138.61
722.331	8213.87
722.674	8203.92
723.016	8181.32
723.359	8114.43
723.701	8121.44
724.044	8173.19
724.386	8095
724.729	8135.45
725.071	8128.67
725.413	8121.21
725.755	8069.69
726.097	8128.22
726.439	8057.49
726.782	8069.24
727.124	8104.72
727.465	8059.29
727.807	8067.2
728.149	8000.31
728.491	8080.31
728.833	7988.56
729.175	8007.77
729.516	8009.13
729.858	8047.09
730.199	7968
730.541	7995.34
730.882	8027.66
731.224	8045.51
731.565	7960.31
731.906	7931.39
732.248	7968.45
732.589	7920.31
732.93	7987.88
733.271	7881.45
733.612	7978.84
733.953	7948.56
734.294	7967.09
734.635	7941.78
734.976	7943.14
735.317	7920.77
735.658	7930.94
735.999	7989.01
736.339	7910.6
736.68	7968.67
737.021	7954.66
737.361	7922.12
737.702	7956.25
738.042	7996.24
738.383	7949.92
738.723	8000.31
739.063	8022.46
739.404	7985.17
739.744	7986.3
740.084	8002.12
740.424	7974.32
740.764	8007.09
741.104	8038.73
741.444	7997.83
741.784	7978.62
742.124	8075.11
742.464	8059.29
742.804	8086.19
743.143	8024.04
743.483	8083.02
743.823	8063.14
744.162	8168.9
744.502	8121.66
744.841	8131.83
745.181	8279.17
745.52	8191.72
745.86	8216.8
746.199	8265.16
746.538	8262.23
746.877	8309.23
747.216	8263.58
747.556	8395.56
747.895	8470.13
748.234	8462.9
748.573	8429
748.911	8522.11
749.25	8559.17
749.589	8563.46
749.928	8630.13
750.267	8724.14
750.605	8797.81
750.944	8878.48
751.283	8905.37
751.621	8978.37
751.96	9052.94
752.298	9185.59
752.636	9196.44
752.975	9286.83
753.313	9304.01
753.651	9526.37
753.989	9431.91
754.327	9556.43
754.666	9685.24
755.004	9793.49
755.342	9905.12
755.679	9994.16
756.017	10033.03
756.355	10167.26
756.693	10329.52
757.031	10383.07
757.368	10489.51
757.706	10626.46
758.044	10680.47
758.381	10875.72
758.719	10934.25
759.056	11136.95
759.394	11185.99
759.731	11303.95
760.068	11433.89
760.405	11602.48
760.743	11687.22
