Data from hue_70_FLMS001491_68.txt Node
Date: Mon Feb 06 15:21:17 GMT 2017
User: dcchb
Spectrometer: FLMS00149
Trigger mode: 0
Integration Time (sec): 2.000000E-2
Scans to average: 10
Electric dark correction enabled: true
Nonlinearity correction enabled: false
Boxcar width: 0
XAxis mode: Wavelengths
Number of Pixels in Spectrum: 2048
>>>>>Begin Spectral Data<<<<<
341.393	-15.49
341.776	-15.49
342.16	-15.49
342.543	-36.74
342.927	-60.92
343.31	-71.31
343.693	-80.58
344.077	-69.5
344.46	-35.83
344.843	-33.8
345.226	-38.54
345.61	-28.6
345.993	-23.86
346.376	-8.04
346.759	-2.16
347.142	41.23
347.525	41.91
347.908	45.07
348.291	80.1
348.674	72.41
349.057	111.51
349.44	116.03
349.823	162.13
350.206	162.35
350.588	188.12
350.971	208
351.354	203.94
351.737	245.74
352.119	248.68
352.502	271.28
352.884	287.77
353.267	275.12
353.65	296.81
354.032	304.27
354.414	319.64
354.797	312.63
355.179	317.6
355.562	333.65
355.944	318.06
356.326	324.38
356.709	334.55
357.091	301.33
357.473	344.95
357.855	351.5
358.238	335.68
358.62	336.14
359.002	342.01
359.384	347.89
359.766	337.72
360.148	326.64
360.53	347.66
360.912	329.58
361.294	347.21
361.676	323.93
362.057	305.85
362.439	353.31
362.821	331.62
363.203	326.42
363.584	332.52
363.966	326.42
364.348	300.66
364.729	330.03
365.111	320.09
365.493	309.7
365.874	298.17
366.256	311.73
366.637	316.47
367.019	329.36
367.4	311.5
367.781	321.45
368.163	299.98
368.544	305.18
368.925	310.83
369.306	320.54
369.688	307.66
370.069	334.78
370.45	320.32
370.831	296.81
371.212	291.16
371.593	308.11
371.974	321.45
372.355	309.92
372.736	328.23
373.117	307.66
373.498	319.19
373.879	312.86
374.26	337.04
374.641	292.29
375.021	297.04
375.402	316.93
375.783	318.96
376.163	325.51
376.544	334.1
376.925	342.69
377.305	327.1
377.686	317.6
378.066	336.59
378.447	333.2
378.827	333.42
379.208	353.08
379.588	327.1
379.968	313.76
380.349	331.16
380.729	332.52
381.109	321.67
381.489	336.59
381.87	330.26
382.25	341.78
382.63	342.69
383.01	343.37
383.39	318.28
383.77	353.76
384.15	355.8
384.53	346.3
384.91	349.47
385.29	339.3
385.67	355.12
386.049	330.26
386.429	351.5
386.809	352.41
387.189	347.66
387.568	332.52
387.948	355.57
388.328	361.45
388.707	334.78
389.087	339.07
389.466	356.93
389.846	353.54
390.225	342.24
390.605	352.41
390.984	357.38
391.363	366.19
391.743	352.18
392.122	355.57
392.501	368.68
392.881	379.75
393.26	362.8
393.639	367.32
394.018	365.06
394.397	356.47
394.776	379.75
395.155	366.64
395.534	378.62
395.913	377.04
396.292	396.47
396.671	384.5
397.05	368.45
397.429	383.14
397.808	376.13
398.186	366.42
398.565	368
398.944	371.16
399.323	380.43
399.701	380.65
400.08	393.08
400.458	368
400.837	384.5
401.215	398.28
401.594	421.33
401.972	388.79
402.351	402.57
402.729	410.03
403.107	382.69
403.486	407.09
403.864	400.54
404.242	415.91
404.62	420.43
404.999	401.44
405.377	405.06
405.755	429.69
406.133	395.79
406.511	417.04
406.889	420.65
407.267	425.85
407.645	420.88
408.023	412.74
408.401	434.66
408.779	424.72
409.156	433.31
409.534	431.95
409.912	432.18
410.29	430.14
410.667	430.6
411.045	436.7
411.422	436.47
411.8	450.71
412.178	462.46
412.555	472.18
412.933	458.17
413.31	481.89
413.687	455.23
414.065	466.3
414.442	466.3
414.819	457.71
415.197	461.56
415.574	464.49
415.951	497.49
416.328	465.4
416.705	492.97
417.082	482.12
417.46	484.83
417.837	487.32
418.214	482.57
418.591	503.59
418.967	493.19
419.344	513.53
419.721	503.14
420.098	498.84
420.475	526.19
420.852	503.14
421.228	523.7
421.605	533.87
421.982	525.06
422.358	518.5
422.735	511.05
423.111	533.19
423.488	525.96
423.864	529.35
424.241	534.77
424.617	547.2
424.994	526.19
425.37	556.02
425.746	543.36
426.123	550.37
426.499	546.07
426.875	558.05
427.251	562.8
427.627	553.53
428.003	569.12
428.379	586.98
428.756	592.63
429.132	557.37
429.507	586.75
429.883	567.32
430.259	587.88
430.635	594.66
431.011	610.03
431.387	597.15
431.763	600.08
432.138	616.35
432.514	598.28
432.89	603.92
433.265	624.26
433.641	644.15
434.016	626.3
434.392	647.54
434.767	653.64
435.143	656.58
435.518	668.33
435.894	664.71
436.269	679.63
436.644	691.38
437.02	701.32
437.395	695.67
437.77	705.39
438.145	689.8
438.52	705.39
438.895	706.29
439.271	731.15
439.646	722.11
440.021	702
440.395	708.78
440.77	705.84
441.145	717.59
441.52	735.22
441.895	731.15
442.27	756.01
442.645	742
443.019	746.75
443.394	761.21
443.769	763.02
444.143	752.4
444.518	745.84
444.892	784.26
445.267	778.84
445.641	777.25
446.016	778.84
446.39	786.29
446.764	789.91
447.139	770.7
447.513	791.26
447.887	759.85
448.262	812.05
448.636	799.85
449.01	814.99
449.384	818.83
449.758	828.33
450.132	804.6
450.506	852.05
450.88	816.35
451.254	815.22
451.628	850.92
452.002	865.84
452.376	844.14
452.75	861.55
453.123	861.55
453.497	887.53
453.871	891.15
454.244	891.37
454.618	887.08
454.992	932.05
455.365	919.85
455.739	939.28
456.112	939.06
456.486	960.75
456.859	957.36
457.232	966.4
457.606	987.64
457.979	993.97
458.352	979.06
458.725	1025.38
459.099	1015.89
459.472	1051.14
459.845	1040.3
460.218	1046.63
460.591	1061.31
460.964	1069.68
461.337	1084.59
461.71	1095.66
462.083	1115.32
462.456	1098.38
462.829	1144.02
463.201	1143.8
463.574	1159.39
463.947	1183.12
464.32	1207.98
464.692	1194.87
465.065	1219.95
465.438	1247.3
465.81	1263.12
466.183	1290.46
466.555	1285.49
466.928	1298.37
467.3	1308.31
467.672	1352.61
468.045	1357.8
468.417	1370.01
468.789	1400.51
469.161	1440.06
469.534	1423.34
469.906	1437.35
470.278	1477.12
470.65	1496.33
471.022	1538.59
471.394	1571.58
471.766	1583.33
472.138	1612.94
472.51	1642.54
472.882	1694.74
473.253	1706.04
473.625	1785.36
473.997	1806.61
474.369	1826.94
474.74	1825.36
475.112	1928.18
475.484	1947.84
475.855	1988.52
476.227	2023.77
476.598	2108.74
476.97	2133.38
477.341	2239.14
477.713	2260.38
478.084	2296.76
478.455	2355.29
478.827	2398
479.198	2534.72
479.569	2551.44
479.94	2655.17
480.311	2674.15
480.682	2795.05
481.053	2863.07
481.424	2947.37
481.795	3020.13
482.166	3085.89
482.537	3160.47
482.908	3278.88
483.279	3380.35
483.65	3469.16
484.021	3553
484.391	3652.66
484.762	3741.92
485.133	3767.46
485.503	3912.09
485.874	4099.65
486.244	4190.5
486.615	4225.98
486.985	4418.74
487.356	4501
487.726	4557.72
488.097	4763.82
488.467	4827.32
488.837	5014.66
489.207	5117.25
489.578	5275.21
489.948	5331.94
490.318	5524.47
490.688	5601.08
491.058	5834.3
491.428	5925.14
491.798	6062.31
492.168	6237.45
492.538	6345.47
492.908	6401.51
493.278	6625.69
493.648	6736.19
494.017	6833.14
494.387	7012.8
494.757	7162.62
495.126	7207.14
495.496	7362.62
495.866	7550.63
496.235	7688.71
496.605	7903.62
496.974	7958.31
497.344	8125.53
497.713	8211.41
498.082	8306.77
498.452	8526.43
498.821	8629.48
499.19	8728.68
499.559	8911.28
499.928	9007.09
500.298	9092.74
500.667	9218.84
501.036	9315.33
501.405	9546.51
501.774	9604.59
502.143	9680.3
502.512	9919.16
502.88	10036.22
503.249	10010.91
503.618	10184.24
503.987	10338.13
504.356	10477.79
504.724	10541.29
505.093	10653.38
505.462	10758.01
505.83	10915.97
506.199	11000.04
506.567	11129.3
506.936	11235.06
507.304	11349.63
507.672	11427.82
508.041	11564.31
508.409	11692.67
508.777	11828.71
509.145	11925.66
509.514	12028.26
509.882	12160.46
510.25	12209.72
510.618	12338.08
510.986	12391.19
511.354	12536.04
511.722	12691.97
512.09	12887.9
512.458	12856.26
512.826	12957.5
513.193	13100.09
513.561	13184.84
513.929	13228.68
514.297	13317.26
514.664	13485.62
515.032	13564.94
515.4	13690.81
515.767	13783.47
516.135	13891.94
516.502	13813.52
516.869	14092.38
517.237	14125.15
517.604	14090.8
517.972	14313.85
518.339	14338.03
518.706	14490.79
519.073	14492.15
519.44	14622.09
519.808	14769.43
520.175	14804.23
520.542	14959.03
520.909	15025.92
521.276	15078.35
521.643	15228.17
522.009	15270.21
522.376	15319.7
522.743	15438.11
523.11	15506.13
523.477	15665.45
523.843	15827.93
524.21	15860.25
524.577	16026.57
524.943	16029.28
525.31	16217.53
525.676	16295.49
526.043	16390.63
526.409	16417.75
526.776	16603.96
527.142	16634.01
527.508	16772.77
527.874	16826.55
528.241	16892.08
528.607	16901.12
528.973	17066.54
529.339	17032.19
529.705	17261.34
530.071	17220.66
530.437	17321.23
530.803	17383.82
531.169	17546.76
531.535	17497.04
531.901	17542.46
532.267	17607.55
532.632	17731.16
532.998	17742.68
533.364	17927.99
533.73	17833.75
534.095	17915.33
534.461	18038.49
534.826	18034.65
535.192	18125.95
535.557	18147.64
535.923	18163.01
536.288	18167.3
536.653	18297.02
537.019	18295.66
537.384	18315.1
537.749	18381.54
538.114	18296.57
538.479	18309.9
538.845	18479.16
539.21	18333.4
539.575	18478.26
539.94	18459.73
540.305	18553.51
540.67	18544.24
541.034	18586.28
541.399	18658.59
541.764	18617.46
542.129	18689.78
542.494	18699.95
542.858	18780.85
543.223	18650.46
543.587	18788.53
543.952	18771.58
544.316	18885.25
544.681	18843.67
545.045	18813.39
545.41	18995.76
545.774	18957.79
546.138	18962.31
546.503	18887.51
546.867	18828.53
547.231	19047.51
547.595	18990.11
547.959	19033.27
548.324	19035.98
548.688	19006.6
549.052	19133.16
549.416	19055.64
549.779	19115.08
550.143	19162.98
550.507	19216.54
550.871	19280.72
551.235	19206.37
551.599	19415.18
551.962	19380.15
552.326	19387.39
552.689	19369.08
553.053	19380.61
553.417	19332.25
553.78	19632.35
554.143	19542.86
554.507	19561.84
554.87	19525.01
555.234	19747.15
555.597	19529.08
555.96	19699.02
556.323	19761.61
556.686	19661.73
557.05	19806.58
557.413	19818.11
557.776	19806.58
558.139	19975.17
558.502	20017.65
558.865	20015.62
559.228	20046.13
559.59	20078.44
559.953	20130.64
560.316	20473.46
560.679	20300.58
561.041	20363.86
561.404	20418.55
561.767	20639.33
562.129	20530.63
562.492	20682.49
562.854	20680.01
563.217	20571.76
563.579	20667.35
563.941	20756.62
564.304	20784.19
564.666	20951.64
565.028	20840.23
565.39	21035.48
565.753	21167.68
566.115	21100.56
566.477	21277.96
566.839	21178.53
567.201	21365.86
567.563	21332.65
567.925	21508.01
568.287	21469.59
568.648	21513.88
569.01	21691.28
569.372	21738.51
569.734	21592.07
570.095	21856.25
570.457	21848.56
570.819	21902.8
571.18	21763.14
571.542	22016.47
571.903	21937.83
572.265	22186.18
572.626	22065.51
572.987	22042.46
573.349	22197.03
573.71	22285.61
574.071	22352.96
574.432	22337.82
574.794	22434.76
575.155	22380.98
575.516	22329.46
575.877	22550.92
576.238	22603.57
576.599	22561.77
576.96	22541.65
577.32	22638.15
577.681	22646.28
578.042	22713.17
578.403	22651.03
578.763	22730.12
579.124	22666.17
579.485	22724.25
579.845	22861.19
580.206	22748.43
580.566	22748.65
580.927	22758.14
581.287	22903
581.648	22886.28
582.008	22963.11
582.368	22914.07
582.728	22950
583.089	22958.59
583.449	22937.12
583.809	22892.15
584.169	22928.54
584.529	22888.08
584.889	23095.31
585.249	22936.22
585.609	22841.53
585.969	23062.32
586.329	22858.03
586.688	22983.68
587.048	23013.73
587.408	22858.71
587.768	22965.82
588.127	22952.72
588.487	22808.99
588.846	23075.2
589.206	22821.65
589.565	22909.1
589.925	23084.46
590.284	22891.47
590.643	23007.86
591.003	23038.59
591.362	22962.21
591.721	23048.08
592.08	22939.38
592.44	22999.95
592.799	22980.96
593.158	22891.25
593.517	22977.57
593.876	23000.17
594.235	23021.41
594.593	23045.59
594.952	23041.98
595.311	22935.77
595.67	23127.4
596.029	23110.45
596.387	23100.96
596.746	23170.56
597.104	23053.5
597.463	23186.61
597.822	23101.19
598.18	22964.69
598.538	23007.63
598.897	23190.22
599.255	22973.28
599.613	23386.6
599.972	23064.58
600.33	23140.51
600.688	23207.4
601.046	23167.17
601.404	23256.21
601.762	23293.27
602.12	23343.67
602.478	23371.01
602.836	23469.99
603.194	23159.04
603.552	23284.46
603.91	23262.54
604.268	23318.58
604.625	23210.11
604.983	23331.46
605.341	23184.35
605.698	23314.06
606.056	23368.3
606.413	23341.41
606.771	23443.55
607.128	23530.33
607.485	23314.97
607.843	23448.07
608.2	23590.89
608.557	23709.53
608.914	23482.87
609.272	23598.57
609.629	23688.97
609.986	23729.87
610.343	23609.42
610.7	23838.12
611.057	23814.84
611.414	23707.27
611.771	23841.73
612.127	23792.02
612.484	23832.01
612.841	23819.36
613.198	23877.89
613.554	23860.71
613.911	24038.56
614.267	23970.32
614.624	23974.84
614.98	24127.6
615.337	24170.54
615.693	24079.92
616.05	24080.82
616.406	24231.33
616.762	24118.33
617.118	24123.31
617.475	24306.13
617.831	24248.27
618.187	24327.59
618.543	24321.72
618.899	24505.22
619.255	24447.14
619.611	24271.55
619.967	24410.53
620.323	24475.39
620.678	24344.09
621.034	24352.45
621.39	24455.73
621.746	24350.65
622.101	24606.68
622.457	24545.67
622.812	24547.7
623.168	24532.79
623.523	24525.33
623.879	24677.64
624.234	24534.82
624.589	24581.6
624.945	24526.01
625.3	24734.59
625.655	24559.23
626.01	24587.93
626.365	24664.99
626.72	24544.31
627.075	24625.67
627.43	24627.7
627.785	24494.14
628.14	24548.38
628.495	24666.79
628.85	24600.81
629.205	24525.78
629.559	24679.45
629.914	24553.35
630.269	24533.69
630.623	24512
630.978	24499.12
631.332	24633.58
631.687	24681.71
632.041	24498.21
632.396	24560.13
632.75	24415.05
633.104	24526.91
633.459	24361.72
633.813	24398.1
634.167	24342.06
634.521	24342.96
634.875	24518.1
635.229	24371.21
635.583	24267.48
635.937	24328.05
636.291	24260.48
636.645	24245.79
636.999	24230.87
637.352	24253.92
637.706	24171.21
638.06	24304.32
638.413	24173.7
638.767	24181.61
639.121	24206.47
639.474	23987.49
639.828	24107.49
640.181	24090.54
640.534	24035.63
640.888	23906.14
641.241	23940.71
641.594	23896.65
641.947	23999.92
642.301	23931.9
642.654	23956.31
643.007	23888.06
643.36	23944.78
643.713	23844.22
644.066	23911.33
644.419	23823.2
644.771	23663.21
645.124	23371.46
645.477	23451.23
645.83	23190.68
646.182	23180.28
646.535	23130.79
646.888	23202.88
647.24	23048.98
647.593	23082.43
647.945	23117.01
648.298	23051.92
648.65	22965.6
649.002	22773.06
649.355	23008.99
649.707	22994.52
650.059	23010.34
650.411	23350.45
650.763	23321.75
651.115	23602.42
651.467	23624.34
651.819	23597.44
652.171	23578.24
652.523	23433.83
652.875	23472.7
653.227	23401.07
653.578	23660.27
653.93	23435.41
654.282	23411.46
654.633	23369.43
654.985	23418.01
655.337	23420.95
655.688	23440.39
656.039	23527.84
656.391	23281.07
656.742	23339.15
657.094	23394.74
657.445	23414.17
657.796	23459.82
658.147	23246.72
658.498	23240.17
658.849	23308.86
659.2	23311.12
659.551	23296.21
659.902	23356.09
660.253	23300.96
660.604	23476.54
660.955	23261.86
661.306	23462.08
661.656	23337.56
662.007	23364.91
662.358	23393.16
662.708	23432.48
663.059	23387.05
663.409	23140.28
663.76	23449.88
664.11	23462.76
664.461	23390.67
664.811	23325.36
665.161	23321.75
665.511	23321.07
665.862	23391.35
666.212	23445.36
666.562	23284.46
666.912	23258.47
667.262	23375.3
667.612	23341.63
667.962	23398.58
668.312	23344.57
668.662	23399.48
669.011	23352.93
669.361	23238.58
669.711	23369.88
670.06	23290.56
670.41	23332.37
670.76	23231.58
671.109	23267.51
671.459	23170.79
671.808	23244.01
672.157	23291.69
672.507	23182.54
672.856	23117.68
673.205	23132.15
673.554	23274.06
673.904	23064.13
674.253	23222.99
674.602	23095.08
674.951	22867.75
675.3	22670.92
675.649	23042.2
675.998	23035.43
676.346	22994.3
676.695	23067.51
677.044	22959.72
677.393	23047.85
677.741	23011.02
678.09	22828.65
678.438	22670.69
678.787	22963.11
679.135	22984.13
679.484	22691.25
679.832	22815.54
680.181	22613.29
680.529	22756.79
680.877	22723.12
681.225	22707.07
681.573	22688.54
681.922	22551.82
682.27	22564.03
682.618	22530.35
682.966	22501.43
683.314	22482.67
683.661	22583.01
684.009	22339.17
684.357	22310.47
684.705	22215.79
685.053	22280.42
685.4	22329.46
685.748	22059.63
686.095	22170.14
686.443	22058.73
686.79	22036.13
687.138	22047.65
687.485	22056.69
687.832	21933.31
688.18	21910.03
688.527	21826.19
688.874	21866.42
689.221	21748.23
689.568	21796.59
689.915	21634.11
690.262	21622.13
690.609	21503.94
690.956	21499.19
691.303	21488.57
691.65	21355.92
691.997	21305.3
692.344	21323.15
692.69	21160.22
693.037	21164.29
693.383	20957.06
693.73	21150.28
694.077	20936.5
694.423	20953.67
694.769	20861.02
695.116	20828.7
695.462	20688.14
695.808	20804.3
696.155	20608.37
696.501	20573.57
696.847	20486.34
697.193	20415.61
697.539	20452.89
697.885	20321.82
698.231	20168.83
698.577	20176.97
698.923	20149.4
699.269	20019.69
699.614	19976.52
699.96	19928.61
700.306	19892.46
700.651	19789.86
700.997	19635.29
701.342	19692.24
701.688	19637.55
702.033	19555.97
702.379	19605.91
702.724	19483.65
703.069	19446.14
703.415	19241.4
703.76	19233.72
704.105	19256.77
704.45	19187.62
704.795	19142.87
705.14	18871.92
705.485	19047.28
705.83	19045.93
706.175	18996.89
706.52	18847.29
706.865	18870.11
707.209	18786.27
707.554	18746.05
707.899	18820.62
708.243	18685.71
708.588	18670.34
708.932	18529.78
709.277	18474.19
709.621	18491.14
709.966	18286.62
710.31	18428.77
710.654	18263.12
710.998	18204.59
711.342	18226.96
711.687	18161.88
712.031	18126.18
712.375	17998.27
712.719	18018.83
713.063	17972.28
713.407	18128.21
713.75	17958.72
714.094	17944.71
714.438	17784.49
714.782	17939.51
715.125	17815.22
715.469	17827.65
715.812	17660.43
716.156	17576.81
716.499	17706.98
716.843	17569.35
717.186	17476.02
717.53	17615.45
717.873	17674.44
718.216	17565.96
718.559	17483.71
718.902	17387.89
719.246	17410.71
719.589	17349.02
719.932	17318.51
720.275	17229.7
720.617	17294.79
720.96	17195.8
721.303	17315.8
721.646	17225.41
721.989	17209.82
722.331	17202.13
722.674	17172.75
723.016	17151.96
723.359	17156.48
723.701	17147.44
724.044	16959.65
724.386	16934.12
724.729	17092.98
725.071	17008.69
725.413	16920.56
725.755	16872.42
726.097	16931.86
726.439	16768.47
726.782	16796.72
727.124	16866.1
727.465	16814.8
727.807	16756.04
728.149	16767.12
728.491	16783.16
728.833	16745.2
729.175	16663.84
729.516	16676.27
729.858	16662.94
730.199	16682.82
730.541	16669.94
730.882	16621.13
731.224	16601.7
731.565	16605.54
731.906	16553.79
732.248	16596.5
732.589	16599.66
732.93	16481.02
733.271	16474.69
733.612	16566.89
733.953	16576.16
734.294	16411.64
734.635	16434.69
734.976	16530.96
735.317	16471.08
735.658	16400.12
735.999	16468.37
736.339	16449.84
736.68	16406.22
737.021	16368.71
737.361	16373.45
737.702	16485.54
738.042	16341.82
738.383	16298.2
738.723	16482.15
739.063	16268.37
739.404	16373.91
739.744	16310.4
740.084	16314.25
740.424	16345.43
740.764	16354.25
741.104	16352.89
741.444	16253.91
741.784	16212.33
742.124	16273.34
742.464	16255.04
742.804	16259.33
743.143	16327.58
743.483	16389.95
743.823	16308.37
744.162	16339.78
744.502	16323.51
744.841	16311.99
745.181	16466.78
745.52	16425.66
745.86	16498.42
746.199	16464.07
746.538	16450.06
746.877	16471.3
747.216	16505.43
747.556	16441.02
747.895	16520.34
748.234	16473.79
748.573	16539.1
748.911	16619.1
749.25	16576.39
749.589	16715.59
749.928	16680.56
750.267	16820.9
750.605	16698.42
750.944	16744.74
751.283	16852.76
751.621	16906.77
751.96	16861.58
752.298	16894.57
752.636	16915.36
752.975	17111.51
753.313	17060.22
753.651	17201.91
753.989	17167.56
754.327	17185.18
754.666	17214.79
755.004	17424.73
755.342	17371.62
755.679	17470.37
756.017	17570.71
756.355	17608.9
756.693	17647.54
