Data from hue_10_FLMS001491_66.txt Node
Date: Mon Feb 06 15:32:20 GMT 2017
User: dcchb
Spectrometer: FLMS00149
Trigger mode: 0
Integration Time (sec): 2.000000E-2
Scans to average: 10
Electric dark correction enabled: true
Nonlinearity correction enabled: false
Boxcar width: 0
XAxis mode: Wavelengths
Number of Pixels in Spectrum: 2048
>>>>>Begin Spectral Data<<<<<
341.393	-7.09
341.776	-7.09
342.16	-7.09
342.543	-70.14
342.927	-59.74
343.31	-71.95
343.693	-55.9
344.077	-63.13
344.46	-50.48
344.843	-47.09
345.226	-38.28
345.61	-49.8
345.993	-19.07
346.376	-21.55
346.759	12.57
347.142	26.36
347.525	36.75
347.908	43.53
348.291	99.35
348.674	78.11
349.057	120.59
349.44	143.64
349.823	146.13
350.206	156.75
350.588	202.17
350.971	197.88
351.354	228.38
351.737	239.91
352.119	243.52
352.502	256.18
352.884	282.85
353.267	275.61
353.65	288.5
354.032	289.63
354.414	286.24
354.797	291.66
355.179	308.38
355.562	326.23
355.944	337.31
356.326	332.11
356.709	323.52
357.091	314.94
357.473	341.15
357.855	316.52
358.238	330.3
358.62	323.3
359.002	328.95
359.384	347.02
359.766	341.6
360.148	336.18
360.53	326.91
360.912	311.32
361.294	316.07
361.676	301.15
362.057	330.75
362.439	330.08
362.821	317.65
363.203	315.61
363.584	337.53
363.966	338.89
364.348	319.23
364.729	318.55
365.111	309.74
365.493	304.09
365.874	300.7
366.256	306.35
366.637	312.9
367.019	323.07
367.4	310.42
367.781	313.81
368.163	306.8
368.544	303.86
368.925	323.07
369.306	316.52
369.688	312.22
370.069	310.64
370.45	288.95
370.831	303.86
371.212	310.87
371.593	299.57
371.974	314.03
372.355	329.17
372.736	327.36
373.117	283.07
373.498	308.61
373.879	329.4
374.26	299.57
374.641	317.2
375.021	283.75
375.402	299.57
375.783	309.74
376.163	317.42
376.544	316.52
376.925	327.59
377.305	317.65
377.686	323.97
378.066	309.96
378.447	331.66
378.827	341.83
379.208	335.73
379.588	309.51
379.968	337.99
380.349	322.17
380.729	316.74
381.109	310.87
381.489	321.71
381.87	320.36
382.25	339.34
382.63	332.56
383.01	337.76
383.39	319.68
383.77	330.98
384.15	341.6
384.53	348.83
384.91	333.47
385.29	335.73
385.67	333.01
386.049	326.69
386.429	347.25
386.809	345.44
387.189	337.08
387.568	344.09
387.948	338.21
388.328	331.66
388.707	339.57
389.087	359
389.466	366.23
389.846	371.66
390.225	354.03
390.605	347.7
390.984	343.64
391.363	345.22
391.743	351.09
392.122	358.32
392.501	338.89
392.881	373.69
393.26	367.36
393.639	377.53
394.018	344.54
394.397	373.92
394.776	362.84
395.155	369.17
395.534	332.34
395.913	354.03
396.292	397.87
396.671	355.84
397.05	365.78
397.429	356.74
397.808	378.66
398.186	371.66
398.565	359.91
398.944	360.81
399.323	395.16
399.701	362.84
400.08	392.67
400.458	385.89
400.837	379.79
401.215	368.04
401.594	383.86
401.972	380.47
402.351	379.11
402.729	379.57
403.107	382.73
403.486	382.73
403.864	401.94
404.242	386.8
404.62	380.47
404.999	400.13
405.377	386.12
405.755	414.14
406.133	395.84
406.511	394.71
406.889	408.27
407.267	406.23
407.645	419.11
408.023	408.49
408.401	403.97
408.779	384.54
409.156	415.72
409.534	397.19
409.912	407.59
410.29	410.3
410.667	407.59
411.045	406.68
411.422	435.84
411.8	415.05
412.178	437.87
412.555	447.59
412.933	442.62
413.31	434.48
413.687	451.43
414.065	444.2
414.442	446.01
414.819	468.83
415.197	478.32
415.574	463.86
415.951	429.06
416.328	443.75
416.705	431.77
417.082	463.18
417.46	471.09
417.837	464.76
418.214	452.11
418.591	476.96
418.967	473.8
419.344	460.69
419.721	464.54
420.098	479.9
420.475	495.5
420.852	493.24
421.228	497.76
421.605	469.96
421.982	471.77
422.358	479
422.735	479.9
423.111	498.89
423.488	490.75
423.864	506.12
424.241	531.2
424.617	522.84
424.994	515.38
425.37	488.04
425.746	516.06
426.123	499.11
426.499	534.14
426.875	519.9
427.251	511.31
427.627	547.47
428.003	521.03
428.379	521.03
428.756	546.57
429.132	543.63
429.507	544.53
429.883	549.51
430.259	553.12
430.635	550.86
431.011	547.02
431.387	541.6
431.763	581.82
432.138	578.66
432.514	571.65
432.89	590.41
433.265	596.51
433.641	597.41
434.016	615.27
434.392	588.6
434.767	612.1
435.143	629.5
435.518	606.68
435.894	624.53
436.269	606.45
436.644	629.5
437.02	641.48
437.395	623.85
437.77	640.58
438.145	627.7
438.52	645.55
438.895	634.7
439.271	636.28
439.646	689.16
440.021	659.78
440.395	676.28
440.77	654.81
441.145	648.26
441.52	672.89
441.895	677.19
442.27	682.61
442.645	669.73
443.019	699.56
443.394	682.84
443.769	679.9
444.143	695.49
444.518	694.81
444.892	674.25
445.267	702.27
445.641	703.17
446.016	720.8
446.39	706.79
446.764	694.36
447.139	697.98
447.513	725.55
447.887	726.22
448.262	719.9
448.636	731.65
449.01	733.23
449.384	747.92
449.758	751.99
450.132	734.36
450.506	760.35
450.88	771.65
451.254	765.54
451.628	756.96
452.002	763.29
452.376	769.84
452.75	774.13
453.123	797.18
453.497	790.63
453.871	782.72
454.244	805.09
454.618	800.12
454.992	819.33
455.365	817.07
455.739	842.38
456.112	845.09
456.486	827.46
456.859	865.88
457.232	872.21
457.606	857.52
457.979	884.64
458.352	866.33
458.725	892.1
459.099	874.02
459.472	898.65
459.845	894.36
460.218	897.52
460.591	916.05
460.964	930.29
461.337	937.07
461.71	947.01
462.083	981.81
462.456	948.59
462.829	964.64
463.201	974.13
463.574	990.17
463.947	997.86
464.32	1027.01
464.692	1040.11
465.065	1038.31
465.438	1052.77
465.81	1051.64
466.183	1059.77
466.555	1059.1
466.928	1097.74
467.3	1071.53
467.672	1077.4
468.045	1145.87
468.417	1131.41
468.789	1160.56
469.161	1163.27
469.534	1165.53
469.906	1175.03
470.278	1201.92
470.65	1223.39
471.022	1235.36
471.394	1242.14
471.766	1251.18
472.138	1275.36
472.51	1314
472.882	1334.57
473.253	1335.02
473.625	1361.46
473.997	1368.92
474.369	1398.3
474.74	1406.21
475.112	1421.57
475.484	1437.39
475.855	1480.55
476.227	1499.08
476.598	1532.08
476.97	1554.45
477.341	1566.43
477.713	1578.18
478.084	1642.58
478.455	1649.14
478.827	1662.47
479.198	1721
479.569	1715.35
479.94	1769.36
480.311	1816.36
480.682	1863.6
481.053	1887.32
481.424	1906.08
481.795	1901.11
482.166	1950.37
482.537	1969.81
482.908	2043.03
483.279	2057.26
483.65	2130.48
484.021	2172.51
484.391	2186.98
484.762	2225.39
485.133	2205.06
485.503	2264.49
485.874	2311.49
486.244	2353.98
486.615	2375.22
486.985	2430.59
487.356	2477.14
487.726	2497.02
488.097	2517.36
488.467	2566.85
488.837	2605.72
489.207	2619.28
489.578	2676.46
489.948	2712.39
490.318	2755.55
490.688	2764.36
491.058	2846.17
491.428	2877.58
491.798	2898.82
492.168	2947.63
492.538	2941.98
492.908	3000.29
493.278	3022.89
493.648	3066.95
494.017	3095.88
494.387	3148.31
494.757	3163.45
495.126	3188.98
495.496	3244.58
495.866	3245.93
496.235	3286.83
496.605	3318.25
496.974	3296.1
497.344	3393.27
497.713	3408.19
498.082	3438.69
498.452	3453.38
498.821	3477.34
499.19	3499.26
499.559	3484.8
499.928	3542.42
500.298	3544.23
500.667	3588.52
501.036	3595.3
501.405	3598.01
501.774	3617.9
502.143	3709.2
502.512	3684.79
502.88	3733.6
503.249	3754.17
503.618	3748.74
503.987	3801.85
504.356	3858.34
504.724	3848.63
505.093	3824.22
505.462	3841.62
505.83	3866.25
506.199	3866.48
506.567	3967.95
506.936	3957.55
507.304	3982.86
507.672	4003.43
508.041	3986.03
508.409	4011.11
508.777	4060.83
509.145	4090.43
509.514	4069.64
509.882	4116.19
510.25	4118.9
510.618	4131.11
510.986	4162.29
511.354	4183.31
511.722	4217.66
512.09	4246.81
512.458	4265.57
512.826	4239.58
513.193	4310.76
513.561	4288.39
513.929	4325.9
514.297	4332.46
514.664	4347.82
515.032	4384.66
515.4	4375.85
515.767	4434.6
516.135	4455.17
516.502	4433.7
516.869	4455.17
517.237	4443.87
517.604	4460.36
517.972	4460.36
518.339	4514.37
518.706	4503.53
519.073	4526.58
519.44	4547.59
519.808	4599.12
520.175	4597.53
520.542	4644.09
520.909	4656.06
521.276	4601.38
521.643	4666.46
522.009	4681.6
522.376	4750.3
522.743	4766.8
523.11	4735.84
523.477	4792.78
523.843	4822.61
524.21	4844.76
524.577	4887.7
524.943	4889.28
525.31	4879.56
525.676	4938.77
526.043	4984.19
526.409	4959.56
526.776	5023.06
527.142	5020.8
527.508	5076.39
527.874	5093.57
528.241	5108.71
528.607	5121.59
528.973	5170.63
529.339	5172.21
529.705	5216.05
530.071	5305.09
530.437	5253.11
530.803	5350.96
531.169	5292.21
531.535	5350.51
531.901	5367.91
532.267	5360.45
532.632	5461.69
532.998	5473.22
533.364	5486.1
533.73	5460.79
534.095	5491.07
534.461	5549.83
534.826	5564.06
535.192	5579.66
535.557	5567.23
535.923	5582.82
536.288	5681.12
536.653	5656.04
537.019	5674.79
537.384	5699.65
537.749	5741.01
538.114	5690.61
538.479	5721.12
538.845	5752.53
539.21	5762.48
539.575	5856.94
539.94	5870.04
540.305	5862.13
540.67	5885.64
541.034	5893.77
541.399	5917.73
541.764	5912.3
542.129	5977.61
542.494	6052.86
542.858	6040.89
543.223	6069.13
543.587	6091.05
543.952	6104.16
544.316	6142.58
544.681	6112.3
545.045	6148.91
545.41	6185.29
545.774	6192.52
546.138	6187.55
546.503	6246.53
546.867	6234.33
547.231	6283.82
547.595	6311.61
547.959	6366.53
548.324	6305.29
548.688	6399.3
549.052	6402.01
549.416	6389.13
549.779	6409.46
550.143	6462.57
550.507	6496.69
550.871	6542.57
551.235	6538.5
551.599	6611.72
551.962	6566.3
552.326	6562.45
552.689	6645.84
553.053	6651.72
553.417	6623.47
553.78	6719.74
554.143	6673.64
554.507	6708.44
554.87	6747.31
555.234	6797.25
555.597	6789.57
555.96	6770.81
556.323	6837.25
556.686	6821.2
557.05	6838.15
557.413	6871.15
557.776	6883.8
558.139	6956.34
558.502	6913.86
558.865	6978.26
559.228	7026.85
559.59	7032.95
559.953	7046.51
560.316	7139.39
560.679	7111.59
561.041	7150.69
561.404	7124.93
561.767	7253.51
562.129	7203.34
562.492	7304.81
562.854	7191.82
563.217	7148.2
563.579	7235.88
563.941	7335.09
564.304	7332.15
564.666	7397.46
565.028	7350.91
565.39	7386.61
565.753	7417.12
566.115	7452.37
566.477	7462.32
566.839	7496.89
567.201	7506.38
567.563	7600.17
567.925	7707.51
568.287	7588.64
568.648	7655.08
569.01	7718.13
569.372	7769.43
569.734	7799.26
570.095	7817.11
570.457	7919.48
570.819	7853.72
571.18	7933.94
571.542	7931.91
571.903	7968.75
572.265	8019.37
572.626	8053.04
572.987	8102.98
573.349	8122.64
573.71	8172.36
574.071	8298
574.432	8297.55
574.794	8293.03
575.155	8383.42
575.516	8334.39
575.877	8446.92
576.238	8487.15
576.599	8560.59
576.96	8580.48
577.32	8714.49
577.681	8717.65
578.042	8845.56
578.403	8917.87
578.763	8957.42
579.124	9021.15
579.485	9115.16
579.845	9215.94
580.206	9323.74
580.566	9349.95
580.927	9513.56
581.287	9625.88
581.648	9731.41
582.008	9882.14
582.368	9996.71
582.728	10060.44
583.089	10230.38
583.449	10410.49
583.809	10554.21
584.169	10739.52
584.529	10727.77
584.889	11068.1
585.249	11086.4
585.609	11231.71
585.969	11503.34
586.329	11649.55
586.688	11804.35
587.048	11998.7
587.408	12172.25
587.768	12449.53
588.127	12620.15
588.487	12689.3
588.846	13089.29
589.206	13210.87
589.565	13460.58
589.925	13798.42
590.284	13935.82
590.643	14173.78
591.003	14404.06
591.362	14755.69
591.721	14938.73
592.08	15165.17
592.44	15445.16
592.799	15680.63
593.158	15951.59
593.517	16175.08
593.876	16483.32
594.235	16790.66
594.593	16975.06
594.952	17382.28
595.311	17617.98
595.67	17963.28
596.029	18262.71
596.387	18532.54
596.746	18881.68
597.104	19074.89
597.463	19288.9
597.822	19570.25
598.18	19871.26
598.538	20120.74
598.897	20514.86
599.255	20638.69
599.613	21120.26
599.972	21345.57
600.33	21614.26
600.688	21801.38
601.046	22190.74
601.404	22513.45
601.762	22703.27
602.12	23059.2
602.478	23206.76
602.836	23532.18
603.194	23728.56
603.552	23997.02
603.91	24147.3
604.268	24478.37
604.625	24785.03
604.983	25136.2
605.341	25269.76
605.698	25518.79
606.056	25802.85
606.413	26055.28
606.771	26320.81
607.128	26584.3
607.485	26616.16
607.843	26981.13
608.2	27318.52
608.557	27602.58
608.914	27649.58
609.272	28024.49
609.629	28328.21
609.986	28406.4
610.343	28588.32
610.7	28930.45
611.057	29000.06
611.414	29150.34
611.771	29472.36
612.127	29731.79
612.484	29780.83
612.841	30142.17
613.198	30243.41
613.554	30272.11
613.911	30691.76
614.267	30776.73
614.624	30987.12
614.98	31055.6
615.337	31536.94
615.693	31542.81
616.05	31608.12
616.406	31907.32
616.762	31940.54
617.118	32017.38
617.475	32151.39
617.831	32432.06
618.187	32546.86
618.543	32754.76
618.899	33227.97
619.255	33108.65
619.611	33186.61
619.967	33402.2
620.323	33626.83
620.678	33458.24
621.034	33602.87
621.39	33722.64
621.746	33891.23
622.101	34249.18
622.457	34192.69
622.812	34279.47
623.168	34490.08
623.523	34514.71
623.879	34685.1
624.234	34518.33
624.589	34719.68
624.945	34886.23
625.3	34852.56
625.655	35089.16
626.01	35082.38
626.365	35189.27
626.72	35119.67
627.075	35189.27
627.43	35333.68
627.785	35342.71
628.14	35356.73
628.495	35402.15
628.85	35464.52
629.205	35557.62
629.559	35757.39
629.914	35653.44
630.269	35544.52
630.623	35695.02
630.978	35726.21
631.332	35885.07
631.687	35990.83
632.041	35799.65
632.396	35917.61
632.75	35767.79
633.104	35919.42
633.459	35798.3
633.813	35809.37
634.167	35949.93
634.521	35941.12
634.875	35951.96
635.229	35989.93
635.583	35868.8
635.937	35905.86
636.291	35965.07
636.645	35945.64
636.999	35933.89
637.352	36024.96
637.706	35921.46
638.06	36132.52
638.413	35917.84
638.767	35944.05
639.121	36011.17
639.474	35830.39
639.828	35873.77
640.181	36000.1
640.534	36004.39
640.888	35845.07
641.241	35859.54
641.594	35809.37
641.947	35904.96
642.301	35902.02
642.654	35866.09
643.007	35931.63
643.36	35737.05
643.713	35752.42
644.066	36076.93
644.419	35697.28
644.771	35525.08
645.124	35289.83
645.477	35137.97
645.83	35170.52
646.182	34869.28
646.535	34730.98
646.888	34934.14
647.24	34722.17
647.593	35003.74
647.945	34804.88
648.298	34681.26
648.65	34606.91
649.002	34622.51
649.355	34661.6
649.707	34685.1
650.059	34880.58
650.411	35120.35
650.763	35317.63
651.115	35550.39
651.467	35490.51
651.819	35468.36
652.171	35402.6
652.523	35318.08
652.875	35393.79
653.227	35250.97
653.578	35602.59
653.93	35396.5
654.282	35311.08
654.633	35291.42
654.985	35371.64
655.337	35387.01
655.688	35237.63
656.039	35429.04
656.391	35120.57
656.742	35208.03
657.094	35313.79
657.445	35310.4
657.796	35318.53
658.147	35199.22
658.498	35046.68
658.849	35403.05
659.2	35221.81
659.551	35183.17
659.902	35253
660.253	35043.97
660.604	35283.73
660.955	35181.36
661.306	35266.78
661.656	35060.91
662.007	35221.36
662.358	35109.5
662.708	35227.69
663.059	35042.84
663.409	34982.72
663.76	35238.54
664.11	35139.33
664.461	35137.97
664.811	35092.55
665.161	35207.8
665.511	34933.69
665.862	35138.88
666.212	35179.1
666.562	35237.18
666.912	35039.67
667.262	34893.69
667.612	35070.86
667.962	35158.76
668.312	35126.22
668.662	35103.63
669.011	35117.41
669.361	34966.91
669.711	35036.73
670.06	34868.38
670.41	34838.1
670.76	34897.75
671.109	35039.9
671.459	34935.27
671.808	34948.6
672.157	34901.6
672.507	34682.17
672.856	34728.49
673.205	34824.08
673.554	34931.88
673.904	34885.78
674.253	34953.57
674.602	34855.95
674.951	34363.31
675.3	34164.67
675.649	34786.35
675.998	34611.43
676.346	34659.79
676.695	34870.86
677.044	34446.92
677.393	34726.91
677.741	34658.21
678.09	34735.5
678.438	34545.9
678.787	34521.04
679.135	34549.74
679.484	34383.19
679.832	34627.93
680.181	34205.34
680.529	34405.56
680.877	34244.89
681.225	34207.38
681.573	34437.65
681.922	34234.95
682.27	34096.42
682.618	34139.36
682.966	33959.7
683.314	34093.71
683.661	34008.29
684.009	33803.32
684.357	33855.97
684.705	33615.08
685.053	33851.68
685.4	33774.39
685.748	33614.4
686.095	33586.83
686.443	33565.59
686.79	33435.19
687.138	33524.68
687.485	33547.51
687.832	33435.19
688.18	33387.51
688.527	33167.4
688.874	33062.1
689.221	33054.19
689.568	33003.12
689.915	32849.22
690.262	33008.99
690.609	32952.04
690.956	32612.62
691.303	32629.34
691.65	32519.06
691.997	32693.52
692.344	32357.71
692.69	32247.88
693.037	32406.29
693.383	32100.77
693.73	32180.09
694.077	31978.06
694.423	32133.31
694.769	31919.08
695.116	31796.82
695.462	31892.64
695.808	31744.62
696.155	31737.16
696.501	31532.19
696.847	31621.68
697.193	31298.53
697.539	31449.71
697.885	31177.63
698.231	31150.51
698.577	31121.81
698.923	31037.97
699.269	30926.79
699.614	30769.05
699.96	30722.95
700.306	30716.17
700.651	30597.53
700.997	30523.86
701.342	30429.62
701.688	30475.05
702.033	30335.16
702.379	30188.95
702.724	30172.91
703.069	30352.56
703.415	29890.88
703.76	29961.39
704.105	29911.9
704.45	29786.93
704.795	29802.52
705.14	29656.54
705.485	29677.78
705.83	29601.4
706.175	29579.7
706.52	29474.62
706.865	29333.61
707.209	29398.01
707.554	29239.15
707.899	29368.41
708.243	29177.91
708.588	29186.49
708.932	28929.1
709.277	28816.56
709.621	28843.45
709.966	28649.11
710.31	28897.69
710.654	28607.98
710.998	28590.35
711.342	28671.48
711.687	28456.79
712.031	28326.63
712.375	28305.16
712.719	28302.67
713.063	28245.95
713.407	28260.19
713.75	28190.13
714.094	28033.98
714.438	28074.66
714.782	28089.35
715.125	27895.45
715.469	27927.99
715.812	27756.25
716.156	27685.06
716.499	27653.65
716.843	27773.2
717.186	27524.39
717.53	27653.43
717.873	27518.74
718.216	27474.67
718.559	27369.82
718.902	27267.45
719.246	27252.08
719.589	27323.04
719.932	27088.47
720.275	27152.42
720.617	26993.56
720.96	26956.95
721.303	26975.25
721.646	26921.47
721.989	26959.21
722.331	26944.97
722.674	26795.59
723.016	26914.91
723.359	26863.16
723.701	26742.26
724.044	26674.24
724.386	26507.69
724.729	26620.23
725.071	26551.08
725.413	26527.35
725.755	26498.43
726.097	26541.14
726.439	26252.56
726.782	26201.26
727.124	26360.8
727.465	26160.81
727.807	26201.26
728.149	26123.75
728.491	26043.3
728.833	26223.18
729.175	25991.1
729.516	26018.44
729.858	25937.54
730.199	25977.09
730.541	25871.1
730.882	25801.95
731.224	25832.23
731.565	25772.8
731.906	25756.53
732.248	25665
732.589	25637.21
732.93	25499.36
733.271	25583.42
733.612	25600.37
733.953	25548.85
734.294	25434.73
734.635	25491
734.976	25420.94
735.317	25449.42
735.658	25339.36
735.999	25343.66
736.339	25220.04
736.68	25295.07
737.021	25229.31
737.361	25075.19
737.702	25266.82
738.042	25105.47
738.383	25048.07
738.723	25142.76
739.063	25036.09
739.404	25119.25
739.744	25039.03
740.084	24900.73
740.424	24920.16
740.764	24769.89
741.104	24845.36
741.444	24823.67
741.784	24731.69
742.124	24766.95
742.464	24690.11
742.804	24590.46
743.143	24646.5
743.483	24647.18
743.823	24531.7
744.162	24426.17
744.502	24578.03
744.841	24461.64
745.181	24487.86
745.52	24381.42
745.86	24423.91
746.199	24400.63
746.538	24384.36
746.877	24366.73
747.216	24364.47
747.556	24282.21
747.895	24272.27
748.234	24163.8
748.573	24078.83
748.911	24054.42
749.25	23969.91
749.589	24008.32
749.928	23944.14
750.267	23848.78
750.605	23859.17
750.944	23851.72
751.283	23730.14
751.621	23916.12
751.96	23728.78
752.298	23632.51
752.636	23632.29
752.975	23627.99
753.313	23605.17
753.651	23603.59
753.989	23436.14
754.327	23370.6
754.666	23324.27
755.004	23299.87
755.342	23363.14
755.679	23395.68
756.017	23102.81
756.355	23271.85
756.693	23124.05
757.031	23137.61
757.368	22993.43
757.706	23024.17
758.044	22935.13
758.381	22970.61
758.719	22811.97
759.056	22843.83
759.394	22710.05
759.731	22670.28
760.068	22679.32
760.405	22524.29
760.743	22428.7
761.08	22539.44
