Data from hue_160_FLMS001491_00022.txt Node
Date: Tue Feb 07 16:50:57 GMT 2017
User: dcchb
Spectrometer: FLMS00149
Trigger mode: 0
Integration Time (sec): 2.000000E-2
Scans to average: 10
Electric dark correction enabled: true
Nonlinearity correction enabled: false
Boxcar width: 0
XAxis mode: Wavelengths
Number of Pixels in Spectrum: 2048
>>>>>Begin Spectral Data<<<<<
341.393	-23.32
341.776	-23.32
342.16	-23.32
342.543	-84.56
342.927	-79.14
343.31	-82.98
343.693	-65.8
344.077	-82.07
344.46	-68.06
344.843	-43.43
345.226	-42.53
345.61	-41.85
345.993	-22.41
346.376	4.48
346.759	17.81
347.142	25.72
347.525	48.09
347.908	59.39
348.291	65.27
348.674	114.3
349.057	114.08
349.44	107.98
349.823	142.78
350.206	141.87
350.588	188.65
350.971	202.66
351.354	226.62
351.737	238.37
352.119	241.08
352.502	279.05
352.884	260.74
353.267	283.57
353.65	298.03
354.032	305.03
354.414	280.85
354.797	326.73
355.179	309.1
355.562	314.75
355.944	326.5
356.326	322.21
356.709	325.6
357.091	324.24
357.473	346.62
357.855	355.43
358.238	339.84
358.62	315.2
359.002	349.1
359.384	346.39
359.766	335.54
360.148	327.18
360.53	321.76
360.912	306.39
361.294	351.81
361.676	326.73
362.057	330.34
362.439	297.8
362.821	338.48
363.203	326.95
363.584	316.79
363.966	320.4
364.348	286.28
364.729	316.79
365.111	305.49
365.493	310.46
365.874	305.94
366.256	309.1
366.637	288.99
367.019	298.03
367.4	310.46
367.781	309.33
368.163	296.45
368.544	308.42
368.925	318.37
369.306	298.93
369.688	304.81
370.069	300.06
370.45	305.94
370.831	298.93
371.212	311.81
371.593	306.62
371.974	327.18
372.355	305.03
372.736	297.8
373.117	300.51
373.498	314.53
373.879	307.97
374.26	297.35
374.641	294.19
375.021	288.99
375.402	339.61
375.783	300.06
376.163	305.49
376.544	321.08
376.925	311.14
377.305	312.27
377.686	322.89
378.066	331.25
378.447	331.47
378.827	318.82
379.208	322.66
379.588	339.38
379.968	339.16
380.349	309.33
380.729	323.11
381.109	316.56
381.489	321.76
381.87	337.12
382.25	338.25
382.63	325.82
383.01	330.34
383.39	333.96
383.77	331.93
384.15	315.88
384.53	312.04
384.91	347.52
385.29	337.8
385.67	347.07
386.049	351.59
386.429	343.23
386.809	353.17
387.189	343.45
387.568	348.88
387.948	345.03
388.328	340.29
388.707	346.84
389.087	341.19
389.466	360.63
389.846	355.43
390.225	351.59
390.605	354.3
390.984	357.46
391.363	340.29
391.743	359.95
392.122	356.33
392.501	347.07
392.881	363.11
393.26	376.22
393.639	378.93
394.018	391.13
394.397	389.55
394.776	381.87
395.155	376.67
395.534	376.9
395.913	382.09
396.292	370.57
396.671	395.88
397.05	370.34
397.429	373.51
397.808	399.04
398.186	378.7
398.565	388.2
398.944	377.8
399.323	397.91
399.701	378.25
400.08	408.31
400.458	374.41
400.837	395.43
401.215	403.56
401.594	396.78
401.972	390.68
402.351	398.59
402.729	406.05
403.107	386.16
403.486	394.07
403.864	396.33
404.242	435.43
404.62	410.12
404.999	383.22
405.377	399.04
405.755	404.69
406.133	417.57
406.511	419.61
406.889	427.74
407.267	428.87
407.645	413.28
408.023	415.31
408.401	429.55
408.779	441.53
409.156	431.58
409.534	448.99
409.912	427.74
410.29	447.18
410.667	441.98
411.045	426.39
411.422	439.27
411.8	468.65
412.178	487.4
412.555	471.81
412.933	472.49
413.31	487.18
413.687	497.8
414.065	485.37
414.442	473.17
414.819	481.98
415.197	480.4
415.574	487.18
415.951	484.01
416.328	491.92
416.705	510
417.082	482.88
417.46	503.9
417.837	493.5
418.214	507.74
418.591	505.93
418.967	518.14
419.344	529.66
419.721	499.15
420.098	517.01
420.475	517.01
420.852	524.69
421.228	542.54
421.605	538.93
421.982	523.56
422.358	533.5
422.735	566.27
423.111	572.6
423.488	558.14
423.864	587.06
424.241	604.46
424.617	553.84
424.994	582.32
425.37	580.96
425.746	581.41
426.123	590
426.499	602.43
426.875	608.53
427.251	604.46
427.627	603.56
428.003	589.77
428.379	631.58
428.756	626.83
429.132	632.94
429.507	634.74
429.883	629.77
430.259	617.57
430.635	643.1
431.011	659.15
431.387	689.88
431.763	669.54
432.138	671.58
432.514	675.87
432.89	705.7
433.265	679.04
433.641	691.92
434.016	675.65
434.392	702.31
434.767	712.93
435.143	726.72
435.518	722.65
435.894	732.37
436.269	742.76
436.644	771.91
437.02	758.58
437.395	756.32
437.77	766.04
438.145	777.11
438.52	787.73
438.895	787.06
439.271	780.05
439.646	819.37
440.021	806.49
440.395	838.13
440.77	803.55
441.145	825.25
441.52	828.64
441.895	822.31
442.27	869.77
442.645	837.22
443.019	859.82
443.394	868.18
443.769	843.33
444.143	868.64
444.518	886.94
444.892	887.62
445.267	895.75
445.641	886.26
446.016	897.56
446.39	894.4
446.764	928.07
447.139	918.58
447.513	929.42
447.887	932.36
448.262	931.46
448.636	939.82
449.01	929.2
449.384	966.49
449.758	975.3
450.132	967.84
450.506	999.03
450.88	977.11
451.254	1004.68
451.628	999.48
452.002	1012.13
452.376	1005.35
452.75	1021.17
453.123	1047.16
453.497	1032.25
453.871	1045.58
454.244	1100.04
454.618	1108.18
454.992	1114.73
455.365	1126.03
455.739	1138.68
456.112	1131.91
456.486	1138.68
456.859	1152.47
457.232	1181.4
457.606	1170.32
457.979	1195.18
458.352	1215.52
458.725	1236.54
459.099	1251
459.472	1233.6
459.845	1227.95
460.218	1288.74
460.591	1282.86
460.964	1266.82
461.337	1318.57
461.71	1356.53
462.083	1377.1
462.456	1359.92
462.829	1387.94
463.201	1414.61
463.574	1423.87
463.947	1452.8
464.32	1472.01
464.692	1465.23
465.065	1494.83
465.438	1537.32
465.81	1519.01
466.183	1546.36
466.555	1580.71
466.928	1622.74
467.3	1611.89
467.672	1671.33
468.045	1690.31
468.417	1716.75
468.789	1730.08
469.161	1780.7
469.534	1807.37
469.906	1805.56
470.278	1846.69
470.65	1907.03
471.022	1905.22
471.394	1984.99
471.766	1997.87
472.138	2061.15
472.51	2107.92
472.882	2122.61
473.253	2182.95
473.625	2215.72
473.997	2238.99
474.369	2318.54
474.74	2353.79
475.112	2413.23
475.484	2445.09
475.855	2498.65
476.227	2542.94
476.598	2647.12
476.97	2655.26
477.341	2759.21
477.713	2797.4
478.084	2875.36
478.455	2932.31
478.827	3006.66
479.198	3091.63
479.569	3137.5
479.94	3263.15
480.311	3317.84
480.682	3446.19
481.053	3509.02
481.424	3634.89
481.795	3690.48
482.166	3773.19
482.537	3902.23
482.908	4008.21
483.279	4118.49
483.65	4180.64
484.021	4325.49
484.391	4397.58
484.762	4490.24
485.133	4586.28
485.503	4717.8
485.874	4792.83
486.244	4948.08
486.615	5081.41
486.985	5237.79
487.356	5348.74
487.726	5428.06
488.097	5593.26
488.467	5668.74
488.837	5797.77
489.207	5921.61
489.578	6048.39
489.948	6125.22
490.318	6246.8
490.688	6410.41
491.058	6548.94
491.428	6773.56
491.798	6804.3
492.168	7036.61
492.538	7059.88
492.908	7136.95
493.278	7373.78
493.648	7411.97
494.017	7571.96
494.387	7698.51
494.757	7749.58
495.126	7971.95
495.496	7998.17
495.866	8138.95
496.235	8178.05
496.605	8369.91
496.974	8469.34
497.344	8570.81
497.713	8656.45
498.082	8745.26
498.452	8891.7
498.821	8980.06
499.19	9068.87
499.559	9161.98
499.928	9294.85
500.298	9353.84
500.667	9467.51
501.036	9535.53
501.405	9610.1
501.774	9630.89
502.143	9777.55
502.512	9843.09
502.88	9963.54
503.249	9944.55
503.618	10034.04
503.987	10145.91
504.356	10223.42
504.724	10241.27
505.093	10299.8
505.462	10344.54
505.83	10373.92
506.199	10543.64
506.567	10687.59
506.936	10690.3
507.304	10740.01
507.672	10807.81
508.041	10881.71
508.409	10934.13
508.777	11009.39
509.145	11100
509.514	11064.53
509.882	11136.61
510.25	11204.41
510.618	11240.11
510.986	11273.33
511.354	11436.72
511.722	11452.54
512.09	11509.03
512.458	11541.8
512.826	11470.16
513.193	11598.97
513.561	11584.74
513.929	11746.32
514.297	11826.31
514.664	11756.48
515.032	11891.62
515.4	11872.41
515.767	11831.06
516.135	12031.05
516.502	11807.33
516.869	12036.7
517.237	12024.5
517.604	11957.38
517.972	12083.93
518.339	12146.98
518.706	12204.16
519.073	12121.9
519.44	12110.37
519.808	12257.26
520.175	12197.38
520.542	12377.26
520.909	12243.25
521.276	12322.35
521.643	12318.73
522.009	12431.72
522.376	12396.02
522.743	12484.6
523.11	12491.15
523.477	12517.59
523.843	12631.94
524.21	12653.86
524.577	12706.97
524.943	12672.17
525.31	12738.83
525.676	12799.17
526.043	12779.06
526.409	12850.24
526.776	12870.58
527.142	12850.24
527.508	12818.6
527.874	12919.17
528.241	12999.39
528.607	12857.7
528.973	12942.89
529.339	12871.71
529.705	12963.46
530.071	12974.08
530.437	12965.94
530.803	12962.33
531.169	12944.48
531.535	12887.75
531.901	12964.59
532.267	12885.49
532.632	12877.36
532.998	12855.21
533.364	12972.72
533.73	12904.03
534.095	12940.86
534.461	12847.76
534.826	12927.08
535.192	12894.76
535.557	12857.47
535.923	12776.34
536.288	12865.61
536.653	12858.6
537.019	12705.84
537.384	12692.28
537.749	12676.69
538.114	12687.08
538.479	12596.46
538.845	12663.81
539.21	12565.73
539.575	12532.96
539.94	12528.44
540.305	12529.12
540.67	12523.02
541.034	12467.88
541.399	12435.79
541.764	12402.34
542.129	12393.08
542.494	12349.24
542.858	12349.01
543.223	12281.67
543.587	12331.16
543.952	12189.69
544.316	12264.27
544.681	12098.85
545.045	12238.28
545.41	12174.33
545.774	12133.65
546.138	12058.17
546.503	12141.56
546.867	11942.47
547.231	11985.41
547.595	11946.54
547.959	11951.06
548.324	11857.27
548.688	11790.83
549.052	11789.48
549.416	11834
549.779	11789.93
550.143	11712.87
550.507	11738.63
550.871	11716.71
551.235	11662.25
551.599	11633.1
551.962	11666.77
552.326	11608.92
552.689	11673.77
553.053	11557.39
553.417	11477.62
553.78	11552.2
554.143	11608.92
554.507	11486.44
554.87	11422.93
555.234	11564.85
555.597	11390.17
555.96	11384.97
556.323	11399.21
556.686	11359.43
557.05	11386.1
557.413	11393.78
557.776	11409.83
558.139	11323.73
558.502	11383.61
558.865	11372.31
559.228	11380.9
559.59	11313.33
559.953	11351.75
560.316	11363.73
560.679	11307.68
561.041	11388.13
561.404	11378.87
561.767	11309.49
562.129	11307.23
562.492	11391.52
562.854	11309.49
563.217	11357.63
563.579	11300
563.941	11407.57
564.304	11350.85
564.666	11397.17
565.028	11357.17
565.39	11314.91
565.753	11402.37
566.115	11428.36
566.477	11443.5
566.839	11417.06
567.201	11507.68
567.563	11493.21
567.925	11516.72
568.287	11486.66
568.648	11467.9
569.01	11505.42
569.372	11597.62
569.734	11558.52
570.095	11480.33
570.457	11545.87
570.819	11549.48
571.18	11575.92
571.542	11640.56
571.903	11619.99
572.265	11633.1
572.626	11578.86
572.987	11645.98
573.349	11640.1
573.71	11675.36
574.071	11615.25
574.432	11647.79
574.794	11692.08
575.155	11693.89
575.516	11615.47
575.877	11622.93
576.238	11715.13
576.599	11684.17
576.96	11662.93
577.32	11690.72
577.681	11631.06
578.042	11670.39
578.403	11750.84
578.763	11661.57
579.124	11657.73
579.485	11721.46
579.845	11744.73
580.206	11754.45
580.566	11720.55
580.927	11741.8
581.287	11749.93
581.648	11705.64
582.008	11695.47
582.368	11626.32
582.728	11637.17
583.089	11650.27
583.449	11703.38
583.809	11643.49
584.169	11687.79
584.529	11657.96
584.889	11690.72
585.249	11664.28
585.609	11591.29
585.969	11678.97
586.329	11631.29
586.688	11648.24
587.048	11622.7
587.408	11562.14
587.768	11599.65
588.127	11599.2
588.487	11555.36
588.846	11618.86
589.206	11479.43
589.565	11552.2
589.925	11594
590.284	11468.81
590.643	11540.22
591.003	11539.99
591.362	11518.52
591.721	11582.03
592.08	11499.77
592.44	11536.15
592.799	11529.37
593.158	11462.26
593.517	11464.74
593.876	11508.36
594.235	11429.26
594.593	11510.16
594.952	11458.87
595.311	11380.45
595.67	11461.58
596.029	11488.47
596.387	11523.72
596.746	11469.26
597.104	11422.93
597.463	11413.89
597.822	11485.76
598.18	11434.91
598.538	11419.54
598.897	11449.83
599.255	11334.8
599.613	11480.56
599.972	11436.04
600.33	11380
600.688	11402.82
601.046	11432.43
601.404	11502.03
601.762	11459.32
602.12	11513.33
602.478	11502.71
602.836	11467
603.194	11424.29
603.552	11416.38
603.91	11445.76
604.268	11442.82
604.625	11408.47
604.983	11406.66
605.341	11413.44
605.698	11474.23
606.056	11384.29
606.413	11514.46
606.771	11485.53
607.128	11493.67
607.485	11394.01
607.843	11462.03
608.2	11468.13
608.557	11417.06
608.914	11435.14
609.272	11493.44
609.629	11507
609.986	11592.42
610.343	11502.71
610.7	11537.28
611.057	11548.58
611.414	11565.76
611.771	11538.64
612.127	11525.98
612.484	11577.73
612.841	11516.72
613.198	11546.77
613.554	11494.12
613.911	11602.59
614.267	11529.82
614.624	11588.35
614.98	11577.05
615.337	11701.57
615.693	11591.07
616.05	11684.85
616.406	11735.69
616.762	11655.02
617.118	11654.34
617.475	11606.88
617.831	11703.6
618.187	11760.78
618.543	11679.2
618.899	11757.84
619.255	11696.15
619.611	11704.06
619.967	11762.81
620.323	11766.2
620.678	11777.05
621.034	11751.06
621.39	11720.33
621.746	11723.49
622.101	11818.63
622.457	11768.91
622.812	11761.23
623.168	11736.15
623.523	11742.93
623.879	11838.06
624.234	11687.56
624.589	11701.12
624.945	11694.34
625.3	11836.48
625.655	11785.18
626.01	11741.34
626.365	11812.08
626.72	11708.58
627.075	11697.28
627.43	11767.78
627.785	11703.6
628.14	11811.17
628.495	11791.96
628.85	11747.9
629.205	11710.61
629.559	11758.07
629.914	11748.58
630.269	11661.35
630.623	11644.62
630.978	11603.95
631.332	11607.11
631.687	11686.88
632.041	11628.35
632.396	11584.96
632.75	11649.82
633.104	11580.9
633.459	11584.74
633.813	11589.71
634.167	11629.93
634.521	11595.36
634.875	11585.87
635.229	11510.62
635.583	11535.93
635.937	11511.07
636.291	11485.53
636.645	11498.86
636.999	11474.68
637.352	11461.35
637.706	11438.98
638.06	11457.74
638.413	11414.8
638.767	11427.45
639.121	11403.5
639.474	11311.98
639.828	11359.66
640.181	11309.94
640.534	11368.25
640.888	11337.96
641.241	11257.74
641.594	11223.17
641.947	11340.9
642.301	11305.65
642.654	11291.64
643.007	11273.79
643.36	11297.97
643.713	11182.26
644.066	11291.64
644.419	11144.52
644.771	11129.83
645.124	11114.47
645.477	11076.95
645.83	10954.92
646.182	10867.02
646.535	10912.44
646.888	10935.26
647.24	10853.68
647.593	10919.9
647.945	10881.03
648.298	10856.85
648.65	10786.11
649.002	10770.97
649.355	10879.22
649.707	10888.03
650.059	10870.18
650.411	11053.45
650.763	11021.81
651.115	11123.73
651.467	11162.15
651.819	11082.38
652.171	11155.6
652.523	11110.17
652.875	11034.7
653.227	11042.15
653.578	11192.88
653.93	11154.69
654.282	11083.51
654.633	11103.17
654.985	11066.11
655.337	11101.81
655.688	11146.78
656.039	11228.59
656.391	11065.43
656.742	11078.76
657.094	11112.66
657.445	11093.23
657.796	11079.21
658.147	11135.71
658.498	11102.04
658.849	11116.95
659.2	11076.5
659.551	11121.02
659.902	11169.16
660.253	11124.18
660.604	11155.6
660.955	11056.84
661.306	11163.96
661.656	11077.86
662.007	11148.37
662.358	11140.23
662.708	11146.78
663.059	11152.88
663.409	11150.17
663.76	11180.45
664.11	11152.88
664.461	11115.37
664.811	11145.2
665.161	11151.08
665.511	11076.73
665.862	11147.69
666.212	11200.79
666.562	11245.99
666.912	11208.25
667.262	11131.42
667.612	11166.9
667.962	11179.1
668.312	11179.1
668.662	11201.25
669.011	11145.43
669.361	11167.12
669.711	11135.26
670.06	11133.9
670.41	11100.91
670.76	11139.55
671.109	11149.95
671.459	11127.57
671.808	11107.01
672.157	11114.24
672.507	11082.15
672.856	11043.74
673.205	11115.37
673.554	11130.29
673.904	11077.63
674.253	11151.98
674.602	11073.56
674.951	10967.58
675.3	10883.74
675.649	11056.16
675.998	11016.39
676.346	11040.12
676.695	11086.45
677.044	10899.78
677.393	11033.34
677.741	11015.04
678.09	10976.62
678.438	10893.91
678.787	10921.93
679.135	10989.05
679.484	10857.53
679.832	10875.15
680.181	10843.74
680.529	10898.2
680.877	10827.92
681.225	10836.51
681.573	10859.33
681.922	10759
682.27	10708.15
682.618	10784.08
682.966	10670.64
683.314	10711.77
683.661	10622.5
684.009	10637.87
684.357	10661.37
684.705	10616.18
685.053	10580.02
685.4	10636.51
685.748	10520.81
686.095	10528.72
686.443	10449.85
686.79	10487.59
687.138	10465.9
687.485	10495.73
687.832	10414.83
688.18	10395.16
688.527	10288.73
688.874	10406.01
689.221	10392.9
689.568	10345.22
689.915	10341.38
690.262	10280.14
690.609	10256.64
690.956	10173.7
691.303	10154.94
691.65	10107.04
691.997	10109.75
692.344	10038.56
692.69	9983.88
693.037	10052.12
693.383	9918.79
693.73	9989.07
694.077	9895.29
694.423	9898.23
694.769	9830.21
695.116	9843.09
695.462	9812.58
695.808	9769.87
696.155	9756.99
696.501	9693.04
696.847	9701.4
697.193	9591.57
697.539	9599.25
697.885	9469.31
698.231	9526.49
698.577	9461.4
698.923	9552.7
699.269	9477.67
699.614	9383.89
699.96	9364.91
700.306	9383.89
700.651	9323.78
700.997	9230.9
701.342	9250.11
701.688	9267.06
702.033	9213.95
702.379	9159.72
702.724	9129.44
703.069	9161.98
703.415	9009.66
703.76	8988.42
704.105	8999.27
704.45	8948.2
704.795	8962.43
705.14	8915.66
705.485	8856.9
705.83	8907.29
706.175	8860.29
706.52	8801.76
706.865	8747.75
707.209	8830.23
707.554	8690.12
707.899	8758.37
708.243	8704.81
708.588	8673.85
708.932	8572.84
709.277	8578.94
709.621	8630.47
709.966	8523.58
710.31	8567.64
710.654	8437.25
710.998	8493.29
711.342	8486.97
711.687	8473.41
712.031	8487.87
712.375	8381.88
712.719	8415.56
713.063	8349.57
713.407	8430.02
713.75	8385.5
714.094	8343.24
714.438	8270.47
714.782	8311.83
715.125	8315.22
715.469	8315.9
715.812	8324.48
716.156	8196.8
716.499	8229.12
716.843	8270.7
717.186	8168.78
717.53	8210.82
717.873	8165.62
718.216	8249.46
718.559	8171.04
718.902	8023.93
719.246	8134.88
719.589	8057.6
719.932	8119.29
720.275	8066.64
720.617	8064.83
720.96	8137.82
721.303	8064.6
721.646	8035.9
721.989	8013.31
722.331	8046.75
722.674	8022.35
723.016	8079.52
723.359	8030.93
723.701	8016.92
724.044	7953.19
724.386	7953.19
724.729	8025.96
725.071	7949.81
725.413	7973.31
725.755	7969.24
726.097	7944.61
726.439	7857.15
726.782	7845.85
727.124	7903.93
727.465	7932.86
727.807	7930.6
728.149	7903.03
728.491	7900.77
728.833	7864.38
729.175	7838.4
729.516	7838.17
729.858	7867.1
730.199	7886.3
730.541	7895.57
730.882	7816.7
731.224	7862.35
731.565	7797.04
731.906	7828.45
732.248	7882.69
732.589	7868.45
732.93	7858.06
733.271	7848.11
733.612	7753.2
733.953	7845.63
734.294	7816.7
734.635	7865.97
734.976	7826.42
735.317	7815.12
735.658	7845.63
735.999	7812.18
736.339	7881.56
736.68	7920.2
737.021	7821.45
737.361	7823.93
737.702	7931.05
738.042	7867.32
738.383	7892.41
738.723	7871.84
739.063	7830.71
739.404	7904.38
739.744	7884.04
740.084	7955.91
740.424	7960.2
740.764	7985.06
741.104	8016.47
741.444	7962.46
741.784	7999.52
742.124	7951.61
742.464	7953.87
742.804	8081.78
743.143	8048.11
743.483	8002.23
743.823	8056.69
744.162	8086.52
744.502	8136.92
744.841	8152.74
745.181	8190.48
745.52	8210.14
745.86	8190.25
746.199	8247.42
746.538	8289.01
746.877	8323.58
747.216	8376.23
747.556	8414.65
747.895	8467.31
748.234	8509.79
748.573	8481.54
748.911	8611.26
749.25	8688.09
749.589	8650.8
749.928	8754.53
750.267	8831.82
750.605	8935.09
750.944	8979.61
751.283	8997.91
751.621	9177.12
751.96	9186.16
752.298	9335.98
752.636	9328.98
752.975	9439.71
753.313	9535.07
753.651	9701.4
753.989	9710.21
754.327	9844.67
754.666	9873.6
755.004	10017.32
755.342	10203.98
755.679	10262.06
756.017	10394.26
756.355	10547.7
756.693	10576.63
757.031	10793.12
757.368	10838.99
757.706	10997.18
758.044	11182.94
758.381	11339.32
758.719	11496.38
759.056	11639.2
759.394	11822.92
759.731	11834.67
760.068	12026.76
