Data from hue_200_FLMS001491_00094.txt Node
Date: Tue Feb 07 16:44:12 GMT 2017
User: dcchb
Spectrometer: FLMS00149
Trigger mode: 0
Integration Time (sec): 2.000000E-2
Scans to average: 10
Electric dark correction enabled: true
Nonlinearity correction enabled: false
Boxcar width: 0
XAxis mode: Wavelengths
Number of Pixels in Spectrum: 2048
>>>>>Begin Spectral Data<<<<<
341.393	-32.75
341.776	-32.75
342.16	-32.75
342.543	-64.39
342.927	-66.65
343.31	-69.36
343.693	-63.94
344.077	-80.21
344.46	-49.48
344.843	-81.79
345.226	-34.79
345.61	-22.13
345.993	-34.11
346.376	-7.67
346.759	18.32
347.142	11.09
347.525	57.87
347.908	66
348.291	82.95
348.674	96.06
349.057	111.2
349.44	120.91
349.823	156.39
350.206	144.42
350.588	184.64
350.971	198.2
351.354	223.06
351.737	228.93
352.119	251.53
352.502	270.97
352.884	268.26
353.267	271.65
353.65	290.63
354.032	303.73
354.414	326.79
354.797	292.21
355.179	307.35
355.562	321.59
355.944	324.75
356.326	331.3
356.709	323.85
357.091	323.17
357.473	350.51
357.855	334.24
358.238	320.01
358.62	334.47
359.002	344.64
359.384	330.85
359.766	334.69
360.148	361.81
360.53	342.38
360.912	338.31
361.294	334.24
361.676	320.01
362.057	315.49
362.439	322.72
362.821	303.96
363.203	310.97
363.584	311.64
363.966	321.36
364.348	312.1
364.729	321.14
365.111	319.78
365.493	318.2
365.874	311.42
366.256	324.75
366.637	305.77
367.019	320.91
367.4	291.31
367.781	318.42
368.163	312.77
368.544	302.61
368.925	300.57
369.306	320.68
369.688	293.11
370.069	296.5
370.45	301.93
370.831	324.98
371.212	316.39
371.593	304.86
371.974	320.46
372.355	310.06
372.736	321.36
373.117	308.48
373.498	312.77
373.879	334.92
374.26	300.57
374.641	312.1
375.021	307.35
375.402	313
375.783	318.42
376.163	313
376.544	327.46
376.925	311.19
377.305	313.68
377.686	324.07
378.066	313.9
378.447	323.4
378.827	320.46
379.208	319.55
379.588	332.89
379.968	331.76
380.349	319.33
380.729	325.2
381.109	327.69
381.489	341.25
381.87	325.2
382.25	328.82
382.63	335.37
383.01	345.32
383.39	331.53
383.77	315.94
384.15	334.69
384.53	343.51
384.91	342.83
385.29	334.69
385.67	338.99
386.049	349.38
386.429	348.71
386.809	354.81
387.189	355.49
387.568	350.74
387.948	374.92
388.328	371.76
388.707	342.15
389.087	367.24
389.466	335.6
389.846	368.37
390.225	358.65
390.605	368.82
390.984	352.32
391.363	341.7
391.743	360.91
392.122	370.4
392.501	358.42
392.881	364.75
393.26	359.78
393.639	366.78
394.018	376.28
394.397	376.95
394.776	360.46
395.155	384.41
395.534	365.65
395.913	387.35
396.292	373.79
396.671	388.93
397.05	388.48
397.429	398.87
397.808	374.92
398.186	373.11
398.565	401.13
398.944	390.06
399.323	409.49
399.701	419.44
400.08	403.62
400.458	437.74
400.837	408.36
401.215	415.82
401.594	395.03
401.972	418.99
402.351	409.49
402.729	420.57
403.107	421.92
403.486	420.57
403.864	430.96
404.242	421.25
404.62	436.61
404.999	459.66
405.377	463.28
405.755	446.1
406.133	446.33
406.511	466.22
406.889	471.64
407.267	483.17
407.645	480.45
408.023	477.29
408.401	491.98
408.779	492.2
409.156	506.67
409.534	508.25
409.912	512.09
410.29	523.84
410.667	514.58
411.045	552.32
411.422	513.9
411.8	533.79
412.178	575.59
412.555	563.16
412.933	594.35
413.31	603.39
413.687	591.86
414.065	605.42
414.442	587.12
414.819	606.55
415.197	622.82
415.574	637.29
415.951	651.3
416.328	661.69
416.705	659.88
417.082	668.25
417.46	687.68
417.837	721.58
418.214	689.49
418.591	703.05
418.967	717.51
419.344	711.63
419.721	741.92
420.098	750.73
420.475	760.22
420.852	769.49
421.228	753.67
421.605	781.91
421.982	799.09
422.358	842.48
422.735	838.64
423.111	833.89
423.488	858.75
423.864	887
424.241	888.35
424.617	924.06
424.994	941.68
425.37	949.59
425.746	964.06
426.123	984.4
426.499	980.55
426.875	995.02
427.251	1031.63
427.627	1061
428.003	1057.39
428.379	1047.67
428.756	1058.97
429.132	1108.91
429.507	1097.39
429.883	1152.3
430.259	1141.68
430.635	1111.85
431.011	1158.4
431.387	1168.12
431.763	1188.91
432.138	1235.46
432.514	1220.77
432.89	1246.08
433.265	1276.14
433.641	1280.43
434.016	1301.67
434.392	1345.52
434.767	1372.63
435.143	1353.65
435.518	1437.72
435.894	1439.75
436.269	1468.22
436.644	1502.35
437.02	1523.14
437.395	1500.31
437.77	1559.52
438.145	1593.64
438.52	1627.09
438.895	1620.99
439.271	1670.48
439.646	1703.47
440.021	1718.39
440.395	1726.52
440.77	1772.17
441.145	1782.57
441.52	1816.24
441.895	1828.89
442.27	1872.73
442.645	1864.82
443.019	1897.14
443.394	1889
443.769	1870.93
444.143	1942.11
444.518	1975.56
444.892	1970.36
445.267	2021.2
445.641	2008.32
446.016	2006.74
446.39	2078.38
446.764	2067.76
447.139	2073.41
447.513	2121.77
447.887	2144.82
448.262	2128.77
448.636	2114.53
449.01	2163.35
449.384	2236.11
449.758	2195.66
450.132	2239.5
450.506	2241.31
450.88	2274.76
451.254	2298.48
451.628	2303.91
452.002	2347.52
452.376	2319.5
452.75	2366.51
453.123	2405.6
453.497	2380.74
453.871	2470.46
454.244	2496.67
454.618	2485.82
454.992	2538.25
455.365	2558.59
455.739	2620.74
456.112	2645.37
456.486	2684.24
456.859	2663.22
457.232	2758.13
457.606	2723.11
457.979	2769.21
458.352	2830.22
458.725	2853.27
459.099	2851.24
459.472	2926.49
459.845	2938.69
460.218	2958.35
460.591	3025.92
460.964	3038.13
461.337	3082.42
461.71	3099.59
462.083	3135.52
462.456	3187.27
462.829	3201.29
463.201	3237.22
463.574	3293.26
463.947	3342.75
464.32	3353.37
464.692	3425.69
465.065	3407.61
465.438	3479.7
465.81	3489.87
466.183	3534.38
466.555	3638.79
466.928	3662.97
467.3	3627.04
467.672	3737.54
468.045	3783.19
468.417	3809.41
468.789	3796.75
469.161	3863.19
469.534	3942.06
469.906	4014.15
470.278	4030.64
470.65	4074.26
471.022	4145.67
471.394	4217.53
471.766	4266.57
472.138	4306.12
472.51	4391.09
472.882	4408.26
473.253	4455.94
473.625	4537.75
473.997	4636.05
474.369	4671.98
474.74	4744.97
475.112	4756.27
475.484	4831.75
475.855	4922.82
476.227	4951.07
476.598	5130.73
476.97	5119.2
477.341	5251.63
477.713	5316.94
478.084	5367.78
478.455	5397.39
478.827	5492.75
479.198	5643.48
479.569	5645.06
479.94	5863.81
480.311	5832.4
480.682	5940.87
481.053	6083.47
481.424	6149.46
481.795	6195.56
482.166	6278.95
482.537	6322.33
482.908	6517.36
483.279	6529.79
483.65	6623.12
484.021	6734.75
484.391	6850.23
484.762	6868.08
485.133	6937.23
485.503	6997.12
485.874	7114.18
486.244	7185.59
486.615	7303.32
486.985	7361.85
487.356	7450.44
487.726	7490.66
488.097	7745.12
488.467	7687.72
488.837	7922.97
489.207	7929.98
489.578	8017.88
489.948	8113.25
490.318	8186.92
490.688	8252.45
491.058	8340.36
491.428	8369.29
491.798	8457.19
492.168	8629.17
492.538	8637.3
492.908	8712.33
493.278	8782.38
493.648	8809.95
494.017	8877.07
494.387	8935.37
494.757	8951.19
495.126	9184.63
495.496	9055.37
495.866	9094.01
496.235	9176.5
496.605	9262.37
496.974	9345.76
497.344	9463.95
497.713	9377.39
498.082	9454.45
498.452	9484.06
498.821	9577.84
499.19	9582.59
499.559	9613.77
499.928	9709.82
500.298	9730.61
500.667	9762.24
501.036	9740.32
501.405	9926.31
501.774	9844.5
502.143	9854.22
502.512	9922.01
502.88	9957.27
503.249	9989.81
503.618	10041.78
503.987	10011.28
504.356	10087.21
504.724	10092.63
505.093	10064.61
505.462	10159.97
505.83	10181.89
506.199	10177.83
506.567	10304.83
506.936	10231.61
507.304	10409.68
507.672	10417.59
508.041	10322.23
508.409	10403.36
508.777	10472.96
509.145	10525.84
509.514	10479.96
509.882	10554.09
510.25	10477.7
510.618	10531.26
510.986	10505.05
511.354	10589.34
511.722	10659.39
512.09	10670.02
512.458	10672.73
512.826	10691.26
513.193	10686.96
513.561	10704.14
513.929	10792.95
514.297	10736
514.664	10773.52
515.032	10840.63
515.4	10840.18
515.767	10896.9
516.135	10871.59
516.502	10761.09
516.869	10867.98
517.237	10921.31
517.604	10827.3
517.972	10918.15
518.339	10961.53
518.706	10867.98
519.073	10917.69
519.44	10917.47
519.808	11006.28
520.175	10950.01
520.542	11016.67
520.909	11008.54
521.276	10977.35
521.643	11021.19
522.009	11048.54
522.376	11112.04
522.743	11060.97
523.11	11110.23
523.477	11168.99
523.843	11163.34
524.21	11281.07
524.577	11213.05
524.943	11168.31
525.31	11101.87
525.676	11161.75
526.043	11237.01
526.409	11245.14
526.776	11281.3
527.142	11204.92
527.508	11208.76
527.874	11242.43
528.241	11202.43
528.607	11151.81
528.973	11303.45
529.339	11121.08
529.705	11238.81
530.071	11180.29
530.437	11192.26
530.803	11169.21
531.169	11156.33
531.535	11129.89
531.901	11050.12
532.267	11047.63
532.632	11042.89
532.998	10989.33
533.364	11087.18
533.73	10968.77
534.095	11035.88
534.461	10907.52
534.826	10943
535.192	10936.9
535.557	10906.85
535.923	10883.12
536.288	10862.1
536.653	10812.16
537.019	10761.99
537.384	10758.38
537.749	10668.66
538.114	10619.85
538.479	10633.86
538.845	10592.5
539.21	10509.34
539.575	10435.67
539.94	10481.09
540.305	10424.15
540.67	10297.14
541.034	10355.9
541.399	10340.53
541.764	10288.33
542.129	10281.1
542.494	10168.33
542.858	10201.1
543.223	10153.65
543.587	10070.26
543.952	9955.91
544.316	10044.04
544.681	9966.76
545.045	9948.91
545.41	9908.91
545.774	9817.16
546.138	9814.9
546.503	9730.38
546.867	9715.46
547.231	9727.67
547.595	9670.27
547.959	9624.17
548.324	9549.14
548.688	9535.58
549.052	9546.2
549.416	9431.4
549.779	9399.09
550.143	9370.62
550.507	9371.75
550.871	9330.16
551.235	9244.74
551.599	9251.07
551.962	9179.89
552.326	9173.56
552.689	9205.42
553.053	9056.05
553.417	9069.83
553.78	9167.46
554.143	9028.93
554.507	9022.83
554.87	9014.69
555.234	9105.54
555.597	8917.07
555.96	8891.76
556.323	8896.73
556.686	8840.23
557.05	8848.14
557.413	8787.58
557.776	8744.87
558.139	8790.74
558.502	8715.94
558.865	8701.71
559.228	8719.78
559.59	8687.02
559.953	8635.72
560.316	8679.56
560.679	8651.76
561.041	8678.88
561.404	8680.92
561.767	8672.55
562.129	8649.96
562.492	8596.17
562.854	8584.87
563.217	8551.2
563.579	8580.35
563.941	8618.32
564.304	8619.67
564.666	8602.95
565.028	8570.64
565.39	8571.99
565.753	8582.16
566.115	8565.44
566.477	8561.14
566.839	8567.02
567.201	8626
567.563	8512.56
567.925	8628.71
568.287	8582.61
568.648	8597.08
569.01	8598.66
569.372	8635.49
569.734	8551.43
570.095	8563.18
570.457	8569.28
570.819	8658.54
571.18	8568.83
571.542	8602.05
571.903	8575.38
572.265	8603.63
572.626	8595.72
572.987	8542.61
573.349	8566.57
573.71	8659.9
574.071	8635.72
574.432	8621.93
574.794	8698.54
575.155	8589.39
575.516	8603.63
575.877	8650.63
576.238	8652.22
576.599	8644.08
576.96	8610.86
577.32	8618.77
577.681	8559.11
578.042	8614.93
578.403	8624.42
578.763	8626.45
579.124	8641.14
579.485	8637.53
579.845	8655.83
580.206	8621.93
580.566	8608.83
580.927	8594.59
581.287	8627.81
581.648	8602.5
582.008	8572.22
582.368	8589.17
582.728	8615.38
583.089	8613.12
583.449	8580.13
583.809	8628.71
584.169	8598.88
584.529	8590.97
584.889	8644.98
585.249	8630.97
585.609	8569.05
585.969	8569.05
586.329	8583.74
586.688	8530.64
587.048	8594.82
587.408	8569.96
587.768	8495.38
588.127	8509.17
588.487	8514.14
588.846	8636.17
589.206	8489.06
589.565	8531.99
589.925	8490.64
590.284	8491.99
590.643	8529.06
591.003	8484.31
591.362	8551.88
591.721	8517.76
592.08	8521.82
592.44	8527.47
592.799	8495.38
593.158	8415.39
593.517	8439.11
593.876	8428.49
594.235	8408.38
594.593	8466.91
594.952	8436.63
595.311	8335.16
595.67	8461.49
596.029	8482.95
596.387	8452.22
596.746	8491.99
597.104	8428.27
597.463	8379
597.822	8454.26
598.18	8385.78
598.538	8455.39
598.897	8456.06
599.255	8360.02
599.613	8475.5
599.972	8374.71
600.33	8446.12
600.688	8425.56
601.046	8315.28
601.404	8386.23
601.762	8412.67
602.12	8379.45
602.478	8380.36
602.836	8422.62
603.194	8336.29
603.552	8336.74
603.91	8308.5
604.268	8381.49
604.625	8341.04
604.983	8382.39
605.341	8339.46
605.698	8323.86
606.056	8357.53
606.413	8372.9
606.771	8386.91
607.128	8344.43
607.485	8341.04
607.843	8330.87
608.2	8416.52
608.557	8364.99
608.914	8399.79
609.272	8389.85
609.629	8419.23
609.986	8447.93
610.343	8354.37
610.7	8443.86
611.057	8426.91
611.414	8463.07
611.771	8454.03
612.127	8461.94
612.484	8441.83
612.841	8477.53
613.198	8419.45
613.554	8429.4
613.911	8494.48
614.267	8486.34
614.624	8448.15
614.98	8484.99
615.337	8435.95
615.693	8490.86
616.05	8482.95
616.406	8540.58
616.762	8514.14
617.118	8457.87
617.475	8443.86
617.831	8551.2
618.187	8472.56
618.543	8515.04
618.899	8547.13
619.255	8545.33
619.611	8559.34
619.967	8492.45
620.323	8540.13
620.678	8522.95
621.034	8514.82
621.39	8519.11
621.746	8531.32
622.101	8610.18
622.457	8503.29
622.812	8567.25
623.168	8537.19
623.523	8517.76
623.879	8674.59
624.234	8489.73
624.589	8576.96
624.945	8592.33
625.3	8541.03
625.655	8489.96
626.01	8537.64
626.365	8495.16
626.72	8535.61
627.075	8495.84
627.43	8536.96
627.785	8517.53
628.14	8548.49
628.495	8479.34
628.85	8519.56
629.205	8442.28
629.559	8545.78
629.914	8463.75
630.269	8428.49
630.623	8453.13
630.978	8424.2
631.332	8492.22
631.687	8483.41
632.041	8416.29
632.396	8432.11
632.75	8471.88
633.104	8428.72
633.459	8466.68
633.813	8344.88
634.167	8334.26
634.521	8366.57
634.875	8369.06
635.229	8349.17
635.583	8318.67
635.937	8312.11
636.291	8285.9
636.645	8325.67
636.999	8285.67
637.352	8329.51
637.706	8257.88
638.06	8253.36
638.413	8177.65
638.767	8265.56
639.121	8259.46
639.474	8147.37
639.828	8154.38
640.181	8212.91
640.534	8197.31
640.888	8162.06
641.241	8166.58
641.594	8123.42
641.947	8186.69
642.301	8120.03
642.654	8146.24
643.007	8193.02
643.36	8134.72
643.713	8129.74
644.066	8113.47
644.419	8095.17
644.771	8068.95
645.124	7983.98
645.477	7985.11
645.83	7896.76
646.182	7906.02
646.535	7850.43
646.888	7902.18
647.24	7803.88
647.593	7901.95
647.945	7854.95
648.298	7833.48
648.65	7851.33
649.002	7821.28
649.355	7832.12
649.707	7832.12
650.059	7904.67
650.411	7968.62
650.763	7925
651.115	8032.8
651.467	8073.47
651.819	8065.11
652.171	7968.17
652.523	8031.89
652.875	7992.12
653.227	8003.42
653.578	8078.22
653.93	8038.22
654.282	8035.28
654.633	7965.23
654.985	7988.28
655.337	8069.18
655.688	8057.2
656.039	8068.05
656.391	8006.36
656.742	8041.38
657.094	8040.25
657.445	8022.4
657.796	8034.61
658.147	8031.22
658.498	8055.4
658.849	8043.64
659.2	8037.09
659.551	8059.24
659.902	8054.27
660.253	8066.47
660.604	8047.26
660.955	8028.5
661.306	8081.61
661.656	8090.42
662.007	8070.31
662.358	8132.46
662.708	8097.88
663.059	8087.71
663.409	8064.43
663.76	8094.26
664.11	8075.06
664.461	8117.09
664.811	8099.24
665.161	8126.35
665.511	8108.05
665.862	8150.53
666.212	8102.17
666.562	8187.6
666.912	8157.31
667.262	8133.59
667.612	8143.98
667.962	8138.78
668.312	8116.41
668.662	8151.44
669.011	8153.92
669.361	8120.03
669.711	8096.98
670.06	8146.69
670.41	8139.46
670.76	8118.22
671.109	8095.17
671.459	8054.27
671.808	8094.94
672.157	8077.99
672.507	8013.59
672.856	8017.88
673.205	8059.69
673.554	8063.08
673.904	8020.59
674.253	8121.16
674.602	8065.11
674.951	7985.34
675.3	7921.16
675.649	8040.71
675.998	8045.23
676.346	8004.32
676.695	8004.32
677.044	7912.35
677.393	7978.56
677.741	7964.32
678.09	7985.57
678.438	7950.31
678.787	7943.08
679.135	7955.96
679.484	7887.72
679.832	7894.27
680.181	7830.54
680.529	7888.62
680.877	7817.66
681.225	7850.66
681.573	7832.8
681.922	7812.92
682.27	7836.64
682.618	7807.04
682.966	7776.53
683.314	7826.48
683.661	7742.18
684.009	7746.48
684.357	7648.63
684.705	7675.97
685.053	7689.53
685.4	7611.57
685.748	7649.3
686.095	7639.59
686.443	7542.19
686.79	7569.98
687.138	7602.53
687.485	7627.16
687.832	7527.5
688.18	7559.82
688.527	7489.99
688.874	7461.06
689.221	7435.75
689.568	7416.77
689.915	7413.83
690.262	7442.3
690.609	7390.55
690.956	7343.55
691.303	7341.29
691.65	7318.24
691.997	7317.34
692.344	7198.92
692.69	7267.85
693.037	7299.94
693.383	7177.9
693.73	7213.84
694.077	7189.43
694.423	7099.04
694.769	7083.9
695.116	7097.45
695.462	7063.56
695.808	7003.22
696.155	7033.05
696.501	6962.77
696.847	6930.91
697.193	6871.02
697.539	6896.56
697.885	6889.78
698.231	6838.48
698.577	6812.49
698.923	6771.81
699.269	6767.07
699.614	6741.76
699.96	6650.01
700.306	6737.46
700.651	6696.34
700.997	6651.14
701.342	6610.46
701.688	6576.56
702.033	6562.1
702.379	6557.58
702.724	6569.33
703.069	6562.1
703.415	6436
703.76	6477.58
704.105	6488.66
704.45	6421.31
704.795	6376.8
705.14	6365.04
705.485	6383.8
705.83	6320.07
706.175	6284.37
706.52	6271.71
706.865	6309.68
707.209	6295.44
707.554	6209.12
707.899	6293.63
708.243	6173.86
708.588	6163.92
708.932	6171.83
709.277	6117.14
709.621	6139.74
709.966	6144.71
710.31	6112.17
710.654	6002.34
710.998	6100.42
711.342	6038.95
711.687	6041.44
712.031	6020.19
712.375	5968.44
712.719	5990.37
713.063	5991.04
713.407	5937.49
713.75	5954.66
714.094	5946.3
714.438	5927.32
714.782	5936.58
715.125	5897.71
715.469	5902.23
715.812	5898.84
716.156	5853.65
716.499	5854.32
716.843	5839.41
717.186	5860.2
717.53	5881.22
717.873	5839.18
718.216	5809.35
718.559	5819.3
718.902	5783.59
719.246	5798.73
719.589	5802.35
719.932	5723.03
720.275	5742.01
720.617	5766.64
720.96	5794.21
721.303	5761.44
721.646	5759.18
721.989	5713.76
722.331	5771.84
722.674	5749.92
723.016	5733.2
723.359	5732.29
723.701	5788.34
724.044	5668.79
724.386	5691.62
724.729	5702.01
725.071	5673.09
725.413	5651.84
725.755	5714.21
726.097	5725.29
726.439	5644.39
726.782	5656.81
727.124	5651.39
727.465	5658.4
727.807	5623.37
728.149	5647.1
728.491	5635.12
728.833	5664.27
729.175	5646.87
729.516	5670.15
729.858	5636.7
730.199	5609.36
730.541	5656.59
730.882	5657.27
731.224	5630.37
731.565	5631.96
731.906	5650.71
732.248	5659.3
732.589	5631.5
732.93	5611.39
733.271	5587.89
733.612	5642.8
733.953	5655.01
734.294	5613.2
734.635	5678.06
734.976	5657.94
735.317	5669.7
735.658	5652.29
735.999	5662.24
736.339	5675.35
736.68	5681.67
737.021	5669.02
737.361	5648
737.702	5696.36
738.042	5660.66
738.383	5693.42
738.723	5724.16
739.063	5693.42
739.404	5725.97
739.744	5768.68
740.084	5792.63
740.424	5753.31
740.764	5816.58
741.104	5819.3
741.444	5784.72
741.784	5757.38
742.124	5830.6
742.464	5824.04
742.804	5897.49
743.143	5898.39
743.483	5878.73
743.823	5913.98
744.162	5884.38
744.502	6000.08
744.841	6002.57
745.181	6035.56
745.52	6029.23
745.86	6076.69
746.199	6125.05
746.538	6164.82
746.877	6179.96
747.216	6234.43
747.556	6261.09
747.895	6296.35
748.234	6339.06
748.573	6358.94
748.911	6417.02
749.25	6457.92
749.589	6524.36
749.928	6632.83
750.267	6692.95
750.605	6764.36
750.944	6857.01
751.283	6875.77
751.621	7008.42
751.96	7080.51
752.298	7071.69
752.636	7216.55
752.975	7246.83
753.313	7418.35
753.651	7509.65
753.989	7566.14
754.327	7704.67
754.666	7788.51
755.004	7958
755.342	8077.09
755.679	8218.56
756.017	8284.09
756.355	8475.05
756.693	8554.59
757.031	8724.98
757.368	8798.88
757.706	8993.9
758.044	9134.46
758.381	9275.93
758.719	9418.07
759.056	9593.21
759.394	9748.01
759.731	9916.14
760.068	10055.79
760.405	10219.63
760.743	10329.46
761.08	10522.22
761.417	10615.78
761.754	10913.63
762.091	11071.59
762.428	11223.9
762.765	11358.13
763.102	11437.45
763.438	11669.76
763.775	11895.75
764.112	12080.15
764.449	12258.67
764.785	12381.16
765.122	12550.87
765.458	12660.25
765.795	12864.31
766.131	12965.55
766.467	13160.57
