Data from hue_190_FLMS001491_00098.txt Node
Date: Tue Feb 07 16:46:03 GMT 2017
User: dcchb
Spectrometer: FLMS00149
Trigger mode: 0
Integration Time (sec): 2.000000E-2
Scans to average: 10
Electric dark correction enabled: true
Nonlinearity correction enabled: false
Boxcar width: 0
XAxis mode: Wavelengths
Number of Pixels in Spectrum: 2048
>>>>>Begin Spectral Data<<<<<
341.393	-18.01
341.776	-18.01
342.16	-18.01
342.543	-52.81
342.927	-55.3
343.31	-78.8
343.693	-77.89
344.077	-64.79
344.46	-53.49
344.843	-55.97
345.226	-48.97
345.61	-22.3
345.993	-10.32
346.376	2.33
346.759	21.76
347.142	29.67
347.525	41.88
347.908	41.43
348.291	71.93
348.674	92.5
349.057	111.03
349.44	132.04
349.823	160.29
350.206	174.3
350.588	194.64
350.971	193.96
351.354	214.53
351.737	238.71
352.119	261.98
352.502	269.44
352.884	267.18
353.267	276
353.65	303.34
354.032	307.41
354.414	310.12
354.797	319.84
355.179	328.88
355.562	319.38
355.944	342.43
356.326	313.51
356.709	310.8
357.091	328.65
357.473	317.35
357.855	319.16
358.238	352.15
358.62	322.32
359.002	337.91
359.384	335.66
359.766	331.36
360.148	351.47
360.53	325.26
360.912	342.89
361.294	316.45
361.676	338.14
362.057	338.59
362.439	334.07
362.821	309.44
363.203	303.11
363.584	342.43
363.966	332.49
364.348	323.68
364.729	325.03
365.111	323.23
365.493	300.85
365.874	314.41
366.256	310.34
366.637	309.22
367.019	301.98
367.4	318.93
367.781	312.15
368.163	320.06
368.544	297.01
368.925	315.09
369.306	316.22
369.688	295.88
370.069	332.04
370.45	302.66
370.831	318.25
371.212	293.17
371.593	291.81
371.974	308.54
372.355	311.02
372.736	333.85
373.117	334.75
373.498	307.18
373.879	328.88
374.26	297.24
374.641	313.96
375.021	320.29
375.402	309.89
375.783	333.62
376.163	316.67
376.544	317.35
376.925	322.1
377.305	306.28
377.686	317.58
378.066	321.64
378.447	321.19
378.827	318.71
379.208	303.11
379.588	319.16
379.968	324.13
380.349	340.63
380.729	335.2
381.109	320.51
381.489	324.13
381.87	318.93
382.25	309.67
382.63	337.24
383.01	327.75
383.39	339.95
383.77	334.53
384.15	340.17
384.53	347.18
384.91	347.41
385.29	342.89
385.67	321.42
386.049	352.38
386.429	353.96
386.809	332.27
387.189	340.63
387.568	353.51
387.948	351.02
388.328	366.61
388.707	353.06
389.087	371.81
389.466	353.51
389.846	354.64
390.225	373.39
390.605	372.49
390.984	376.56
391.363	355.09
391.743	367.97
392.122	359.38
392.501	398.93
392.881	359.84
393.26	369.55
393.639	375.2
394.018	379.72
394.397	363
394.776	369.55
395.155	389.66
395.534	364.35
395.913	395.54
396.292	384.02
396.671	373.17
397.05	369.33
397.429	381.53
397.808	379.27
398.186	383.11
398.565	385.82
398.944	396.44
399.323	388.99
399.701	407.07
400.08	392.38
400.458	396.44
400.837	400.96
401.215	405.94
401.594	403
401.972	410.23
402.351	398.7
402.729	426.5
403.107	415.2
403.486	410.46
403.864	408.65
404.242	433.73
404.62	430.57
404.999	419.27
405.377	431.7
405.755	441.87
406.133	461.3
406.511	463.11
406.889	447.74
407.267	451.13
407.645	463.34
408.023	472.83
408.401	469.66
408.779	471.24
409.156	490.68
409.534	481.41
409.912	477.12
410.29	511.92
410.667	494.07
411.045	507.63
411.422	507.63
411.8	518.93
412.178	526.84
412.555	546.95
412.933	538.14
413.31	556.21
413.687	552.15
414.065	595.76
414.442	594.41
414.819	590.11
415.197	607.06
415.574	616.78
415.951	601.86
416.328	616.33
416.705	641.41
417.082	615.42
417.46	633.05
417.837	654.52
418.214	648.64
418.591	681.18
418.967	645.03
419.344	671.92
419.721	672.82
420.098	687.06
420.475	702.65
420.852	709.2
421.228	741.07
421.605	756.66
421.982	754.18
422.358	744.23
422.735	770.45
423.111	769.32
423.488	821.74
423.864	803.89
424.241	819.94
424.617	850.9
424.994	856.77
425.37	848.86
425.746	853.83
426.123	896.77
426.499	899.71
426.875	882.99
427.251	904.45
427.627	939.03
428.003	978.35
428.379	959.59
428.756	960.5
429.132	967.95
429.507	973.83
429.883	1009.54
430.259	1002.76
430.635	1045.01
431.011	1032.13
431.387	1086.82
431.763	1079.59
432.138	1067.61
432.514	1104.22
432.89	1099.48
433.265	1130.89
433.641	1167.5
434.016	1162.3
434.392	1171.79
434.767	1226.93
435.143	1209.76
435.518	1238
435.894	1257.89
436.269	1305.35
436.644	1318.91
437.02	1338.11
437.395	1355.52
437.77	1368.4
438.145	1386.47
438.52	1432.8
438.895	1452.91
439.271	1443.65
439.646	1486.59
440.021	1508.05
440.395	1527.04
440.77	1518.45
441.145	1556.64
441.52	1593.7
441.895	1588.28
442.27	1607.26
442.645	1635.96
443.019	1655.39
443.394	1661.04
443.769	1675.28
444.143	1670.76
444.518	1700.14
444.892	1711.21
445.267	1711.89
445.641	1744.21
446.016	1756.63
446.39	1779.01
446.764	1800.25
447.139	1789.85
447.513	1832.11
447.887	1868.95
448.262	1855.84
448.636	1858.33
449.01	1904.43
449.384	1900.81
449.758	1913.47
450.132	1987.59
450.506	1949.85
450.88	1945.56
451.254	1995.27
451.628	2033.46
452.002	2046.57
452.376	2059.23
452.75	2074.82
453.123	2090.19
453.497	2131.99
453.871	2130.86
454.244	2208.6
454.618	2215.38
454.992	2250.41
455.365	2233.91
455.739	2286.79
456.112	2333.57
456.486	2318.2
456.859	2364.3
457.232	2385.32
457.606	2403.85
457.979	2429.39
458.352	2462.83
458.725	2509.61
459.099	2464.64
459.472	2556.39
459.845	2612.43
460.218	2596.39
460.591	2632.09
460.964	2636.61
461.337	2728.36
461.71	2764.29
462.083	2759.77
462.456	2816.27
462.829	2820.56
463.201	2874.8
463.574	2856.49
463.947	2910.28
464.32	2948.69
464.692	3035.25
465.065	3035.25
465.438	3075.47
465.81	3172.19
466.183	3183.26
466.555	3225.07
466.928	3261
467.3	3247.44
467.672	3346.42
468.045	3398.17
468.417	3394.11
468.789	3461.45
469.161	3513.42
469.534	3565.63
469.906	3561.78
470.278	3651.73
470.65	3680.65
471.022	3762.91
471.394	3834.32
471.766	3871.61
472.138	3917.48
472.51	3959.51
472.882	4024.6
473.253	4067.99
473.625	4169.68
473.997	4244.48
474.369	4291.71
474.74	4303.69
475.112	4393.4
475.484	4484.47
475.855	4553.85
476.227	4581.87
476.598	4699.38
476.97	4787.52
477.341	4876.33
477.713	4946.61
478.084	4976.21
478.455	5103.21
478.827	5165.36
479.198	5257.33
479.569	5305.24
479.94	5415.75
480.311	5473.37
480.682	5633.37
481.053	5744.78
481.424	5921.27
481.795	5902.29
482.166	5963.08
482.537	6076.75
482.908	6209.4
483.279	6275.84
483.65	6382.95
484.021	6532.1
484.391	6614.59
484.762	6602.61
485.133	6691.87
485.503	6817.29
485.874	6932.77
486.244	6967.8
486.615	7119.88
486.985	7203.95
487.356	7346.77
487.726	7403.27
488.097	7530.27
488.467	7593.54
488.837	7755.35
489.207	7829.47
489.578	7862.91
489.948	7988.11
490.318	8125.05
490.688	8120.54
491.058	8290.25
491.428	8348.33
491.798	8410.92
492.168	8591.03
492.538	8642.33
492.908	8682.78
493.278	8751.7
493.648	8844.81
494.017	8937.01
494.387	9027.4
494.757	9019.72
495.126	9108.08
495.496	9236.66
495.866	9175.87
496.235	9352.14
496.605	9334.97
496.974	9393.72
497.344	9439.37
497.713	9519.37
498.082	9571.8
498.452	9671.23
498.821	9685.69
499.19	9711.68
499.559	9815.41
499.928	9793.94
500.298	9837.33
500.667	10011.33
501.036	9906.48
501.405	10019.92
501.774	9993.03
502.143	10100.37
502.512	10120.93
502.88	10209.97
503.249	10170.42
503.618	10164.78
503.987	10266.69
504.356	10279.57
504.724	10357.54
505.093	10273.25
505.462	10395.73
505.83	10369.97
506.199	10412.9
506.567	10556.18
506.936	10541.26
507.304	10553.69
507.672	10634.37
508.041	10601.15
508.409	10676.85
508.777	10731.77
509.145	10722.95
509.514	10783.52
509.882	10795.04
510.25	10813.8
510.618	10822.61
510.986	10831.42
511.354	10819.22
511.722	10911.42
512.09	10948.26
512.458	10860.12
512.826	10975.38
513.193	10989.39
513.561	11021.7
513.929	11022.83
514.297	11083.17
514.664	11064.19
515.032	11148.25
515.4	11172.88
515.767	11150.96
516.135	11148.03
516.502	11041.36
516.869	11216.72
517.237	11144.86
517.604	11125.2
517.972	11215.59
518.339	11168.14
518.706	11042.27
519.073	11205.88
519.44	11161.36
519.808	11206.78
520.175	11237.52
520.542	11317.51
520.909	11299.43
521.276	11230.51
521.643	11289.94
522.009	11229.15
522.376	11340.11
522.743	11271.19
523.11	11333.33
523.477	11404.74
523.843	11376.49
524.21	11411.52
524.577	11403.16
524.943	11370.85
525.31	11461.46
525.676	11499.66
526.043	11444.52
526.409	11454.01
526.776	11472.09
527.142	11346.44
527.508	11402.26
527.874	11365.65
528.241	11493.1
528.607	11367.68
528.973	11391.86
529.339	11431.86
529.705	11403.61
530.071	11356.83
530.437	11386.21
530.803	11301.24
531.169	11349.15
531.535	11202.49
531.901	11262.15
532.267	11268.02
532.632	11230.74
532.998	11184.18
533.364	11254.69
533.73	11066.22
534.095	11149.61
534.461	11122.26
534.826	11033
535.192	10986.9
535.557	11006.11
535.923	10987.58
536.288	10951.42
536.653	10895.83
537.019	10842.27
537.384	10755.27
537.749	10737.64
538.114	10661.71
538.479	10687.25
538.845	10617.87
539.21	10529.06
539.575	10544.2
539.94	10445.22
540.305	10491.32
540.67	10332.68
541.034	10347.14
541.399	10325.9
541.764	10283.19
542.129	10262.63
542.494	10165.23
542.858	10136.53
543.223	10125.45
543.587	10095.62
543.952	9975.63
544.316	9963.42
544.681	9821.73
545.045	9868.06
545.41	9906.25
545.774	9825.8
546.138	9681.4
546.503	9708.06
546.867	9634.62
547.231	9556.66
547.595	9550.33
547.959	9464.68
548.324	9438.24
548.688	9330.45
549.052	9381.07
549.416	9304.68
549.779	9255.19
550.143	9221.07
550.507	9242.54
550.871	9111.92
551.235	9142.2
551.599	9058.82
551.962	9024.92
552.326	8997.12
552.689	8971.13
553.053	8876.22
553.417	8837.13
553.78	8909.21
554.143	8726.62
554.507	8728.2
554.87	8708.54
555.234	8712.61
555.597	8674.19
555.96	8674.19
556.323	8634.87
556.686	8561.43
557.05	8563.46
557.413	8510.36
557.776	8462.9
558.139	8519.17
558.502	8438.04
558.865	8390.81
559.228	8408.21
559.59	8338.16
559.953	8361.21
560.316	8379.51
560.679	8289.12
561.041	8315.78
561.404	8254.32
561.767	8251.61
562.129	8268.33
562.492	8230.36
562.854	8177.93
563.217	8183.81
563.579	8232.4
563.941	8238.05
564.304	8152.17
564.666	8282.56
565.028	8139.07
565.39	8198.95
565.753	8169.8
566.115	8137.71
566.477	8141.33
566.839	8144.26
567.201	8108.56
567.563	8149.01
567.925	8160.53
568.287	8101.33
568.648	8160.99
569.01	8151.95
569.372	8158.5
569.734	8072.17
570.095	8140.42
570.457	8131.38
570.819	8151.27
571.18	8122.34
571.542	8113.08
571.903	8113.76
572.265	8071.72
572.626	8107.88
572.987	8083.47
573.349	8097.71
573.71	8064.72
574.071	8149.01
574.432	8094.55
574.794	8170.03
575.155	8086.86
575.516	8163.92
575.877	8032.85
576.238	8067.2
576.599	8109.46
576.96	7998.5
577.32	8058.84
577.681	8040.76
578.042	8117.15
578.403	8044.6
578.763	8054.55
579.124	8121.44
579.485	8096.81
579.845	8102.91
580.206	8016.13
580.566	8050.71
580.927	8039.18
581.287	8104.94
581.648	8015.45
582.008	8074.43
582.368	8110.59
582.728	7999.41
583.089	7986.08
583.449	7969.35
583.809	7977.49
584.169	7944.49
584.529	7974.78
584.889	7979.52
585.249	7917.38
585.609	7949.69
585.969	7936.36
586.329	7858.62
586.688	7895.23
587.048	7902.01
587.408	7801.67
587.768	7843.48
588.127	7845.74
588.487	7862.46
588.846	7885.06
589.206	7834.21
589.565	7867.89
589.925	7839.41
590.284	7794.44
590.643	7771.39
591.003	7880.32
591.362	7874.44
591.721	7821.56
592.08	7788.79
592.44	7796.02
592.799	7768.23
593.158	7786.98
593.517	7776.36
593.876	7754.22
594.235	7716.48
594.593	7707.66
594.952	7682.58
595.311	7724.61
595.67	7681.45
596.029	7724.39
596.387	7708.57
596.746	7714.22
597.104	7697.27
597.463	7688.46
597.822	7723.71
598.18	7652.75
598.538	7621.34
598.897	7697.27
599.255	7666.76
599.613	7737.27
599.972	7664.28
600.33	7675.58
600.688	7661.79
601.046	7631.51
601.404	7691.39
601.762	7671.28
602.12	7687.55
602.478	7676.25
602.836	7671.51
603.194	7623.37
603.552	7643.26
603.91	7554
604.268	7704.05
604.625	7617.72
604.983	7632.86
605.341	7583.83
605.698	7622.92
606.056	7696.82
606.413	7622.24
606.771	7582.02
607.128	7629.25
607.485	7594.67
607.843	7589.02
608.2	7607.33
608.557	7634.22
608.914	7528.23
609.272	7571.85
609.629	7702.47
609.986	7696.59
610.343	7675.58
610.7	7664.73
611.057	7669.47
611.414	7636.48
611.771	7630.6
612.127	7681
612.484	7637.61
612.841	7700.89
613.198	7657.27
613.554	7610.94
613.911	7657.5
614.267	7712.86
614.624	7648.01
614.98	7676.48
615.337	7636.03
615.693	7706.76
616.05	7707.66
616.406	7720.77
616.762	7786.31
617.118	7710.83
617.475	7710.6
617.831	7721.68
618.187	7641.23
618.543	7647.55
618.899	7752.18
619.255	7743.82
619.611	7690.49
619.967	7730.71
620.323	7773.2
620.678	7763.71
621.034	7714.44
621.39	7743.14
621.746	7718.29
622.101	7812.29
622.457	7743.14
622.812	7721
623.168	7745.86
623.523	7683.48
623.879	7758.96
624.234	7653.43
624.589	7689.36
624.945	7768.91
625.3	7717.16
625.655	7725.07
626.01	7716.93
626.365	7716.25
626.72	7736.14
627.075	7764.39
627.43	7727.78
627.785	7641.68
628.14	7696.59
628.495	7744.95
628.85	7700.66
629.205	7651.62
629.559	7715.35
629.914	7655.69
630.269	7682.13
630.623	7658.17
630.978	7661.34
631.332	7670.38
631.687	7712.41
632.041	7633.99
632.396	7617.95
632.75	7612.98
633.104	7615.24
633.459	7517.61
633.813	7550.61
634.167	7584.96
634.521	7503.38
634.875	7543.38
635.229	7567.1
635.583	7522.58
635.937	7540.21
636.291	7527.56
636.645	7479.42
636.999	7485.3
637.352	7511.96
637.706	7434.23
638.06	7522.81
638.413	7477.61
638.767	7398.97
639.121	7455.24
639.474	7449.37
639.828	7390.84
640.181	7414.56
640.534	7440.33
640.888	7386.77
641.241	7382.93
641.594	7399.65
641.947	7362.14
642.301	7379.54
642.654	7365.75
643.007	7336.15
643.36	7399.88
643.713	7414.11
644.066	7393.55
644.419	7309.93
644.771	7297.28
645.124	7239.43
645.477	7158.75
645.83	7152.42
646.182	7172.76
646.535	7167.79
646.888	7120.11
647.24	7102.93
647.593	7120.79
647.945	7162.82
648.298	7101.35
648.65	7096.38
649.002	7079.66
649.355	7101.35
649.707	7070.39
650.059	7172.54
650.411	7255.93
650.763	7248.47
651.115	7225.64
651.467	7233.78
651.819	7244.17
652.171	7285.3
652.523	7232.2
652.875	7251.41
653.227	7249.82
653.578	7283.72
653.93	7297.73
654.282	7234.68
654.633	7285.98
654.985	7267.9
655.337	7245.53
655.688	7250.73
656.039	7261.57
656.391	7317.84
656.742	7280.33
657.094	7283.04
657.445	7330.27
657.796	7298.64
658.147	7303.38
658.498	7318.3
658.849	7313.55
659.2	7331.86
659.551	7248.92
659.902	7321.46
660.253	7316.71
660.604	7301.57
660.955	7332.08
661.306	7328.69
661.656	7303.16
662.007	7370.5
662.358	7335.47
662.708	7349.03
663.059	7376.6
663.409	7331.86
663.76	7348.13
664.11	7358.97
664.461	7327.11
664.811	7358.3
665.161	7368.69
665.511	7361.91
665.862	7349.93
666.212	7360.56
666.562	7390.16
666.912	7331.4
667.262	7326.21
667.612	7427.9
667.962	7354.23
668.312	7357.39
668.662	7418.41
669.011	7387.22
669.361	7334.79
669.711	7361.23
670.06	7311.52
670.41	7304.96
670.76	7301.35
671.109	7368.92
671.459	7339.54
671.808	7316.94
672.157	7299.09
672.507	7316.71
672.856	7229.49
673.205	7382.02
673.554	7417.95
673.904	7285.75
674.253	7344.28
674.602	7307.9
674.951	7184.51
675.3	7156.72
675.649	7271.07
675.998	7246.43
676.346	7240.56
676.695	7305.64
677.044	7250.5
677.393	7196.49
677.741	7219.54
678.09	7176.83
678.438	7186.1
678.787	7190.39
679.135	7185.19
679.484	7178.86
679.832	7096.61
680.181	7116.04
680.529	7126.44
680.877	7138.64
681.225	7108.13
681.573	7141.35
681.922	6993.56
682.27	7098.87
682.618	7024.97
682.966	7010.96
683.314	7051.41
683.661	7019.1
684.009	7052.77
684.357	6921.7
684.705	6998.76
685.053	6935.26
685.4	6928.93
685.748	6912.43
686.095	6871.3
686.443	6887.8
686.79	6851.19
687.138	6884.41
687.485	6880.57
687.832	6820.68
688.18	6868.14
688.527	6797.63
688.874	6788.82
689.221	6753.34
689.568	6711.76
689.915	6699.78
690.262	6684.87
690.609	6676.28
690.956	6653
691.303	6692.32
691.65	6625.66
691.997	6606
692.344	6598.32
692.69	6573.91
693.037	6525.1
693.383	6461.82
693.73	6511.31
694.077	6456.4
694.423	6461.6
694.769	6436.06
695.116	6425.66
695.462	6365.78
695.808	6401.71
696.155	6420.01
696.501	6346.8
696.847	6284.2
697.193	6226.35
697.539	6275.61
697.885	6262.28
698.231	6207.59
698.577	6222.96
698.923	6179.12
699.269	6189.29
699.614	6130.08
699.96	6036.07
700.306	6062.06
700.651	6010.31
700.997	6018.44
701.342	5996.98
701.688	5986.81
702.033	5956.3
702.379	6025
702.724	5952.46
703.069	5934.38
703.415	5802.86
703.76	5845.11
704.105	5871.55
704.45	5857.09
704.795	5819.35
705.14	5780.48
705.485	5766.02
705.83	5793.14
706.175	5772.35
706.52	5776.64
706.865	5707.27
707.209	5725.34
707.554	5693.71
707.899	5657.1
708.243	5611.22
708.588	5610.77
708.932	5556.99
709.277	5533.94
709.621	5580.71
709.966	5538
710.31	5546.59
710.654	5495.75
710.998	5499.36
711.342	5481.28
711.687	5516.76
712.031	5457.55
712.375	5455.75
712.719	5467.27
713.063	5498.46
713.407	5448.06
713.75	5449.87
714.094	5424.79
714.438	5414.62
714.782	5374.39
715.125	5394.05
715.469	5336.43
715.812	5361.96
716.156	5264.34
716.499	5353.38
716.843	5322.87
717.186	5329.87
717.53	5326.94
717.873	5304.79
718.216	5258.24
718.559	5287.39
718.902	5231.8
719.246	5295.07
719.589	5233.15
719.932	5259.37
720.275	5271.57
720.617	5256.66
720.96	5221.18
721.303	5248.07
721.646	5252.81
721.989	5218.92
722.331	5215.3
722.674	5240.16
723.016	5256.43
723.359	5141.4
723.701	5189.99
724.044	5197
724.386	5207.84
724.729	5189.09
725.071	5155.87
725.413	5180.5
725.755	5175.75
726.097	5166.71
726.439	5135.98
726.782	5172.14
727.124	5161.52
727.465	5119.94
727.807	5123.55
728.149	5157.9
728.491	5123.33
728.833	5125.81
729.175	5150.44
729.516	5135.3
729.858	5107.05
730.199	5165.13
730.541	5139.37
730.882	5170.33
731.224	5142.99
731.565	5126.04
731.906	5109.99
732.248	5141.18
732.589	5174.17
732.93	5137.34
733.271	5117.9
733.612	5124.91
733.953	5166.26
734.294	5150.67
734.635	5121.52
734.976	5143.66
735.317	5119.71
735.658	5149.31
735.999	5177.56
736.339	5152.48
736.68	5172.59
737.021	5172.14
737.361	5150.44
737.702	5218.24
738.042	5213.49
738.383	5175.53
738.723	5205.36
739.063	5187.96
739.404	5214.17
739.744	5185.47
740.084	5197
740.424	5259.37
740.764	5247.62
741.104	5264.11
741.444	5270.89
741.784	5272.47
742.124	5265.24
742.464	5304.34
742.804	5360.16
743.143	5350.21
743.483	5359.93
743.823	5417.56
744.162	5383.21
744.502	5429.08
744.841	5434.28
745.181	5500.04
745.52	5480.38
745.86	5559.92
746.199	5571.68
746.538	5562.64
746.877	5651.67
747.216	5722.86
747.556	5722.86
747.895	5774.83
748.234	5776.87
748.573	5829.75
748.911	5910.2
749.25	5979.57
749.589	5992.91
749.928	6099.35
750.267	6169.85
750.605	6209.62
750.944	6215.95
751.283	6332.56
751.621	6394.93
751.96	6436.51
752.298	6546.34
752.636	6675.38
752.975	6726.45
753.313	6820.23
753.651	6966.89
753.989	7005.08
754.327	7138.87
754.666	7191.97
755.004	7356.49
755.342	7509.25
755.679	7639.87
756.017	7713.99
756.355	7957.6
756.693	7982.91
757.031	8176.13
757.368	8243.24
757.706	8427.42
758.044	8565.5
758.381	8731.14
758.719	8781.76
759.056	8997.8
759.394	9193.05
759.731	9231.92
760.068	9450.44
760.405	9610.44
760.743	9731.34
761.08	9957.77
761.417	10110.77
761.754	10258.78
762.091	10433.24
762.428	10621.94
762.765	10688.83
763.102	10965.66
763.438	11124.3
763.775	11227.35
764.112	11422.14
764.449	11663.72
764.785	11704.17
765.122	11854
765.458	11987.33
765.795	12230.94
766.131	12446.75
766.467	12556.35
766.804	12688.55
