Data from hue_210_FLMS001491_00001.txt Node
Date: Tue Feb 07 16:40:40 GMT 2017
User: dcchb
Spectrometer: FLMS00149
Trigger mode: 0
Integration Time (sec): 2.000000E-2
Scans to average: 10
Electric dark correction enabled: true
Nonlinearity correction enabled: false
Boxcar width: 0
XAxis mode: Wavelengths
Number of Pixels in Spectrum: 2048
>>>>>Begin Spectral Data<<<<<
341.393	-9
341.776	-9
342.16	-9
342.543	-53.52
342.927	-60.75
343.31	-70.69
343.693	-78.15
344.077	-58.71
344.46	-63.91
344.843	-50.13
345.226	-50.8
345.61	-11.71
345.993	-10.58
346.376	-1.31
346.759	6.6
347.142	21.51
347.525	40.04
347.908	53.15
348.291	72.58
348.674	87.72
349.057	114.39
349.44	133.82
349.823	150.09
350.206	148.74
350.588	176.99
350.971	217.66
351.354	228.51
351.737	244.56
352.119	253.82
352.502	279.13
352.884	270.77
353.267	287.94
353.65	312.58
354.032	305.8
354.414	301.73
354.797	305.35
355.179	304.89
355.562	299.24
355.944	329.3
356.326	327.27
356.709	335.85
357.091	303.99
357.473	329.3
357.855	349.19
358.238	322.29
358.62	348.51
359.002	347.83
359.384	356.42
359.766	327.94
360.148	346.47
360.53	339.92
360.912	315.97
361.294	336.3
361.676	327.04
362.057	333.59
362.439	335.17
362.821	351.9
363.203	317.77
363.584	325.91
363.966	341.5
364.348	323.2
364.729	333.82
365.111	323.2
365.493	314.61
365.874	320.26
366.256	326.59
366.637	321.62
367.019	322.52
367.4	312.35
367.781	315.29
368.163	308.51
368.544	310.54
368.925	312.58
369.306	327.04
369.688	324.78
370.069	306.7
370.45	312.8
370.831	322.97
371.212	308.73
371.593	307.83
371.974	304.89
372.355	313.71
372.736	316.42
373.117	325.68
373.498	319.36
373.879	328.17
374.26	325.01
374.641	315.29
375.021	301.73
375.402	315.97
375.783	318.45
376.163	317.77
376.544	327.27
376.925	335.4
377.305	333.59
377.686	338.56
378.066	316.64
378.447	305.57
378.827	327.04
379.208	347.6
379.588	340.15
379.968	326.36
380.349	329.53
380.729	333.14
381.109	335.4
381.489	335.4
381.87	336.08
382.25	342.18
382.63	335.63
383.01	339.92
383.39	351.9
383.77	354.38
384.15	367.49
384.53	357.77
384.91	360.71
385.29	366.81
385.67	383.76
386.049	352.58
386.429	351.9
386.809	347.15
387.189	363.65
387.568	337.89
387.948	360.94
388.328	350.09
388.707	362.97
389.087	368.62
389.466	372.46
389.846	356.19
390.225	387.6
390.605	373.82
390.984	404.33
391.363	368.17
391.743	387.6
392.122	382.18
392.501	363.42
392.881	376.08
393.26	400.48
393.639	369.07
394.018	385.79
394.397	387.38
394.776	392.8
395.155	383.76
395.534	393.48
395.913	386.92
396.292	387.15
396.671	375.17
397.05	415.62
397.429	391.44
397.808	397.09
398.186	407.72
398.565	407.26
398.944	409.52
399.323	394.83
399.701	423.99
400.08	423.76
400.458	419.92
400.837	403.87
401.215	408.39
401.594	417.88
401.972	432.8
402.351	438.67
402.729	447.04
403.107	428.73
403.486	443.19
403.864	439.13
404.242	445.23
404.62	451.33
404.999	458.11
405.377	447.71
405.755	454.04
406.133	472.57
406.511	473.02
406.889	462.86
407.267	476.64
407.645	498.79
408.023	497.66
408.401	498.79
408.779	497.43
409.156	523.19
409.534	526.58
409.912	529.97
410.29	525.23
410.667	536.53
411.045	523.19
411.422	566.81
411.8	577.2
412.178	561.16
412.555	586.02
412.933	592.12
413.31	583.08
413.687	636.18
414.065	625.56
414.442	615.17
414.819	618.33
415.197	647.03
415.574	646.81
415.951	660.82
416.328	664.43
416.705	709.18
417.082	687.93
417.46	687.71
417.837	708.5
418.214	703.3
418.591	739.68
418.967	714.6
419.344	762.51
419.721	764.77
420.098	761.6
420.475	788.27
420.852	769.97
421.228	786.91
421.605	791.21
421.982	831.66
422.358	838.44
422.735	839.79
423.111	857.65
423.488	866.69
423.864	907.14
424.241	935.61
424.617	902.39
424.994	938.32
425.37	947.36
425.746	971.09
426.123	973.8
426.499	1001.15
426.875	1002.5
427.251	1048.38
427.627	1036.4
428.003	1056.96
428.379	1074.82
428.756	1081.14
429.132	1071.88
429.507	1088.83
429.883	1116.62
430.259	1142.39
430.635	1126.79
431.011	1133.8
431.387	1188.94
431.763	1227.35
432.138	1189.16
432.514	1235.04
432.89	1254.25
433.265	1289.05
433.641	1283.62
434.016	1329.27
434.392	1320.01
434.767	1370.85
435.143	1361.14
435.518	1412.89
435.894	1381.7
436.269	1447.01
436.644	1457.86
437.02	1477.07
437.395	1527.23
437.77	1582.83
438.145	1567.23
438.52	1602.71
438.895	1639.32
439.271	1632.99
439.646	1692.2
440.021	1689.72
440.395	1697.4
440.77	1726.1
441.145	1738.98
441.52	1776.27
441.895	1758.41
442.27	1807.45
442.645	1842.03
443.019	1872.99
443.394	1848.36
443.769	1890.39
444.143	1867.11
444.518	1895.13
444.892	1932.87
445.267	1948.01
445.641	1984.85
446.016	1978.07
446.39	1974.45
446.764	1977.84
447.139	2040.67
447.513	2030.5
447.887	2053.32
448.262	2075.24
448.636	2096.94
449.01	2117.05
449.384	2109.82
449.758	2124.05
450.132	2204.05
450.506	2182.81
450.88	2202.24
451.254	2238.85
451.628	2222.13
452.002	2253.99
452.376	2312.3
452.75	2312.07
453.123	2315.46
453.497	2322.24
453.871	2375.8
454.244	2438.4
454.618	2456.25
454.992	2455.35
455.365	2448.11
455.739	2523.82
456.112	2555
456.486	2551.61
456.859	2588.45
457.232	2604.72
457.606	2641.1
457.979	2683.36
458.352	2729.24
458.725	2737.37
459.099	2755.68
459.472	2823.92
459.845	2842.91
460.218	2869.35
460.591	2857.59
460.964	2892.62
461.337	2979.4
461.71	2979.4
462.083	3005.16
462.456	3009.23
462.829	3038.83
463.201	3087.42
463.574	3121.99
463.947	3164.48
464.32	3212.39
464.692	3237.47
465.065	3327.41
465.438	3343.23
465.81	3357.69
466.183	3378.48
466.555	3425.72
466.928	3444.47
467.3	3479.27
467.672	3547.29
468.045	3602.43
468.417	3622.32
468.789	3647.63
469.161	3699.83
469.534	3776.89
469.906	3806.72
470.278	3833.16
470.65	3850.34
471.022	3922.88
471.394	4018.47
471.766	4058.92
472.138	4039.71
472.51	4185.92
472.882	4203.55
473.253	4214.85
473.625	4323.32
473.997	4401.28
474.369	4396.76
474.74	4433.15
475.112	4553.59
475.484	4588.85
475.855	4651.22
476.227	4677.21
476.598	4769.41
476.97	4848.73
477.341	4928.95
477.713	5020.02
478.084	5000.59
478.455	5140.7
478.827	5171.66
479.198	5301.15
479.569	5285.33
479.94	5413.91
480.311	5447.36
480.682	5601.93
481.053	5679.89
481.424	5738.42
481.795	5803.73
482.166	5872.2
482.537	5930.51
482.908	6088.02
483.279	6082.59
483.65	6172.54
484.021	6283.94
484.391	6410.5
484.762	6421.34
485.133	6491.62
485.503	6493.43
485.874	6634.67
486.244	6703.59
486.615	6806.42
486.985	6892.74
487.356	7019.07
487.726	7038.05
488.097	7175.9
488.467	7184.71
488.837	7301.77
489.207	7372.28
489.578	7459.28
489.948	7479.39
490.318	7624.02
490.688	7604.36
491.058	7748.99
491.428	7814.75
491.798	7864.92
492.168	7993.28
492.538	8020.4
492.908	8076.89
493.278	8225.14
493.648	8175.87
494.017	8295.42
494.387	8306.72
494.757	8390.56
495.126	8427.84
495.496	8467.16
495.866	8444.79
496.235	8580.83
496.605	8650.89
496.974	8703.32
497.344	8775.63
497.713	8729.98
498.082	8859.02
498.452	8892.01
498.821	8906.02
499.19	8906.7
499.559	9032.57
499.928	9043.65
500.298	9087.94
500.667	9130.2
501.036	9094.04
501.405	9169.97
501.774	9230.08
502.143	9211.33
502.512	9200.48
502.88	9299.23
503.249	9285.22
503.618	9364.32
503.987	9373.36
504.356	9381.26
504.724	9393.92
505.093	9432.11
505.462	9498.55
505.83	9472.79
506.199	9494.71
506.567	9601.82
506.936	9580.13
507.304	9683.63
507.672	9719.11
508.041	9684.99
508.409	9715.95
508.777	9776.96
509.145	9815.6
509.514	9817.41
509.882	9817.19
510.25	9839.11
510.618	9900.12
510.986	9861.93
511.354	9922.72
511.722	9932.66
512.09	10013.79
512.458	9952.1
512.826	9988.71
513.193	9999.78
513.561	9997.29
513.929	10069.61
514.297	10085.43
514.664	10148.7
515.032	10183.05
515.4	10195.93
515.767	10164.07
516.135	10167.46
516.502	9989.16
516.869	10213.11
517.237	10243.39
517.604	10210.17
517.972	10178.31
518.339	10252.43
518.706	10253.33
519.073	10217.17
519.44	10238.87
519.808	10334.23
520.175	10248.36
520.542	10286.33
520.909	10359.09
521.276	10317.51
521.643	10367.23
522.009	10369.04
522.376	10409.49
522.743	10402.48
523.11	10456.26
523.477	10454.23
523.843	10472.54
524.21	10533.78
524.577	10575.81
524.943	10562.7
525.31	10579.65
525.676	10631.63
526.043	10570.61
526.409	10612.64
526.776	10626.43
527.142	10593.21
527.508	10561.12
527.874	10619.88
528.241	10576.49
528.607	10661.46
528.973	10610.84
529.339	10631.18
529.705	10519.09
530.071	10667.78
530.437	10592.08
530.803	10617.62
531.169	10621.68
531.535	10582.36
531.901	10535.81
532.267	10507.56
532.632	10572.87
532.998	10569.48
533.364	10499.43
533.73	10591.18
534.095	10617.84
534.461	10528.13
534.826	10526.55
535.192	10540.33
535.557	10497.85
535.923	10426.66
536.288	10456.72
536.653	10421.46
537.019	10396.61
537.384	10335.59
537.749	10312.99
538.114	10323.39
538.479	10392.31
538.845	10280
539.21	10241.58
539.575	10188.48
539.94	10233.45
540.305	10224.18
540.67	10162.04
541.034	10144.18
541.399	10139.89
541.764	10123.39
542.129	9999.78
542.494	10024.41
542.858	10003.4
543.223	9929.95
543.587	9931.08
543.952	9953.68
544.316	9897.18
544.681	9828.48
545.045	9894.7
545.41	9863.29
545.774	9801.82
546.138	9844.76
546.503	9750.52
546.867	9715.95
547.231	9753.01
547.595	9718.2
547.959	9635.5
548.324	9602.73
548.688	9580.13
549.052	9597.76
549.416	9522.28
549.779	9459
550.143	9473.47
550.507	9524.54
550.871	9426.91
551.235	9447.25
551.599	9462.17
551.962	9351.66
552.326	9320.7
552.689	9334.49
553.053	9276.86
553.417	9302.85
553.78	9320.02
554.143	9320.25
554.507	9237.99
554.87	9237.31
555.234	9298.33
555.597	9198.67
555.96	9242.74
556.323	9195.05
556.686	9149.86
557.05	9220.36
557.413	9226.01
557.776	9190.31
558.139	9136.98
558.502	9094.04
558.865	9065.11
559.228	9154.15
559.59	9071.89
559.953	9032.35
560.316	9186.24
560.679	9098.79
561.041	9150.31
561.404	9076.19
561.767	9146.92
562.129	9083.19
562.492	9178.78
562.854	9081.84
563.217	9125.9
563.579	9061.05
563.941	9086.36
564.304	9070.76
564.666	9118.45
565.028	9063.53
565.39	9088.39
565.753	9181.95
566.115	9126.36
566.477	9129.29
566.839	9123.87
567.201	9153.7
567.563	9183.08
567.925	9248.84
568.287	9207.48
568.648	9174.72
569.01	9216.07
569.372	9307.14
569.734	9188.73
570.095	9200.93
570.457	9274.37
570.819	9238.22
571.18	9275.05
571.542	9275.96
571.903	9298.78
572.265	9370.64
572.626	9345.33
572.987	9317.99
573.349	9336.29
573.71	9332.9
574.071	9331.77
574.432	9366.35
574.794	9458.1
575.155	9419.23
575.516	9371.55
575.877	9392.56
576.238	9378.78
576.599	9474.82
576.96	9446.8
577.32	9450.87
577.681	9486.8
578.042	9497.87
578.403	9453.58
578.763	9450.42
579.124	9469.62
579.485	9523.63
579.845	9552.79
580.206	9592.78
580.566	9518.66
580.927	9571.09
581.287	9523.86
581.648	9501.94
582.008	9598.66
582.368	9612.67
582.728	9615.16
583.089	9578.77
583.449	9633.46
583.809	9629.62
584.169	9653.8
584.529	9567.47
584.889	9711.88
585.249	9625.78
585.609	9607.7
585.969	9640.47
586.329	9645.89
586.688	9691.31
587.048	9622.16
587.408	9734.02
587.768	9686.34
588.127	9713.01
588.487	9643.63
588.846	9761.37
589.206	9711.65
589.565	9731.76
589.925	9733.12
590.284	9759.11
590.643	9759.56
591.003	9706.91
591.362	9810.41
591.721	9778.32
592.08	9790.97
592.44	9824.42
592.799	9800.46
593.158	9799.56
593.517	9759.79
593.876	9773.34
594.235	9816.06
594.593	9773.8
594.952	9791.65
595.311	9816.28
595.67	9807.24
596.029	9772.44
596.387	9832.1
596.746	9865.55
597.104	9830.74
597.463	9876.84
597.822	9803.85
598.18	9843.4
598.538	9736.06
598.897	9859.22
599.255	9762.72
599.613	9931.76
599.972	9831.2
600.33	9931.98
600.688	9790.52
601.046	9863.74
601.404	9887.24
601.762	9912.1
602.12	9936.73
602.478	9885.88
602.836	9909.61
603.194	9903.74
603.552	9913.91
603.91	9785.77
604.268	9922.95
604.625	9915.26
604.983	9886.79
605.341	9856.96
605.698	9949.39
606.056	9927.92
606.413	9905.54
606.771	9938.09
607.128	9977.86
607.485	9886.34
607.843	9874.13
608.2	9908.26
608.557	9958.42
608.914	9936.96
609.272	10000.68
609.629	10001.14
609.986	10051.98
610.343	9951.87
610.7	10069.61
611.057	10040.91
611.414	10002.94
611.771	9950.52
612.127	10081.81
612.484	10038.65
612.841	10071.42
613.198	10036.84
613.554	10057.86
613.911	10116.84
614.267	10113
614.624	10053.56
614.98	10144.18
615.337	10202.49
615.693	10141.47
616.05	10091.08
616.406	10151.41
616.762	10120
617.118	10112.09
617.475	10124.3
617.831	10174.01
618.187	10228.02
618.543	10123.84
618.899	10286.55
619.255	10218.08
619.611	10190.73
619.967	10206.1
620.323	10154.35
620.678	10224.63
621.034	10219.66
621.39	10207.01
621.746	10135.14
622.101	10212.43
622.457	10236.38
622.812	10163.16
623.168	10200.9
623.523	10177.18
623.879	10284.29
624.234	10200.45
624.589	10269.83
624.945	10234.12
625.3	10215.82
625.655	10259.89
626.01	10178.53
626.365	10231.64
626.72	10168.81
627.075	10182.83
627.43	10153.9
627.785	10176.95
628.14	10168.36
628.495	10175.14
628.85	10158.42
629.205	10178.98
629.559	10147.57
629.914	10167.46
630.269	10094.69
630.623	10114.13
630.978	10104.41
631.332	10172.43
631.687	10140.79
632.041	10082.04
632.396	10099.21
632.75	10072.55
633.104	10067.57
633.459	10003.4
633.813	10021.93
634.167	10032.77
634.521	10045.65
634.875	10056.5
635.229	9955.94
635.583	9991.64
635.937	9941.02
636.291	9945.54
636.645	9964.53
636.999	9876.62
637.352	9872.78
637.706	9792.78
638.06	9892.44
638.413	9838.88
638.767	9866.22
639.121	9915.26
639.474	9835.72
639.828	9784.87
640.181	9814.02
640.534	9863.74
640.888	9750.75
641.241	9728.15
641.594	9768.83
641.947	9804.08
642.301	9788.49
642.654	9778.54
643.007	9762.5
643.36	9777.64
643.713	9731.09
644.066	9776.06
644.419	9666.68
644.771	9610.86
645.124	9564.99
645.477	9552.79
645.83	9495.84
646.182	9435.73
646.535	9426.91
646.888	9416.07
647.24	9411.77
647.593	9436.63
647.945	9383.75
648.298	9350.3
648.65	9329.74
649.002	9306.01
649.355	9363.41
649.707	9338.1
650.059	9421.49
650.411	9575.61
650.763	9519.34
651.115	9565.89
651.467	9555.05
651.819	9566.8
652.171	9596.4
652.523	9598.89
652.875	9580.36
653.227	9533.8
653.578	9553.01
653.93	9547.36
654.282	9553.01
654.633	9525.44
654.985	9578.55
655.337	9536.29
655.688	9601.37
656.039	9645.44
656.391	9537.64
656.742	9573.12
657.094	9613.8
657.445	9646.12
657.796	9583.29
658.147	9550.75
658.498	9560.02
658.849	9558.89
659.2	9582.39
659.551	9581.71
659.902	9606.34
660.253	9565.89
660.604	9587.13
660.955	9545.78
661.306	9656.96
661.656	9642.73
662.007	9676.85
662.358	9600.69
662.708	9596.63
663.059	9623.74
663.409	9592.11
663.76	9722.72
664.11	9677.08
664.461	9636.63
664.811	9693.8
665.161	9594.37
665.511	9630.75
665.862	9652.9
666.212	9697.19
666.562	9662.16
666.912	9602.05
667.262	9668.49
667.612	9664.42
667.962	9634.37
668.312	9569.06
668.662	9647.7
669.011	9604.08
669.361	9583.07
669.711	9597.08
670.06	9548.04
670.41	9593.91
670.76	9560.69
671.109	9603.41
671.459	9635.04
671.808	9564.08
672.157	9561.15
672.507	9474.6
672.856	9541.94
673.205	9558.21
673.554	9530.87
673.904	9557.98
674.253	9555.27
674.602	9582.84
674.951	9432.34
675.3	9366.58
675.649	9546.68
675.998	9494.93
676.346	9541.03
676.695	9517.53
677.044	9435.73
677.393	9440.7
677.741	9529.28
678.09	9446.57
678.438	9374.94
678.787	9441.83
679.135	9444.31
679.484	9386.69
679.832	9367.71
680.181	9306.92
680.529	9343.98
680.877	9277.31
681.225	9274.6
681.573	9322.96
681.922	9316.63
682.27	9195.73
682.618	9158.22
682.966	9181.04
683.314	9257.2
683.661	9194.6
684.009	9099.46
684.357	9143.08
684.705	9175.85
685.053	9154.15
685.4	9134.72
685.748	9091.33
686.095	9049.97
686.443	9050.88
686.79	8906.93
687.138	8941.28
687.485	9031.22
687.832	8973.37
688.18	8893.59
688.527	8864.44
688.874	8811.79
689.221	8902.63
689.568	8805.23
689.915	8789.64
690.262	8777.44
690.609	8729.3
690.956	8717.1
691.303	8689.76
691.65	8662.19
691.997	8648.18
692.344	8579.03
692.69	8657.89
693.037	8563.66
693.383	8543.09
693.73	8547.84
694.077	8483.66
694.423	8516.43
694.769	8416.77
695.116	8427.17
695.462	8390.33
695.808	8413.61
696.155	8440.5
696.501	8282.99
696.847	8260.16
697.193	8234.4
697.539	8273.27
697.885	8233.05
698.231	8129.09
698.577	8180.84
698.923	8154.86
699.269	8108.08
699.614	8043.9
699.96	7994.86
700.306	8033.5
700.651	7960.96
700.997	7946.73
701.342	7877.58
701.688	7931.13
702.033	7851.14
702.379	7901.3
702.724	7724.13
703.069	7838.03
703.415	7712.83
703.76	7666.96
704.105	7751.03
704.45	7699.5
704.795	7679.84
705.14	7647.98
705.485	7640.97
705.83	7542.44
706.175	7552.16
706.52	7543.35
706.865	7612.72
707.209	7456.12
707.554	7460.64
707.899	7394.65
708.243	7371.83
708.588	7431.94
708.932	7337.7
709.277	7340.41
709.621	7346.06
709.966	7333.41
710.31	7293.41
710.654	7264.03
710.998	7277.59
711.342	7266.07
711.687	7205.5
712.031	7237.59
712.375	7176.12
712.719	7183.58
713.063	7148.55
713.407	7199.4
713.75	7166.86
714.094	7106.75
714.438	7030.59
714.782	7116.01
715.125	7082.79
715.469	7113.3
715.812	7028.78
716.156	6991.72
716.499	6987.88
716.843	7000.31
717.186	7008.22
717.53	7009.35
717.873	6994.21
718.216	6963.25
718.559	6928.45
718.902	6873.31
719.246	6928.45
719.589	6879.18
719.932	6840.09
720.275	6876.02
720.617	6836.02
720.96	6827.66
721.303	6821.11
721.646	6863.82
721.989	6861.1
722.331	6816.36
722.674	6821.11
723.016	6855.46
723.359	6828.79
723.701	6802.8
724.044	6777.49
724.386	6777.72
724.729	6767.1
725.071	6819.07
725.413	6783.82
725.755	6759.41
726.097	6737.49
726.439	6737.27
726.782	6718.06
727.124	6765.97
727.465	6745.85
727.807	6684.61
728.149	6710.15
728.491	6632.41
728.833	6709.24
729.175	6706.98
729.516	6713.09
729.858	6682.58
730.199	6691.17
730.541	6711.96
730.882	6677.61
731.224	6659.98
731.565	6724.61
731.906	6699.08
732.248	6640.77
732.589	6621.34
732.93	6627.89
733.271	6651.62
733.612	6663.14
733.953	6663.82
734.294	6671.73
734.635	6652.07
734.976	6624.5
735.317	6655.23
735.658	6614.33
735.999	6682.8
736.339	6652.75
736.68	6761.45
737.021	6710.6
737.361	6665.18
737.702	6756.93
738.042	6697.95
738.383	6701.79
738.723	6744.27
739.063	6732.07
739.404	6783.37
739.744	6729.13
740.084	6728.68
740.424	6780.66
740.764	6789.92
741.104	6815.91
741.444	6787.43
741.784	6791.5
742.124	6829.47
742.464	6900.65
742.804	6839.41
743.143	6827.66
743.483	6903.82
743.823	6926.64
744.162	6916.7
744.502	6987.2
744.841	6951.95
745.181	6991.04
745.52	7000.99
745.86	7099.97
746.199	7052.06
746.538	7139.06
746.877	7145.39
747.216	7180.64
747.556	7207.31
747.895	7245.95
748.234	7306.29
748.573	7338.15
748.911	7401.88
749.25	7500.18
749.589	7473.29
749.928	7662.89
750.267	7665.38
750.605	7705.15
750.944	7757.13
751.283	7810.46
751.621	7915.31
751.96	8015.42
752.298	8085.71
752.636	8184.46
752.975	8265.36
753.313	8317.34
753.651	8486.6
753.989	8582.19
754.327	8669.87
754.666	8675.75
755.004	8966.13
755.342	9018.34
755.679	9223.75
756.017	9288.16
756.355	9427.59
756.693	9538.32
757.031	9667.13
757.368	9787.58
757.706	9957.07
758.044	10121.36
758.381	10270.73
758.719	10389.37
759.056	10554.79
759.394	10723.6
759.731	10874.78
760.068	11018.74
760.405	11241.78
760.743	11386.18
761.08	11590.92
761.417	11710.02
761.754	11863.69
762.091	12135.09
762.428	12309.1
762.765	12436.33
763.102	12587.06
763.438	12843.32
763.775	12935.07
764.112	13129.64
764.449	13359.92
764.785	13440.37
765.122	13650.98
765.458	13817.98
765.795	13994.7
