Data from hue_320_FLMS001491_49.txt Node
Date: Mon Feb 06 15:47:16 GMT 2017
User: dcchb
Spectrometer: FLMS00149
Trigger mode: 0
Integration Time (sec): 2.000000E-2
Scans to average: 10
Electric dark correction enabled: true
Nonlinearity correction enabled: false
Boxcar width: 0
XAxis mode: Wavelengths
Number of Pixels in Spectrum: 2048
>>>>>Begin Spectral Data<<<<<
341.393	1.03
341.776	1.03
342.16	1.03
342.543	-65.63
342.927	-65.41
343.31	-51.62
343.693	-66.09
344.077	-69.02
344.46	-57.27
344.843	-32.64
345.226	-51.85
345.61	-43.04
345.993	-20.66
346.376	-24.96
346.759	-12.53
347.142	29.5
347.525	57.3
347.908	53.91
348.291	79.45
348.674	107.69
349.057	101.82
349.44	129.16
349.823	137.3
350.206	160.35
350.588	190.86
350.971	208.94
351.354	222.27
351.737	246.45
352.119	269.27
352.502	264.75
352.884	280.8
353.267	264.75
353.65	298.65
354.032	293.45
354.414	306.56
354.797	320.12
355.179	334.13
355.562	306.79
355.944	321.25
356.326	336.16
356.709	347.24
357.091	327.35
357.473	327.12
357.855	322.6
358.238	327.8
358.62	336.39
359.002	346.33
359.384	328.71
359.766	345.65
360.148	315.37
360.53	358.99
360.912	338.88
361.294	346.11
361.676	319.44
362.057	328.03
362.439	313.11
362.821	313.79
363.203	332.32
363.584	295.49
363.966	335.49
364.348	317.41
364.729	318.76
365.111	331.42
365.493	311.53
365.874	318.54
366.256	297.97
366.637	303.62
367.019	308.37
367.4	299.33
367.781	334.36
368.163	307.01
368.544	303.85
368.925	319.89
369.306	320.34
369.688	308.59
370.069	302.04
370.45	301.36
370.831	299.55
371.212	299.33
371.593	296.16
371.974	290.51
372.355	304.53
372.736	314.02
373.117	319.21
373.498	318.54
373.879	319.89
374.26	315.6
374.641	318.99
375.021	307.92
375.402	321.93
375.783	311.76
376.163	309.5
376.544	344.75
376.925	328.03
377.305	318.54
377.686	330.97
378.066	312.44
378.447	342.27
378.827	324.41
379.208	335.71
379.588	323.96
379.968	319.67
380.349	328.48
380.729	324.64
381.109	326.9
381.489	330.06
381.87	303.17
382.25	326.67
382.63	331.19
383.01	337.97
383.39	321.47
383.77	338.88
384.15	310.4
384.53	358.99
384.91	334.58
385.29	351.53
385.67	355.6
386.049	332.77
386.429	338.2
386.809	348.59
387.189	349.04
387.568	338.65
387.948	337.29
388.328	334.13
388.707	342.94
389.087	349.5
389.466	359.21
389.846	342.72
390.225	341.81
390.605	348.59
390.984	330.97
391.363	365.99
391.743	363.51
392.122	345.65
392.501	372.77
392.881	353.79
393.26	355.37
393.639	351.98
394.018	351.76
394.397	393.11
394.776	347.69
395.155	388.37
395.534	375.03
395.913	353.79
396.292	364.19
396.671	356.95
397.05	386.11
397.429	362.83
397.808	373
398.186	379.33
398.565	398.53
398.944	379.78
399.323	383.62
399.701	392.89
400.08	387.69
400.458	368.48
400.837	398.08
401.215	401.02
401.594	400.57
401.972	389.04
402.351	367.12
402.729	396.5
403.107	376.16
403.486	403.05
403.864	403.05
404.242	403.28
404.62	424.97
404.999	406.22
405.377	388.82
405.755	414.35
406.133	403.28
406.511	414.35
406.889	398.08
407.267	451.41
407.645	459.78
408.023	434.47
408.401	437.63
408.779	461.58
409.156	446.22
409.534	465.65
409.912	440.57
410.29	464.97
410.667	453.22
411.045	480.34
411.422	485.99
411.8	479.21
412.178	476.05
412.555	492.54
412.933	501.36
413.31	497.06
413.687	484.86
414.065	500.45
414.442	512.66
414.819	505.88
415.197	516.05
415.574	538.87
415.951	526.67
416.328	528.93
416.705	538.87
417.082	563.05
417.46	572.54
417.837	569.38
418.214	562.82
418.591	566.89
418.967	577.74
419.344	594.69
419.721	565.54
420.098	612.54
420.475	610.73
420.852	611.64
421.228	601.02
421.605	650.05
421.982	628.13
422.358	636.27
422.735	634.69
423.111	666.32
423.488	637.85
423.864	645.76
424.241	655.25
424.617	673.1
424.994	669.71
425.37	692.54
425.746	670.39
426.123	699.32
426.499	706.55
426.875	716.94
427.251	720.56
427.627	707.45
428.003	728.92
428.379	740.67
428.756	732.76
429.132	770.05
429.507	776.15
429.883	771.86
430.259	803.72
430.635	769.15
431.011	772.76
431.387	817.28
431.763	811.86
432.138	826.32
432.514	849.82
432.89	827.45
433.265	832.42
433.641	844.4
434.016	868.13
434.392	873.32
434.767	903.83
435.143	893.89
435.518	905.19
435.894	903.83
436.269	925.3
436.644	904.96
437.02	953.1
437.395	934.57
437.77	939.76
438.145	956.03
438.52	970.95
438.895	970.05
439.271	950.84
439.646	972.08
440.021	1005.3
440.395	985.86
440.77	968.92
441.145	999.42
441.52	1009.82
441.895	1012.76
442.27	1016.37
442.645	1024.28
443.019	1041
443.394	1044.39
443.769	1040.1
444.143	1048.91
444.518	1063.15
444.892	1055.01
445.267	1042.59
445.641	1026.99
446.016	1048.46
446.39	1097.5
446.764	1084.39
447.139	1041.68
447.513	1100.21
447.887	1085.75
448.262	1095.92
448.636	1105.18
449.01	1112.19
449.384	1113.54
449.758	1104.96
450.132	1096.37
450.506	1134.11
450.88	1109.48
451.254	1084.84
451.628	1089.59
452.002	1149.7
452.376	1144.96
452.75	1166.65
453.123	1136.59
453.497	1177.72
453.871	1168.23
454.244	1181.56
454.618	1166.2
454.992	1199.87
455.365	1189.02
455.739	1217.5
456.112	1230.15
456.486	1237.38
456.859	1231.06
457.232	1219.98
457.606	1255.46
457.979	1262.47
458.352	1268.57
458.725	1282.35
459.099	1296.59
459.472	1275.12
459.845	1311.28
460.218	1319.19
460.591	1311.96
460.964	1317.61
461.337	1343.14
461.71	1367.77
462.083	1372.29
462.456	1375.46
462.829	1346.98
463.201	1381.56
463.574	1405.74
463.947	1401.67
464.32	1453.42
464.692	1420.43
465.065	1445.74
465.438	1441.9
465.81	1485.96
466.183	1466.3
466.555	1489.81
466.928	1515.12
467.3	1518.73
467.672	1507.43
468.045	1530.71
468.417	1544.72
468.789	1532.29
469.161	1543.36
469.534	1574.1
469.906	1592.4
470.278	1598.5
470.65	1632.17
471.022	1649.12
471.394	1633.08
471.766	1690.7
472.138	1695.22
472.51	1715.11
472.882	1731.16
473.253	1729.35
473.625	1747.88
473.997	1778.39
474.369	1791.72
474.74	1799.18
475.112	1798.5
475.484	1837.59
475.855	1881.89
476.227	1883.92
476.598	1917.36
476.97	1918.49
477.341	1935.22
477.713	1964.14
478.084	1967.31
478.455	2008.44
478.827	2030.36
479.198	2086.85
479.569	2080.98
479.94	2096.34
480.311	2133.18
480.682	2161.43
481.053	2196.68
481.424	2184.93
481.795	2233.74
482.166	2212.95
482.537	2231.71
482.908	2287.07
483.279	2311.48
483.65	2349.9
484.021	2389.89
484.391	2373.62
484.762	2419.5
485.133	2407.97
485.503	2418.14
485.874	2475.09
486.244	2499.27
486.615	2515.99
486.985	2529.78
487.356	2560.51
487.726	2604.35
488.097	2633.05
488.467	2648.65
488.837	2732.48
489.207	2687.29
489.578	2723.67
489.948	2746.04
490.318	2794.86
490.688	2789.21
491.058	2818.36
491.428	2829.66
491.798	2839.37
492.168	2866.94
492.538	2894.97
492.908	2939.94
493.278	2979.71
493.648	2922.08
494.017	3020.39
494.387	3027.62
494.757	3024.23
495.126	3017.67
495.496	3048.63
495.866	3073.04
496.235	3118.69
496.605	3153.72
496.974	3154.39
497.344	3185.81
497.713	3164.56
498.082	3166.37
498.452	3187.61
498.821	3214.73
499.19	3233.71
499.559	3207.05
499.928	3286.59
500.298	3280.49
500.667	3289.53
501.036	3266.48
501.405	3319.81
501.774	3324.11
502.143	3371.56
502.512	3348.51
502.88	3341.28
503.249	3413.6
503.618	3362.3
503.987	3385.57
504.356	3445.46
504.724	3404.33
505.093	3442.07
505.462	3417.89
505.83	3468.28
506.199	3487.95
506.567	3511.67
506.936	3520.71
507.304	3518.45
507.672	3502.18
508.041	3499.02
508.409	3573.37
508.777	3590.99
509.145	3607.26
509.514	3583.54
509.882	3596.87
510.25	3577.89
510.618	3608.62
510.986	3634.61
511.354	3608.85
511.722	3623.53
512.09	3694.27
512.458	3647.04
512.826	3676.64
513.193	3649.52
513.561	3708.28
513.929	3692.69
514.297	3721.61
514.664	3752.34
515.032	3739.92
515.4	3783.08
515.767	3766.58
516.135	3748.96
516.502	3769.97
516.869	3763.64
517.237	3783.98
517.604	3789.41
517.972	3816.75
518.339	3856.97
518.706	3793.93
519.073	3830.99
519.44	3855.39
519.808	3857.88
520.175	3854.72
520.542	3855.84
520.909	3900.14
521.276	3883.64
521.643	3884.32
522.009	3931.78
522.376	3949.85
522.743	3969.29
523.11	3942.62
523.477	4013.35
523.843	4043.86
524.21	4028.27
524.577	4067.59
524.943	4052.45
525.31	4074.6
525.676	4084.77
526.043	4114.82
526.409	4127.93
526.776	4165.67
527.142	4175.38
527.508	4188.94
527.874	4167.25
528.241	4218.32
528.607	4244.76
528.973	4271.2
529.339	4285.89
529.705	4295.38
530.071	4345.55
530.437	4331.76
530.803	4343.29
531.169	4349.62
531.535	4368.83
531.901	4388.49
532.267	4389.62
532.632	4426
532.998	4437.3
533.364	4446.11
533.73	4470.74
534.095	4534.92
534.461	4501.93
534.826	4549.39
535.192	4546.22
535.557	4581.48
535.923	4604.75
536.288	4611.76
536.653	4640.01
537.019	4642.49
537.384	4658.54
537.749	4681.36
538.114	4685.65
538.479	4686.11
538.845	4736.5
539.21	4738.76
539.575	4747.35
539.94	4782.15
540.305	4785.99
540.67	4823.05
541.034	4842.26
541.399	4856.72
541.764	4884.29
542.129	4939.88
542.494	4880.45
542.858	4929.04
543.223	4927.68
543.587	4953.9
543.952	4928.81
544.316	4951.18
544.681	4960.9
545.045	5036.38
545.41	5067.11
545.774	5114.12
546.138	5126.77
546.503	5127
546.867	5096.72
547.231	5181.46
547.595	5176.04
547.959	5207
548.324	5189.6
548.688	5220.78
549.052	5243.61
549.416	5231.18
549.779	5236.15
550.143	5223.72
550.507	5354.56
550.871	5371.06
551.235	5324.05
551.599	5417.39
551.962	5397.5
552.326	5361.12
552.689	5417.84
553.053	5426.2
553.417	5388.91
553.78	5466.42
554.143	5439.31
554.507	5503.71
554.87	5518.17
555.234	5521.56
555.597	5544.39
555.96	5568.12
556.323	5616.93
556.686	5578.96
557.05	5606.08
557.413	5670.71
557.776	5616.48
558.139	5701.45
558.502	5618.28
558.865	5679.53
559.228	5722.24
559.59	5687.44
559.953	5719.75
560.316	5791.39
560.679	5776.47
561.041	5819.18
561.404	5786.64
561.767	5821.89
562.129	5840.65
562.492	5891.72
562.854	5869.35
563.217	5900.76
563.579	5929.24
563.941	5933.08
564.304	5956.35
564.666	5965.62
565.028	5986.18
565.39	6027.77
565.753	5998.39
566.115	6058.5
566.477	6044.94
566.839	6133.75
567.201	6097.82
567.563	6085.16
567.925	6172.85
568.287	6105.96
568.648	6153.86
569.01	6227.99
569.372	6253.52
569.734	6272.5
570.095	6305.05
570.457	6351.6
570.819	6379.39
571.18	6344.59
571.542	6380.3
571.903	6426.85
572.265	6471.6
572.626	6559.05
572.987	6526.96
573.349	6613.96
573.71	6596.11
574.071	6646.05
574.432	6721.08
574.794	6724.92
575.155	6806.05
575.516	6798.37
575.877	6914.3
576.238	6937.57
576.599	7027.96
576.96	7085.36
577.32	7121.75
577.681	7241.97
578.042	7277.68
578.403	7366.94
578.763	7407.84
579.124	7406.49
579.485	7603.99
579.845	7678.34
580.206	7787.27
580.566	7884.21
580.927	7978.67
581.287	8160.14
581.648	8158.33
582.008	8430.64
582.368	8492.79
582.728	8646.45
583.089	8778.43
583.449	8867.92
583.809	9034.69
584.169	9244.86
584.529	9344.74
584.889	9635.13
585.249	9713.32
585.609	9806.87
585.969	10124.61
586.329	10239.41
586.688	10477.82
587.048	10673.07
587.408	10894.3
587.768	11145.6
588.127	11309.66
588.487	11496.1
588.846	11856.99
589.206	12032.13
589.565	12181.95
589.925	12576.75
590.284	12785.55
590.643	13041.37
591.003	13284.75
591.362	13628.92
591.721	13789.82
592.08	14118.4
592.44	14370.6
592.799	14632.51
593.158	14914.99
593.517	15172.16
593.876	15493.73
594.235	15745.02
594.593	15966.26
594.952	16329.19
595.311	16566.7
595.67	16875.62
596.029	17401.7
596.387	17587.46
596.746	17929.83
597.104	18018.18
597.463	18365.29
597.822	18779.29
598.18	18938.61
598.538	19223.12
598.897	19670.12
599.255	19728.65
599.613	20313.49
599.972	20432.13
600.33	20751.9
600.688	20990.76
601.046	21385.33
601.404	21688.14
601.762	21926.78
602.12	22256.27
602.478	22369.48
602.836	22831.62
603.194	22898.73
603.552	23150.48
603.91	23291.94
604.268	23711.14
604.625	23852.16
604.983	24336.89
605.341	24471.12
605.698	24808.06
606.056	24989.75
606.413	25347.03
606.771	25514.26
607.128	25781.82
607.485	25880.58
607.843	26110.85
608.2	26543.84
608.557	26737.05
608.914	26902.7
609.272	27221.56
609.629	27547.65
609.986	27685.05
610.343	27852.05
610.7	28200.29
611.057	28400.28
611.414	28454.29
611.771	28723.44
612.127	29005.47
612.484	29122.98
612.841	29373.14
613.198	29463.31
613.554	29621.27
613.911	29978.55
614.267	29945.33
614.624	30138.09
614.98	30415.6
615.337	30677.74
615.693	30782.82
616.05	30861.91
616.406	31175.58
616.762	31211.28
617.118	31332.64
617.475	31544.61
617.831	31731.5
618.187	31846.75
618.543	32051.04
618.899	32296.68
619.255	32164.25
619.611	32420.07
619.967	32617.35
620.323	32821.41
620.678	32706.61
621.034	32828.42
621.39	32966.94
621.746	33079.48
622.101	33490.32
622.457	33226.82
622.812	33382.07
623.168	33478.12
623.523	33609.64
623.879	33791.78
624.234	33626.36
624.589	33928.95
624.945	34134.82
625.3	34162.39
625.655	34243.97
626.01	34296.63
626.365	34324.2
626.72	34460.24
627.075	34393.8
627.43	34540.69
627.785	34405.1
628.14	34709.5
628.495	34753.34
628.85	34631.31
629.205	34616.84
629.559	34911.07
629.914	34776.61
630.269	34954.91
630.623	34791.53
630.978	34901.13
631.332	35106.77
631.687	35190.16
632.041	35068.81
632.396	35170.73
632.75	35001.01
633.104	35048.92
633.459	35024.52
633.813	34987.46
634.167	35081.92
634.521	35153.1
634.875	35127.57
635.229	35166.43
635.583	35151.52
635.937	35253.89
636.291	35143.16
636.645	35172.08
636.999	35147.9
637.352	35269.03
637.706	35045.99
638.06	35184.06
638.413	35136.38
638.767	35200.11
639.121	35167.79
639.474	35040.79
639.828	35100
640.181	35213.66
640.534	35175.25
640.888	35108.58
641.241	34967.8
641.594	35079.66
641.947	35169.6
642.301	35039.21
642.654	35131.18
643.007	35106.77
643.36	35047.79
643.713	35048.25
644.066	35184.74
644.419	34977.29
644.771	34839.89
645.124	34490.07
645.477	34416.17
645.83	34243.97
646.182	34032.68
646.535	34018.44
646.888	34193.35
647.24	33937.77
647.593	34257.76
647.945	34121.26
648.298	33886.69
648.65	33919.91
649.002	33881.5
649.355	34016.41
649.707	33956.52
650.059	34082.62
650.411	34366
650.763	34526.9
651.115	34865.88
651.467	34795.6
651.819	34799.21
652.171	34696.84
652.523	34638.54
652.875	34692.32
653.227	34489.62
653.578	34768.48
653.93	34741.13
654.282	34681.93
654.633	34420.69
654.985	34543.17
655.337	34502.72
655.688	34523.97
656.039	34609.61
656.391	34457.07
656.742	34402.39
657.094	34465.44
657.445	34617.75
657.796	34446.45
658.147	34488.71
658.498	34495.27
658.849	34459.56
659.2	34437.19
659.551	34340.47
659.902	34580.69
660.253	34466.11
660.604	34444.87
660.955	34345.89
661.306	34417.3
661.656	34263.41
662.007	34311.54
662.358	34319.68
662.708	34468.6
663.059	34396.06
663.409	34164.65
663.76	34446.9
664.11	34336.63
664.461	34384.53
664.811	34415.27
665.161	34343.18
665.511	34299.79
665.862	34374.82
666.212	34276.97
666.562	34517.86
666.912	34268.38
667.262	34354.03
667.612	34293.24
667.962	34217.76
668.312	34329.39
668.662	34504.98
669.011	34331.65
669.361	34333.69
669.711	34236.74
670.06	34182.51
670.41	34120.59
670.76	34152.68
671.109	34335.72
671.459	34240.36
671.808	34077.42
672.157	34066.12
672.507	34027.93
672.856	34105.9
673.205	34170.53
673.554	34221.6
673.904	34094.15
674.253	34166.01
674.602	34111.77
674.951	33535.97
675.3	33376.2
675.649	34050.08
675.998	33955.84
676.346	34006.92
676.695	34063.64
677.044	33697.77
677.393	33826.13
677.741	33936.18
678.09	33882.63
678.438	33714.72
678.787	33926.24
679.135	33819.12
679.484	33655.29
679.832	33701.84
680.181	33545.69
680.529	33699.35
680.877	33440.83
681.225	33428.4
681.573	33772.57
681.922	33436.76
682.27	33390.21
682.618	33417.78
682.966	33348.85
683.314	33432.47
683.661	33263.21
684.009	33210.1
684.357	33037.68
684.705	33175.07
685.053	33019.6
685.4	32948.64
685.748	32970.79
686.095	32747.29
686.443	32825.7
686.79	32807.4
687.138	32840.85
687.485	32844.01
687.832	32606.5
688.18	32659.61
688.527	32528.54
688.874	32484.24
689.221	32339.39
689.568	32321.76
689.915	32402.89
690.262	32340.29
690.609	32119.06
690.956	31938.27
691.303	32132.39
691.65	31966.07
691.997	31914.77
692.344	31686.3
692.69	31724.94
693.037	31824.15
693.383	31562.91
693.73	31686.53
694.077	31533.54
694.423	31460.99
694.769	31178.29
695.116	31151.4
695.462	31026.66
695.808	31059.42
696.155	31294.45
696.501	30984.17
696.847	30807.9
697.193	30795.7
697.539	30888.58
697.885	30622.82
698.231	30532.66
698.577	30569.94
698.923	30483.17
699.269	30220.8
699.614	30202.5
699.96	30157.75
700.306	30150.75
700.651	29981.26
700.997	29973.35
701.342	29899.23
701.688	29808.38
702.033	29727.71
702.379	29698.33
702.724	29648.61
703.069	29633.92
703.415	29420.6
703.76	29382.41
704.105	29379.47
704.45	29336.3
704.795	29171.79
705.14	29175.41
705.485	29072.36
705.83	28983.09
706.175	28957.33
706.52	29062.64
706.865	28758.92
707.209	28665.36
707.554	28712.82
707.899	28705.59
708.243	28479.38
708.588	28409.55
708.932	28295.88
709.277	28303.56
709.621	28463.56
709.966	28174.3
710.31	28258.82
710.654	27956.91
710.998	28146.73
711.342	28003.23
711.687	27907.87
712.031	27949.67
712.375	27640.76
712.719	27736.8
713.063	27658.38
713.407	27796.91
713.75	27599.4
714.094	27592.17
714.438	27436.92
714.782	27427.43
715.125	27351.95
715.469	27527.76
715.812	27235.12
716.156	27083.93
716.499	27099.08
716.843	27181.56
717.186	26949.48
717.53	27084.39
717.873	27169.81
718.216	26928.91
718.559	26866.09
718.902	26687.79
719.246	26759.2
719.589	26715.13
719.932	26610.27
720.275	26651.18
720.617	26694.57
720.96	26643.49
721.303	26477.4
721.646	26445.99
721.989	26329.83
722.331	26451.86
722.674	26300.45
723.016	26326.44
723.359	26268.81
723.701	26261.81
724.044	26002.61
724.386	25982.72
724.729	26070.4
725.071	26074.02
725.413	25895.27
725.755	25918.09
726.097	25896.17
726.439	25772.56
726.782	25697.08
727.124	25879.45
727.465	25733.69
727.807	25616.85
728.149	25625.67
728.491	25630.19
728.833	25588.15
729.175	25489.4
729.516	25494.37
729.858	25496.86
730.199	25473.13
730.541	25396.07
730.882	25326.24
731.224	25502.73
731.565	25293.47
731.906	25228.62
732.248	25266.81
732.589	25208.73
732.93	25134.38
733.271	25050.54
733.612	25051.67
733.953	25162.4
734.294	25007.61
734.635	24881.96
734.976	24943.88
735.317	24908.4
735.658	24823.88
735.999	24875.63
736.339	24737.56
736.68	24838.34
737.021	24635.86
737.361	24632.47
737.702	24737.33
738.042	24623.21
738.383	24671.57
738.723	24654.39
739.063	24488.75
739.404	24524
739.744	24432.71
740.084	24423.89
740.424	24521.52
740.764	24333.95
741.104	24435.19
741.444	24209.89
741.784	24103.67
742.124	24182.09
742.464	24234.52
742.804	24113.39
743.143	24073.17
743.483	24095.99
743.823	23968.54
744.162	23975.77
744.502	24033.85
744.841	23881.99
745.181	23889.67
745.52	23832.95
745.86	23926.28
746.199	23793.85
746.538	23798.82
746.877	23834.53
747.216	23750.46
747.556	23720.18
747.895	23740.07
748.234	23591.82
748.573	23558.15
748.911	23575.1
749.25	23482.9
749.589	23384.6
749.928	23445.39
750.267	23502.33
750.605	23251.27
750.944	23370.36
751.283	23211.27
751.621	23369.46
751.96	23076.58
752.298	23125.39
752.636	23173.3
752.975	23062.57
753.313	22924.04
753.651	22948
753.989	22907.55
754.327	22873.88
754.666	22753.65
755.004	22786.19
755.342	22804.73
755.679	22693.54
756.017	22564.05
756.355	22609.48
756.693	22527.67
757.031	22559.31
757.368	22373.55
757.706	22260.56
758.044	22276.38
758.381	22309.37
758.719	22150.28
759.056	22188.47
759.394	22030.51
759.731	22008.81
760.068	22000.23
