Data from hue_270_FLMS001491_00082.txt Node
Date: Tue Feb 07 15:57:48 GMT 2017
User: dcchb
Spectrometer: FLMS00149
Trigger mode: 0
Integration Time (sec): 2.000000E-2
Scans to average: 10
Electric dark correction enabled: true
Nonlinearity correction enabled: false
Boxcar width: 0
XAxis mode: Wavelengths
Number of Pixels in Spectrum: 2048
>>>>>Begin Spectral Data<<<<<
341.393	-29.8
341.776	-29.8
342.16	-29.8
342.543	-61.67
342.927	-50.59
343.31	-55.79
343.693	-77.94
344.077	-59.86
344.46	-65.28
344.843	-63.25
345.226	-41.55
345.61	-36.81
345.993	-20.54
346.376	-14.43
346.759	10.65
347.142	35.73
347.525	25.56
347.908	61.27
348.291	81.83
348.674	101.49
349.057	118.9
349.44	114.15
349.823	145.56
350.206	152.57
350.588	192.57
350.971	189.85
351.354	205.9
351.737	236.41
352.119	257.87
352.502	256.74
352.884	258.78
353.267	268.95
353.65	273.47
354.032	275.05
354.414	312.34
354.797	294.94
355.179	292.68
355.562	310.08
355.944	329.06
356.326	338.78
356.709	342.39
357.091	322.51
357.473	349.85
357.855	340.81
358.238	331.77
358.62	330.87
359.002	339
359.384	332.9
359.766	332.45
360.148	332
360.53	332.67
360.912	341.71
361.294	339.91
361.676	331.77
362.057	315.27
362.439	320.25
362.821	325.22
363.203	316.86
363.584	320.25
363.966	344.65
364.348	308.72
364.729	307.59
365.111	298.33
365.493	297.42
365.874	298.33
366.256	299.23
366.637	310.53
367.019	313.92
367.4	310.75
367.781	309.62
368.163	321.83
368.544	310.08
368.925	297.87
369.306	298.33
369.688	300.13
370.069	307.14
370.45	300.59
370.831	315.95
371.212	322.28
371.593	305.56
371.974	311.21
372.355	318.89
372.736	302.17
373.117	283.18
373.498	311.88
373.879	301.26
374.26	310.08
374.641	333.8
375.021	332.9
375.402	334.03
375.783	307.36
376.163	332.45
376.544	316.86
376.925	317.76
377.305	342.84
377.686	314.82
378.066	302.62
378.447	322.73
378.827	306.23
379.208	330.19
379.588	320.47
379.968	322.51
380.349	334.48
380.729	324.54
381.109	317.31
381.489	348.72
381.87	341.26
382.25	335.61
382.63	324.99
383.01	343.52
383.39	353.69
383.77	340.13
384.15	345.33
384.53	350.53
384.91	364.54
385.29	350.98
385.67	348.27
386.049	358.89
386.429	353.47
386.809	368.83
387.189	345.1
387.568	363.18
387.948	360.92
388.328	360.47
388.707	356.18
389.087	345.1
389.466	365.67
389.846	382.39
390.225	352.79
390.605	357.53
390.984	366.57
391.363	367.7
391.743	362.28
392.122	358.89
392.501	364.54
392.881	365.89
393.26	393.46
393.639	364.76
394.018	386.23
394.397	394.14
394.776	396.4
395.155	407.7
395.534	383.3
395.913	389.17
396.292	387.36
396.671	409.73
397.05	393.24
397.429	415.16
397.808	414.93
398.186	407.93
398.565	417.42
398.944	413.8
399.323	392.11
399.701	397.98
400.08	408.15
400.458	429.17
400.837	398.44
401.215	411.99
401.594	401.37
401.972	431.66
402.351	411.54
402.729	405.89
403.107	424.2
403.486	422.62
403.864	439.56
404.242	446.8
404.62	434.14
404.999	451.09
405.377	459.9
405.755	463.74
406.133	484.08
406.511	464.2
406.889	451.32
407.267	460.13
407.645	457.19
408.023	464.87
408.401	478.66
408.779	477.53
409.156	522.73
409.534	495.83
409.912	508.94
410.29	512.11
410.667	508.72
411.045	515.49
411.422	528.83
411.8	524.31
412.178	539.68
412.555	545.78
412.933	565.44
413.31	546.91
413.687	562.5
414.065	579.45
414.442	598.2
414.819	595.72
415.197	607.02
415.574	591.88
415.951	587.58
416.328	628.49
416.705	619.9
417.082	636.17
417.46	626.68
417.837	647.02
418.214	644.98
418.591	663.51
418.967	649.95
419.344	665.77
419.721	680.46
420.098	677.07
420.475	691.99
420.852	680.24
421.228	699.44
421.605	703.96
421.982	723.4
422.358	734.7
422.735	741.7
423.111	740.8
423.488	781.7
423.864	765.88
424.241	773.12
424.617	800.91
424.994	777.18
425.37	791.42
425.746	823.28
426.123	818.76
426.499	851.08
426.875	813.57
427.251	847.46
427.627	864.86
428.003	899.44
428.379	900.57
428.756	896.95
429.132	917.07
429.507	916.61
429.883	924.75
430.259	935.14
430.635	949.38
431.011	960
431.387	974.47
431.763	999.55
432.138	1000.68
432.514	996.16
432.89	1012.88
433.265	1046.55
433.641	1064.86
434.016	1093.78
434.392	1089.49
434.767	1131.98
435.143	1117.74
435.518	1134.91
435.894	1146.66
436.269	1163.16
436.644	1192.31
437.02	1208.81
437.395	1218.3
437.77	1232.99
438.145	1255.14
438.52	1276.6
438.895	1251.52
439.271	1298.3
439.646	1336.26
440.021	1325.42
440.395	1350.28
440.77	1338.98
441.145	1357.73
441.52	1370.39
441.895	1368.35
442.27	1404.96
442.645	1398.64
443.019	1406.09
443.394	1429.82
443.769	1447.22
444.143	1454
444.518	1449.48
444.892	1479.09
445.267	1500.55
445.641	1516.15
446.016	1486.77
446.39	1501.91
446.764	1531.06
447.139	1513.43
447.513	1528.12
447.887	1563.15
448.262	1574.68
448.636	1576.71
449.01	1575.81
449.384	1617.61
449.758	1615.8
450.132	1623.71
450.506	1628.01
450.88	1635.69
451.254	1633.88
451.628	1668.46
452.002	1655.13
452.376	1690.15
452.75	1710.27
453.123	1714.33
453.497	1714.56
453.871	1755.01
454.244	1791.39
454.618	1774.67
454.992	1791.39
455.365	1814.9
455.739	1840.21
456.112	1887.21
456.486	1860.77
456.859	1880.66
457.232	1900.32
457.606	1902.58
457.979	1933.08
458.352	1915.68
458.725	1985.29
459.099	1975.8
459.472	2007.21
459.845	2046.08
460.218	2032.29
460.591	2025.74
460.964	2075
461.337	2102.35
461.71	2129.46
462.083	2171.95
462.456	2165.85
462.829	2153.42
463.201	2210.14
463.574	2214.43
463.947	2243.81
464.32	2289.01
464.692	2309.12
465.065	2318.61
465.438	2354.54
465.81	2334.88
466.183	2360.87
466.555	2444.94
466.928	2430.92
467.3	2407.2
467.672	2472.28
468.045	2504.37
468.417	2513.63
468.789	2536.23
469.161	2534.42
469.534	2604.03
469.906	2650.81
470.278	2647.19
470.65	2660.75
471.022	2668.21
471.394	2754.76
471.766	2800.86
472.138	2788.88
472.51	2832.04
472.882	2892.16
473.253	2901.19
473.625	2940.74
473.997	2991.81
474.369	2967.18
474.74	3027.97
475.112	3063.9
475.484	3088.76
475.855	3153.84
476.227	3165.59
476.598	3242.43
476.97	3247.4
477.341	3306.16
477.713	3391.35
478.084	3387.06
478.455	3471.12
478.827	3462.08
479.198	3538.92
479.569	3512.48
479.94	3640.38
480.311	3674.73
480.682	3722.64
481.053	3756.99
481.424	3815.52
481.795	3872.02
482.166	3889.19
482.537	3911.11
482.908	3947.27
483.279	4007.15
483.65	4124.89
484.021	4134.61
484.391	4204.44
484.762	4187.26
485.133	4218
485.503	4275.4
485.874	4357.43
486.244	4418.22
486.615	4435.84
486.985	4487.14
487.356	4528.95
487.726	4546.35
488.097	4660.24
488.467	4630.87
488.837	4726.46
489.207	4766.23
489.578	4814.36
489.948	4880.35
490.318	4863.63
490.688	4956.28
491.058	4987.92
491.428	5062.72
491.798	5043.29
492.168	5146.11
492.538	5177.29
492.908	5205.09
493.278	5255.48
493.648	5262.04
494.017	5301.58
494.387	5384.07
494.757	5405.31
495.126	5444.18
495.496	5477.62
495.866	5474.23
496.235	5538.64
496.605	5537.06
496.974	5561.92
497.344	5611.63
497.713	5628.13
498.082	5674.91
498.452	5725.08
498.821	5745.19
499.19	5683.27
499.559	5742.7
499.928	5801.91
500.298	5821.57
500.667	5853.89
501.036	5855.47
501.405	5950.38
501.774	5877.84
502.143	5936.14
502.512	5946.54
502.88	6020.43
503.249	6005.29
503.618	6018.63
503.987	6040.1
504.356	6034.45
504.724	6094.78
505.093	6106.76
505.462	6051.39
505.83	6150.38
506.199	6108.12
506.567	6245.51
506.936	6184.05
507.304	6275.57
507.672	6253.2
508.041	6271.05
508.409	6289.35
508.777	6316.02
509.145	6339.75
509.514	6317.38
509.882	6364.83
510.25	6375
510.618	6454.55
510.986	6410.26
511.354	6432.18
511.722	6507.88
512.09	6552.17
512.458	6449.58
512.826	6525.05
513.193	6537.26
513.561	6569.35
513.929	6610.25
514.297	6628.33
514.664	6651.6
515.032	6613.64
515.4	6680.53
515.767	6720.08
516.135	6715.78
516.502	6664.26
516.869	6724.6
517.237	6673.98
517.604	6683.92
517.972	6759.4
518.339	6786.52
518.706	6762.79
519.073	6747.87
519.44	6854.54
519.808	6889.11
520.175	6786.97
520.542	6912.84
520.909	6915.78
521.276	6880.07
521.643	6854.76
522.009	6959.85
522.376	7003.69
522.743	6945.16
523.11	7042.1
523.477	7032.61
523.843	7092.72
524.21	7056.34
524.577	7130.01
524.943	7160.29
525.31	7131.14
525.676	7197.58
526.043	7157.58
526.409	7224.47
526.776	7278.48
527.142	7293.4
527.508	7283
527.874	7315.54
528.241	7336.78
528.607	7357.8
528.973	7374.98
529.339	7357.35
529.705	7401.87
530.071	7500.4
530.437	7462.43
530.803	7567.06
531.169	7461.75
531.535	7530
531.901	7517.12
532.267	7547.85
532.632	7612.03
532.998	7601.64
533.364	7622.43
533.73	7622.88
534.095	7664.69
534.461	7622.43
534.826	7647.96
535.192	7712.82
535.557	7739.03
535.923	7657
536.288	7707.17
536.653	7717.34
537.019	7669.43
537.384	7732.25
537.749	7793.27
538.114	7747.17
538.479	7763.44
538.845	7797.79
539.21	7749.88
539.575	7776.55
539.94	7759.82
540.305	7814.96
540.67	7824
541.034	7774.97
541.399	7785.81
541.764	7859.48
542.129	7780.61
542.494	7834.62
542.858	7864.23
543.223	7813.16
543.587	7916.88
543.952	7813.83
544.316	7857.45
544.681	7866.26
545.045	7913.94
545.41	7962.76
545.774	7938.58
546.138	7891.57
546.503	7965.24
546.867	7920.05
547.231	7971.57
547.595	7959.82
547.959	7970.67
548.324	7958.46
548.688	8024.9
549.052	8036.43
549.416	8004.34
549.779	7956.43
550.143	7938.8
550.507	7987.39
550.871	8016.54
551.235	8069.65
551.599	8088.18
551.962	8062.19
552.326	8034.39
552.689	8121.17
553.053	8031.46
553.417	8036.65
553.78	8140.15
554.143	8118.68
554.507	8146.71
554.87	8163.2
555.234	8202.52
555.597	8149.19
555.96	8237.33
556.323	8162.75
556.686	8214.28
557.05	8343.31
557.413	8224.9
557.776	8324.78
558.139	8326.36
558.502	8327.94
558.865	8299.7
559.228	8336.53
559.59	8370.66
559.953	8376.53
560.316	8453.82
560.679	8423.54
561.041	8553.7
561.404	8501.27
561.767	8581.27
562.129	8594.83
562.492	8643.42
562.854	8573.59
563.217	8591.44
563.579	8645.68
563.941	8679.35
564.304	8679.8
564.666	8714.15
565.028	8679.57
565.39	8786.69
565.753	8831.43
566.115	8831.43
566.477	8875.5
566.839	8801.6
567.201	8959.34
567.563	8959.79
567.925	8984.88
568.287	9004.54
568.648	9082.5
569.01	9069.39
569.372	9085.67
569.734	9106
570.095	9167.92
570.457	9226.45
570.819	9194.59
571.18	9179.9
571.542	9264.19
571.903	9242.05
572.265	9360.23
572.626	9259.45
572.987	9400.01
573.349	9454.69
573.71	9436.62
574.071	9459.89
574.432	9480
574.794	9551.64
575.155	9569.72
575.516	9528.82
575.877	9587.57
576.238	9628.48
576.599	9660.79
576.96	9735.59
577.32	9668.02
577.681	9769.49
578.042	9785.31
578.403	9879.09
578.763	9781.24
579.124	9898.53
579.485	9890.39
579.845	9964.29
580.206	9972.42
580.566	9939.2
580.927	9981.69
581.287	10048.8
581.648	10037.05
582.008	10083.38
582.368	10069.59
582.728	10102.81
583.089	10156.82
583.449	10169.03
583.809	10157.95
584.169	10250.83
584.529	10202.47
584.889	10318.4
585.249	10311.17
585.609	10237.05
585.969	10363.82
586.329	10282.92
586.688	10413.09
587.048	10497.38
587.408	10460.09
587.768	10420.77
588.127	10477.94
588.487	10434.78
588.846	10557.04
589.206	10482.69
589.565	10635.68
589.925	10644.04
590.284	10660.76
590.643	10771.72
591.003	10751.84
591.362	10785.51
591.721	10747.99
592.08	10715.45
592.44	10753.87
592.799	10757.94
593.158	10822.34
593.517	10833.19
593.876	10935.79
594.235	10819.18
594.593	10916.35
594.952	10980.08
595.311	10915.22
595.67	10885.84
596.029	10997.48
596.387	11023.24
596.746	11021.66
597.104	10988.21
597.463	11006.29
597.822	11096.23
598.18	10998.38
598.538	11080.19
598.897	11121.09
599.255	10994.77
599.613	11192.05
599.972	11118.83
600.33	11152.96
600.688	11074.77
601.046	11140.98
601.404	11246.29
601.762	11164.03
602.12	11314.76
602.478	11272.73
602.836	11261.43
603.194	11272.5
603.552	11272.95
603.91	11320.86
604.268	11302.1
604.625	11186.17
604.983	11297.36
605.341	11321.76
605.698	11384.36
606.056	11373.74
606.413	11443.8
606.771	11429.11
607.128	11409.22
607.485	11330.35
607.843	11422.78
608.2	11467.07
608.557	11536.45
608.914	11502.78
609.272	11473.62
609.629	11558.14
609.986	11510.23
610.343	11483.57
610.7	11584.81
611.057	11568.99
611.414	11589.78
611.771	11587.52
612.127	11651.25
612.484	11612.15
612.841	11672.72
613.198	11572.61
613.554	11539.61
613.911	11649.21
614.267	11717.91
614.624	11684.92
614.98	11719.04
615.337	11759.04
615.693	11717.01
616.05	11768.98
616.406	11825.93
616.762	11743.22
617.118	11738.02
617.475	11747.29
617.831	11806.72
618.187	11820.06
618.543	11840.85
618.899	11815.08
619.255	11858.02
619.611	11839.04
619.967	11863.45
620.323	11933.27
620.678	11784.13
621.034	11878.36
621.39	11838.36
621.746	11796.55
622.101	11964.91
622.457	11926.49
622.812	11926.49
623.168	11843.56
623.523	11930.79
623.879	11969.43
624.234	11809.66
624.589	11908.64
624.945	12001.07
625.3	11900.51
625.655	11808.53
626.01	11879.04
626.365	11895.99
626.72	11922.88
627.075	11862.54
627.43	11921.3
627.785	11799.27
628.14	11932.37
628.495	11832.49
628.85	11898.25
629.205	11785.26
629.559	11852.82
629.914	11809.44
630.269	11784.35
630.623	11795.88
630.978	11752.49
631.332	11751.13
631.687	11793.84
632.041	11766.72
632.396	11862.09
632.75	11772.6
633.104	11757.23
633.459	11702.32
633.813	11721.98
634.167	11724.24
634.521	11705.71
634.875	11682.43
635.229	11698.48
635.583	11575.32
635.937	11671.13
636.291	11646.28
636.645	11563.34
636.999	11603.79
637.352	11572.83
637.706	11560.4
638.06	11561.53
638.413	11574.64
638.767	11533.96
639.121	11507.97
639.474	11536
639.828	11490.35
640.181	11456.45
640.534	11479.73
640.888	11437.24
641.241	11478.6
641.594	11444.93
641.947	11463.46
642.301	11456.9
642.654	11367.41
643.007	11370.35
643.36	11416.23
643.713	11336
644.066	11403.12
644.419	11387.75
644.771	11266.4
645.124	11226.85
645.477	11239.96
645.83	11163.58
646.182	11074.31
646.535	11045.16
646.888	10985.95
647.24	10939.4
647.593	11039.74
647.945	10947.76
648.298	10978.27
648.65	10882
649.002	10926.52
649.355	10964.03
649.707	10979.85
650.059	10972.17
650.411	11133.75
650.763	11114.54
651.115	11229.34
651.467	11281.99
651.819	11139.62
652.171	11216.68
652.523	11167.87
652.875	11162.9
653.227	11123.13
653.578	11252.61
653.93	11190.69
654.282	11177.81
654.633	11221.2
654.985	11150.47
655.337	11201.77
655.688	11195.67
656.039	11293.97
656.391	11148.89
656.742	11151.6
657.094	11169.45
657.445	11249.45
657.796	11198.15
658.147	11134.2
658.498	11161.99
658.849	11222.56
659.2	11259.17
659.551	11147.76
659.902	11243.8
660.253	11187.98
660.604	11201.09
660.955	11121.32
661.306	11182.56
661.656	11151.83
662.007	11199.06
662.358	11222.78
662.708	11188.21
663.059	11159.73
663.409	11171.71
663.76	11249
664.11	11230.24
664.461	11249.9
664.811	11234.08
665.161	11189.79
665.511	11216.68
665.862	11227.08
666.212	11184.37
666.562	11269.56
666.912	11225.5
667.262	11234.08
667.612	11240.18
667.962	11221.43
668.312	11286.74
668.662	11202.22
669.011	11136.68
669.361	11228.89
669.711	11135.78
670.06	11158.38
670.41	11133.75
670.76	11156.12
671.109	11138.49
671.459	11097.59
671.808	11125.84
672.157	11152.05
672.507	11136.68
672.856	11121.54
673.205	11166.74
673.554	11159.96
673.904	11063.92
674.253	11161.99
674.602	11095.78
674.951	10930.59
675.3	10843.81
675.649	11023.24
675.998	11004.03
676.346	10965.84
676.695	11076.8
677.044	10983.92
677.393	10950.47
677.741	10990.25
678.09	10976.01
678.438	10943.24
678.787	10941.89
679.135	10934.2
679.484	10892.17
679.832	10910.25
680.181	10868.44
680.529	10890.59
680.877	10839.97
681.225	10786.19
681.573	10885.17
681.922	10717.49
682.27	10738.05
682.618	10736.24
682.966	10739.41
683.314	10786.64
683.661	10706.64
684.009	10625.06
684.357	10649.24
684.705	10604.04
685.053	10635
685.4	10594.1
685.748	10548.45
686.095	10517.04
686.443	10516.59
686.79	10505.06
687.138	10557.72
687.485	10496.7
687.832	10491.5
688.18	10432.75
688.527	10364.95
688.874	10384.16
689.221	10386.87
689.568	10308.23
689.915	10268.68
690.262	10268.23
690.609	10238.4
690.956	10152.98
691.303	10210.38
691.65	10121.12
691.997	10169.48
692.344	10079.09
692.69	10081.35
693.037	10020.33
693.383	9976.04
693.73	9995.02
694.077	9929.26
694.423	9974.68
694.769	9901.01
695.116	9839.54
695.462	9858.98
695.808	9733.56
696.155	9823.05
696.501	9730.85
696.847	9686.55
697.193	9632.77
697.539	9673.45
697.885	9569.95
698.231	9579.44
698.577	9537.63
698.923	9432.77
699.269	9491.3
699.614	9410.4
699.96	9441.59
700.306	9351.42
700.651	9347.81
700.997	9287.69
701.342	9284.98
701.688	9263.51
702.033	9240.24
702.379	9196.4
702.724	9186.68
703.069	9230.29
703.415	9120.69
703.76	9109.39
704.105	9059.68
704.45	9079.79
704.795	8951.88
705.14	8922.05
705.485	8988.49
705.83	8899
706.175	8915.95
706.52	8863.07
706.865	8780.14
707.209	8789.85
707.554	8745.11
707.899	8811.1
708.243	8678.22
708.588	8702.62
708.932	8619.24
709.277	8727.48
709.621	8658.56
709.966	8600.71
710.31	8564.55
710.654	8498.56
710.998	8549.41
711.342	8518.9
711.687	8549.86
712.031	8486.58
712.375	8501.95
712.719	8424.21
713.063	8466.92
713.407	8466.92
713.75	8384.44
714.094	8376.31
714.438	8350.77
714.782	8295.63
715.125	8326.81
715.469	8351.9
715.812	8353.03
716.156	8276.19
716.499	8256.53
716.843	8321.84
717.186	8265.57
717.53	8208.85
717.873	8240.26
718.216	8250.88
718.559	8189.19
718.902	8146.93
719.246	8158.01
719.589	8132.02
719.932	8138.12
720.275	8065.13
720.617	8057.67
720.96	8133.6
721.303	8103.09
721.646	8075.3
721.989	8094.05
722.331	8123.2
722.674	8064
723.016	8042.75
723.359	8031.68
723.701	8088.63
724.044	7989.2
724.386	7974.73
724.729	8051.79
725.071	7997.56
725.413	8031.46
725.755	7953.27
726.097	7960.04
726.439	7938.8
726.782	7933.38
727.124	7936.99
727.465	7919.82
727.807	7885.47
728.149	7949.65
728.491	7906.49
728.833	7891.57
729.175	7873.04
729.516	7886.83
729.858	7862.87
730.199	7939.03
730.541	7892.25
730.882	7916.66
731.224	7885.47
731.565	7840.27
731.906	7825.13
732.248	7895.87
732.589	7835.75
732.93	7861.52
733.271	7796.21
733.612	7850.44
733.953	7802.53
734.294	7838.24
734.635	7804.34
734.976	7843.21
735.317	7765.02
735.658	7776.32
735.999	7817.68
736.339	7812.25
736.68	7819.03
737.021	7866.94
737.361	7831.69
737.702	7898.8
738.042	7841.86
738.383	7828.3
738.723	7837.11
739.063	7838.24
739.404	7929.31
739.744	7875.3
740.084	7887.5
740.424	7887.28
740.764	7854.74
741.104	7886.37
741.444	7916.66
741.784	7941.74
742.124	7897.45
742.464	7936.77
742.804	7949.42
743.143	7928.63
743.483	7957.79
743.823	7941.06
744.162	7971.8
744.502	7986.03
744.841	8003.66
745.181	8070.78
745.52	8084.79
745.86	8133.6
746.199	8128.18
746.538	8221.51
746.877	8232.58
747.216	8260.6
747.556	8280.71
747.895	8382.86
748.234	8352.8
748.573	8371.79
748.911	8452.91
749.25	8478
749.589	8518.67
749.928	8631.21
750.267	8684.32
750.605	8748.05
750.944	8753.24
751.283	8802.06
751.621	8888.38
751.96	8939
752.298	9015.84
752.636	9091.54
752.975	9141.48
753.313	9248.15
753.651	9342.38
753.989	9442.04
754.327	9567.46
754.666	9585.54
755.004	9745.53
755.342	9846.55
755.679	10059.2
756.017	10068.01
756.355	10235.92
756.693	10314.11
757.031	10452.41
757.368	10543.93
757.706	10756.81
758.044	10839.52
758.381	11005.16
758.719	11110.7
759.056	11314.98
759.394	11399.73
759.731	11578.71
760.068	11681.53
760.405	11858.02
760.743	11989.09
761.08	12206.03
761.417	12261.17
761.754	12382.08
762.091	12580.71
762.428	12770.31
762.765	12858.9
763.102	13072
763.438	13276.97
