Data from hue_70_FLMS001491_21.txt Node
Date: Mon Feb 06 15:20:19 GMT 2017
User: dcchb
Spectrometer: FLMS00149
Trigger mode: 0
Integration Time (sec): 2.000000E-2
Scans to average: 10
Electric dark correction enabled: true
Nonlinearity correction enabled: false
Boxcar width: 0
XAxis mode: Wavelengths
Number of Pixels in Spectrum: 2048
>>>>>Begin Spectral Data<<<<<
341.393	-24.65
341.776	-24.65
342.16	-24.65
342.543	-57.41
342.927	-60.35
343.31	-81.59
343.693	-79.33
344.077	-63.97
344.46	-59.67
344.843	-38.88
345.226	-37.08
345.61	-14.25
345.993	-29.62
346.376	-8.38
346.759	-2.95
347.142	31.85
347.525	41.57
347.908	53.09
348.291	77.27
348.674	104.16
349.057	107.78
349.44	123.82
349.823	143.71
350.206	164.95
350.588	195.91
350.971	195.69
351.354	220.77
351.737	225.74
352.119	268.45
352.502	274.1
352.884	270.71
353.267	274.33
353.65	279.3
354.032	299.64
354.414	305.97
354.797	302.8
355.179	314.78
355.562	330.6
355.944	315.01
356.326	334.21
356.709	327.21
357.091	335.8
357.473	360.88
357.855	342.8
358.238	327.66
358.62	349.81
359.002	355.23
359.384	337.38
359.766	349.81
360.148	332.86
360.53	343.71
360.912	335.12
361.294	336.25
361.676	323.37
362.057	352.97
362.439	323.37
362.821	318.85
363.203	313.88
363.584	338.51
363.966	307.32
364.348	336.93
364.729	320.66
365.111	317.27
365.493	292.63
365.874	318.4
366.256	331.73
366.637	330.15
367.019	307.77
367.4	315.46
367.781	324.5
368.163	296.7
368.544	309.13
368.925	299.41
369.306	306.42
369.688	329.47
370.069	307.1
370.45	305.51
370.831	300.09
371.212	298.51
371.593	313.65
371.974	310.49
372.355	298.74
372.736	303.93
373.117	306.87
373.498	330.15
373.879	320.2
374.26	286.76
374.641	307.1
375.021	332.86
375.402	309.58
375.783	329.24
376.163	319.07
376.544	308.68
376.925	317.94
377.305	299.19
377.686	307.32
378.066	339.64
378.447	344.16
378.827	320.2
379.208	329.69
379.588	334.67
379.968	320.2
380.349	317.49
380.729	333.08
381.109	322.24
381.489	320.66
381.87	338.51
382.25	319.75
382.63	330.82
383.01	333.76
383.39	327.89
383.77	354.78
384.15	342.35
384.53	346.64
384.91	328.34
385.29	338.28
385.67	337.38
386.049	341.9
386.429	336.47
386.809	341.22
387.189	355.23
387.568	351.84
387.948	345.06
388.328	324.72
388.707	354.55
389.087	346.19
389.466	339.86
389.846	339.64
390.225	346.42
390.605	346.19
390.984	348.9
391.363	348.45
391.743	363.14
392.122	358.17
392.501	357.26
392.881	354.78
393.26	374.67
393.639	375.8
394.018	363.37
394.397	350.49
394.776	336.93
395.155	361.56
395.534	376.93
395.913	372.18
396.292	397.26
396.671	370.15
397.05	355.91
397.429	388.22
397.808	370.6
398.186	376.7
398.565	371.95
398.944	374.44
399.323	394.1
399.701	351.62
400.08	392.74
400.458	400.43
400.837	402.69
401.215	377.38
401.594	400.43
401.972	395.68
402.351	391.61
402.729	390.03
403.107	377.15
403.486	382.12
403.864	392.74
404.242	400.65
404.62	390.26
404.999	384.83
405.377	409.69
405.755	406.98
406.133	392.97
406.511	419.18
406.889	417.38
407.267	423.93
407.645	406.3
408.023	402.46
408.401	424.83
408.779	442.23
409.156	413.76
409.534	432.29
409.912	426.87
410.29	436.13
410.667	427.55
411.045	442.69
411.422	424.16
411.8	444.49
412.178	458.05
412.555	463.48
412.933	428.22
413.31	470.93
413.687	473.87
414.065	428.22
414.442	466.64
414.819	468
415.197	432.29
415.574	450.6
415.951	449.24
416.328	449.47
416.705	476.58
417.082	476.81
417.46	469.8
417.837	457.83
418.214	481.56
418.591	488.11
418.967	498.05
419.344	491.05
419.721	467.32
420.098	508.9
420.475	493.76
420.852	510.93
421.228	500.99
421.605	508
421.982	514.1
422.358	500.99
422.735	504.38
423.111	503.25
423.488	516.81
423.864	522.01
424.241	551.38
424.617	527.2
424.994	522.01
425.37	544.83
425.746	520.88
426.123	523.36
426.499	517.94
426.875	508.9
427.251	551.16
427.627	530.82
428.003	556.13
428.379	546.19
428.756	544.38
429.132	586.19
429.507	562.68
429.883	578.95
430.259	576.92
430.635	583.25
431.011	567.43
431.387	572.85
431.763	592.29
432.138	583.25
432.514	587.99
432.89	618.95
433.265	600.87
433.641	611.04
434.016	640.2
434.392	618.05
434.767	630.93
435.143	618.27
435.518	642.68
435.894	657.14
436.269	648.1
436.644	653.3
437.02	672.28
437.395	662.57
437.77	653.53
438.145	665.28
438.52	658.05
438.895	686.52
439.271	683.36
439.646	675.9
440.021	689.46
440.395	669.57
440.77	695.56
441.145	705.73
441.52	700.76
441.895	699.4
442.27	732.4
442.645	729.23
443.019	735.11
443.394	743.47
443.769	735.33
444.143	745.95
444.518	749.57
444.892	729.91
445.267	759.74
445.641	740.53
446.016	734.43
446.39	765.16
446.764	768.1
447.139	738.27
447.513	773.52
447.887	758.84
448.262	794.54
448.636	786.41
449.01	782.34
449.384	804.71
449.758	797.48
450.132	817.14
450.506	813.75
450.88	845.84
451.254	838.61
451.628	819.85
452.002	819.4
452.376	835.44
452.75	841.55
453.123	839.51
453.497	871.83
453.871	863.01
454.244	877.48
454.618	887.87
454.992	886.06
455.365	870.92
455.739	882.22
456.112	908.44
456.486	917.48
456.859	929.23
457.232	959.73
457.606	938.72
457.979	960.86
458.352	968.32
458.725	976.46
459.099	994.08
459.472	1020.52
459.845	1032.73
460.218	1032.28
460.591	1035.21
460.964	1032.95
461.337	1066.17
461.71	1061.65
462.083	1104.59
462.456	1093.52
462.829	1098.71
463.201	1115.66
463.574	1120.86
463.947	1127.64
464.32	1175.55
464.692	1173.51
465.065	1169.45
465.438	1207.64
465.81	1238.6
466.183	1243.57
466.555	1258.48
466.928	1274.98
467.3	1271.82
467.672	1307.52
468.045	1350.01
468.417	1353.62
468.789	1345.94
469.161	1377.12
469.534	1423.45
469.906	1416.9
470.278	1444.02
470.65	1458.03
471.022	1488.08
471.394	1541.64
471.766	1539.83
472.138	1566.27
472.51	1624.35
472.882	1649.66
473.253	1659.15
473.625	1719.49
473.997	1741.18
474.369	1790
474.74	1802.88
475.112	1833.61
475.484	1899.14
475.855	1941.18
476.227	1978.92
476.598	2072.02
476.97	2081.51
477.341	2156.99
477.713	2211
478.084	2247.84
478.455	2339.59
478.827	2372.35
479.198	2444.67
479.569	2484.67
479.94	2595.85
480.311	2647.37
480.682	2722.4
481.053	2825.45
481.424	2896.63
481.795	2965.78
482.166	3016.86
482.537	3157.87
482.908	3220.24
483.279	3323.29
483.65	3381.59
484.021	3462.27
484.391	3578.65
484.762	3710.17
485.133	3774.8
485.503	3880.79
485.874	4001.24
486.244	4106.77
486.615	4206.65
486.985	4383.37
487.356	4431.51
487.726	4555.12
488.097	4680.54
488.467	4803.48
488.837	4972.28
489.207	5068.1
489.578	5231.49
489.948	5330.92
490.318	5417.7
490.688	5600.52
491.058	5727.97
491.428	5859.94
491.798	6000.51
492.168	6211.35
492.538	6325.02
492.908	6442.08
493.278	6575.18
493.648	6678.68
494.017	6925.68
494.387	6949.86
494.757	7095.62
495.126	7249.51
495.496	7436.63
495.866	7426.46
496.235	7658.54
496.605	7851.3
496.974	7958.87
497.344	8103.28
497.713	8221.92
498.082	8369.94
498.452	8507.33
498.821	8577.39
499.19	8802.47
499.559	8874.78
499.928	9044.49
500.298	9110.25
500.667	9289.91
501.036	9338.27
501.405	9507.76
501.774	9593.41
502.143	9709.34
502.512	9821.42
502.88	10024.13
503.249	10071.59
503.618	10205.59
503.987	10272.03
504.356	10409.43
504.724	10594.51
505.093	10718.57
505.462	10760.61
505.83	10891.22
506.199	11049.19
506.567	11155.62
506.936	11188.39
507.304	11453.47
507.672	11400.14
508.041	11560.81
508.409	11660.47
508.777	11827.92
509.145	11855.72
509.514	12035.38
509.882	12162.38
510.25	12211.87
510.618	12271.08
510.986	12341.58
511.354	12465.19
511.722	12639.43
512.09	12793.32
512.458	12803.72
512.826	12923.94
513.193	12929.59
513.561	13171.39
513.929	13234.89
514.297	13342.01
514.664	13450.71
515.032	13476.24
515.4	13607.76
515.767	13664.03
516.135	13850.7
516.502	13756.69
516.869	13934.99
517.237	14105.38
517.604	14106.73
517.972	14215.88
518.339	14309.89
518.706	14388.31
519.073	14460.62
519.44	14585.82
519.808	14755.98
520.175	14677.11
520.542	14859.48
520.909	14991.68
521.276	14973.15
521.643	15121.85
522.009	15134.73
522.376	15379.02
522.743	15392.35
523.11	15508.96
523.477	15620.59
523.843	15703.75
524.21	15855.39
524.577	15923.63
524.943	16008.6
525.31	16088.6
525.676	16245.89
526.043	16310.97
526.409	16407.24
526.776	16567.91
527.142	16632.77
527.508	16711.41
527.874	16747.57
528.241	16744.63
528.607	16847.9
528.973	17072.53
529.339	17014
529.705	17153.89
530.071	17153.43
530.437	17323.15
530.803	17293.09
531.169	17359.3
531.535	17371.73
531.901	17402.69
532.267	17524.04
532.632	17638.39
532.998	17627.54
533.364	17677.49
533.73	17746.19
534.095	17809.01
534.461	17819.86
534.826	17884.26
535.192	17886.75
535.557	17998.38
535.923	17955.22
536.288	18037.03
536.653	18161.09
537.019	18045.39
537.384	18099.17
537.749	18161.99
538.114	18117.25
538.479	18251.94
538.845	18325.61
539.21	18261.2
539.575	18347.07
539.94	18259.84
540.305	18428.88
540.67	18329.67
541.034	18364.7
541.399	18340.29
541.764	18443.79
542.129	18424.81
542.494	18515.43
542.858	18578.03
543.223	18533.96
543.587	18574.19
543.952	18509.56
544.316	18610.12
544.681	18563.34
545.045	18525.15
545.41	18631.36
545.774	18696.22
546.138	18750
546.503	18733.73
546.867	18709.32
547.231	18829.32
547.595	18837.46
547.959	18890.34
548.324	18785.71
548.688	18824.8
549.052	18914.52
549.416	18862.99
549.779	18852.37
550.143	18985.93
550.507	18941.41
550.871	18950.22
551.235	18913.84
551.599	19060.05
551.962	19095.08
552.326	19101.86
552.689	19111.57
553.053	19032.71
553.417	19032.48
553.78	19337.56
554.143	19104.12
554.507	19182.76
554.87	19302.76
555.234	19387.95
555.597	19281.74
555.96	19377.56
556.323	19347.73
556.686	19466.37
557.05	19544.33
557.413	19441.51
557.776	19521.96
558.139	19691.45
558.502	19626.59
558.865	19609.87
559.228	19703.42
559.59	19836.3
559.953	19812.35
560.316	20034.49
560.679	19934.6
561.041	20088.27
561.404	20071.32
561.767	20184.99
562.129	20025
562.492	20281.49
562.854	20239.23
563.217	20297.98
563.579	20305.21
563.941	20377.76
564.304	20450.75
564.666	20497.07
565.028	20527.58
565.39	20555.38
565.753	20605.77
566.115	20714.92
566.477	20773.22
566.839	20742.04
567.201	20967.57
567.563	20881.47
567.925	20969.6
568.287	21118.98
568.648	21165.08
569.01	21138.87
569.372	21354.9
569.734	21203.72
570.095	21343.38
570.457	21421.57
570.819	21425.64
571.18	21426.09
571.542	21466.09
571.903	21551.51
572.265	21576.14
572.626	21636.48
572.987	21628.8
573.349	21782.01
573.71	21710.6
574.071	21823.59
574.432	21875.34
574.794	21975.91
575.155	21952.18
575.516	21945.17
575.877	21955.57
576.238	21960.31
576.599	22095.68
576.96	22047.77
577.32	22145.62
577.681	22135.45
578.042	22168.89
578.403	22187.88
578.763	22260.42
579.124	22214.77
579.485	22309.46
579.845	22406.18
580.206	22446.63
580.566	22310.13
580.927	22342.68
581.287	22509.22
581.648	22334.09
582.008	22512.16
582.368	22340.64
582.728	22431.71
583.089	22396.69
583.449	22420.64
583.809	22468.77
584.169	22437.59
584.529	22395.1
584.889	22567.3
585.249	22389.23
585.609	22461.99
585.969	22436.68
586.329	22420.64
586.688	22464.03
587.048	22440.07
587.408	22430.81
587.768	22387.65
588.127	22451.6
588.487	22291.38
588.846	22505.61
589.206	22360.08
589.565	22351.71
589.925	22381.54
590.284	22360.3
590.643	22507.64
591.003	22423.8
591.362	22531.14
591.721	22484.14
592.08	22508.32
592.44	22478.49
592.799	22485.95
593.158	22497.7
593.517	22464.71
593.876	22570.47
594.235	22487.98
594.593	22544.03
594.952	22544.93
595.311	22520.98
595.67	22469.68
596.029	22567.98
596.387	22586.51
596.746	22558.71
597.104	22519.62
597.463	22484.82
597.822	22582.89
598.18	22499.28
598.538	22474.2
598.897	22633.97
599.255	22472.39
599.613	22737.24
599.972	22619.28
600.33	22726.17
600.688	22536.57
601.046	22616.79
601.404	22706.73
601.762	22711.93
602.12	22829.67
602.478	22798.03
602.836	22802.55
603.194	22704.25
603.552	22651.59
603.91	22632.84
604.268	22738.6
604.625	22679.84
604.983	22809.56
605.341	22756.22
605.698	22725.26
606.056	22793.28
606.413	22781.76
606.771	22779.27
607.128	22876.22
607.485	22692.5
607.843	22855.43
608.2	22983.34
608.557	22970
608.914	22947.18
609.272	23087.97
609.629	23143.56
609.986	23087.97
610.343	23212.26
610.7	23330.9
611.057	23266.27
611.414	23312.59
611.771	23290.67
612.127	23299.94
612.484	23404.57
612.841	23457.67
613.198	23336.55
613.554	23259.49
613.911	23473.49
614.267	23544.23
614.624	23458.8
614.98	23517.11
615.337	23559.59
615.693	23589.42
616.05	23525.92
616.406	23765.01
616.762	23552.13
617.118	23580.38
617.475	23609.08
617.831	23673.94
618.187	23753.26
618.543	23732.7
618.899	23901.73
619.255	23838.68
619.611	23846.82
619.967	23911.67
620.323	23818.12
620.678	23857.89
621.034	23726.59
621.39	23809.76
621.746	23771.34
622.101	24014.72
622.457	23889.75
622.812	23975.4
623.168	23981.05
623.523	24014.04
623.879	24098.34
624.234	23861.96
624.589	24058.56
624.945	23963.65
625.3	24046.13
625.655	23986.25
626.01	23998
626.365	24116.87
626.72	24056.53
627.075	24064.21
627.43	24007.04
627.785	24038
628.14	24027.38
628.495	24063.53
628.85	24081.16
629.205	23947.83
629.559	24091.1
629.914	23991.22
630.269	23966.59
630.623	24045.46
630.978	23956.87
631.332	24005
631.687	24071.44
632.041	23882.3
632.396	24059.47
632.75	23851.79
633.104	23938.79
633.459	23827.38
633.813	23845.91
634.167	23800.04
634.521	23910.77
634.875	23910.77
635.229	23833.26
635.583	23783.54
635.937	23685.69
636.291	23658.35
636.645	23616.09
636.999	23716.2
637.352	23777.21
637.706	23505.58
638.06	23671.23
638.413	23550.78
638.767	23562.98
639.121	23508.75
639.474	23532.93
639.828	23525.02
640.181	23548.75
640.534	23509.2
640.888	23412.48
641.241	23402.76
641.594	23487.96
641.947	23502.42
642.301	23344.46
642.654	23357.11
643.007	23396.88
643.36	23336.32
643.713	23334.74
644.066	23383.1
644.419	23220.17
644.771	23024.47
645.124	22836.22
645.477	22863.57
645.83	22803
646.182	22631.48
646.535	22591.71
646.888	22534.08
647.24	22487.53
647.593	22679.84
647.945	22594.65
648.298	22457.25
648.65	22452.05
649.002	22344.48
649.355	22482.33
649.707	22391.49
650.059	22541.09
650.411	22779.95
650.763	22858.59
651.115	22948.31
651.467	23076.44
651.819	22992.38
652.171	22917.12
652.523	23087.29
652.875	22820.4
653.227	22777.92
653.578	22878.71
653.93	22942.43
654.282	22785.38
654.633	22804.13
654.985	22923.68
655.337	22914.41
655.688	22884.58
656.039	22988.53
656.391	22790.12
656.742	22867.18
657.094	22872.15
657.445	22923
657.796	22941.98
658.147	22816.56
658.498	22752.38
658.849	22880.06
659.2	22914.41
659.551	22844.81
659.902	22938.37
660.253	22827.63
660.604	22891.14
660.955	22813.17
661.306	22810.23
661.656	22828.54
662.007	22858.14
662.358	22817.24
662.708	22826.5
663.059	22787.18
663.409	22729.11
663.76	22815.21
664.11	22856.56
664.461	22884.81
664.811	22924.13
665.161	22854.75
665.511	22867.18
665.862	22875.54
666.212	23038.02
666.562	22878.71
666.912	22838.26
667.262	22863.11
667.612	22811.82
667.962	22862.44
668.312	22800.29
668.662	22923.45
669.011	22868.09
669.361	22792.15
669.711	22735.66
670.06	22685.94
670.41	22620.41
670.76	22620.18
671.109	22759.84
671.459	22647.75
671.808	22660.63
672.157	22677.81
672.507	22504.03
672.856	22588.09
673.205	22635.1
673.554	22685.49
673.904	22670.58
674.253	22748.31
674.602	22761.42
674.951	22323.24
675.3	22213.87
675.649	22571.14
675.998	22561.43
676.346	22593.06
676.695	22676.9
677.044	22496.8
677.393	22534.99
677.741	22525.72
678.09	22516.68
678.438	22371.38
678.787	22441.88
679.135	22374.54
679.484	22342.9
679.832	22339.74
680.181	22099.52
680.529	22261.55
680.877	22268.78
681.225	22199.18
681.573	22234.43
681.922	22239.85
682.27	22000.99
682.618	22031.95
682.966	21927.09
683.314	22086.86
683.661	21935.91
684.009	21837.38
684.357	21929.13
684.705	21646.2
685.053	21890.03
685.4	21821.33
685.748	21582.92
686.095	21534.56
686.443	21515.35
686.79	21553.32
687.138	21529.59
687.485	21521.45
687.832	21420.44
688.18	21474
688.527	21290.95
688.874	21396.94
689.221	21281.01
689.568	21261.12
689.915	21184.97
690.262	21209.6
690.609	21144.06
690.956	20958.3
691.303	21036.27
691.65	20883.05
691.997	20885.99
692.344	20735.49
692.69	20718.54
693.037	20785.88
693.383	20587.69
693.73	20622.72
694.077	20484.19
694.423	20523.29
694.769	20331.88
695.116	20334.82
695.462	20283.52
695.808	20320.13
696.155	20283.97
696.501	20057.54
696.847	20029.97
697.193	19985.22
697.539	19927.82
697.885	19820.26
698.231	19639.92
698.577	19688.51
698.923	19594.05
699.269	19632.92
699.614	19387.27
699.96	19413.26
700.306	19452.81
700.651	19404.67
700.997	19258.46
701.342	19192.02
701.688	19220.72
702.033	19150.67
702.379	19240.16
702.724	18964.46
703.069	19032.71
703.415	18807.4
703.76	18914.29
704.105	18890.11
704.45	18786.16
704.795	18702.54
705.14	18683.11
705.485	18591.36
705.83	18569.22
706.175	18636.33
706.52	18472.72
706.865	18374.19
707.209	18475.88
707.554	18372.61
707.899	18329
708.243	18164.03
708.588	18153.63
708.932	18002.45
709.277	18113.63
709.621	18012.62
709.966	17971.04
710.31	17973.98
710.654	17801.33
710.998	17844.04
711.342	17817.14
711.687	17764.49
712.031	17686.98
712.375	17646.98
712.719	17616.92
713.063	17594.33
713.407	17580.77
713.75	17453.09
714.094	17521.33
714.438	17458.96
714.782	17494.89
715.125	17410.15
715.469	17359.3
715.812	17285.18
716.156	17208.57
716.499	17232.53
716.843	17283.6
717.186	17172.64
717.53	17118.18
717.873	17225.97
718.216	17175.58
718.559	17102.59
718.902	16986.43
719.246	16976.71
719.589	16950.5
719.932	16858.3
720.275	16995.25
720.617	16907.34
720.96	16782.37
721.303	16833.44
721.646	16869.6
721.989	16716.38
722.331	16814.91
722.674	16764.06
723.016	16760.68
723.359	16654.24
723.701	16719.32
724.044	16626.44
724.386	16594.35
724.729	16672.99
725.071	16536.27
725.413	16566.33
725.755	16613.33
726.097	16531.98
726.439	16468.93
726.782	16416.96
727.124	16544.18
727.465	16438.88
727.807	16411.53
728.149	16343.96
728.491	16333.34
728.833	16442.27
729.175	16309.16
729.516	16300.35
729.858	16254.7
730.199	16257.19
730.541	16227.58
730.882	16128.83
731.224	16202.72
731.565	16127.25
731.906	16171.31
732.248	16152.78
732.589	16110.75
732.93	16064.87
733.271	16094.25
733.612	16111.2
733.953	16240.91
734.294	16018.55
734.635	16047.25
734.976	16108.94
735.317	16007.47
735.658	16041.82
735.999	16010.86
736.339	15938.78
736.68	16096.06
737.021	15991.2
737.361	16031.88
737.702	16097.42
738.042	16065.78
738.383	16010.86
738.723	16043.86
739.063	15944.65
739.404	15991.66
739.744	16018.1
740.084	15992.79
740.424	15929.06
740.764	16026.23
741.104	16073.91
741.444	15982.84
741.784	15854.48
742.124	15967.48
742.464	15974.03
742.804	15997.31
743.143	15993.46
743.483	15943.3
743.823	15980.36
744.162	15991.2
744.502	16071.88
744.841	15960.02
745.181	16046.8
745.52	15968.61
745.86	16149.17
746.199	16063.29
746.538	16133.57
746.877	16170.86
747.216	16230.29
747.556	16207.47
747.895	16357.52
748.234	16248.82
748.573	16225.55
748.911	16263.74
749.25	16340.12
749.589	16363.4
749.928	16431.64
750.267	16491.98
750.605	16447.91
750.944	16516.39
751.283	16543.28
751.621	16666.89
751.96	16694.69
752.298	16733.78
752.636	16811.07
752.975	16719.55
753.313	16749.38
753.651	16952.76
753.989	17014
754.327	17004.96
754.666	16998.41
755.004	17143.04
755.342	17206.99
755.679	17346.2
756.017	17277.5
756.355	17429.13
756.693	17387.33
757.031	17639.07
