Data from hue_40_FLMS001491_78.txt Node
Date: Mon Feb 06 15:08:25 GMT 2017
User: dcchb
Spectrometer: FLMS00149
Trigger mode: 0
Integration Time (sec): 2.000000E-2
Scans to average: 10
Electric dark correction enabled: true
Nonlinearity correction enabled: false
Boxcar width: 0
XAxis mode: Wavelengths
Number of Pixels in Spectrum: 2048
>>>>>Begin Spectral Data<<<<<
341.393	-11.88
341.776	-11.88
342.16	-11.88
342.543	-50.75
342.927	-75.15
343.31	-78.09
343.693	-66.57
344.077	-67.02
344.46	-60.92
344.843	-55.27
345.226	-48.49
345.61	-5.1
345.993	-25.44
346.376	-16.17
346.759	18.18
347.142	19.08
347.525	50.94
347.908	57.72
348.291	74.22
348.674	97.5
349.057	105.41
349.44	104.05
349.823	126.88
350.206	172.52
350.588	199.87
350.971	213.65
351.354	231.28
351.737	229.7
352.119	233.99
352.502	271.05
352.884	276.93
353.267	299.53
353.65	299.98
354.032	311.05
354.414	308.11
354.797	326.42
355.179	322.35
355.562	328.68
355.944	316.02
356.326	335.91
356.709	338.4
357.091	346.53
357.473	352.63
357.855	341.11
358.238	358.73
358.62	333.2
359.002	338.4
359.384	345.17
359.766	370.03
360.148	335.23
360.53	358.28
360.912	319.86
361.294	341.78
361.676	328.45
362.057	330.26
362.439	331.84
362.821	338.85
363.203	322.8
363.584	320.32
363.966	307.89
364.348	348.34
364.729	313.99
365.111	331.39
365.493	313.76
365.874	317.15
366.256	334.33
366.637	323.93
367.019	327.1
367.4	334.78
367.781	322.12
368.163	313.76
368.544	315.8
368.925	342.01
369.306	310.37
369.688	329.13
370.069	323.93
370.45	330.71
370.831	302.69
371.212	329.36
371.593	322.35
371.974	322.35
372.355	330.94
372.736	318.73
373.117	311.28
373.498	318.96
373.879	324.16
374.26	324.84
374.641	308.34
375.021	305.63
375.402	342.91
375.783	322.58
376.163	320.77
376.544	327.77
376.925	329.36
377.305	325.29
377.686	339.07
378.066	311.5
378.447	328.9
378.827	325.29
379.208	343.59
379.588	337.04
379.968	330.49
380.349	325.97
380.729	340.43
381.109	356.47
381.489	340.43
381.87	349.47
382.25	333.88
382.63	346.08
383.01	342.69
383.39	359.64
383.77	343.37
384.15	341.78
384.53	334.1
384.91	318.28
385.29	346.53
385.67	356.93
386.049	352.41
386.429	340.88
386.809	348.79
387.189	377.04
387.568	343.37
387.948	355.57
388.328	361.67
388.707	352.86
389.087	363.48
389.466	352.63
389.846	365.06
390.225	369.58
390.605	365.51
390.984	391.5
391.363	362.35
391.743	369.58
392.122	376.81
392.501	361.9
392.881	378.85
393.26	372.52
393.639	408.22
394.018	363.93
394.397	377.04
394.776	391.5
395.155	374.1
395.534	383.82
395.913	391.5
396.292	378.62
396.671	353.76
397.05	375.46
397.429	372.52
397.808	368.68
398.186	404.38
398.565	384.72
398.944	396.47
399.323	394.66
399.701	375.46
400.08	374.55
400.458	384.27
400.837	376.36
401.215	386.53
401.594	390.15
401.972	410.94
402.351	388.56
402.729	398.51
403.107	426.98
403.486	405.51
403.864	389.92
404.242	403.03
404.62	389.47
404.999	396.92
405.377	408.68
405.755	416.36
406.133	411.61
406.511	413.42
406.889	422.91
407.267	423.59
407.645	423.14
408.023	421.78
408.401	413.2
408.779	441.44
409.156	446.41
409.534	411.84
409.912	450.03
410.29	428.56
410.667	448
411.045	436.7
411.422	452.52
411.8	441.22
412.178	455.45
412.555	465.4
412.933	467.43
413.31	466.08
413.687	429.92
414.065	480.99
414.442	473.76
414.819	465.62
415.197	455.68
415.574	484.61
415.951	459.75
416.328	480.54
416.705	488
417.082	484.61
417.46	488.22
417.837	483.02
418.214	502.91
418.591	513.08
418.967	493.42
419.344	506.3
419.721	513.31
420.098	484.38
420.475	490.48
420.852	501.78
421.228	500.65
421.605	511.27
421.982	527.54
422.358	520.54
422.735	507.43
423.111	526.41
423.488	515.11
423.864	511.5
424.241	528.22
424.617	549.91
424.994	547.88
425.37	548.11
425.746	559.86
426.123	544.49
426.499	560.54
426.875	550.37
427.251	582.91
427.627	565.96
428.003	596.69
428.379	562.57
428.756	588.33
429.132	559.18
429.507	586.07
429.883	590.14
430.259	606.41
430.635	598.73
431.011	616.58
431.387	614.32
431.763	599.18
432.138	581.55
432.514	615.45
432.89	629.46
433.265	624.72
433.641	615
434.016	619.52
434.392	650.03
434.767	655.45
435.143	635.34
435.518	658.84
435.894	638.95
436.269	623.36
436.644	683.24
437.02	690.7
437.395	666.97
437.77	678.27
438.145	691.83
438.52	676.69
438.895	725.73
439.271	691.15
439.646	711.49
440.021	746.52
440.395	712.85
440.77	728.67
441.145	724.37
441.52	721.89
441.895	713.98
442.27	745.62
442.645	726.63
443.019	740.87
443.394	718.95
443.769	753.98
444.143	717.37
444.518	767.08
444.892	760.98
445.267	742.23
445.641	738.61
446.016	760.08
446.39	767.08
446.764	793.75
447.139	765.05
447.513	800.98
447.887	786.74
448.262	808.44
448.636	815.67
449.01	801.66
449.384	810.25
449.758	801.21
450.132	825.39
450.506	811.6
450.88	825.39
451.254	838.95
451.628	829.68
452.002	823.13
452.376	872.62
452.75	854.31
453.123	854.31
453.497	837.82
453.871	894.31
454.244	864.93
454.618	890.24
454.992	890.7
455.365	908.32
455.739	903.8
456.112	913.07
456.486	938.61
456.859	919.85
457.232	946.29
457.606	950.36
457.979	963.46
458.352	987.64
458.725	970.69
459.099	988.1
459.472	1020.41
459.845	1033.52
460.218	1043.46
460.591	1025.61
460.964	1020.19
461.337	1057.47
461.71	1055.66
462.083	1080.3
462.456	1076.68
462.829	1117.58
463.201	1118.94
463.574	1115.78
463.947	1126.62
464.32	1145.38
464.692	1163.68
465.065	1211.37
465.438	1190.58
465.81	1191.71
466.183	1186.06
466.555	1253.4
466.928	1243.23
467.3	1266.05
467.672	1226.73
468.045	1311.48
468.417	1308.09
468.789	1328.88
469.161	1346.96
469.534	1378.82
469.906	1365.94
470.278	1424.92
470.65	1403.9
471.022	1463.34
471.394	1492.94
471.766	1504.69
472.138	1529.78
472.51	1560.74
472.882	1570.91
473.253	1652.94
473.625	1647.74
473.997	1692.48
474.369	1710.11
474.74	1737.68
475.112	1798.24
475.484	1796.89
475.855	1838.47
476.227	1892.25
476.598	1931.12
476.97	1968.63
477.341	1988.3
477.713	2064.68
478.084	2111.46
478.455	2189.87
478.827	2180.83
479.198	2278.46
479.569	2297.44
479.94	2367.72
480.311	2399.36
480.682	2479.36
481.053	2584.89
481.424	2628.73
481.795	2659.46
482.166	2775.85
482.537	2806.8
482.908	2875.28
483.279	2951.66
483.65	3060.13
484.021	3142.39
484.391	3166.8
484.762	3263.06
485.133	3324.98
485.503	3400.69
485.874	3551.64
486.244	3543.73
486.615	3677.06
486.985	3753.9
487.356	3807.91
487.726	3944.18
488.097	4056.49
488.467	4106.21
488.837	4253.55
489.207	4313.66
489.578	4425.75
489.948	4500.32
490.318	4585.29
490.688	4689.92
491.058	4757.04
491.428	4913.64
491.798	5025.05
492.168	5171.26
492.538	5180.75
492.908	5306.4
493.278	5372.39
493.648	5477.47
494.017	5586.84
494.387	5657.58
494.757	5787.07
495.126	5840.85
495.496	5949.77
495.866	6016.44
496.235	6127.85
496.605	6260.95
496.974	6359.71
497.344	6425.01
497.713	6514.05
498.082	6549.76
498.452	6668.17
498.821	6701.84
499.19	6875.17
499.559	6916.98
499.928	7036.75
500.298	7112.68
500.667	7159.46
501.036	7211.21
501.405	7350.64
501.774	7402.84
502.143	7460.69
502.512	7575.27
502.88	7655.26
503.249	7727.58
503.618	7799.67
503.987	7872.89
504.356	7922.83
504.724	8010.74
505.093	8118.3
505.462	8111.98
505.83	8209.37
506.199	8320.78
506.567	8464.74
506.936	8451.4
507.304	8587.22
507.672	8665.63
508.041	8727.78
508.409	8768.68
508.777	8859.98
509.145	8878.28
509.514	8945.85
509.882	9042.57
510.25	9043.7
510.618	9217.26
510.986	9180.87
511.354	9361.66
511.722	9396.46
512.09	9506.29
512.458	9481.66
512.826	9647.53
513.193	9656.57
513.561	9661.77
513.929	9808.65
514.297	9859.5
514.664	9934.75
515.032	9997.12
515.4	10030.12
515.767	10113.73
516.135	10150.79
516.502	10120.51
516.869	10385.59
517.237	10378.81
517.604	10353.5
517.972	10497.68
518.339	10476.43
518.706	10531.35
519.073	10529.31
519.44	10718.01
519.808	10846.82
520.175	10826.71
520.542	11005.46
520.909	10949.87
521.276	11055.18
521.643	11142.86
522.009	11188.05
522.376	11247.03
522.743	11365
523.11	11374.49
523.477	11534.71
523.843	11597.31
524.21	11722.95
524.577	11751.43
524.943	11782.84
525.31	11901.25
525.676	12003.4
526.043	12107.13
526.409	12163.62
526.776	12264.64
527.142	12298.76
527.508	12377.17
527.874	12475.93
528.241	12526.55
528.607	12585.3
528.973	12690.16
529.339	12759.09
529.705	12858.74
530.071	12930.61
530.437	12921.34
530.803	13059.19
531.169	13106.19
531.535	13040.66
531.901	13185.97
532.267	13224.38
532.632	13330.82
532.998	13325.85
533.364	13456.02
533.73	13401.33
534.095	13574.43
534.461	13592.06
534.826	13707.08
535.192	13780.3
535.557	13825.72
535.923	13794.99
536.288	13874.76
536.653	13987.98
537.019	14001.31
537.384	13959.05
537.749	14173.06
538.114	14155.88
538.479	14230.46
538.845	14260.97
539.21	14303.45
539.575	14387.29
539.94	14414.64
540.305	14497.8
540.67	14540.51
541.034	14554.29
541.399	14571.47
541.764	14683.33
542.129	14724.91
542.494	14725.36
542.858	14886.04
543.223	14875.64
543.587	14937.33
543.952	14975.98
544.316	15033.6
544.681	15042.64
545.045	15129.64
545.41	15254.39
545.774	15343.42
546.138	15319.24
546.503	15346.59
546.867	15401.73
547.231	15525.11
547.595	15613.93
547.959	15600.82
548.324	15627.94
548.688	15679.91
549.052	15772.57
549.416	15743.64
549.779	15786.58
550.143	15905.67
550.507	16085.1
550.871	15994.71
551.235	16007.36
551.599	16203.29
551.962	16200.12
552.326	16286.68
552.689	16307.69
553.053	16235.38
553.417	16330.52
553.78	16557.86
554.143	16496.39
554.507	16590.62
554.87	16625.42
555.234	16766.21
555.597	16668.14
555.96	16728.7
556.323	16783.39
556.686	16833.33
557.05	17035.36
557.413	17024.06
557.776	17022.7
558.139	17144.05
558.502	17229.93
558.865	17287.33
559.228	17337.72
559.59	17433.31
559.953	17483.93
560.316	17660.43
560.679	17643.25
561.041	17650.93
561.404	17831.27
561.767	17835.11
562.129	17770.03
562.492	18056.12
562.854	17993.3
563.217	18069
563.579	18139.73
563.941	18263.57
564.304	18293.63
564.666	18397.36
565.028	18406.39
565.39	18510.35
565.753	18517.35
566.115	18652.72
566.477	18710.57
566.839	18767.52
567.201	18894.97
567.563	18825.14
567.925	18924.57
568.287	19033.5
568.648	19023.33
569.01	19225.36
569.372	19280.27
569.734	19260.61
570.095	19428.29
570.457	19409.76
570.819	19559.13
571.18	19609.53
571.542	19730.43
571.903	19768.84
572.265	19892.23
572.626	19912.57
572.987	20035.05
573.349	20081.38
573.71	20197.99
574.071	20263.75
574.432	20271.88
574.794	20449.73
575.155	20607.69
575.516	20510.29
575.877	20676.62
576.238	20740.8
576.599	20908.48
576.96	21057.17
577.32	21016.27
577.681	21201.12
578.042	21300.1
578.403	21359.09
578.763	21496.93
579.124	21596.14
579.485	21855.34
579.845	21929.24
580.206	21952.97
580.566	22111.83
580.927	22292.17
581.287	22474.08
581.648	22527.42
582.008	22699.39
582.368	22791.36
582.728	22972.83
583.089	23147.29
583.449	23235.65
583.809	23432.03
584.169	23582.3
584.529	23611.91
584.889	24037.66
585.249	23995.85
585.609	24140.48
585.969	24459.12
586.329	24503.86
586.688	24666.57
587.048	24942.04
587.408	25033.79
587.768	25196.27
588.127	25300.68
588.487	25559.2
588.846	25892.98
589.206	25772.3
589.565	26181.56
589.925	26261.78
590.284	26452.96
590.643	26653.86
591.003	26838.04
591.362	27075.32
591.721	27250.68
592.08	27487.74
592.44	27615.64
592.799	27863.55
593.158	27821.06
593.517	28048.63
593.876	28341.95
594.235	28497.2
594.593	28593.92
594.952	28987.36
595.311	29087.24
595.67	29301.25
596.029	29428.48
596.387	29784.17
596.746	29965.41
597.104	29874.57
597.463	30129.25
597.822	30338.51
598.18	30422.58
598.538	30671.16
598.897	30830.25
599.255	30617.37
599.613	31355.66
599.972	31376
600.33	31477.69
600.688	31501.87
601.046	31822.09
601.404	32038.8
601.762	32053.04
602.12	32391.34
602.478	32428.62
602.836	32609.18
603.194	32466.14
603.552	32896.18
603.91	32866.81
604.268	33114.93
604.625	33149.96
604.983	33453.46
605.341	33382.72
605.698	33709.95
606.056	33701.36
606.413	33866.1
606.771	34073.1
607.128	34128.69
607.485	34137.96
607.843	34308.8
608.2	34502.69
608.557	34686.64
608.914	34651.17
609.272	34936.13
609.629	35073.53
609.986	35342.45
610.343	35084.37
610.7	35523.68
611.057	35555.32
611.414	35467.64
611.771	35695.66
612.127	35744.7
612.484	35874.86
612.841	36128.64
613.198	36101.3
613.554	36139.04
613.911	36341.74
614.267	36451.57
614.624	36566.82
614.98	36686.59
615.337	36843.42
615.693	36860.15
616.05	36771.56
616.406	37136.52
616.762	37089.75
617.118	37067.82
617.475	37214.26
617.831	37378.1
618.187	37322.28
618.543	37464.2
618.899	37630.07
619.255	37607.92
619.611	37815.15
619.967	37912.1
620.323	37946.45
620.678	37952.77
621.034	37819.44
621.39	37899.67
621.746	37867.58
622.101	38491.52
622.457	38125.65
622.812	38187.8
623.168	38328.81
623.523	38524.51
623.879	38528.13
624.234	38271.63
624.589	38491.06
624.945	38568.12
625.3	38622.13
625.655	38738.74
626.01	38711.62
626.365	38827.78
626.72	38823.94
627.075	38847.21
627.43	38812.64
627.785	38752.75
628.14	38804.73
628.495	38894.9
628.85	38931.73
629.205	38776.48
629.559	38892.18
629.914	38819.64
630.269	38861.68
630.623	38771.06
630.978	38682.7
631.332	38958.17
631.687	38985.97
632.041	38817.16
632.396	38890.6
632.75	38804.95
633.104	38888.12
633.459	38716.59
633.813	38791.4
634.167	38691.74
634.521	38871.85
634.875	38760.89
635.229	38691.06
635.583	38569.93
635.937	38750.04
636.291	38651.06
636.645	38804.28
636.999	38735.35
637.352	38737.39
637.706	38526.32
638.06	38815.8
638.413	38630.72
638.767	38561.12
639.121	38620.55
639.474	38389.6
639.828	38310.05
640.181	38494.45
640.534	38425.76
640.888	38448.58
641.241	38292.65
641.594	38297.62
641.947	38407.22
642.301	38369.71
642.654	38417.62
643.007	38345.76
643.36	38265.99
643.713	38433.66
644.066	38419.43
644.419	38158.19
644.771	37962.94
645.124	37662.16
645.477	37568.6
645.83	37272.57
646.182	37201.61
646.535	37024.89
646.888	37174.94
647.24	36939.24
647.593	37209.06
647.945	37117.54
648.298	36949.41
648.65	36922.52
649.002	36786.02
649.355	36991.22
649.707	36833.03
650.059	37066.24
650.411	37349.17
650.763	37521.6
651.115	37717.98
651.467	37751.42
651.819	37832.55
652.171	37637.53
652.523	37670.07
652.875	37486.57
653.227	37510.53
653.578	37615.83
653.93	37549.17
654.282	37525.67
654.633	37466.01
654.985	37526.34
655.337	37534.03
655.688	37407.25
656.039	37559.79
656.391	37259.01
656.742	37250.64
657.094	37326.12
657.445	37502.62
657.796	37452.9
658.147	37332.68
658.498	37386.23
658.849	37403.18
659.2	37310.08
659.551	37205.67
659.902	37488.15
660.253	37302.39
660.604	37316.18
660.955	37150.08
661.306	37343.52
661.656	37295.84
662.007	37127.26
662.358	37178.78
662.708	37073.93
663.059	37137.2
663.409	37009.07
663.76	37240.93
664.11	37149.4
664.461	37052.23
664.811	37056.98
665.161	37068.73
665.511	37029.18
665.862	36960.03
666.212	37197.31
666.562	37233.24
666.912	36990.99
667.262	36981.73
667.612	37023.08
667.962	37160.93
668.312	37066.69
668.662	37274.37
669.011	36998.22
669.361	37037.09
669.711	37096.98
670.06	36845.23
670.41	36918.22
670.76	36887.94
671.109	37077.99
671.459	36923.42
671.808	36868.06
672.157	36994.83
672.507	36689.98
672.856	36830.77
673.205	36816.08
673.554	37034.15
673.904	36797.78
674.253	37031.44
674.602	36816.31
674.951	36198.7
675.3	36070.79
675.649	36849.07
675.998	36599.59
676.346	36619.47
676.695	36837.77
677.044	36586.71
677.393	36651.34
677.741	36569.98
678.09	36490.66
678.438	36383.32
678.787	36489.76
679.135	36604.33
679.484	36329.31
679.832	36391.23
680.181	36268.52
680.529	36261.29
680.877	36199.83
681.225	36155.08
681.573	36398.92
681.922	36102.65
682.27	36062.2
682.618	36043.44
682.966	35992.82
683.314	36068.3
683.661	35930.68
684.009	35815.88
684.357	35717.8
684.705	35546.28
685.053	35699.5
685.4	35594.64
685.748	35463.12
686.095	35541.99
686.443	35360.07
686.79	35293.18
687.138	35425.61
687.485	35420.41
687.832	35292.5
688.18	35250.25
688.527	34962.8
688.874	35048.44
689.221	35004.38
689.568	34885.74
689.915	34733.65
690.262	34642.35
690.609	34764.16
690.956	34519.42
691.303	34583.6
691.65	34431.28
691.997	34381.12
692.344	34076.49
692.69	34022.26
693.037	34068.81
693.383	33827.23
693.73	33983.39
694.077	33791.98
694.423	33855.71
694.769	33738.42
695.116	33593.34
695.462	33638.08
695.808	33419.11
696.155	33481.25
696.501	33261.82
696.847	33414.14
697.193	32964.2
697.539	33151.32
697.885	32829.74
698.231	32915.62
698.577	32879.01
698.923	32822.96
699.269	32624.33
699.614	32626.36
699.96	32543.65
700.306	32455.97
700.651	32270.21
700.997	32191.79
701.342	32129.65
701.688	32097.33
702.033	32003.1
702.379	32001.74
702.724	31832.48
703.069	32013.72
703.415	31556.78
703.76	31653.28
704.105	31764.69
704.45	31585.94
704.795	31383.45
705.14	31229.11
705.485	31282.21
705.83	31183.46
706.175	31286.06
706.52	31021.88
706.865	30915.9
707.209	30855.56
707.554	30858.72
707.899	30910.02
708.243	30702.34
708.588	30783.02
708.932	30466.87
709.277	30441.33
709.621	30407.43
709.966	30319.08
710.31	30281.11
710.654	30143.94
710.998	30275.91
711.342	29909.82
711.687	30103.49
712.031	29816.26
712.375	29795.25
712.719	29786.66
713.063	29779.88
713.407	29870.05
713.75	29765.87
714.094	29645.2
714.438	29492.43
714.782	29643.16
715.125	29371.76
715.469	29415.6
715.812	29339.21
716.156	29202.49
716.499	29241.36
716.843	29183.51
717.186	29136.73
717.53	29144.42
717.873	29204.3
718.216	29115.49
718.559	28788.95
718.902	28833.69
719.246	28888.38
719.589	28739.46
719.932	28597.31
720.275	28549.63
720.617	28605.45
720.96	28459.01
721.303	28486.36
721.646	28550.08
721.989	28215.85
722.331	28332.91
722.674	28345.79
723.016	28359.81
723.359	28327.04
723.701	28331.56
724.044	28083.88
724.386	27929.76
724.729	28012.02
725.071	27910.33
725.413	27946.71
725.755	27903.32
726.097	27796.88
726.439	27704.91
726.782	27684.79
727.124	27749.88
727.465	27656.55
727.807	27584.91
728.149	27522.54
728.491	27577
728.833	27609.54
729.175	27450.68
729.516	27331.58
729.858	27315.54
730.199	27379.49
730.541	27175.43
730.882	27213.17
731.224	27383.33
731.565	27098.6
731.906	27151.25
732.248	27143.11
732.589	27118.71
732.93	26923.68
733.271	26950.35
733.612	26882.33
733.953	27002.1
734.294	26909.22
734.635	26731.83
734.976	26906.28
735.317	26698.83
735.658	26617.48
735.999	26633.3
736.339	26680.53
736.68	26657.25
737.021	26463.36
737.361	26491.61
737.702	26526.41
738.042	26464.04
738.383	26400.31
738.723	26414.77
739.063	26231.95
739.404	26374.32
739.744	26284.15
740.084	26225.4
740.424	26261.56
740.764	26225.85
741.104	26160.99
741.444	26155.8
741.784	26006.87
742.124	26056.59
742.464	26032.18
742.804	25965.97
743.143	25893.43
743.483	25874.45
743.823	25716.03
744.162	25689.59
744.502	25838.74
744.841	25655.7
745.181	25810.04
745.52	25558.75
745.86	25601.91
746.199	25538.64
746.538	25527.56
746.877	25742.7
747.216	25540.44
747.556	25544.29
747.895	25471.97
748.234	25505.64
748.573	25343.16
748.911	25352.43
749.25	25326.89
749.589	25114.69
749.928	25165.54
750.267	25181.81
750.605	25093
750.944	25091.64
751.283	25010.29
751.621	24956.96
751.96	24820.01
752.298	24834.25
752.636	24855.04
752.975	24707.7
753.313	24558.78
753.651	24770.97
753.989	24562.39
754.327	24561.71
754.666	24467.48
755.004	24419.12
755.342	24506.8
755.679	24385.22
756.017	24410.08
756.355	24290.99
756.693	24210.99
757.031	24195.62
757.368	24109.75
