Data from hue_38_FLMS001491_00029.txt Node
Date: Tue Feb 07 17:31:18 GMT 2017
User: dcchb
Spectrometer: FLMS00149
Trigger mode: 0
Integration Time (sec): 2.000000E-2
Scans to average: 10
Electric dark correction enabled: true
Nonlinearity correction enabled: false
Boxcar width: 0
XAxis mode: Wavelengths
Number of Pixels in Spectrum: 2048
>>>>>Begin Spectral Data<<<<<
341.393	-3.23
341.776	-3.23
342.16	-3.23
342.543	-64.25
342.927	-81.88
343.31	-64.02
343.693	-64.48
344.077	-64.02
344.46	-66.51
344.843	-40.97
345.226	-57.02
345.61	-25.15
345.993	-25.83
346.376	4
346.759	10.78
347.142	9.87
347.525	41.06
347.908	61.4
348.291	83.99
348.674	80.15
349.057	116.76
349.44	127.16
349.823	148.63
350.206	165.35
350.588	199.92
350.971	219.13
351.354	222.97
351.737	228.17
352.119	249.19
352.502	274.95
352.884	269.98
353.267	272.46
353.65	300.26
354.032	299.36
354.414	296.64
354.797	318.57
355.179	307.94
355.562	309.53
355.944	319.47
356.326	334.84
356.709	332.58
357.091	359.02
357.473	343.65
357.855	355.4
358.238	339.13
358.62	336.87
359.002	347.94
359.384	347.49
359.766	344.55
360.148	335.97
360.53	340.94
360.912	340.26
361.294	335.97
361.676	335.06
362.057	348.39
362.439	321.73
362.821	339.58
363.203	322.41
363.584	334.84
363.966	298.9
364.348	344.78
364.729	329.19
365.111	323.08
365.493	330.54
365.874	316.08
366.256	332.8
366.637	335.74
367.019	338
367.4	331.9
367.781	318.34
368.163	306.81
368.544	328.28
368.925	326.02
369.306	313.37
369.688	300.49
370.069	299.13
370.45	333.48
370.831	310.2
371.212	315.85
371.593	305.68
371.974	338.9
372.355	316.31
372.736	331.9
373.117	312.92
373.498	314.72
373.879	324.67
374.26	314.5
374.641	332.35
375.021	325.57
375.402	326.47
375.783	324.89
376.163	335.06
376.544	319.92
376.925	326.25
377.305	347.94
377.686	354.5
378.066	330.09
378.447	317.44
378.827	316.08
379.208	330.54
379.588	347.49
379.968	321.05
380.349	345.91
380.729	344.33
381.109	350.65
381.489	342.75
381.87	337.77
382.25	353.37
382.63	343.2
383.01	344.33
383.39	346.59
383.77	361.28
384.15	343.2
384.53	336.64
384.91	363.99
385.29	355.17
385.67	363.54
386.049	359.92
386.429	374.83
386.809	359.47
387.189	357.89
387.568	370.09
387.948	353.14
388.328	366.47
388.707	347.94
389.087	354.27
389.466	360.82
389.846	389.07
390.225	382.52
390.605	370.54
390.984	373.25
391.363	384.33
391.743	366.93
392.122	373.25
392.501	365.8
392.881	400.37
393.26	393.59
393.639	384.78
394.018	386.13
394.397	389.52
394.776	387.49
395.155	378.68
395.534	384.33
395.913	391.56
396.292	384.1
396.671	371.45
397.05	413.93
397.429	401.5
397.808	399.24
398.186	391.33
398.565	396.08
398.944	405.57
399.323	417.55
399.701	407.15
400.08	395.85
400.458	407.15
400.837	411.22
401.215	413.48
401.594	413.03
401.972	401.27
402.351	406.47
402.729	428.39
403.107	408.05
403.486	402.86
403.864	425.91
404.242	429.75
404.62	411.67
404.999	437.21
405.377	417.77
405.755	420.03
406.133	426.36
406.511	438.34
406.889	449.64
407.267	447.38
407.645	422.97
408.023	444.44
408.401	458.45
408.779	457.77
409.156	464.1
409.534	449.64
409.912	455.06
410.29	450.09
410.667	480.14
411.045	441.5
411.422	477.66
411.8	470.43
412.178	454.83
412.555	469.07
412.933	498.22
413.31	479.01
413.687	483.31
414.065	516.75
414.442	486.24
414.819	499.58
415.197	502.29
415.574	502.74
415.951	489.41
416.328	495.06
416.705	505
417.082	519.24
417.46	510.88
417.837	519.46
418.214	524.66
418.591	522.85
418.967	527.15
419.344	536.86
419.721	522.4
420.098	527.15
420.475	548.84
420.852	543.64
421.228	547.03
421.605	538.9
421.982	556.98
422.358	548.16
422.735	554.49
423.111	553.59
423.488	568.95
423.864	552.91
424.241	574.6
424.617	584.77
424.994	554.04
425.37	585.68
425.746	596.52
426.123	582.06
426.499	582.51
426.875	584.55
427.251	594.72
427.627	628.16
428.003	587.94
428.379	596.52
428.756	612.57
429.132	611.89
429.507	637.65
429.883	617.77
430.259	650.08
430.635	649.63
431.011	636.52
431.387	633.81
431.763	637.2
432.138	667.71
432.514	679.91
432.89	673.81
433.265	683.53
433.641	684.43
434.016	683.75
434.392	721.27
434.767	709.97
435.143	683.98
435.518	710.87
435.894	709.52
436.269	707.03
436.644	727.14
437.02	719.23
437.395	711.78
437.77	759.68
438.145	752.68
438.52	770.76
438.895	765.33
439.271	765.33
439.646	770.08
440.021	795.16
440.395	782.73
440.77	794.48
441.145	783.64
441.52	807.59
441.895	810.3
442.27	819.79
442.645	787.93
443.019	815.5
443.394	801.49
443.769	832.45
444.143	827.48
444.518	817.54
444.892	827.93
445.267	823.64
445.641	833.58
446.016	821.15
446.39	877.65
446.764	851.66
447.139	852.11
447.513	873.58
447.887	865.67
448.262	867.7
448.636	894.14
449.01	893.47
449.384	908.61
449.758	891.66
450.132	879
450.506	892.56
450.88	918.55
451.254	935.27
451.628	943.41
452.002	939.79
452.376	949.28
452.75	930.75
453.123	955.84
453.497	962.84
453.871	983.18
454.244	987.93
454.618	1014.37
454.992	1007.81
455.365	1004.87
455.739	1032.67
456.112	1035.83
456.486	1047.81
456.859	1044.65
457.232	1093.46
457.606	1088.04
457.979	1069.96
458.352	1081.03
458.725	1121.93
459.099	1104.31
459.472	1140.46
459.845	1136.4
460.218	1156.06
460.591	1136.62
460.964	1183.18
461.337	1196.96
461.71	1216.62
462.083	1230.63
462.456	1217.07
462.829	1243.29
463.201	1270.63
463.574	1237.18
463.947	1264.75
464.32	1302.04
464.692	1323.28
465.065	1349.27
465.438	1349.72
465.81	1356.73
466.183	1383.4
466.555	1408.03
466.928	1442.15
467.3	1434.02
467.672	1438.76
468.045	1485.54
468.417	1473.11
468.789	1496.61
469.161	1531.87
469.534	1551.75
469.906	1609.38
470.278	1628.36
470.65	1603.73
471.022	1663.61
471.394	1688.25
471.766	1707.68
472.138	1721.24
472.51	1750.17
472.882	1802.59
473.253	1815.93
473.625	1838.3
473.997	1923.49
474.369	1921.46
474.74	1970.95
475.112	1993.55
475.484	2061.8
475.855	2111.06
476.227	2122.81
476.598	2195.8
476.97	2243.03
477.341	2298.4
477.713	2343.82
478.084	2358.06
478.455	2401.9
478.827	2479.41
479.198	2553.08
479.569	2588.11
479.94	2681.44
480.311	2718.73
480.682	2797.14
481.053	2861.78
481.424	2952.85
481.795	3007.31
482.166	3065.39
482.537	3148.1
482.908	3189.68
483.279	3312.84
483.65	3378.15
484.021	3484.13
484.391	3537.92
484.762	3614.52
485.133	3698.82
485.503	3744.69
485.874	3888.87
486.244	3996.43
486.615	4064.91
486.985	4206.82
487.356	4285.24
487.726	4339.7
488.097	4484.33
488.467	4509.87
488.837	4626.02
489.207	4767.71
489.578	4846.36
489.948	4952.57
490.318	5069.4
490.688	5118.89
491.058	5303.52
491.428	5349.17
491.798	5447.92
492.168	5549.39
492.538	5683.85
492.908	5770.63
493.278	5928.81
493.648	5966.55
494.017	6090.16
494.387	6187.56
494.757	6299.65
495.126	6380.55
495.496	6450.83
495.866	6538.97
496.235	6703.93
496.605	6755.91
496.974	6814.44
497.344	6939.86
497.713	7011.04
498.082	7139.4
498.452	7227.08
498.821	7316.8
499.19	7371.71
499.559	7500.75
499.928	7592.95
500.298	7609.22
500.667	7780.74
501.036	7830.23
501.405	7928.99
501.774	7924.01
502.143	8047.63
502.512	8138.25
502.88	8191.8
503.249	8323.1
503.618	8379.14
503.987	8479.03
504.356	8526.94
504.724	8579.14
505.093	8676.54
505.462	8692.58
505.83	8766.48
506.199	8872.92
506.567	9041.27
506.936	9053.48
507.304	9219.57
507.672	9250.99
508.041	9332.57
508.409	9452.56
508.777	9523.52
509.145	9544.09
509.514	9602.16
509.882	9709.05
510.25	9714.93
510.618	9770.97
510.986	9886.45
511.354	9931.19
511.722	10075.14
512.09	10142.26
512.458	10110.4
512.826	10310.39
513.193	10321.01
513.561	10314.46
513.929	10465.42
514.297	10536.38
514.664	10607.33
515.032	10679.87
515.4	10755.35
515.767	10796.03
516.135	10847.33
516.502	10845.52
516.869	11045.06
517.237	11089.81
517.604	11099.3
517.972	11155.12
518.339	11283.7
518.706	11353.98
519.073	11327.77
519.44	11424.49
519.808	11557.59
520.175	11576.12
520.542	11731.82
520.909	11778.83
521.276	11751.71
521.643	11881.42
522.009	11918.26
522.376	12037.35
522.743	12132.04
523.11	12245.71
523.477	12266.05
523.843	12357.8
524.21	12503.78
524.577	12468.08
524.943	12626.04
525.31	12743.78
525.676	12822.87
526.043	12880.72
526.409	12871.91
526.776	13049.76
527.142	13167.04
527.508	13192.12
527.874	13249.98
528.241	13350.76
528.607	13416.07
528.973	13575.84
529.339	13573.13
529.705	13647.48
530.071	13797.76
530.437	13936.74
530.803	13900.35
531.169	13942.84
531.535	13894.25
531.901	14031.88
532.267	14127.47
532.632	14183.96
532.998	14240.68
533.364	14377.86
533.73	14354.81
534.095	14576.5
534.461	14550.28
534.826	14617.4
535.192	14678.64
535.557	14750.05
535.923	14743.5
536.288	14790.27
536.653	14928.12
537.019	14868.69
537.384	15068.91
537.749	15010.16
538.114	15093.77
538.479	15148.23
538.845	15298.74
539.21	15163.82
539.575	15281.79
539.94	15348.68
540.305	15468.68
540.67	15411.95
541.034	15562.01
541.399	15553.42
541.764	15642
542.129	15667.31
542.494	15811.27
542.858	15872.51
543.223	15849.91
543.587	16065.95
543.952	16058.26
544.316	16049.22
544.681	16122.44
545.045	16179.39
545.41	16227.07
545.774	16333.74
546.138	16355.21
546.503	16415.54
546.867	16438.59
547.231	16571.25
547.595	16599.49
547.959	16683.11
548.324	16692.6
548.688	16636.33
549.052	16846.04
549.416	16869.32
549.779	16902.54
550.143	16880.39
550.507	17092.14
550.871	17040.84
551.235	17067.5
551.599	17289.19
551.962	17330.55
552.326	17386.59
552.689	17447.61
553.053	17340.94
553.417	17389.08
553.78	17620.93
554.143	17508.62
554.507	17636.53
554.87	17752.23
555.234	17884.2
555.597	17830.87
555.96	17956.52
556.323	18059.34
556.686	17935.5
557.05	18089.62
557.413	18238.09
557.776	18220.92
558.139	18427.47
558.502	18311.76
558.865	18398.09
559.228	18602.83
559.59	18624.98
559.953	18648.48
560.316	18837.85
560.679	18828.59
561.041	18889.38
561.404	19005.76
561.767	19040.11
562.129	19000.56
562.492	19290.95
562.854	19229.48
563.217	19320.1
563.579	19344.96
563.941	19480.1
564.304	19474.45
564.666	19687.77
565.028	19652.07
565.39	19719.41
565.753	19836.02
566.115	19845.51
566.477	19887.77
566.839	19956.01
567.201	20084.83
567.563	20156.69
567.925	20227.19
568.287	20377.25
568.648	20371.6
569.01	20410.69
569.372	20649.56
569.734	20586.05
570.095	20720.74
570.457	20791.25
570.819	20809.78
571.18	20939.94
571.542	21080.73
571.903	21069.43
572.265	21120.96
572.626	21254.74
572.987	21325.7
573.349	21386.94
573.71	21503.54
574.071	21632.81
574.432	21739.7
574.794	21858.11
575.155	21959.35
575.516	21902.18
575.877	22068.95
576.238	22140.82
576.599	22401.37
576.96	22437.31
577.32	22501.71
577.681	22658.09
578.042	22804.75
578.403	22919.78
578.763	22981.92
579.124	23192.09
579.485	23294.46
579.845	23460.33
580.206	23507.79
580.566	23596.15
580.927	23862.35
581.287	24126.98
581.648	24046.08
582.008	24384.6
582.368	24360.19
582.728	24657.59
583.089	24739.84
583.449	24882.21
583.809	25055.32
584.169	25273.62
584.529	25491.46
584.889	25814.84
585.249	25628.86
585.609	25916.54
585.969	26356.3
586.329	26402.4
586.688	26559.46
587.048	26795.16
587.408	26922.61
587.768	27161.48
588.127	27248.25
588.487	27431.75
588.846	27911.74
589.206	27843.27
589.565	28024.73
589.925	28397.15
590.284	28546.98
590.643	28754.43
591.003	29011.14
591.362	29327.97
591.721	29495.65
592.08	29802.99
592.44	29953.04
592.799	30145.8
593.158	30278.46
593.517	30496.08
593.876	30732.23
594.235	30946.69
594.593	31121.6
594.952	31354.13
595.311	31471.19
595.67	31792.09
596.029	32023.72
596.387	32242.02
596.746	32461.9
597.104	32503.71
597.463	32687.43
597.822	32986.18
598.18	32950.93
598.538	33108.44
598.897	33712.72
599.255	33480.63
599.613	34078.13
599.972	33973.73
600.33	34248.97
600.688	34477.89
601.046	34753.82
601.404	34956.07
601.762	35017.99
602.12	35210.98
602.478	35425.44
602.836	35508.15
603.194	35603.29
603.552	35740.23
603.91	35852.77
604.268	36206.66
604.625	36199.66
604.983	36514.22
605.341	36387.45
605.698	36660.66
606.056	36954.66
606.413	36931.61
606.771	37253.41
607.128	37329.12
607.485	37235.33
607.843	37547.19
608.2	37778.82
608.557	37915.54
608.914	37812.27
609.272	38160.51
609.629	38385.36
609.986	38509.88
610.343	38632.36
610.7	38712.81
611.057	38896.53
611.414	38895.4
611.771	39037.32
612.127	39387.82
612.484	39306.69
612.841	39570.19
613.198	39480.93
613.554	39574.93
613.911	39933.12
614.267	39900.35
614.624	39930.4
614.98	40161.36
615.337	40419.21
615.693	40403.84
616.05	40417.85
616.406	40644.28
616.762	40640.89
617.118	40740.78
617.475	40965.41
617.831	40950.04
618.187	41024.39
618.543	41078.4
618.899	41247.43
619.255	41304.15
619.611	41375.11
619.967	41548.67
620.323	41731.26
620.678	41534.2
621.034	41680.64
621.39	41806.06
621.746	41638.61
622.101	42096
622.457	41828.21
622.812	41985.27
623.168	42110.91
623.523	42287.41
623.879	42415.76
624.234	41914.76
624.589	42180.74
624.945	42266.16
625.3	42388.19
625.655	42306.61
626.01	42480.39
626.365	42482.88
626.72	42470.68
627.075	42557.91
627.43	42552.71
627.785	42556.78
628.14	42660.05
628.495	42697.56
628.85	42644.68
629.205	42557.23
629.559	42805.58
629.914	42661.86
630.269	42752.25
630.623	42681.74
630.978	42540.28
631.332	42942.98
631.687	42912.02
632.041	42642.42
632.396	42805.13
632.75	42750.9
633.104	42822.53
633.459	42640.39
633.813	42640.16
634.167	42710.9
634.521	42742.76
634.875	42785.02
635.229	42730.33
635.583	42627.74
635.937	42604.01
636.291	42709.54
636.645	42598.81
636.999	42492.15
637.352	42723.78
637.706	42502.77
638.06	42550.9
638.413	42506.38
638.767	42423.22
639.121	42535.31
639.474	42408.98
639.828	42302.55
640.181	42334.18
640.534	42380.51
640.888	42401.75
641.241	42250.34
641.594	42305.71
641.947	42327.4
642.301	42367.4
642.654	42329.44
643.007	42431.81
643.36	42252.6
643.713	42343.9
644.066	42299.83
644.419	42119.05
644.771	41974.64
645.124	41482.91
645.477	41585.95
645.83	41403.13
646.182	41115.23
646.535	41147.32
646.888	41114.55
647.24	40887.22
647.593	41128.34
647.945	41115.23
648.298	40995.91
648.65	40808.57
649.002	40730.84
649.355	40791.85
649.707	40819.87
650.059	40962.92
650.411	41528.55
650.763	41459.18
651.115	41924.25
651.467	41660.75
651.819	41769.23
652.171	41624.82
652.523	41490.82
652.875	41699.85
653.227	41481.1
653.578	41782.56
653.93	41532.62
654.282	41541.66
654.633	41306.64
654.985	41497.82
655.337	41389.58
655.688	41528.1
656.039	41533.07
656.391	41406.07
656.742	41412.4
657.094	41478.39
657.445	41507.99
657.796	41422.8
658.147	41374.21
658.498	41311.16
658.849	41465.96
659.2	41280.43
659.551	41206.08
659.902	41383.93
660.253	41461.44
660.604	41462.57
660.955	41172.63
661.306	41405.62
661.656	41236.36
662.007	41339.41
662.358	41291.5
662.708	41198.39
663.059	41251.95
663.409	41042.01
663.76	41254.89
664.11	41350.48
664.461	41293.76
664.811	41332.63
665.161	41357.71
665.511	41262.12
665.862	41230.26
666.212	41383.02
666.562	41332.4
666.912	41162.01
667.262	41186.87
667.612	41116.81
667.962	41244.72
668.312	41144.84
668.662	41369.92
669.011	41162.01
669.361	41235.23
669.711	41134.22
670.06	41026.87
670.41	41011.73
670.76	41002.92
671.109	41001.79
671.459	41075.01
671.808	40963.37
672.157	41120.2
672.507	40875.69
672.856	40783.04
673.205	40858.06
673.554	41045.4
673.904	40902.81
674.253	41098.28
674.602	41002.69
674.951	40505.08
675.3	40164.75
675.649	40954.78
675.998	40749.59
676.346	40791.63
676.695	40841.79
677.044	40539.43
677.393	40642.25
677.741	40878.4
678.09	40702.36
678.438	40498.98
678.787	40624.62
679.135	40638.41
679.484	40363.39
679.832	40521.8
680.181	40374.46
680.529	40454.01
680.877	40404.74
681.225	40255.37
681.573	40427.79
681.922	40107.58
682.27	40034.36
682.618	40104.19
682.966	39921.82
683.314	40135.37
683.661	39984.87
684.009	39864.64
684.357	39776.06
684.705	39618.77
685.053	39703.52
685.4	39592.56
685.748	39433.69
686.095	39416.75
686.443	39280.48
686.79	39143.98
687.138	39406.35
687.485	39383.53
687.832	39111.22
688.18	39209.07
688.527	39006.36
688.874	39128.62
689.221	38955.29
689.568	38904.44
689.915	38611.34
690.262	38870.77
690.609	38724.79
690.956	38638.69
691.303	38542.64
691.65	38382.42
691.997	38341.07
692.344	38111.47
692.69	38129.32
693.037	38101.07
693.383	37825.15
693.73	38059.27
694.077	37879.84
694.423	37737.69
694.769	37699.28
695.116	37548.32
695.462	37456.8
695.808	37326.63
696.155	37373.18
696.501	37018.39
696.847	37215
697.193	36896.81
697.539	37086.64
697.885	36818.4
698.231	36602.13
698.577	36764.39
698.923	36645.75
699.269	36506.77
699.614	36162.82
699.96	36320.78
700.306	36341.57
700.651	36114.23
700.997	35970.73
701.342	36053.67
701.688	35877.18
702.033	35738.88
702.379	35768.25
702.724	35600.58
703.069	35742.49
703.415	35332.56
703.76	35456.4
704.105	35386.12
704.45	35311.54
704.795	35083.3
705.14	35017.77
705.485	34997.65
705.83	34823.87
706.175	34865.45
706.52	34784.1
706.865	34770.09
707.209	34631.79
707.554	34612.35
707.899	34562.41
708.243	34434.5
708.588	34428.63
708.932	34182.99
709.277	34207.62
709.621	34231.35
709.966	33913.39
710.31	34003.56
710.654	33711.59
710.998	33777.57
711.342	33783.45
711.687	33635.43
712.031	33539.61
712.375	33357.47
712.719	33405.15
713.063	33364.25
713.407	33406.06
713.75	33289.9
714.094	33236.8
714.438	33144.37
714.782	33084.26
715.125	32938.72
715.469	33078.16
715.812	32825.51
716.156	32773.08
716.499	32820.54
716.843	32723.59
717.186	32676.81
717.53	32740.54
717.873	32735.11
718.216	32630.48
718.559	32379.42
718.902	32238.63
719.246	32309.81
719.589	32233.43
719.932	32160.21
720.275	32025.08
720.617	32162.25
720.96	32076.6
721.303	31833.22
721.646	31926.77
721.989	31733.78
722.331	31932.65
722.674	31776.04
723.016	31818.08
723.359	31580.34
723.701	31696.05
724.044	31414.7
724.386	31372.44
724.729	31471.19
725.071	31369.05
725.413	31373.34
725.755	31397.3
726.097	31230.29
726.439	31122.05
726.782	31065.55
727.124	31207.24
727.465	31160.01
727.807	31053.58
728.149	30973.35
728.491	30853.36
728.833	30936.29
729.175	30856.97
729.516	30839.57
729.858	30724.09
730.199	30642.06
730.541	30674.6
730.882	30488.39
731.224	30641.84
731.565	30500.14
731.906	30601.61
732.248	30485.23
732.589	30265.8
732.93	30205.69
733.271	30236.2
733.612	30281.62
733.953	30216.08
734.294	30177.67
734.635	30033.49
734.976	30116.2
735.317	29914.85
735.658	29812.7
735.999	29981.29
736.339	29933.38
736.68	30079.36
737.021	29833.04
737.361	29671.24
737.702	29941.06
738.042	29804.8
738.383	29659.94
738.723	29802.76
739.063	29633.05
739.404	29736.32
739.744	29565.48
740.084	29363.9
740.424	29491.58
740.764	29441.87
741.104	29486.16
741.444	29330.23
741.784	29216.11
742.124	29241.65
742.464	29282.32
742.804	29232.38
743.143	29118.03
743.483	29079.16
743.823	29035.1
744.162	28986.29
744.502	28934.76
744.841	28796.01
745.181	29050.92
745.52	28937.25
745.86	28899.06
746.199	28830.81
746.538	28754.88
746.877	28741.32
747.216	28845.27
747.556	28610.02
747.895	28746.97
748.234	28570.25
748.573	28579.74
748.911	28475.11
749.25	28368.22
749.589	28238.28
749.928	28240.54
750.267	28366.64
750.605	28223.59
750.944	28118.29
751.283	28077.61
751.621	28205.52
751.96	27904.05
752.298	28067.44
752.636	27951.74
752.975	27893.21
753.313	27808.01
753.651	27818.86
753.989	27685.3
754.327	27478.53
754.666	27437.85
755.004	27571.41
755.342	27584.51
755.679	27542.93
756.017	27333
756.355	27353.56
756.693	27168.48
