Data from hue_40_FLMS001491_83.txt Node
Date: Mon Feb 06 15:08:40 GMT 2017
User: dcchb
Spectrometer: FLMS00149
Trigger mode: 0
Integration Time (sec): 2.000000E-2
Scans to average: 10
Electric dark correction enabled: true
Nonlinearity correction enabled: false
Boxcar width: 0
XAxis mode: Wavelengths
Number of Pixels in Spectrum: 2048
>>>>>Begin Spectral Data<<<<<
341.393	-18.29
341.776	-18.29
342.16	-18.29
342.543	-40.21
342.927	-63.26
343.31	-43.6
343.693	-53.32
344.077	-69.59
344.46	-75.01
344.843	-46.54
345.226	-42.92
345.61	-35.92
345.993	-30.04
346.376	-3.6
346.759	14.7
347.142	24.87
347.525	49.96
347.908	58.77
348.291	64.65
348.674	88.37
349.057	99.22
349.44	131.54
349.823	151.87
350.206	180.35
350.588	178.99
350.971	209.5
351.354	221.7
351.737	249.05
352.119	263.51
352.502	246.34
352.884	287.69
353.267	285.66
353.65	286.11
354.032	328.37
354.414	332.43
354.797	315.49
355.179	319.55
355.562	331.98
355.944	338.76
356.326	321.59
356.709	360.68
357.091	326.79
357.473	343.28
357.855	352.1
358.238	358.65
358.62	326.56
359.002	347.58
359.384	349.16
359.766	358.65
360.148	348.48
360.53	350.51
360.912	315.71
361.294	322.49
361.676	320.46
362.057	334.47
362.439	318.65
362.821	344.19
363.203	338.08
363.584	327.92
363.966	354.36
364.348	332.89
364.729	353.23
365.111	336.05
365.493	336.05
365.874	312.77
366.256	331.3
366.637	318.88
367.019	333.56
367.4	313.23
367.781	328.59
368.163	324.07
368.544	315.94
368.925	314.58
369.306	347.12
369.688	314.36
370.069	311.64
370.45	339.67
370.831	321.14
371.212	315.26
371.593	305.99
371.974	325.66
372.355	304.86
372.736	322.49
373.117	315.03
373.498	316.62
373.879	333.56
374.26	334.24
374.641	321.59
375.021	312.32
375.402	343.06
375.783	325.88
376.163	337.41
376.544	348.03
376.925	322.72
377.305	343.96
377.686	342.6
378.066	322.04
378.447	364.52
378.827	327.46
379.208	324.07
379.588	354.36
379.968	358.65
380.349	345.32
380.729	329.05
381.109	332.43
381.489	344.19
381.87	342.6
382.25	339.67
382.63	355.94
383.01	359.78
383.39	352.55
383.77	326.56
384.15	347.35
384.53	349.61
384.91	356.61
385.29	336.73
385.67	352.77
386.049	371.98
386.429	368.14
386.809	371.3
387.189	353.68
387.568	369.04
387.948	364.52
388.328	373.34
388.707	352.55
389.087	361.59
389.466	377.41
389.846	376.28
390.225	354.81
390.605	380.57
390.984	370.17
391.363	374.24
391.743	370.4
392.122	366.11
392.501	373.11
392.881	387.12
393.26	388.03
393.639	378.54
394.018	385.99
394.397	366.56
394.776	392.09
395.155	381.47
395.534	394.35
395.913	385.09
396.292	387.8
396.671	378.99
397.05	387.12
397.429	410.62
397.808	377.86
398.186	382.6
398.565	416.27
398.944	426.67
399.323	397.07
399.701	414.47
400.08	428.25
400.458	400.46
400.837	406.11
401.215	402.26
401.594	400.68
401.972	378.31
402.351	418.76
402.729	408.36
403.107	414.01
403.486	414.01
403.864	423.73
404.242	426.44
404.62	417.18
404.999	417.63
405.377	431.87
405.755	415.6
406.133	418.76
406.511	426.22
406.889	460.34
407.267	446.1
407.645	446.56
408.023	432.09
408.401	440.91
408.779	470.74
409.156	445.43
409.534	459.89
409.912	437.29
410.29	467.57
410.667	468.02
411.045	457.4
411.422	480.91
411.8	468.02
412.178	488.59
412.555	468.02
412.933	468.7
413.31	483.39
413.687	482.26
414.065	484.75
414.442	490.62
414.819	490.62
415.197	490.4
415.574	500.57
415.951	508.48
416.328	496.95
416.705	502.83
417.082	516.84
417.46	508.25
417.837	512.99
418.214	508.93
418.591	507.12
418.967	529.72
419.344	529.04
419.721	528.14
420.098	547.34
420.475	561.36
420.852	520.9
421.228	571.98
421.605	529.04
421.982	573.33
422.358	570.17
422.735	572.65
423.111	562.03
423.488	563.39
423.864	546.44
424.241	592.31
424.617	568.81
424.994	561.81
425.37	572.43
425.746	563.62
426.123	570.62
426.499	593.67
426.875	580.56
427.251	591.19
427.627	605.87
428.003	577.4
428.379	625.08
428.756	627.12
429.132	628.7
429.507	637.06
429.883	640.22
430.259	623.27
430.635	634.12
431.011	638.42
431.387	641.35
431.763	639.55
432.138	662.14
432.514	666.21
432.89	679.32
433.265	677.96
433.641	672.09
434.016	676.83
434.392	685.42
434.767	702.37
435.143	696.27
435.518	714.8
435.894	709.15
436.269	716.38
436.644	697.4
437.02	749.37
437.395	737.85
437.77	753.21
438.145	739.43
438.52	734.01
438.895	766.77
439.271	776.94
439.646	751.63
440.021	757.96
440.395	783.95
440.77	774.68
441.145	776.04
441.52	795.47
441.895	806.77
442.27	792.99
442.645	805.64
443.019	815.81
443.394	813.1
443.769	792.76
444.143	823.5
444.518	851.74
444.892	835.47
445.267	833.44
445.641	848.58
446.016	834.12
446.39	822.59
446.764	861.23
447.139	841.57
447.513	848.81
447.887	852.87
448.262	876.6
448.636	891.06
449.01	874.12
449.384	917.96
449.758	892.87
450.132	913.44
450.506	913.66
450.88	913.21
451.254	922.02
451.628	930.39
452.002	934.45
452.376	931.06
452.75	947.11
453.123	965.19
453.497	970.84
453.871	979.88
454.244	988.01
454.618	978.07
454.992	995.69
455.365	1007.22
455.739	1042.25
456.112	1010.38
456.486	1038.4
456.859	1051.51
457.232	1069.36
457.606	1073.21
457.979	1071.17
458.352	1089.25
458.725	1120.21
459.099	1137.61
459.472	1106.88
459.845	1138.97
460.218	1144.39
460.591	1171.51
460.964	1172.41
461.337	1211.73
461.71	1233.43
462.083	1216.03
462.456	1231.85
462.829	1240.21
463.201	1262.81
463.574	1260.32
463.947	1280.43
464.32	1322.69
464.692	1312.07
465.065	1324.5
465.438	1368.34
465.81	1343.71
466.183	1371.5
466.555	1395.23
466.928	1429.13
467.3	1411.5
467.672	1442.69
468.045	1473.65
468.417	1503.25
468.789	1498.28
469.161	1536.24
469.534	1543.02
469.906	1590.03
470.278	1614.66
470.65	1606.98
471.022	1650.14
471.394	1713.19
471.766	1663.7
472.138	1735.56
472.51	1800.42
472.882	1831.6
473.253	1813.98
473.625	1843.58
473.997	1894.65
474.369	1905.95
474.74	2010.13
475.112	1993.63
475.484	2044.93
475.855	2100.75
476.227	2139.84
476.598	2176.23
476.97	2250.35
477.341	2264.59
477.713	2305.94
478.084	2338.03
478.455	2430.91
478.827	2488.76
479.198	2544.13
479.569	2599.72
479.94	2626.61
480.311	2758.36
480.682	2811.69
481.053	2898.24
481.424	2941.63
481.795	2976.89
482.166	3069.54
482.537	3140.95
482.908	3238.57
483.279	3257.78
483.65	3362.86
484.021	3470.88
484.391	3547.27
484.762	3604.67
485.133	3650.54
485.503	3769.41
485.874	3871.55
486.244	3929.85
486.615	4050.98
486.985	4153.8
487.356	4218.21
487.726	4316.06
488.097	4440.12
488.467	4501.59
488.837	4638.54
489.207	4733
489.578	4854.35
489.948	4935.7
490.318	5063.38
490.688	5139.77
491.058	5220.67
491.428	5360.1
491.798	5471.96
492.168	5556.48
492.538	5666.98
492.908	5789.24
493.278	5869.46
493.648	5930.93
494.017	6038.95
494.387	6191.04
494.757	6287.76
495.126	6367.08
495.496	6459.05
495.866	6558.71
496.235	6686.62
496.605	6764.58
496.974	6897.23
497.344	6925.03
497.713	6999.38
498.082	7160.28
498.452	7292.93
498.821	7319.37
499.19	7406.6
499.559	7549.42
499.928	7536.09
500.298	7675.29
500.667	7746.7
501.036	7795.06
501.405	8000.93
501.774	8028.28
502.143	8135.17
502.512	8171.32
502.88	8293.36
503.249	8313.47
503.618	8434.14
503.987	8529.28
504.356	8610.86
504.724	8657.87
505.093	8765.43
505.462	8719.56
505.83	8937.86
506.199	9004.52
506.567	9156.84
506.936	9138.3
507.304	9267.57
507.672	9308.92
508.041	9374.46
508.409	9431.4
508.777	9533.1
509.145	9662.13
509.514	9665.97
509.882	9811.73
510.25	9835.91
510.618	9909.36
510.986	9960.2
511.354	10033.42
511.722	10153.19
512.09	10297.6
512.458	10193.19
512.826	10442.68
513.193	10474.99
513.561	10513.86
513.929	10620.98
514.297	10722.9
514.664	10701.88
515.032	10801.76
515.4	10920.4
515.767	10968.99
516.135	11000.18
516.502	11066.62
516.869	11166.27
517.237	11205.82
517.604	11204.69
517.972	11427.74
518.339	11452.59
518.706	11477.9
519.073	11542.08
519.44	11571.69
519.808	11684.45
520.175	11761.29
520.542	11895.07
520.909	11883.32
521.276	12004.9
521.643	12171.22
522.009	12154.95
522.376	12305
522.743	12393.81
523.11	12438.11
523.477	12487.37
523.843	12686.69
524.21	12744.54
524.577	12786.8
524.943	12907.02
525.31	12978.2
525.676	12991.99
526.043	13023.63
526.409	13146.34
526.776	13316.5
527.142	13271.98
527.508	13374.35
527.874	13496.61
528.241	13610.96
528.607	13625.64
528.973	13768.24
529.339	13788.13
529.705	13839.65
530.071	13990.15
530.437	14020.89
530.803	14122.81
531.169	14236.25
531.535	14238.06
531.901	14345.85
532.267	14417.71
532.632	14513.3
532.998	14544.94
533.364	14656.35
533.73	14626.07
534.095	14814.54
534.461	14777.03
534.826	14906.29
535.192	14958.49
535.557	15055.21
535.923	15014.99
536.288	15118.71
536.653	15151.71
537.019	15180.63
537.384	15241.2
537.749	15424.47
538.114	15484.8
538.479	15432.83
538.845	15559.15
539.21	15469.21
539.575	15569.55
539.94	15748.07
540.305	15784.23
540.67	15775.42
541.034	15805.02
541.399	15920.95
541.764	15862.87
542.129	16032.36
542.494	16071.46
542.858	16207.5
543.223	16200.04
543.587	16336.99
543.952	16376.31
544.316	16471.67
544.681	16327.95
545.045	16492.46
545.41	16670.76
545.774	16569.75
546.138	16648.62
546.503	16665.34
546.867	16698.33
547.231	16979.68
547.595	16916.86
547.959	16996.63
548.324	16961.83
548.688	17008.15
549.052	17137.64
549.416	17089.06
549.779	17183.97
550.143	17209.51
550.507	17317.98
550.871	17428.93
551.235	17412.44
551.599	17569.95
551.962	17595.71
552.326	17534.47
552.689	17795.25
553.053	17784.86
553.417	17754.35
553.78	18018.07
554.143	17796.38
554.507	17990.5
554.87	18021.01
555.234	18335.13
555.597	18083.38
555.96	18167.22
556.323	18278.18
556.686	18301
557.05	18479.53
557.413	18574.22
557.776	18530.15
558.139	18586.19
558.502	18718.39
558.865	18727.66
559.228	18941.89
559.59	18969.68
559.953	18950.93
560.316	19201.32
560.679	19174.43
561.041	19263.91
561.404	19260.75
561.767	19432.72
562.129	19407.64
562.492	19615.09
562.854	19634.98
563.217	19550.69
563.579	19718.59
563.941	19801.75
564.304	19875.2
564.666	20072.03
565.028	19993.61
565.39	20105.25
565.753	20200.16
566.115	20336.65
566.477	20359.7
566.839	20391.79
567.201	20501.62
567.563	20484.9
567.925	20743.42
568.287	20751.56
568.648	20865
569.01	20914.04
569.372	20902.74
569.734	20938.9
570.095	21083.3
570.457	21255.05
570.819	21232.22
571.18	21337.98
571.542	21424.99
571.903	21503.63
572.265	21623.85
572.626	21635.15
572.987	21726.67
573.349	21871.08
573.71	21930.51
574.071	22014.35
574.432	22067.23
574.794	22216.38
575.155	22275.59
575.516	22272.87
575.877	22477.16
576.238	22568.01
576.599	22756.48
576.96	22740.43
577.32	22897.72
577.681	22986.75
578.042	23169.35
578.403	23225.39
578.763	23341.32
579.124	23365.5
579.485	23527.53
579.845	23748.77
580.206	23872.61
580.566	23963.68
580.927	24184.01
581.287	24300.84
581.648	24304.69
582.008	24570.44
582.368	24652.93
582.728	24856.99
583.089	25008.62
583.449	25141.5
583.809	25315.05
584.169	25408.61
584.529	25499.46
584.889	25935.83
585.249	25875.27
585.609	26057.86
585.969	26326.55
586.329	26457.62
586.688	26564.51
587.048	26745.07
587.408	26885.86
587.768	27000.21
588.127	27255.34
588.487	27385.51
588.846	27804.93
589.206	27733.75
589.565	28013.97
589.925	28224.36
590.284	28378.48
590.643	28496.89
591.003	28722.65
591.362	28928.52
591.721	29106.37
592.08	29161.28
592.44	29522.4
592.799	29769.85
593.158	29771.66
593.517	30069.05
593.876	30139.56
594.235	30127.36
594.593	30500.46
594.952	30659.09
595.311	30775.93
595.67	30930.27
596.029	31327.1
596.387	31540.2
596.746	31627.43
597.104	31687.54
597.463	31884.6
597.822	32123.92
598.18	32184.7
598.538	32320.29
598.897	32565.71
599.255	32611.59
599.613	33093.61
599.972	33033.5
600.33	33120.5
600.688	33218.58
601.046	33427.16
601.404	33713.25
601.762	33768.17
602.12	34093.13
602.478	33988.5
602.836	34317.53
603.194	34083.19
603.552	34352.56
603.91	34451.99
604.268	34708.25
604.625	34645.2
604.983	35051.52
605.341	34929.27
605.698	35174.46
606.056	35465.75
606.413	35452.64
606.771	35615.57
607.128	35787.77
607.485	35642.47
607.843	35910.93
608.2	36121.55
608.557	36267.31
608.914	36280.19
609.272	36552.95
609.629	36681.08
609.986	36826.39
610.343	36763.34
610.7	36895.09
611.057	36992.94
611.414	37117
611.771	37126.95
612.127	37359.48
612.484	37399.93
612.841	37559.48
613.198	37634.28
613.554	37711.11
613.911	37898.9
614.267	37935.74
614.624	37881.96
614.98	38024.55
615.337	38262.96
615.693	38208.95
616.05	38446.23
616.406	38514.03
616.762	38488.95
617.118	38637.87
617.475	38567.81
617.831	38750.86
618.187	38822.72
618.543	38909.95
618.899	39170.28
619.255	39135.93
619.611	39203.05
619.967	39285.76
620.323	39464.29
620.678	39291.64
621.034	39285.31
621.39	39376.83
621.746	39436.27
622.101	39852.98
622.457	39589.93
622.812	39649.59
623.168	39766.2
623.523	39694.56
623.879	39752.64
624.234	39536.83
624.589	39892.52
624.945	39959.19
625.3	40027.44
625.655	39983.37
626.01	40018.4
626.365	40155.34
626.72	40039.64
627.075	40003.93
627.43	40116.25
627.785	40025.85
628.14	40179.52
628.495	40116.93
628.85	40087.1
629.205	40018.17
629.559	40293.64
629.914	40152.18
630.269	40098.17
630.623	40032.41
630.978	40115.12
631.332	40279.41
631.687	40389.01
632.041	40170.94
632.396	40292.74
632.75	40032.86
633.104	40060.66
633.459	40130.94
633.813	40135.91
634.167	40055.91
634.521	40032.18
634.875	40054.1
635.229	39998.28
635.583	39794.45
635.937	39936.37
636.291	39828.8
636.645	39923.26
636.999	39872.41
637.352	39898.63
637.706	39684.85
638.06	39818.18
638.413	39766.65
638.767	39702.02
639.121	39768.91
639.474	39626.09
639.828	39636.26
640.181	39742.47
640.534	39689.82
640.888	39646.43
641.241	39490.5
641.594	39579.99
641.947	39733.43
642.301	39644.4
642.654	39647.33
643.007	39612.31
643.36	39472.42
643.713	39358.75
644.066	39647.33
644.419	39299.32
644.771	39202.83
645.124	38740.01
645.477	38791.99
645.83	38442.85
646.182	38304.54
646.535	38177.99
646.888	38305
647.24	38158.56
647.593	38278.1
647.945	38134.83
648.298	38052.35
648.65	38024.55
649.002	37875.4
649.355	38016.19
649.707	37879.02
650.059	38116.75
650.411	38526.01
650.763	38556.29
651.115	39045.09
651.467	38782.95
651.819	38916.73
652.171	38841.03
652.523	38702.27
652.875	38727.81
653.227	38561.94
653.578	38806.9
653.93	38647.36
654.282	38472.45
654.633	38437.87
654.985	38495.73
655.337	38593.12
655.688	38604.87
656.039	38588.83
656.391	38254.83
656.742	38352.45
657.094	38393.58
657.445	38659.79
657.796	38344.32
658.147	38309.52
658.498	38398.33
658.849	38455.5
659.2	38447.59
659.551	38354.94
659.902	38373.02
660.253	38397.87
660.604	38541.37
660.955	38256.41
661.306	38284.88
661.656	38284.66
662.007	38272.91
662.358	38266.35
662.708	38325.56
663.059	38243.08
663.409	38043.53
663.76	38357.42
664.11	38180.48
664.461	38226.58
664.811	38326.69
665.161	38136.86
665.511	38094.83
665.862	38152.68
666.212	38229.29
666.562	38250.31
666.912	38171.44
667.262	38173.47
667.612	38227.48
667.962	38094.38
668.312	38128.05
668.662	38255.28
669.011	37989.07
669.361	38060.03
669.711	38034.04
670.06	37970.09
670.41	37962.63
670.76	37868.4
671.109	38024.78
671.459	38011.9
671.808	37982.52
672.157	37924.44
672.507	37789.3
672.856	37850.54
673.205	37891.67
673.554	37918.11
673.904	37821.62
674.253	37943.88
674.602	37853.26
674.951	37293.72
675.3	37114.74
675.649	37723.09
675.998	37619.14
676.346	37671.11
676.695	37719.7
677.044	37545.02
677.393	37841.05
677.741	37669.08
678.09	37573.49
678.438	37531
678.787	37507.73
679.135	37512.7
679.484	37382.76
679.832	37386.6
680.181	37305.02
680.529	37285.36
680.877	37190.22
681.225	37188.19
681.573	37370.78
681.922	37065.93
682.27	37126.04
682.618	36917.46
682.966	36862.1
683.314	36949.1
683.661	36777.35
684.009	36714.53
684.357	36549.34
684.705	36583.01
685.053	36645.38
685.4	36523.35
685.748	36441.54
686.095	36492.61
686.443	36309.57
686.79	36247.42
687.138	36409.45
687.485	36311.83
687.832	36143.47
688.18	36167.42
688.527	35919.3
688.874	35929.24
689.221	36049.69
689.568	35844.95
689.915	35781.45
690.262	35703.93
690.609	35562.02
690.956	35613.32
691.303	35371.29
691.65	35544.62
691.997	35334.45
692.344	35202.25
692.69	35148.47
693.037	35128.81
693.383	34851.08
693.73	35009.26
694.077	34786.9
694.423	34847.69
694.769	34790.06
695.116	34495.38
695.462	34610.18
695.808	34416.96
696.155	34460.35
696.501	34254.03
696.847	34162.51
697.193	34012.45
697.539	34051.55
697.885	33766.81
698.231	33748.73
698.577	33775.4
698.923	33677.32
699.269	33548.74
699.614	33430.1
699.96	33254.73
700.306	33381.06
700.651	33114.62
700.997	33143.1
701.342	33121.4
701.688	32983.78
702.033	32907.85
702.379	32906.27
702.724	32793.28
703.069	32907.85
703.415	32522.77
703.76	32459.05
704.105	32552.83
704.45	32401.42
704.795	32159.62
705.14	32241.43
705.485	32132.73
705.83	32022.45
706.175	31953.52
706.52	31997.36
706.865	31722.8
707.209	31782.23
707.554	31683.7
707.899	31766.86
708.243	31450.49
708.588	31513.76
708.932	31335.01
709.277	31275.8
709.621	31264.05
709.966	31192.87
710.31	31113.55
710.654	30902.25
710.998	30939.99
711.342	30869.94
711.687	30944.51
712.031	30689.6
712.375	30531.87
712.719	30621.13
713.063	30509.27
713.407	30701.35
713.75	30382.04
714.094	30460.91
714.438	30381.59
714.782	30358.09
715.125	30177.3
715.469	30273.79
715.812	30057.53
716.156	29916.52
716.499	29985.44
716.843	29942.5
717.186	29699.8
717.53	29943.86
717.873	29942.73
718.216	29815.05
718.559	29622.51
718.902	29354.72
719.246	29501.84
719.589	29455.06
719.932	29395.85
720.275	29293.03
720.617	29281.5
720.96	29230.43
721.303	29263.43
721.646	29254.84
721.989	29078.35
722.331	29069.08
722.674	29045.35
723.016	29048.06
723.359	28950.67
723.701	28971.91
724.044	28807.84
724.386	28705.93
724.729	28783.66
725.071	28649.2
725.413	28689.2
725.755	28607.62
726.097	28397.91
726.439	28426.39
726.782	28467.97
727.124	28521.52
727.465	28313.85
727.807	28399.27
728.149	28335.09
728.491	28270.01
728.833	28210.57
729.175	28222.1
729.516	28080.86
729.858	28112.72
730.199	28099.39
730.541	27959.05
730.882	27981.2
731.224	28109.78
731.565	27985.04
731.906	27901.88
732.248	27868.89
732.589	27804.03
732.93	27719.06
733.271	27660.98
733.612	27714.09
733.953	27715.22
734.294	27553.64
734.635	27525.84
734.976	27490.82
735.317	27423.93
735.658	27445.85
735.999	27357.03
736.339	27344.15
736.68	27296.92
737.021	27272.29
737.361	27140.77
737.702	27193.2
738.042	27036.37
738.383	27219.19
738.723	27036.14
739.063	27011.06
739.404	27049.92
739.744	26935.8
740.084	26820.78
740.424	26828.91
740.764	26797.5
741.104	26817.39
741.444	26724.06
741.784	26538.75
742.124	26694.23
742.464	26565.87
742.804	26554.34
743.143	26481.13
743.483	26476.15
743.823	26415.82
744.162	26393.22
744.502	26428.02
744.841	26235.26
745.181	26420.34
745.52	26246.56
745.86	26240.45
746.199	26217.86
746.538	26212.66
746.877	26292.43
747.216	26279.1
747.556	25999.78
747.895	26096.96
748.234	26040.01
748.573	25942.16
748.911	25864.19
749.25	25863.51
749.589	25790.75
749.928	25840.69
750.267	25775.83
750.605	25685.89
750.944	25557.08
751.283	25675.95
751.621	25476.18
751.96	25487.93
752.298	25512.79
752.636	25584.88
752.975	25443.19
753.313	25188.28
753.651	25325
753.989	25106.7
754.327	25249.52
754.666	25062.18
755.004	25019.92
755.342	24940.15
755.679	24998.68
756.017	24792.81
756.355	24887.5
756.693	24754.39
757.031	24808.85
