Data from hue_160_FLMS001491_00093.txt Node
Date: Tue Feb 07 16:51:57 GMT 2017
User: dcchb
Spectrometer: FLMS00149
Trigger mode: 0
Integration Time (sec): 2.000000E-2
Scans to average: 10
Electric dark correction enabled: true
Nonlinearity correction enabled: false
Boxcar width: 0
XAxis mode: Wavelengths
Number of Pixels in Spectrum: 2048
>>>>>Begin Spectral Data<<<<<
341.393	-14.77
341.776	-14.77
342.16	-14.77
342.543	-66.3
342.927	-63.81
343.31	-70.37
343.693	-72.17
344.077	-62.68
344.46	-64.04
344.843	-70.59
345.226	-25.85
345.61	-41.21
345.993	-16.81
346.376	-7.54
346.759	8.95
347.142	18.22
347.525	40.82
347.908	62.29
348.291	89.18
348.674	121.27
349.057	90.53
349.44	131.44
349.823	133.02
350.206	172.11
350.588	183.19
350.971	208.05
351.354	217.08
351.737	262.28
352.119	251.89
352.502	282.85
352.884	243.75
353.267	282.39
353.65	290.08
354.032	294.6
354.414	286.69
354.797	318.1
355.179	311.09
355.562	319
355.944	303.41
356.326	338.66
356.709	330.98
357.091	358.55
357.473	348.38
357.855	338.89
358.238	321.04
358.62	332.11
359.002	325.33
359.384	336.86
359.766	336.18
360.148	333.69
360.53	353.58
360.912	350.19
361.294	339.57
361.676	353.35
362.057	332.34
362.439	323.52
362.821	321.71
363.203	307.03
363.584	317.65
363.966	323.52
364.348	298.66
364.729	312
365.111	327.14
365.493	343.18
365.874	324.88
366.256	332.56
366.637	321.49
367.019	326.01
367.4	312
367.781	337.31
368.163	335.5
368.544	323.07
368.925	303.86
369.306	310.19
369.688	302.96
370.069	323.52
370.45	297.76
370.831	307.25
371.212	306.57
371.593	301.15
371.974	316.97
372.355	328.27
372.736	319
373.117	301.38
373.498	325.1
373.879	306.35
374.26	296.86
374.641	310.19
375.021	328.27
375.402	339.79
375.783	304.99
376.163	313.35
376.544	324.65
376.925	324.43
377.305	307.93
377.686	314.71
378.066	313.13
378.447	324.88
378.827	312.22
379.208	336.63
379.588	311.77
379.968	333.47
380.349	315.39
380.729	330.08
381.109	334.37
381.489	313.58
381.87	320.13
382.25	318.32
382.63	332.34
383.01	336.86
383.39	351.09
383.77	335.5
384.15	341.15
384.53	341.38
384.91	354.71
385.29	346.8
385.67	324.65
386.049	357.65
386.429	335.95
386.809	341.15
387.189	319.45
387.568	340.47
387.948	353.58
388.328	362.17
388.707	340.92
389.087	324.88
389.466	355.39
389.846	373.01
390.225	369.85
390.605	354.26
390.984	330.3
391.363	374.82
391.743	362.84
392.122	363.97
392.501	371.88
392.881	358.32
393.26	364.2
393.639	351.09
394.018	374.82
394.397	370.08
394.776	370.75
395.155	385.44
395.534	378.66
395.913	380.7
396.292	383.63
396.671	361.94
397.05	381.6
397.429	392.22
397.808	375.27
398.186	359.45
398.565	388.61
398.944	369.17
399.323	405.33
399.701	393.8
400.08	401.03
400.458	396.74
400.837	394.93
401.215	385.67
401.594	380.92
401.972	412.79
402.351	415.72
402.729	391.54
403.107	405.78
403.486	428.83
403.864	395.61
404.242	416.4
404.62	415.5
404.999	425.89
405.377	414.14
405.755	447.59
406.133	433.35
406.511	434.03
406.889	420.47
407.267	439.23
407.645	431.54
408.023	464.08
408.401	427.93
408.779	446.23
409.156	427.02
409.534	439
409.912	465.21
410.29	460.92
410.667	450.98
411.045	444.2
411.422	453.24
411.8	481.94
412.178	474.25
412.555	466.8
412.933	467.25
413.31	487.36
413.687	479.68
414.065	477.42
414.442	468.6
414.819	495.04
415.197	478.77
415.574	496.85
415.951	493.91
416.328	506.57
416.705	487.36
417.082	497.08
417.46	513.12
417.837	515.61
418.214	511.77
418.591	528.49
418.967	535.04
419.344	527.81
419.721	529.84
420.098	511.09
420.475	526.46
420.852	529.84
421.228	545.44
421.605	554.25
421.982	558.54
422.358	543.63
422.735	558.54
423.111	560.13
423.488	561.93
423.864	557.19
424.241	574.36
424.617	579.79
424.994	566
425.37	575.04
425.746	599.67
426.123	575.72
426.499	570.75
426.875	589.05
427.251	600.8
427.627	626.79
428.003	631.09
428.379	597.19
428.756	603.06
429.132	627.02
429.507	633.8
429.883	622.27
430.259	624.98
430.635	661.37
431.011	653.91
431.387	648.49
431.763	684.19
432.138	672.67
432.514	691.42
432.89	698.2
433.265	720.35
433.641	692.33
434.016	705.21
434.392	698.2
434.767	722.61
435.143	734.36
435.518	739.33
435.894	733.23
436.269	747.24
436.644	765.32
437.02	757.41
437.395	760.8
437.77	782.49
438.145	783.62
438.52	770.97
438.895	801.48
439.271	781.14
439.646	808.26
440.021	816.62
440.395	834.24
440.77	817.29
441.145	830.85
441.52	852.32
441.895	849.38
442.27	867.69
442.645	875.15
443.019	879.21
443.394	845.99
443.769	881.93
444.143	876.73
444.518	874.92
444.892	882.6
445.267	874.02
445.641	901.81
446.016	916.73
446.39	884.19
446.764	926.44
447.139	910.85
447.513	940.91
447.887	941.36
448.262	932.32
448.636	923.73
449.01	961.47
449.384	968.48
449.758	954.69
450.132	965.99
450.506	996.95
450.88	983.39
451.254	986.33
451.628	1007.57
452.002	1009.38
452.376	1001.02
452.75	1065.88
453.123	1053.9
453.497	1048.7
453.871	1064.29
454.244	1078.76
454.618	1067.01
454.992	1099.1
455.365	1131.41
455.739	1141.13
456.112	1124.63
456.486	1131.18
456.859	1187
457.232	1161.01
457.606	1153.56
457.979	1207.57
458.352	1212.31
458.725	1238.98
459.099	1239.2
459.472	1251.63
459.845	1261.8
460.218	1274.46
460.591	1301.58
460.964	1304.51
461.337	1343.16
461.71	1363.95
462.083	1382.48
462.456	1359.65
462.829	1369.37
463.201	1421.12
463.574	1395.58
463.947	1456.83
464.32	1477.39
464.692	1481.01
465.065	1497.73
465.438	1559.2
465.81	1562.81
466.183	1569.14
466.555	1620.21
466.928	1605.97
467.3	1625.41
467.672	1638.97
468.045	1677.61
468.417	1713.99
468.789	1733.2
469.161	1751.28
469.534	1814.33
469.906	1842.35
470.278	1847.1
470.65	1906.31
471.022	1902.46
471.394	1963.25
471.766	1995.34
472.138	2052.74
472.51	2064.95
472.882	2123.93
473.253	2163.47
473.625	2214.32
473.997	2264.49
474.369	2286.63
474.74	2339.06
475.112	2409.34
475.484	2438.27
475.855	2505.16
476.227	2543.58
476.598	2614.31
476.97	2665.61
477.341	2739.5
477.713	2782.44
478.084	2813.85
478.455	2968.65
478.827	2999.61
479.198	3131.81
479.569	3125.93
479.94	3222.2
480.311	3341.3
480.682	3447.73
481.053	3579.03
481.424	3614.06
481.795	3684.34
482.166	3762.3
482.537	3852.02
482.908	3955.74
483.279	4062.18
483.65	4176.08
484.021	4282.29
484.391	4395.96
484.762	4518.67
485.133	4586.69
485.503	4690.41
485.874	4837.08
486.244	4924.31
486.615	5034.13
486.985	5141.02
487.356	5341.7
487.726	5391.19
488.097	5552.31
488.467	5638.64
488.837	5782.59
489.207	5931.51
489.578	6050.83
489.948	6207.21
490.318	6338.28
490.688	6362.69
491.058	6531.72
491.428	6673.64
491.798	6815.78
492.168	7004.02
492.538	7076.79
492.908	7161.08
493.278	7347.97
493.648	7377.8
494.017	7562.2
494.387	7629.77
494.757	7786.38
495.126	7984.79
495.496	8011.46
495.866	8088.06
496.235	8262.97
496.605	8389.07
496.974	8505.68
497.344	8579.35
497.713	8713.13
498.082	8788.84
498.452	8969.85
498.821	9009.17
499.19	9073.8
499.559	9202.16
499.928	9305.89
500.298	9400.57
500.667	9555.14
501.036	9533
501.405	9658.19
501.774	9674.92
502.143	9821.13
502.512	9812.99
502.88	9979.54
503.249	10003.04
503.618	10063.83
503.987	10159.65
504.356	10222.02
504.724	10349.93
505.093	10373.65
505.462	10432.41
505.83	10524.61
506.199	10601.22
506.567	10675.57
506.936	10758.28
507.304	10839.86
507.672	10898.39
508.041	10962.79
508.409	11033.98
508.777	11115.78
509.145	11150.81
509.514	11137.48
509.882	11235.1
510.25	11313.52
510.618	11280.52
510.986	11346.28
511.354	11431.03
511.722	11518.48
512.09	11558.93
512.458	11586.05
512.826	11731.36
513.193	11742.88
513.561	11743.79
513.929	11797.57
514.297	11799.83
514.664	11922.54
515.032	11977.23
515.4	11964.12
515.767	12045.47
516.135	12024.01
516.502	12014.06
516.869	12142.19
517.237	12172.93
517.604	12118.24
517.972	12170.22
518.339	12280.95
518.706	12194.4
519.073	12265.13
519.44	12323.88
519.808	12373.83
520.175	12342.19
520.542	12482.07
520.909	12461.28
521.276	12428.29
521.643	12499.7
522.009	12623.76
522.376	12600.04
522.743	12622.86
523.11	12683.42
523.477	12703.76
523.843	12742.41
524.21	12834.83
524.577	12877.32
524.943	12788.51
525.31	12934.26
525.676	12933.81
526.043	12976.52
526.409	12951.21
526.776	13040.48
527.142	12920.48
527.508	13111.66
527.874	13130.19
528.241	13141.72
528.607	13077.31
528.973	13101.49
529.339	13062.62
529.705	13153.24
530.071	13192.79
530.437	13212
530.803	13218.1
531.169	13249.06
531.535	13146.69
531.901	13179.23
532.267	13056.52
532.632	13136.97
532.998	13114.82
533.364	13132
533.73	13089.97
534.095	13137.87
534.461	13200.92
534.826	13112.11
535.192	13076.86
535.557	13122.06
535.923	13017.43
536.288	12959.57
536.653	13041.15
537.019	12991.66
537.384	12927.26
537.749	12905.56
538.114	12916.86
538.479	12882.74
538.845	12873.7
539.21	12813.59
539.575	12814.49
539.94	12718.9
540.305	12841.39
540.67	12752.57
541.034	12795.06
541.399	12728.39
541.764	12681.39
542.129	12596.87
542.494	12625.57
542.858	12581.05
543.223	12451.79
543.587	12542.86
543.952	12520.26
544.316	12484.56
544.681	12445.01
545.045	12435.97
545.41	12375.18
545.774	12457.67
546.138	12339.03
546.503	12373.83
546.867	12280.27
547.231	12287.95
547.595	12210.89
547.959	12253.6
548.324	12145.58
548.688	12148.07
549.052	12150.56
549.416	12127.28
549.779	12085.93
550.143	11998.24
550.507	12037.56
550.871	12021.52
551.235	11931.13
551.599	11989.43
551.962	11940.84
552.326	11895.2
552.689	11986.04
553.053	11798.93
553.417	11822.2
553.78	11976.78
554.143	11730.68
554.507	11748.08
554.87	11774.07
555.234	11874.18
555.597	11732.49
555.96	11703.34
556.323	11746.73
556.686	11673.51
557.05	11708.31
557.413	11696.78
557.776	11701.3
558.139	11718.7
558.502	11669.21
558.865	11646.61
559.228	11693.62
559.59	11714.41
559.953	11613.17
560.316	11719.38
560.679	11669.21
561.041	11718.25
561.404	11687.29
561.767	11684.13
562.129	11698.36
562.492	11696.56
562.854	11709.89
563.217	11699.49
563.579	11716.22
563.941	11743.34
564.304	11820.4
564.666	11801.19
565.028	11699.72
565.39	11817.46
565.753	11838.25
566.115	11820.4
566.477	11790.11
566.839	11814.07
567.201	11903.33
567.563	11845.71
567.925	11926.61
568.287	11812.71
568.648	11904.91
569.01	11857.23
569.372	11939.71
569.734	11876.89
570.095	11873.73
570.457	11906.95
570.819	11945.14
571.18	11992.82
571.542	11889.32
571.903	11984.91
572.265	12034.85
572.626	12002.54
572.987	11956.66
573.349	12025.81
573.71	12029.66
574.071	11992.14
574.432	12058.36
574.794	12146.94
575.155	12067.39
575.516	12035.08
575.877	12068.52
576.238	12122.08
576.599	12116.43
576.96	12140.16
577.32	12101.52
577.681	12125.92
578.042	12143.78
578.403	12158.24
578.763	12101.52
579.124	12132.93
579.485	12154.4
579.845	12186.49
580.206	12153.04
580.566	12162.76
580.927	12167.73
581.287	12209.99
581.648	12153.95
582.008	12165.92
582.368	12112.82
582.728	12130.22
583.089	12168.63
583.449	12171.35
583.809	12124.34
584.169	12103.78
584.529	12090.22
584.889	12110.33
585.249	12076.89
585.609	12002.54
585.969	12192.81
586.329	12041.18
586.688	12064.91
587.048	12043.67
587.408	12001.86
587.768	12081.18
588.127	12020.84
588.487	11950.79
588.846	11944.01
589.206	12022.42
589.565	11952.14
589.925	12075.76
590.284	11876.89
590.643	11972.03
591.003	12050.9
591.362	12043.44
591.721	11951.47
592.08	11993.27
592.44	12037.11
592.799	11962.31
593.158	11953.05
593.517	11928.87
593.876	11855.87
594.235	11860.62
594.593	11845.25
594.952	11954.18
595.311	11933.39
595.67	11868.3
596.029	11909.21
596.387	11979.04
596.746	11948.53
597.104	11880.28
597.463	11875.99
597.822	11922.31
598.18	11862.43
598.538	11780.17
598.897	11955.99
599.255	11806.16
599.613	11941.75
599.972	11847.74
600.33	11810
600.688	11889.09
601.046	11847.06
601.404	11835.54
601.762	11859.49
602.12	11912.37
602.478	11872.82
602.836	11797.57
603.194	11781.53
603.552	11834.41
603.91	11879.38
604.268	11872.37
604.625	11803.45
604.983	11863.78
605.341	11860.17
605.698	11926.16
606.056	11920.05
606.413	11871.02
606.771	11938.58
607.128	11894.74
607.485	11860.39
607.843	11912.82
608.2	11946.27
608.557	11971.58
608.914	11915.53
609.272	11967.96
609.629	11975.19
609.986	12034.4
610.343	11983.33
610.7	12145.36
611.057	11995.53
611.414	12038.24
611.771	11979.94
612.127	12036.89
612.484	12062.42
612.841	12094.96
613.198	12052.25
613.554	12043.89
613.911	12083.67
614.267	11976.78
614.624	12079.15
614.98	12035.53
615.337	12143.32
615.693	12177.9
616.05	12057.23
616.406	12114.62
616.762	12106.04
617.118	12089.31
617.475	12095.64
617.831	12217.67
618.187	12226.71
618.543	12234.62
618.899	12258.35
619.255	12252.25
619.611	12207.73
619.967	12244.57
620.323	12309.2
620.678	12274.39
621.034	12208.18
621.39	12136.77
621.746	12173.38
622.101	12356.88
622.457	12224.45
622.812	12219.71
623.168	12178.13
623.523	12288.41
623.879	12292.7
624.234	12143.32
624.589	12264.23
624.945	12227.16
625.3	12236.66
625.655	12225.36
626.01	12247.5
626.365	12217.9
626.72	12261.51
627.075	12274.85
627.43	12243.66
627.785	12077.79
628.14	12201.85
628.495	12242.76
628.85	12263.55
629.205	12094.51
629.559	12225.13
629.914	12130.44
630.269	12203.66
630.623	12035.31
630.978	12105.81
631.332	12164.12
631.687	12166.38
632.041	12071.24
632.396	12129.77
632.75	12087.96
633.104	12103.55
633.459	11986.27
633.813	11993.5
634.167	11971.58
634.521	12005.7
634.875	11960.73
635.229	12036.89
635.583	11930.45
635.937	11944.91
636.291	11948.3
636.645	11940.17
636.999	11790.34
637.352	11908.98
637.706	11841.41
638.06	11925.03
638.413	11847.06
638.767	11820.17
639.121	11831.92
639.474	11815.42
639.828	11749.66
640.181	11838.47
640.534	11803.45
640.888	11787.18
641.241	11762.77
641.594	11685.26
641.947	11707.4
642.301	11774.29
642.654	11690.91
643.007	11730.23
643.36	11650.68
643.713	11633.28
644.066	11743.56
644.419	11669.66
644.771	11631.02
645.124	11469.22
645.477	11436.45
645.83	11372.95
646.182	11301.99
646.535	11286.62
646.888	11367.07
647.24	11258.15
647.593	11316
647.945	11323.46
648.298	11280.52
648.65	11234.2
649.002	11239.39
649.355	11297.25
649.707	11269.68
650.059	11382.21
650.411	11457.69
650.763	11448.65
651.115	11541.31
651.467	11553.96
651.819	11558.03
652.171	11495.43
652.523	11480.97
652.875	11499.5
653.227	11461.53
653.578	11567.29
653.93	11541.53
654.282	11404.81
654.633	11558.26
654.985	11522.55
655.337	11509.9
655.688	11504.7
656.039	11528.2
656.391	11446.17
656.742	11501.76
657.094	11476.9
657.445	11563
657.796	11508.99
658.147	11569.1
658.498	11545.6
658.849	11628.76
659.2	11572.72
659.551	11540.63
659.902	11565.71
660.253	11572.94
660.604	11560.74
660.955	11586.73
661.306	11529.78
661.656	11560.06
662.007	11550.35
662.358	11574.53
662.708	11481.87
663.059	11558.03
663.409	11512.38
663.76	11610.01
664.11	11539.27
664.461	11547.63
664.811	11528.65
665.161	11571.59
665.511	11518.48
665.862	11578.59
666.212	11642.55
666.562	11594.41
666.912	11585.83
667.262	11524.36
667.612	11544.02
667.962	11618.59
668.312	11552.15
668.662	11553.06
669.011	11532.72
669.361	11523.68
669.711	11556.22
670.06	11540.18
670.41	11462.89
670.76	11592.15
671.109	11558.93
671.459	11520.97
671.808	11417.92
672.157	11509.44
672.507	11457.47
672.856	11449.11
673.205	11540.85
673.554	11553.06
673.904	11454.76
674.253	11593.06
674.602	11476
674.951	11280.97
675.3	11315.78
675.649	11391.71
675.998	11416.11
676.346	11379.28
676.695	11432.61
677.044	11386.96
677.393	11345.38
677.741	11333.4
678.09	11364.59
678.438	11322.56
678.787	11324.36
679.135	11327.98
679.484	11228.09
679.832	11262.44
680.181	11196.91
680.529	11224.25
680.877	11224.48
681.225	11224.03
681.573	11218.6
681.922	11148.55
682.27	11156.23
682.618	11169.79
682.966	11072.17
683.314	11180.19
683.661	11050.7
684.009	11018.83
684.357	11014.77
684.705	11016.57
685.053	11009.12
685.4	10984.94
685.748	10872.85
686.095	10902.68
686.443	10822.46
686.79	10864.94
687.138	10950.36
687.485	10900.65
687.832	10920.08
688.18	10860.19
688.527	10688.67
688.874	10719.86
689.221	10732.74
689.568	10672.4
689.915	10677.37
690.262	10608.22
690.609	10598.28
690.956	10488
691.303	10488.23
691.65	10471.73
691.997	10407.55
692.344	10359.87
692.69	10354.45
693.037	10366.87
693.383	10230.83
693.73	10260.89
694.077	10254.56
694.423	10256.82
694.769	10147.45
695.116	10105.64
695.462	10092.98
695.808	10065.64
696.155	10115.13
696.501	10007.56
696.847	9995.81
697.193	9911.29
697.539	9994.45
697.885	9892.08
698.231	9836.27
698.577	9868.36
698.923	9881.24
699.269	9733.22
699.614	9671.75
699.96	9641.47
700.306	9634.46
700.651	9623.39
700.997	9536.39
701.342	9562.83
701.688	9555.37
702.033	9458.2
702.379	9452.1
702.724	9449.61
703.069	9461.36
703.415	9341.82
703.76	9324.19
704.105	9337.75
704.45	9319.9
704.795	9237.86
705.14	9172.33
705.485	9275.6
705.83	9210.75
706.175	9186.79
706.52	9147.47
706.865	9166.91
707.209	9102.73
707.554	9057.3
707.899	9082.61
708.243	8940.92
708.588	8989.06
708.932	8904.09
709.277	8927.59
709.621	8888.95
709.966	8843.75
710.31	8861.83
710.654	8803.07
710.998	8823.41
711.342	8813.24
711.687	8759.46
712.031	8631.55
712.375	8704.09
712.719	8721.72
713.063	8652.57
713.407	8737.09
713.75	8660.25
714.094	8648.73
714.438	8577.99
714.782	8674.72
715.125	8603.98
715.469	8597.66
715.812	8529.18
716.156	8483.53
716.499	8482.18
716.843	8526.7
717.186	8479.69
717.53	8512.69
717.873	8512.23
718.216	8455.51
718.559	8406.25
718.902	8389.3
719.246	8402.86
719.589	8397.43
719.932	8293.48
720.275	8362.18
720.617	8308.4
720.96	8303.65
721.303	8268.85
721.646	8352.24
721.989	8266.14
722.331	8299.58
722.674	8225.01
723.016	8278.12
723.359	8288.28
723.701	8257.33
724.044	8255.97
724.386	8231.11
724.729	8252.81
725.071	8251.9
725.413	8247.16
725.755	8186.82
726.097	8213.03
726.439	8170.77
726.782	8172.81
727.124	8259.13
727.465	8253.03
727.807	8145.46
728.149	8217.33
728.491	8133.94
728.833	8212.58
729.175	8109.31
729.516	8147.72
729.858	8166.71
730.199	8081.51
730.541	8191.34
730.882	8100.72
731.224	8137.55
731.565	8126.48
731.906	8066.14
732.248	8118.35
732.589	8106.14
732.93	8179.14
733.271	8087.61
733.612	8144.56
733.953	8153.6
734.294	8074.96
734.635	8105.69
734.976	8135.52
735.317	8072.92
735.658	8076.09
735.999	8075.64
736.339	8038.12
736.68	8149.08
737.021	8105.01
737.361	8065.69
737.702	8134.84
738.042	8089.19
738.383	8115.63
738.723	8190.21
739.063	8147.95
739.404	8146.59
739.744	8135.75
740.084	8173.03
740.424	8112.02
740.764	8119.25
741.104	8193.82
741.444	8202.64
741.784	8250.77
742.124	8231.79
742.464	8247.16
742.804	8251.9
743.143	8284.9
743.483	8279.02
743.823	8271.56
744.162	8274.5
744.502	8380.94
744.841	8394.95
745.181	8422.74
745.52	8457.77
745.86	8443.99
746.199	8508.17
746.538	8540.48
746.877	8584.55
747.216	8614.83
747.556	8675.85
747.895	8735.96
748.234	8723.75
748.573	8729.4
748.911	8770.31
749.25	8858.21
749.589	8905.22
749.928	9008.94
750.267	9044.65
750.605	9097.53
750.944	9159
751.283	9176.62
751.621	9273.57
751.96	9444.19
752.298	9489.61
752.636	9560.57
752.975	9597.18
753.313	9666.1
753.651	9841.24
753.989	9956.04
754.327	10024.28
754.666	10135.47
755.004	10271.28
755.342	10356.03
755.679	10486.65
756.017	10523.48
756.355	10750.59
756.693	10799.63
757.031	11023.13
757.368	11058.38
757.706	11149.45
758.044	11318.04
758.381	11500.86
758.719	11560.52
759.056	11842.77
759.394	11875.08
759.731	12027.62
