Data from hue_190_FLMS001491_00063.txt Node
Date: Tue Feb 07 16:45:36 GMT 2017
User: dcchb
Spectrometer: FLMS00149
Trigger mode: 0
Integration Time (sec): 2.000000E-2
Scans to average: 10
Electric dark correction enabled: true
Nonlinearity correction enabled: false
Boxcar width: 0
XAxis mode: Wavelengths
Number of Pixels in Spectrum: 2048
>>>>>Begin Spectral Data<<<<<
341.393	-2.9
341.776	-2.9
342.16	-2.9
342.543	-52.39
342.927	-67.98
343.31	-72.72
343.693	-82.67
344.077	-80.63
344.46	-40.63
344.843	-52.39
345.226	-35.66
345.61	-32.27
345.993	-12.16
346.376	-7.64
346.759	13.15
347.142	32.81
347.525	42.53
347.908	46.82
348.291	93.15
348.674	78.23
349.057	110.1
349.44	123.88
349.823	140.38
350.206	179.47
350.588	196.87
350.971	209.08
351.354	222.64
351.737	233.03
352.119	261.73
352.502	262.63
352.884	268.96
353.267	282.97
353.65	283.2
354.032	275.52
354.414	299.7
354.797	307.38
355.179	315.29
355.562	318.9
355.944	314.16
356.326	295.85
356.709	320.71
357.091	330.43
357.473	320.49
357.855	338.11
358.238	332.46
358.62	353.25
359.002	341.5
359.384	333.59
359.766	331.56
360.148	332.24
360.53	343.76
360.912	316.64
361.294	332.46
361.676	317.32
362.057	330.66
362.439	322.07
362.821	311.45
363.203	331.56
363.584	314.16
363.966	326.59
364.348	328.62
364.729	311.9
365.111	307.38
365.493	310.09
365.874	318
366.256	323.88
366.637	303.09
367.019	327.04
367.4	331.11
367.781	323.42
368.163	320.49
368.544	304.44
368.925	285.46
369.306	304.22
369.688	312.12
370.069	313.93
370.45	306.47
370.831	301.5
371.212	328.62
371.593	318.68
371.974	299.02
372.355	287.27
372.736	326.14
373.117	310.09
373.498	327.94
373.879	308.28
374.26	315.74
374.641	281.39
375.021	317.55
375.402	315.06
375.783	314.61
376.163	325.46
376.544	297.21
376.925	332.69
377.305	344.44
377.686	328.62
378.066	327.72
378.447	315.97
378.827	322.29
379.208	327.04
379.588	299.02
379.968	307.38
380.349	323.88
380.729	322.52
381.109	334.27
381.489	330.66
381.87	321.84
382.25	347.38
382.63	321.16
383.01	334.95
383.39	353.71
383.77	328.4
384.15	327.49
384.53	342.41
384.91	329.3
385.29	348.51
385.67	343.99
386.049	364.55
386.429	333.14
386.809	327.72
387.189	343.99
387.568	352.35
387.948	349.64
388.328	354.84
388.707	363.42
389.087	345.34
389.466	353.71
389.846	359.81
390.225	382.18
390.605	348.51
390.984	344.44
391.363	384.67
391.743	349.86
392.122	377.43
392.501	369.52
392.881	371.56
393.26	377.89
393.639	374.04
394.018	376.3
394.397	376.53
394.776	362.07
395.155	360.71
395.534	391.67
395.913	392.12
396.292	388.05
396.671	387.38
397.05	381.73
397.429	386.25
397.808	369.98
398.186	389.64
398.565	405.23
398.944	408.85
399.323	384.67
399.701	390.31
400.08	414.95
400.458	415.4
400.837	424.66
401.215	389.64
401.594	426.25
401.972	414.49
402.351	407.49
402.729	429.41
403.107	426.92
403.486	419.69
403.864	419.24
404.242	417.43
404.62	432.35
404.999	440.93
405.377	451.1
405.755	430.31
406.133	451.33
406.511	456.3
406.889	462.4
407.267	468.28
407.645	461.05
408.023	485
408.401	469.41
408.779	473.25
409.156	478.22
409.534	484.55
409.912	489.52
410.29	518.22
410.667	503.76
411.045	524.32
411.422	531.33
411.8	534.27
412.178	530.88
412.555	544.66
412.933	538.79
413.31	549.18
413.687	567.94
414.065	583.3
414.442	576.3
414.819	573.36
415.197	582.63
415.574	614.94
415.951	600.48
416.328	629.63
416.705	626.69
417.082	636.86
417.46	654.49
417.837	669.18
418.214	670.31
418.591	665.56
418.967	685
419.344	693.81
419.721	687.03
420.098	723.87
420.475	700.81
420.852	745.11
421.228	750.76
421.605	762.28
421.982	764.09
422.358	789.85
422.735	785.56
423.111	790.98
423.488	805.67
423.864	804.32
424.241	828.04
424.617	868.72
424.994	882.28
425.37	910.98
425.746	904.43
426.123	914.82
426.499	910.3
426.875	898.32
427.251	946.46
427.627	967.7
428.003	980.13
428.379	988.94
428.756	997.76
429.132	1014.93
429.507	1011.77
429.883	1049.05
430.259	1037.76
430.635	1038.89
431.011	1052.44
431.387	1104.87
431.763	1119.56
432.138	1105.78
432.514	1139.45
432.89	1119.79
433.265	1176.28
433.641	1173.12
434.016	1219.9
434.392	1224.42
434.767	1277.07
435.143	1249.5
435.518	1297.64
435.894	1318.43
436.269	1326.11
436.644	1369.95
437.02	1396.84
437.395	1402.49
437.77	1414.02
438.145	1461.92
438.52	1478.65
438.895	1503.73
439.271	1502.15
439.646	1526.56
440.021	1552.77
440.395	1608.14
440.77	1617.4
441.145	1644.07
441.52	1591.41
441.895	1631.86
442.27	1660.34
442.645	1691.07
443.019	1725.65
443.394	1730.84
443.769	1740.56
444.143	1744.86
444.518	1803.16
444.892	1773.1
445.267	1826.21
445.641	1844.51
446.016	1856.04
446.39	1889.26
446.764	1876.38
447.139	1856.04
447.513	1910.5
447.887	1875.7
448.262	1950.05
448.636	1954.12
449.01	1968.35
449.384	1999.99
449.758	2027.11
450.132	2031.63
450.506	2034.79
450.88	2062.14
451.254	2068.01
451.628	2059.2
452.002	2135.81
452.376	2108.69
452.75	2147.78
453.123	2171.28
453.497	2208.8
453.871	2231.62
454.244	2303.94
454.618	2276.37
454.992	2300.77
455.365	2324.95
455.739	2404.05
456.112	2402.92
456.486	2402.24
456.859	2469.81
457.232	2457.38
457.606	2534.44
457.979	2520.88
458.352	2612.86
458.725	2602.01
459.099	2626.64
459.472	2637.49
459.845	2686.53
460.218	2704.15
460.591	2719.97
460.964	2757.94
461.337	2858.05
461.71	2875.67
462.083	2919.51
462.456	2891.04
462.829	2938.5
463.201	2994.77
463.574	2989.57
463.947	3019.85
464.32	3132.62
464.692	3140.3
465.065	3160.86
465.438	3246.28
465.81	3231.82
466.183	3312.95
466.555	3364.47
466.928	3381.42
467.3	3372.16
467.672	3455.09
468.045	3549.33
468.417	3573.51
468.789	3577.58
469.161	3643.79
469.534	3706.84
469.906	3770.56
470.278	3742.54
470.65	3831.81
471.022	3952.03
471.394	3997.45
471.766	4048.3
472.138	4082.65
472.51	4131.46
472.882	4253.26
473.253	4270.66
473.625	4317.89
473.997	4425.91
474.369	4456.2
474.74	4520.83
475.112	4549.53
475.484	4643.08
475.855	4730.09
476.227	4791.55
476.598	4905
476.97	4977.09
477.341	5062.96
477.713	5139.79
478.084	5198.55
478.455	5290.98
478.827	5386.34
479.198	5523.29
479.569	5544.3
479.94	5667.69
480.311	5694.36
480.682	5840.11
481.053	5968.02
481.424	6048.24
481.795	6148.36
482.166	6240.78
482.537	6286.66
482.908	6409.37
483.279	6476.03
483.65	6589.02
484.021	6793.54
484.391	6786.98
484.762	6914.89
485.133	6949.69
485.503	7087.09
485.874	7217.71
486.244	7253.18
486.615	7426.51
486.985	7462.67
487.356	7597.81
487.726	7734.75
488.097	7822.89
488.467	7823.34
488.837	8057.46
489.207	8104.46
489.578	8201.86
489.948	8291.8
490.318	8413.15
490.688	8432.14
491.058	8521.63
491.428	8667.16
491.798	8729.76
492.168	8854.05
492.538	8936.76
492.908	9009.97
493.278	9121.38
493.648	9136.98
494.017	9271.66
494.387	9268.73
494.757	9324.09
495.126	9453.35
495.496	9416.07
495.866	9531.54
496.235	9569.51
496.605	9697.87
496.974	9674.36
497.344	9804.08
497.713	9788.94
498.082	9914.58
498.452	9981.7
498.821	10020.34
499.19	10030.74
499.559	10107.35
499.928	10141.02
500.298	10163.16
500.667	10306.89
501.036	10268.7
501.405	10319.09
501.774	10332.43
502.143	10376.72
502.512	10413.33
502.88	10491.97
503.249	10419.66
503.618	10535.81
503.987	10495.13
504.356	10576.04
504.724	10611.51
505.093	10665.98
505.462	10651.06
505.83	10695.13
506.199	10762.47
506.567	10849.93
506.936	10769.93
507.304	10866.2
507.672	10923.6
508.041	10931.28
508.409	10977.38
508.777	11011.5
509.145	10982.13
509.514	11083.59
509.882	11099.19
510.25	11042.92
510.618	11077.94
510.986	11063.25
511.354	11171.27
511.722	11142.35
512.09	11214.66
512.458	11161.33
512.826	11237.94
513.193	11239.52
513.561	11286.98
513.929	11320.42
514.297	11312.51
514.664	11380.53
515.032	11295.34
515.4	11485.62
515.767	11405.84
516.135	11469.12
516.502	11329.01
516.869	11429.57
517.237	11442.23
517.604	11405.84
517.972	11462.79
518.339	11508.21
518.706	11440.42
519.073	11447.2
519.44	11503.02
519.808	11467.54
520.175	11398.61
520.542	11531.04
520.909	11545.73
521.276	11498.5
521.643	11517.48
522.009	11507.31
522.376	11509.57
522.743	11611.94
523.11	11524.49
523.477	11576.69
523.843	11605.61
524.21	11689.9
524.577	11763.12
524.943	11674.99
525.31	11640.64
525.676	11744.82
526.043	11707.08
526.409	11722.67
526.776	11788.43
527.142	11707.98
527.508	11676.8
527.874	11729.45
528.241	11658.27
528.607	11636.8
528.973	11701.43
529.339	11614.65
529.705	11682
530.071	11687.42
530.437	11619.85
530.803	11599.74
531.169	11581.21
531.535	11504.15
531.901	11470.93
532.267	11460.53
532.632	11445.84
532.998	11464.37
533.364	11409.91
533.73	11416.92
534.095	11368.33
534.461	11398.39
534.826	11299.86
535.192	11245.85
535.557	11290.82
535.923	11175.57
536.288	11138.28
536.653	11150.71
537.019	11094.44
537.384	11012.86
537.749	10965.63
538.114	10983.26
538.479	10880.43
538.845	10968.34
539.21	10745.97
539.575	10775.35
539.94	10731.06
540.305	10722.47
540.67	10654.68
541.034	10618.29
541.399	10601.8
541.764	10473.89
542.129	10432.99
542.494	10448.36
542.858	10388.02
543.223	10275.93
543.587	10265.54
543.952	10207.68
544.316	10218.08
544.681	10052.21
545.045	10077.74
545.41	10082.72
545.774	10013.11
546.138	9957.75
546.503	9937.86
546.867	9848.82
547.231	9804.08
547.595	9852.21
547.959	9768.83
548.324	9710.52
548.688	9648.15
549.052	9563.86
549.416	9586.68
549.779	9466.46
550.143	9486.35
550.507	9445.9
550.871	9448.38
551.235	9337.42
551.599	9342.85
551.962	9315.05
552.326	9199.35
552.689	9207.94
553.053	9115.96
553.417	9124.1
553.78	9152.57
554.143	9030.54
554.507	9016.53
554.87	9010.2
555.234	8965.23
555.597	8918.9
555.96	8923.65
556.323	8892.92
556.686	8767.5
557.05	8798.68
557.413	8753.71
557.776	8705.8
558.139	8722.75
558.502	8635.07
558.865	8628.06
559.228	8615.64
559.59	8579.7
559.953	8570.21
560.316	8614.28
560.679	8563.66
561.041	8543.77
561.404	8572.25
561.767	8557.78
562.129	8519.14
562.492	8549.42
562.854	8492.47
563.217	8493.15
563.579	8440.5
563.941	8497.22
564.304	8468.07
564.666	8502.42
565.028	8456.54
565.39	8435.98
565.753	8530.21
566.115	8409.31
566.477	8444.79
566.839	8487.05
567.201	8440.5
567.563	8392.82
567.925	8384.91
568.287	8415.19
568.648	8438.46
569.01	8372.48
569.372	8436.43
569.734	8420.16
570.095	8396.43
570.457	8454.74
570.819	8401.86
571.18	8391.46
571.542	8380.39
571.903	8402.76
572.265	8377.45
572.626	8360.95
572.987	8411.12
573.349	8357.79
573.71	8428.52
574.071	8361.18
574.432	8288.41
574.794	8452.93
575.155	8366.83
575.516	8276.89
575.877	8383.55
576.238	8363.66
576.599	8384.91
576.96	8304.68
577.32	8366.38
577.681	8349.43
578.042	8347.39
578.403	8344.91
578.763	8375.19
579.124	8334.74
579.485	8335.42
579.845	8351.46
580.206	8337.45
580.566	8324.8
580.927	8309.65
581.287	8395.08
581.648	8264.01
582.008	8299.26
582.368	8314.17
582.728	8325.7
583.089	8251.8
583.449	8255.42
583.809	8238.7
584.169	8210.9
584.529	8188.3
584.889	8214.74
585.249	8168.87
585.609	8172.71
585.969	8224.68
586.329	8153.27
586.688	8119.15
587.048	8180.17
587.408	8130.45
587.768	8122.99
588.127	8147.62
588.487	8113.95
588.846	8137
589.206	8122.99
589.565	8111.24
589.925	8165.7
590.284	8061.75
590.643	8086.38
591.003	8089.32
591.362	8119.15
591.721	8062.88
592.08	8094.97
592.44	8051.58
592.799	8092.03
593.158	8012.94
593.517	8074.18
593.876	8048.19
594.235	8011.81
594.593	7988.76
594.952	8002.32
595.311	7952.6
595.67	7975.65
596.029	8018.81
596.387	8039.83
596.746	8012.94
597.104	7910.12
597.463	7996.22
597.822	7940.4
598.18	7929.55
598.538	7906.28
598.897	7979.95
599.255	7937.46
599.613	7958.7
599.972	7915.09
600.33	7930
600.688	7888.87
601.046	7924.58
601.404	7957.35
601.762	7940.62
602.12	7932.26
602.478	7888.65
602.836	7916.44
603.194	7847.52
603.552	7921.19
603.91	7868.54
604.268	7888.65
604.625	7839.16
604.983	7851.81
605.341	7798.03
605.698	7863.56
606.056	7850.23
606.413	7794.64
606.771	7854.07
607.128	7835.09
607.485	7821.76
607.843	7858.59
608.2	7968.87
608.557	7840.06
608.914	7830.8
609.272	7881.19
609.629	7849.55
609.986	7946.5
610.343	7914.86
610.7	7985.6
611.057	7919.16
611.414	7896.33
611.771	7943.34
612.127	7905.37
612.484	7943.56
612.841	7960.51
613.198	7919.16
613.554	7934.3
613.911	7941.3
614.267	8002.77
614.624	7844.36
614.98	7970.68
615.337	8022.88
615.693	7918.93
616.05	7918.48
616.406	7967.06
616.762	7940.4
617.118	7961.41
617.475	7955.54
617.831	7944.69
618.187	7975.65
618.543	7932.49
618.899	7986.95
619.255	8014.29
619.611	8047.51
619.967	8017.23
620.323	8010.91
620.678	8044.12
621.034	7962.54
621.39	7959.83
621.746	7951.25
622.101	8097
622.457	8008.42
622.812	7953.73
623.168	8002.77
623.523	8012.94
623.879	8011.36
624.234	7941.75
624.589	7987.85
624.945	8026.95
625.3	7988.31
625.655	8004.58
626.01	7961.19
626.365	8037.35
626.72	8011.36
627.075	7985.6
627.43	8000.06
627.785	7908.08
628.14	8037.12
628.495	8013.17
628.85	7988.08
629.205	7958.25
629.559	7978.82
629.914	7915.54
630.269	7970.68
630.623	7935.43
630.978	7900.17
631.332	7942.88
631.687	7978.36
632.041	7908.99
632.396	7960.29
632.75	7860.4
633.104	7844.81
633.459	7853.4
633.813	7830.57
634.167	7843.68
634.521	7824.92
634.875	7877.35
635.229	7868.08
635.583	7750.12
635.937	7819.95
636.291	7702.44
636.645	7764.36
636.999	7725.26
637.352	7775.21
637.706	7727.07
638.06	7735.21
638.413	7727.3
638.767	7684.81
639.121	7682.78
639.474	7694.76
639.828	7672.83
640.181	7660.63
640.534	7688.43
640.888	7643.68
641.241	7631.71
641.594	7585.83
641.947	7623.12
642.301	7575.44
642.654	7577.47
643.007	7579.5
643.36	7633.97
643.713	7616.11
644.066	7611.82
644.419	7566.62
644.771	7490.24
645.124	7478.26
645.477	7417.02
645.83	7405.5
646.182	7379.28
646.535	7365.95
646.888	7354.43
647.24	7358.04
647.593	7359.62
647.945	7365.27
648.298	7310.13
648.65	7216.35
649.002	7310.58
649.355	7308.32
649.707	7352.84
650.059	7376.35
650.411	7420.64
650.763	7447.3
651.115	7517.36
651.467	7485.72
651.819	7542.67
652.171	7526.17
652.523	7437.36
652.875	7487.98
653.227	7452.5
653.578	7556.68
653.93	7581.76
654.282	7496.79
654.633	7454.31
654.985	7515.78
655.337	7535.66
655.688	7548.77
656.039	7608.88
656.391	7469.22
656.742	7485.95
657.094	7545.61
657.445	7541.99
657.796	7563.91
658.147	7486.17
658.498	7596.68
658.849	7558.71
659.2	7486.85
659.551	7521.2
659.902	7582.44
660.253	7556.91
660.604	7588.54
660.955	7546.96
661.306	7622.44
661.656	7577.92
662.007	7596.23
662.358	7618.6
662.708	7647.3
663.059	7578.15
663.409	7526.17
663.76	7605.27
664.11	7617.47
664.461	7630.58
664.811	7578.6
665.161	7542.44
665.511	7612.72
665.862	7638.49
666.212	7608.88
666.562	7595.1
666.912	7547.64
667.262	7584.02
667.612	7599.62
667.962	7577.7
668.312	7563.69
668.662	7601.88
669.011	7568.66
669.361	7670.58
669.711	7570.92
670.06	7659.28
670.41	7575.21
670.76	7533.4
671.109	7608.66
671.459	7568.66
671.808	7555.55
672.157	7619.28
672.507	7472.39
672.856	7510.81
673.205	7553.06
673.554	7592.39
673.904	7577.24
674.253	7562.33
674.602	7569.56
674.951	7399.17
675.3	7405.5
675.649	7509.68
675.998	7476
676.346	7558.71
676.695	7529.79
677.044	7460.86
677.393	7472.61
677.741	7437.81
678.09	7478.72
678.438	7445.27
678.787	7453.41
679.135	7461.32
679.484	7446.63
679.832	7430.58
680.181	7344.48
680.529	7425.38
680.877	7376.35
681.225	7314.43
681.573	7369.79
681.922	7350.58
682.27	7337.48
682.618	7312.84
682.966	7319.17
683.314	7293.64
683.661	7270.36
684.009	7244.15
684.357	7250.7
684.705	7196.92
685.053	7208.21
685.4	7210.02
685.748	7154.43
686.095	7147.2
686.443	7073.53
686.79	7083.92
687.138	7139.29
687.485	7195.11
687.832	7042.8
688.18	7054.77
688.527	7004.6
688.874	7040.08
689.221	6970.25
689.568	6938.62
689.915	6933.19
690.262	6932.74
690.609	6937.04
690.956	6878.05
691.303	6850.03
691.65	6837.83
691.997	6810.71
692.344	6789.24
692.69	6830.82
693.037	6807.1
693.383	6717.15
693.73	6761.9
694.077	6648
694.423	6667.89
694.769	6600.77
695.116	6626.76
695.462	6612.3
695.808	6555.8
696.155	6602.13
696.501	6585.63
696.847	6479.87
697.193	6506.54
697.539	6534.33
697.885	6428.8
698.231	6408.24
698.577	6418.4
698.923	6393.09
699.269	6342.7
699.614	6280.56
699.96	6303.83
700.306	6299.31
700.651	6221.8
700.997	6255.47
701.342	6212.99
701.688	6186.09
702.033	6131.86
702.379	6204.4
702.724	6136.83
703.069	6137.73
703.415	6018.64
703.76	6083.27
704.105	6031.97
704.45	6019.77
704.795	5946.78
705.14	5992.43
705.485	5928.93
705.83	5984.74
706.175	5949.94
706.52	5941.58
706.865	5862.49
707.209	5932.99
707.554	5894.35
707.899	5908.14
708.243	5849.38
708.588	5768.03
708.932	5801.47
709.277	5772.55
709.621	5765.99
709.966	5769.83
710.31	5729.16
710.654	5682.6
710.998	5650.97
711.342	5760.12
711.687	5623.85
712.031	5642.15
712.375	5621.59
712.719	5638.99
713.063	5637.86
713.407	5615.71
713.75	5572.33
714.094	5597.18
714.438	5554.92
714.782	5586.56
715.125	5518.32
715.469	5605.77
715.812	5533.91
716.156	5517.41
716.499	5495.04
716.843	5508.15
717.186	5455.49
717.53	5473.8
717.873	5489.62
718.216	5480.8
718.559	5499.56
718.902	5492.1
719.246	5411.88
719.589	5411.2
719.932	5404.87
720.275	5407.13
720.617	5418.88
720.96	5414.59
721.303	5417.08
721.646	5432.67
721.989	5373.23
722.331	5387.7
722.674	5378.21
723.016	5368.71
723.359	5398.54
723.701	5339.56
724.044	5326.46
724.386	5335.04
724.729	5397.41
725.071	5402.84
725.413	5356.74
725.755	5308.38
726.097	5336.4
726.439	5318.09
726.782	5279.68
727.124	5362.84
727.465	5313.35
727.807	5310.86
728.149	5337.76
728.491	5330.75
728.833	5314.25
729.175	5279.23
729.516	5329.39
729.858	5316.96
730.199	5263.86
730.541	5284.88
730.882	5312.45
731.224	5324.42
731.565	5315.38
731.906	5329.85
732.248	5263.18
732.589	5283.52
732.93	5268.15
733.271	5309.28
733.612	5306.57
733.953	5319.45
734.294	5347.47
734.635	5288.72
734.976	5334.82
735.317	5308.38
735.658	5301.37
735.999	5379.11
736.339	5337.53
736.68	5413.01
737.021	5424.08
737.361	5404.65
737.702	5354.93
738.042	5398.54
738.383	5395.15
738.723	5385.66
739.063	5404.42
739.404	5432.44
739.744	5414.36
740.084	5356.06
740.424	5411.2
740.764	5420.92
741.104	5459.79
741.444	5446.45
741.784	5480.8
742.124	5549.95
742.464	5508.6
742.804	5515.15
743.143	5515.83
743.483	5609.39
743.823	5601.93
744.162	5589.95
744.502	5717.18
744.841	5656.16
745.181	5735.26
745.52	5780.46
745.86	5752.21
746.199	5782.94
746.538	5850.74
746.877	5860
747.216	5901.58
747.556	5955.59
747.895	5983.61
748.234	6052.09
748.573	6048.92
748.911	6130.95
749.25	6231.06
749.589	6195.36
749.928	6344.96
750.267	6383.15
750.605	6420.44
750.944	6568.46
751.283	6571.17
751.621	6688.68
751.96	6738.62
752.298	6871.73
752.636	6905.85
752.975	6969.8
753.313	7022.91
753.651	7226.75
753.989	7307.19
754.327	7445.5
754.666	7575.21
755.004	7651.37
755.342	7782.21
755.679	7960.96
756.017	8040.28
756.355	8162.54
756.693	8275.98
757.031	8489.76
757.368	8561.85
757.706	8715.97
758.044	8882.52
758.381	9019.24
758.719	9133.36
759.056	9310.31
759.394	9569.28
759.731	9645.89
760.068	9753.68
760.405	9966.11
760.743	10183.96
761.08	10263.28
761.417	10422.59
761.754	10684.06
762.091	10861.23
762.428	11044.05
762.765	11122.91
763.102	11435.45
763.438	11486.52
763.775	11750.47
764.112	11797.25
764.449	12122.44
764.785	12268.42
765.122	12362.43
765.458	12556.55
765.795	12653.27
766.131	12882.19
766.467	12973.94
766.804	13179.81
