Data from hue_170_FLMS001491_00073.txt Node
Date: Tue Feb 07 16:49:10 GMT 2017
User: dcchb
Spectrometer: FLMS00149
Trigger mode: 0
Integration Time (sec): 2.000000E-2
Scans to average: 10
Electric dark correction enabled: true
Nonlinearity correction enabled: false
Boxcar width: 0
XAxis mode: Wavelengths
Number of Pixels in Spectrum: 2048
>>>>>Begin Spectral Data<<<<<
341.393	-8.18
341.776	-8.18
342.16	-8.18
342.543	-57.67
342.927	-45.46
343.31	-82.53
343.693	-73.26
344.077	-53.83
344.46	-48.18
344.843	-67.61
345.226	-59.7
345.61	-32.36
345.993	-14.96
346.376	10.13
346.759	20.3
347.142	44.7
347.525	55.55
347.908	56
348.291	71.59
348.674	75.66
349.057	98.49
349.44	113.63
349.823	160.41
350.206	171.03
350.588	180.29
350.971	216.22
351.354	220.29
351.737	245.83
352.119	247.41
352.502	264.58
352.884	264.36
353.267	284.47
353.65	300.06
354.032	308.65
354.414	303.45
354.797	309.78
355.179	316.11
355.562	328.54
355.944	323.79
356.326	328.08
356.709	318.37
357.091	323.34
357.473	362.43
357.855	335.32
358.238	325.15
358.62	342.77
359.002	335.09
359.384	336.45
359.766	348.88
360.148	351.13
360.53	340.29
360.912	339.38
361.294	338.48
361.676	330.34
362.057	320.63
362.439	330.8
362.821	336.22
363.203	303
363.584	324.24
363.966	334.19
364.348	315.88
364.729	312.04
365.111	302.55
365.493	314.98
365.874	323.56
366.256	309.33
366.637	324.47
367.019	328.76
367.4	353.17
367.781	316.33
368.163	322.44
368.544	304.36
368.925	307.97
369.306	312.72
369.688	309.1
370.069	302.32
370.45	310.68
370.831	319.5
371.212	302.32
371.593	300.97
371.974	300.74
372.355	309.33
372.736	312.94
373.117	318.14
373.498	304.58
373.879	317.69
374.26	316.56
374.641	315.88
375.021	307.29
375.402	313.85
375.783	324.47
376.163	329.44
376.544	324.02
376.925	335.32
377.305	312.49
377.686	322.44
378.066	319.72
378.447	323.34
378.827	335.99
379.208	314.98
379.588	338.48
379.968	323.79
380.349	316.11
380.729	319.27
381.109	327.86
381.489	347.75
381.87	360.85
382.25	331.02
382.63	311.59
383.01	334.86
383.39	338.48
383.77	338.48
384.15	322.66
384.53	341.19
384.91	334.19
385.29	349.33
385.67	340.51
386.049	335.09
386.429	325.6
386.809	336.67
387.189	337.12
387.568	366.73
387.948	329.67
388.328	341.64
388.707	352.26
389.087	350.46
389.466	358.82
389.846	360.63
390.225	372.83
390.605	364.69
390.984	384.58
391.363	372.6
391.743	374.41
392.122	352.72
392.501	357.91
392.881	357.46
393.26	381.19
393.639	352.04
394.018	356.78
394.397	379.16
394.776	390.23
395.155	357.24
395.534	387.52
395.913	362.43
396.292	375.77
396.671	366.5
397.05	378.25
397.429	400.4
397.808	393.17
398.186	385.71
398.565	397.91
398.944	383.22
399.323	389.1
399.701	400.63
400.08	397.01
400.458	406.95
400.837	400.63
401.215	410.12
401.594	393.62
401.972	413.51
402.351	389.33
402.729	410.57
403.107	403.34
403.486	398.59
403.864	412.83
404.242	412.38
404.62	414.86
404.999	412.38
405.377	410.79
405.755	425.48
406.133	445.6
406.511	422.77
406.889	441.3
407.267	448.31
407.645	444.01
408.023	439.27
408.401	447.63
408.779	454.41
409.156	451.47
409.534	457.8
409.912	452.15
410.29	463.45
410.667	480.4
411.045	468.42
411.422	479.72
411.8	479.27
412.178	497.57
412.555	490.79
412.933	493.5
413.31	481.75
413.687	480.62
414.065	508.64
414.442	499.15
414.819	537.12
415.197	495.31
415.574	503
415.951	521.53
416.328	539.83
416.705	542.54
417.082	542.32
417.46	539.6
417.837	554.75
418.214	570.79
418.591	552.49
418.967	564.46
419.344	569.43
419.721	568.08
420.098	566.5
420.475	558.81
420.852	577.8
421.228	599.49
421.605	579.38
421.982	604.91
422.358	613.95
422.735	621.18
423.111	621.41
423.488	630.22
423.864	618.92
424.241	650.56
424.617	649.66
424.994	646.04
425.37	672.48
425.746	666.83
426.123	665.7
426.499	660.28
426.875	673.61
427.251	661.86
427.627	686.49
428.003	708.87
428.379	721.97
428.756	717
429.132	724.68
429.507	735.76
429.883	740.05
430.259	758.81
430.635	747.51
431.011	753.61
431.387	761.29
431.763	751.58
432.138	798.13
432.514	775.3
432.89	790.45
433.265	785.02
433.641	824.12
434.016	827.51
434.392	843.1
434.767	837.9
435.143	864.57
435.518	894.62
435.894	867.28
436.269	888.52
436.644	896.21
437.02	916.32
437.395	912.93
437.77	937.11
438.145	945.47
438.52	945.24
438.895	954.06
439.271	976.66
439.646	999.48
440.021	995.64
440.395	1006.71
440.77	973.04
441.145	1000.16
441.52	1022.3
441.895	1026.82
442.27	1042.64
442.645	1060.04
443.019	1086.26
443.394	1056.65
443.769	1092.81
444.143	1067.95
444.518	1091.45
444.892	1113.83
445.267	1081.29
445.641	1118.57
446.016	1127.84
446.39	1132.36
446.764	1141.85
447.139	1133.26
447.513	1150.21
447.887	1162.86
448.262	1163.77
448.636	1160.38
449.01	1164.9
449.384	1215.29
449.758	1205.12
450.132	1240.15
450.506	1219.36
450.88	1232.69
451.254	1252.13
451.628	1264.56
452.002	1276.53
452.376	1278.79
452.75	1286.7
453.123	1321.28
453.497	1311.34
453.871	1331.45
454.244	1362.63
454.618	1377.1
454.992	1366.93
455.365	1377.1
455.739	1436.08
456.112	1432.46
456.486	1437.89
456.859	1458.22
457.232	1475.85
457.606	1497.32
457.979	1522.18
458.352	1534.15
458.725	1525.79
459.099	1562.4
459.472	1592.46
459.845	1606.7
460.218	1623.87
460.591	1623.87
460.964	1611.21
461.337	1682.17
461.71	1718.33
462.083	1731.44
462.456	1722.17
462.829	1770.98
463.201	1765.11
463.574	1795.16
463.947	1845.56
464.32	1841.27
464.692	1892.11
465.065	1915.84
465.438	1919.91
465.81	1991.54
466.183	1980.24
466.555	2030.19
466.928	2025.67
467.3	2063.63
467.672	2131.43
468.045	2154.03
468.417	2165.32
468.789	2170.07
469.161	2230.41
469.534	2291.87
469.906	2337.52
470.278	2336.17
470.65	2395.15
471.022	2453
471.394	2476.5
471.766	2518.99
472.138	2551.3
472.51	2617.52
472.882	2669.49
473.253	2734.57
473.625	2742.03
473.997	2808.92
474.369	2876.49
474.74	2920.11
475.112	2995.36
475.484	3019.77
475.855	3129.82
476.227	3135.69
476.598	3266.31
476.97	3327.1
477.341	3346.31
477.713	3486.42
478.084	3510.15
478.455	3666.75
478.827	3676.02
479.198	3811.16
479.569	3838.27
479.94	3930.7
480.311	4054.31
480.682	4166.18
481.053	4250.69
481.424	4350.8
481.795	4382.89
482.166	4528.43
482.537	4580.18
482.908	4757.8
483.279	4810
483.65	4924.12
484.021	5090.9
484.391	5109.65
484.762	5182.87
485.133	5291.8
485.503	5445.69
485.874	5566.82
486.244	5688.85
486.615	5894.04
486.985	5927.26
487.356	6078.44
487.726	6139.68
488.097	6335.84
488.467	6396.17
488.837	6542.84
489.207	6685.43
489.578	6793.9
489.948	6942.37
490.318	7043.16
490.688	7077.96
491.058	7252.87
491.428	7392.31
491.798	7492.64
492.168	7692.86
492.538	7734.9
492.908	7907.32
493.278	8011.27
493.648	8058.73
494.017	8252.17
494.387	8289.68
494.757	8367.2
495.126	8540.52
495.496	8599.96
495.866	8692.84
496.235	8787.98
496.605	8935.32
496.974	9017.12
497.344	9098.7
497.713	9201.52
498.082	9262.09
498.452	9352.71
498.821	9406.49
499.19	9493.49
499.559	9562.42
499.928	9649.65
500.298	9751.34
500.667	9783.2
501.036	9898.23
501.405	10038.79
501.774	9954.72
502.143	10041.28
502.512	10072.46
502.88	10182.06
503.249	10124.44
503.618	10333.02
503.987	10337.54
504.356	10421.15
504.724	10407.82
505.093	10492.56
505.462	10532.34
505.83	10679
506.199	10676.74
506.567	10852.1
506.936	10763.29
507.304	10873.8
507.672	10907.24
508.041	10986.34
508.409	11018.2
508.777	11090.97
509.145	11220
509.514	11169.38
509.882	11305.2
510.25	11214.35
510.618	11289.38
510.986	11236.27
511.354	11413.44
511.722	11477.4
512.09	11488.02
512.458	11476.04
512.826	11570.5
513.193	11591.52
513.561	11581.57
513.929	11553.55
514.297	11766.65
514.664	11705.64
515.032	11776.6
515.4	11927.78
515.767	11895.69
516.135	11843.94
516.502	11768.91
516.869	11902.24
517.237	11887.1
517.604	11938.85
517.972	11964.84
518.339	11942.47
518.706	12050.94
519.073	11964.16
519.44	11989.02
519.808	12068.79
520.175	12080.54
520.542	12165.74
520.909	12167.32
521.276	12127.55
521.643	12151.28
522.009	12270.6
522.376	12283.25
522.743	12265.62
523.11	12379.97
523.477	12451.83
523.843	12357.37
524.21	12404.6
524.577	12526.41
524.943	12431.5
525.31	12416.13
525.676	12517.59
526.043	12582.9
526.409	12530.02
526.776	12584.94
527.142	12553.98
527.508	12609.34
527.874	12588.33
528.241	12608.67
528.607	12636.46
528.973	12620.19
529.339	12513.53
529.705	12603.92
530.071	12615.45
530.437	12643.47
530.803	12635.56
531.169	12661.32
531.535	12532.96
531.901	12556.92
532.267	12577.93
532.632	12558.72
532.998	12584.03
533.364	12544.94
533.73	12550.36
534.095	12570.47
534.461	12521.66
534.826	12460.19
535.192	12412.29
535.557	12509.69
535.923	12388.11
536.288	12210.71
536.653	12385.62
537.019	12218.17
537.384	12166.19
537.749	12293.87
538.114	12262.91
538.479	12150.37
538.845	12216.13
539.21	12085.29
539.575	12074.89
539.94	11994.22
540.305	12023.82
540.67	11877.61
541.034	11883.94
541.399	11929.59
541.764	11897.72
542.129	11845.97
542.494	11773.43
542.858	11829.48
543.223	11709.93
543.587	11694.79
543.952	11634.68
544.316	11660.67
544.681	11533.44
545.045	11505.19
545.41	11487.79
545.774	11539.99
546.138	11456.83
546.503	11450.05
546.867	11328.02
547.231	11434.23
547.595	11352.88
547.959	11304.97
548.324	11231.75
548.688	11197.18
549.052	11168.03
549.416	11092.32
549.779	11116.73
550.143	11084.41
550.507	11081.93
550.871	10998.99
551.235	10958.77
551.599	10982.72
551.962	10915.38
552.326	10857.53
552.689	10857.07
553.053	10790.86
553.417	10769.17
553.78	10789.05
554.143	10736.4
554.507	10729.84
554.87	10717.87
555.234	10739.56
555.597	10608.04
555.96	10629.28
556.323	10670.86
556.686	10627.25
557.05	10635.61
557.413	10535.05
557.776	10545.22
558.139	10569.17
558.502	10483.3
558.865	10543.64
559.228	10538.44
559.59	10524.2
559.953	10539.34
560.316	10494.6
560.679	10500.47
561.041	10490.3
561.404	10446.46
561.767	10473.13
562.129	10417.54
562.492	10405.11
562.854	10442.85
563.217	10343.19
563.579	10412.11
563.941	10491.89
564.304	10516.29
564.666	10485.33
565.028	10452.56
565.39	10512.9
565.753	10471.32
566.115	10485.56
566.477	10501.6
566.839	10427.03
567.201	10483.75
567.563	10470.42
567.925	10412.11
568.287	10408.27
568.648	10433.36
569.01	10451.89
569.372	10572.56
569.734	10479.91
570.095	10547.48
570.457	10579.34
570.819	10531.66
571.18	10515.16
571.542	10547.25
571.903	10530.08
572.265	10565.56
572.626	10539.34
572.987	10580.92
573.349	10587.93
573.71	10525.78
574.071	10545.67
574.432	10552.45
574.794	10633.35
575.155	10588.61
575.516	10618.89
575.877	10598.55
576.238	10606.23
576.599	10570.98
576.96	10556.97
577.32	10604.65
577.681	10616.18
578.042	10604.65
578.403	10598.1
578.763	10561.71
579.124	10673.35
579.485	10580.92
579.845	10665.67
580.206	10604.2
580.566	10639
580.927	10671.99
581.287	10633.58
581.648	10589.96
582.008	10665.44
582.368	10618.21
582.728	10565.56
583.089	10460.7
583.449	10556.06
583.809	10514.03
584.169	10528.49
584.529	10486.46
584.889	10566.46
585.249	10493.47
585.609	10409.18
585.969	10574.37
586.329	10517.42
586.688	10509.29
587.048	10524.43
587.408	10420.47
587.768	10411.89
588.127	10455.28
588.487	10400.81
588.846	10409.63
589.206	10345
589.565	10352.91
589.925	10399.46
590.284	10339.12
590.643	10346.35
591.003	10466.58
591.362	10414.37
591.721	10411.44
592.08	10377.09
592.44	10328.73
592.799	10382.06
593.158	10352.91
593.517	10398.78
593.876	10366.46
594.235	10300.25
594.593	10296.41
594.952	10316.75
595.311	10214.15
595.67	10323.53
596.029	10321.95
596.387	10279.24
596.746	10433.58
597.104	10278.56
597.463	10329.63
597.822	10239.01
598.18	10289.86
598.538	10250.76
598.897	10305.45
599.255	10236.75
599.613	10338.22
599.972	10265.45
600.33	10263.42
600.688	10227.49
601.046	10252.57
601.404	10316.52
601.762	10290.53
602.12	10300.93
602.478	10278.78
602.836	10266.81
603.194	10201.5
603.552	10257.77
603.91	10204.21
604.268	10263.64
604.625	10182.06
604.983	10215.28
605.341	10165.34
605.698	10260.7
606.056	10251.44
606.413	10209.18
606.771	10245.11
607.128	10272.46
607.485	10221.38
607.843	10221.38
608.2	10339.12
608.557	10361.27
608.914	10218.67
609.272	10332.57
609.629	10355.17
609.986	10341.38
610.343	10215.96
610.7	10292.34
611.057	10321.04
611.414	10318.56
611.771	10318.56
612.127	10354.26
612.484	10368.27
612.841	10392.68
613.198	10295.96
613.554	10409.18
613.911	10323.3
614.267	10402.4
614.624	10337.54
614.98	10398.55
615.337	10413.7
615.693	10372.79
616.05	10375.5
616.406	10446.46
616.762	10377.99
617.118	10402.17
617.475	10311.32
617.831	10462.28
618.187	10391.55
618.543	10436.29
618.899	10473.81
619.255	10539.34
619.611	10444.88
619.967	10494.82
620.323	10488.72
620.678	10428.16
621.034	10500.47
621.39	10536.86
621.746	10357.43
622.101	10546.8
622.457	10474.94
622.812	10451.43
623.168	10516.74
623.523	10504.99
623.879	10522.62
624.234	10458.67
624.589	10506.57
624.945	10435.39
625.3	10483.75
625.655	10493.92
626.01	10519.23
626.365	10474.48
626.72	10504.77
627.075	10461.15
627.43	10486.01
627.785	10415.73
628.14	10466.12
628.495	10432.23
628.85	10438.33
629.205	10405.79
629.559	10501.6
629.914	10436.07
630.269	10401.04
630.623	10362.17
630.978	10353.81
631.332	10408.95
631.687	10351.55
632.041	10344.77
632.396	10457.76
632.75	10313.36
633.104	10380.93
633.459	10283.08
633.813	10289.18
634.167	10305.45
634.521	10382.06
634.875	10228.16
635.229	10239.46
635.583	10283.53
635.937	10225.23
636.291	10218.45
636.645	10325.11
636.999	10197.43
637.352	10271.1
637.706	10188.16
638.06	10241.72
638.413	10273.81
638.767	10187.71
639.121	10187.94
639.474	10043.76
639.828	10067.94
640.181	10125.34
640.534	10096.64
640.888	10020.03
641.241	10039.24
641.594	10057.77
641.947	10114.49
642.301	10034.5
642.654	10104.55
643.007	10096.87
643.36	10057.09
643.713	10046.02
644.066	10067.26
644.419	9996.53
644.771	9919.02
645.124	9905.91
645.477	9882.18
645.83	9772.81
646.182	9767.84
646.535	9744.33
646.888	9756.99
647.24	9701.4
647.593	9813.03
647.945	9713.83
648.298	9700.04
648.65	9625.47
649.002	9682.64
649.355	9685.13
649.707	9717.67
650.059	9768.06
650.411	9854.84
650.763	9868.17
651.115	9917.89
651.467	9966.48
651.819	9926.7
652.171	9948.17
652.523	9921.5
652.875	9890.32
653.227	9969.86
653.578	9987.72
653.93	9944.33
654.282	9874.95
654.633	9845.57
654.985	9915.18
655.337	9915.18
655.688	9904.56
656.039	9949.98
656.391	9830.66
656.742	9922.41
657.094	9860.94
657.445	9978.45
657.796	9973.03
658.147	9960.6
658.498	9866.36
658.849	9985.91
659.2	9970.32
659.551	9891.9
659.902	10012.8
660.253	9936.19
660.604	9964.22
660.955	9902.97
661.306	10007.6
661.656	9939.36
662.007	9987.94
662.358	10001.28
662.708	9948.85
663.059	10010.09
663.409	9956.08
663.76	10059.81
664.11	9995.18
664.461	10050.54
664.811	10008.28
665.161	10017.32
665.511	10069.75
665.862	10066.36
666.212	10045.34
666.562	10028.85
666.912	10080.37
667.262	10005.34
667.612	10058.22
667.962	10051.44
668.312	10056.64
668.662	10050.31
669.011	9983.88
669.361	9991.11
669.711	9986.59
670.06	10038.11
670.41	9978
670.76	9923.31
671.109	9950.88
671.459	9940.26
671.808	9970.32
672.157	9983.88
672.507	9931
672.856	9909.3
673.205	9921.28
673.554	9976.42
673.904	9897.55
674.253	9926.25
674.602	9947.27
674.951	9767.61
675.3	9693.26
675.649	9850.09
675.998	9791.11
676.346	9813.71
676.695	9886.93
677.044	9823.43
677.393	9796.31
677.741	9858.23
678.09	9798.57
678.438	9741.62
678.787	9762.41
679.135	9832.69
679.484	9787.27
679.832	9734.84
680.181	9745.92
680.529	9700.95
680.877	9723.32
681.225	9720.15
681.573	9670.66
681.922	9653.94
682.27	9624.79
682.618	9636.09
682.966	9617.11
683.314	9636.31
683.661	9571.23
684.009	9499.14
684.357	9534.4
684.705	9486.94
685.053	9432.25
685.4	9445.81
685.748	9380.05
686.095	9465.47
686.443	9321.29
686.79	9375.76
687.138	9420.73
687.485	9352.93
687.832	9391.35
688.18	9427.96
688.527	9268.19
688.874	9268.41
689.221	9275.19
689.568	9211.69
689.915	9220.51
690.262	9176.89
690.609	9152.94
690.956	9112.71
691.303	9133.05
691.65	9011.7
691.997	9086.05
692.344	8979.83
692.69	8956.56
693.037	8918.14
693.383	8905.26
693.73	8940.51
694.077	8829.33
694.423	8840.18
694.769	8817.8
695.116	8805.6
695.462	8770.12
695.808	8749.56
696.155	8700.07
696.501	8682.67
696.847	8621.65
697.193	8632.95
697.539	8632.95
697.885	8575.78
698.231	8521.77
698.577	8548.21
698.923	8512.28
699.269	8379.17
699.614	8371.71
699.96	8365.84
700.306	8364.48
700.651	8298.27
700.997	8283.58
701.342	8303.69
701.688	8165.84
702.033	8208.56
702.379	8182.57
702.724	8145.05
703.069	8130.37
703.415	8068.9
703.76	8103.93
704.105	8040.2
704.45	7981.67
704.795	7977.83
705.14	7955
705.485	7923.14
705.83	7902.12
706.175	7896.93
706.52	7819.64
706.865	7777.15
707.209	7799.75
707.554	7814.89
707.899	7770.37
708.243	7697.61
708.588	7699.19
708.932	7661.45
709.277	7629.59
709.621	7650.38
709.966	7521.12
710.31	7633.2
710.654	7491.29
710.998	7568.35
711.342	7551.4
711.687	7543.94
712.031	7473.21
712.375	7448.8
712.719	7502.81
713.063	7463.04
713.407	7464.85
713.75	7412.42
714.094	7370.16
714.438	7361.8
714.782	7388.69
715.125	7317.96
715.469	7336.26
715.812	7322.25
716.156	7250.84
716.499	7223.27
716.843	7252.42
717.186	7255.81
717.53	7261.46
717.873	7258.98
718.216	7249.03
718.559	7204.51
718.902	7158.19
719.246	7148.47
719.589	7115.93
719.932	7103.95
720.275	7165.87
720.617	7187.79
720.96	7127.68
721.303	7126.1
721.646	7131.75
721.989	7123.39
722.331	7105.99
722.674	7090.17
723.016	7105.53
723.359	7098.53
723.701	7107.34
724.044	7095.82
724.386	7095.59
724.729	7027.57
725.071	7120.45
725.413	7083.84
725.755	7119.77
726.097	7004.97
726.439	6976.95
726.782	7010.17
727.124	7023.95
727.465	7008.13
727.807	6989.38
728.149	6981.92
728.491	6989.38
728.833	7007.23
729.175	6986.89
729.516	6974.92
729.858	6960.45
730.199	6944.41
730.541	7010.62
730.882	7019.21
731.224	7076.83
731.565	6941.92
731.906	6945.54
732.248	7001.13
732.589	6980.79
732.93	6970.17
733.271	6997.74
733.612	6955.48
733.953	6966.33
734.294	6976.72
734.635	6973.33
734.976	7011.3
735.317	7001.81
735.658	7011.75
735.999	7016.95
736.339	6972.66
736.68	7040.68
737.021	7002.26
737.361	6983.95
737.702	7097.17
738.042	7018.53
738.383	7071.86
738.723	7094.91
739.063	7081.81
739.404	7114.35
739.744	7098.3
740.084	7066.44
740.424	7138.53
740.764	7118.64
741.104	7117.51
741.444	7080.22
741.784	7126.32
742.124	7188.24
742.464	7166.1
742.804	7182.82
743.143	7215.14
743.483	7214.46
743.823	7285.42
744.162	7251.74
744.502	7299.43
744.841	7323.15
745.181	7434.79
745.52	7393.66
745.86	7411.97
746.199	7437.95
746.538	7525.64
746.877	7667.1
747.216	7649.7
747.556	7637.27
747.895	7724.27
748.234	7735.35
748.573	7701
748.911	7815.8
749.25	7878.17
749.589	7965.62
749.928	8006.07
750.267	8090.14
750.605	8135.11
750.944	8167.88
751.283	8253.75
751.621	8398.83
751.96	8484.25
752.298	8567.64
752.636	8620.3
752.975	8690.58
753.313	8757.47
753.651	8905.49
753.989	9020.29
754.327	9081.07
754.666	9202.2
755.004	9313.16
755.342	9496.88
755.679	9632.02
756.017	9663.43
756.355	9846.7
756.693	9951.33
757.031	10095.74
757.368	10175.06
757.706	10371.66
758.044	10533.47
758.381	10666.8
758.719	10881.93
759.056	10978.43
759.394	11117.41
759.731	11229.72
760.068	11394.91
760.405	11492.76
760.743	11612.31
761.08	11955.35
761.417	11969.13
761.754	12231.95
