Data from hue_50_FLMS001491_88.txt Node
Date: Mon Feb 06 15:11:10 GMT 2017
User: dcchb
Spectrometer: FLMS00149
Trigger mode: 0
Integration Time (sec): 2.000000E-2
Scans to average: 10
Electric dark correction enabled: true
Nonlinearity correction enabled: false
Boxcar width: 0
XAxis mode: Wavelengths
Number of Pixels in Spectrum: 2048
>>>>>Begin Spectral Data<<<<<
341.393	-12.4
341.776	-12.4
342.16	-12.4
342.543	-42.23
342.927	-80.65
343.31	-48.11
343.693	-66.86
344.077	-68.22
344.46	-67.31
344.843	-58.28
345.226	-43.81
345.61	-16.02
345.993	-28.22
346.376	-5.62
346.759	-12.17
347.142	21.5
347.525	52.46
347.908	87.26
348.291	63.3
348.674	99.91
349.057	90.2
349.44	126.13
349.823	138.33
350.206	158.44
350.588	184.66
350.971	199.8
351.354	236.41
351.737	266.69
352.119	264.2
352.502	254.71
352.884	305.78
353.267	287.48
353.65	317.76
354.032	305.33
354.414	310.75
354.797	307.59
355.179	332
355.562	319.57
355.944	337.87
356.326	330.87
356.709	338.78
357.091	339.45
357.473	341.04
357.855	345.78
358.238	357.53
358.62	370.19
359.002	340.13
359.384	353.01
359.766	337.87
360.148	324.77
360.53	352.79
360.912	327.93
361.294	330.64
361.676	328.38
362.057	324.31
362.439	337.65
362.821	344.65
363.203	344.2
363.584	317.76
363.966	333.8
364.348	334.93
364.729	313.47
365.111	313.47
365.493	341.04
365.874	335.16
366.256	307.14
366.637	308.72
367.019	309.85
367.4	327.03
367.781	324.09
368.163	336.06
368.544	311.88
368.925	311.66
369.306	329.51
369.688	305.1
370.069	307.82
370.45	301.49
370.831	313.01
371.212	311.43
371.593	335.84
371.974	315.5
372.355	321.83
372.736	313.92
373.117	317.99
373.498	329.06
373.879	300.81
374.26	307.82
374.641	312.34
375.021	320.25
375.402	334.48
375.783	331.32
376.163	318.66
376.544	310.08
376.925	329.29
377.305	321.6
377.686	343.75
378.066	327.7
378.447	337.42
378.827	316.86
379.208	336.06
379.588	352.11
379.968	331.32
380.349	336.97
380.729	357.08
381.109	323.41
381.489	354.14
381.87	334.93
382.25	329.06
382.63	337.42
383.01	344.88
383.39	326.8
383.77	337.65
384.15	338.1
384.53	349.62
384.91	340.36
385.29	328.38
385.67	354.6
386.049	351.43
386.429	369.96
386.809	345.78
387.189	357.31
387.568	364.09
387.948	353.69
388.328	349.85
388.707	344.88
389.087	368.83
389.466	367.7
389.846	380.58
390.225	355.73
390.605	357.76
390.984	381.04
391.363	357.53
391.743	360.7
392.122	357.76
392.501	346.69
392.881	386.23
393.26	381.04
393.639	371.32
394.018	362.96
394.397	395.27
394.776	385.1
395.155	407.93
395.534	363.41
395.913	379.23
396.292	377.65
396.671	374.48
397.05	362.28
397.429	376.29
397.808	379.45
398.186	374.71
398.565	382.39
398.944	385.1
399.323	397.31
399.701	402.28
400.08	392.11
400.458	394.37
400.837	380.58
401.215	387.59
401.594	416.51
401.972	402.05
402.351	411.09
402.729	402.05
403.107	398.44
403.486	399.34
403.864	430.07
404.242	400.92
404.62	417.19
404.999	408.83
405.377	417.87
405.755	389.17
406.133	436.63
406.511	421.49
406.889	417.87
407.267	418.77
407.645	431.66
408.023	414.48
408.401	441.82
408.779	437.76
409.156	431.66
409.534	449.73
409.912	433.46
410.29	440.02
410.667	442.95
411.045	444.76
411.422	434.37
411.8	455.61
412.178	484.08
412.555	450.86
412.933	459
413.31	482.28
413.687	481.6
414.065	479.56
414.442	477.98
414.819	478.66
415.197	478.89
415.574	487.02
415.951	473.91
416.328	482.05
416.705	478.21
417.082	503.29
417.46	493.12
417.837	499.22
418.214	494.7
418.591	482.05
418.967	483.18
419.344	503.97
419.721	506.91
420.098	489.51
420.475	503.52
420.852	504.65
421.228	493.8
421.605	535.61
421.982	512.56
422.358	525.44
422.735	550.75
423.111	529.51
423.488	552.1
423.864	550.52
424.241	574.25
424.617	550.52
424.994	559.34
425.37	572.22
425.746	545.78
426.123	548.04
426.499	560.92
426.875	553.01
427.251	552.1
427.627	551.2
428.003	574.02
428.379	563.18
428.756	594.36
429.132	597.53
429.507	615.38
429.883	602.5
430.259	604.98
430.635	604.76
431.011	621.25
431.387	618.54
431.763	620.12
432.138	640.69
432.514	625.1
432.89	636.62
433.265	641.59
433.641	660.12
434.016	671.42
434.392	654.02
434.767	667.58
435.143	651.76
435.518	650.41
435.894	679.11
436.269	696.73
436.644	694.47
437.02	681.37
437.395	706
437.77	693.12
438.145	706.45
438.52	712.1
438.895	737.41
439.271	705.32
439.646	724.98
440.021	711.42
440.395	745.32
440.77	724.3
441.145	715.72
441.52	767.47
441.895	735.6
442.27	766.11
442.645	742.83
443.019	766.79
443.394	784.41
443.769	762.95
444.143	748.71
444.518	785.77
444.892	787.13
445.267	796.39
445.641	797.52
446.016	780.12
446.39	805.66
446.764	787.13
447.139	801.82
447.513	807.92
447.887	803.4
448.262	817.41
448.636	807.01
449.01	783.96
449.384	840.46
449.758	847.01
450.132	820.35
450.506	840.46
450.88	846.79
451.254	847.01
451.628	873.9
452.002	881.59
452.376	881.36
452.75	880.46
453.123	896.05
453.497	881.59
453.871	913.9
454.244	913.68
454.618	945.77
454.992	951.87
455.365	937.86
455.739	959.1
456.112	983.05
456.486	970.62
456.859	965.43
457.232	999.32
457.606	1006.1
457.979	992.32
458.352	1014.92
458.725	1013.33
459.099	1028.48
459.472	1059.44
459.845	1075.25
460.218	1063.96
460.591	1096.95
460.964	1070.51
461.337	1103.28
461.71	1094.01
462.083	1132.2
462.456	1145.31
462.829	1150.28
463.201	1156.61
463.574	1156.38
463.947	1175.36
464.32	1190.05
464.692	1195.7
465.065	1235.7
465.438	1224.4
465.81	1265.76
466.183	1291.52
466.555	1317.73
466.928	1312.99
467.3	1335.13
467.672	1336.26
468.045	1385.75
468.417	1364.29
468.789	1414.23
469.161	1429.82
469.534	1460.33
469.906	1491.74
470.278	1492.64
470.65	1493.77
471.022	1543.72
471.394	1572.87
471.766	1602.92
472.138	1644.05
472.51	1696.25
472.882	1698.97
473.253	1718.63
473.625	1754.56
473.997	1821.45
474.369	1853.76
474.74	1868.23
475.112	1907.55
475.484	1947.77
475.855	1997.26
476.227	2053.31
476.598	2102.8
476.97	2158.84
477.341	2248.33
477.713	2246.07
478.084	2291.72
478.455	2374.2
478.827	2447.42
479.198	2540.53
479.569	2553.41
479.94	2651.03
480.311	2693.29
480.682	2774.19
481.053	2885.15
481.424	2974.87
481.795	3037.24
482.166	3097.8
482.537	3206.27
482.908	3296.44
483.279	3379.6
483.65	3489.2
484.021	3578.92
484.391	3631.8
484.762	3737.33
485.133	3821.62
485.503	3950.88
485.874	4101.62
486.244	4206.02
486.615	4329.18
486.985	4393.81
487.356	4561.04
487.726	4625.67
488.097	4793.8
488.467	4876.74
488.837	5044.64
489.207	5175.03
489.578	5280.79
489.948	5457.06
490.318	5571.63
490.688	5704.74
491.058	5859.08
491.428	5987.89
491.798	6106.08
492.168	6272.86
492.538	6357.38
492.908	6492.51
493.278	6706.29
493.648	6775.9
494.017	6922.78
494.387	7030.13
494.757	7234.64
495.126	7364.58
495.496	7485.71
495.866	7597.12
496.235	7770.22
496.605	7900.16
496.974	7959.59
497.344	8199.36
497.713	8266.93
498.082	8428.51
498.452	8568.16
498.821	8709.86
499.19	8791.89
499.559	8949.85
499.928	9125.66
500.298	9188.26
500.667	9443.17
501.036	9378.31
501.405	9556.84
501.774	9663.95
502.143	9792.31
502.512	9862.14
502.88	10047.22
503.249	10128.35
503.618	10341.9
503.987	10319.76
504.356	10491.73
504.724	10639.3
505.093	10701.22
505.462	10846.52
505.83	10944.15
506.199	11025.95
506.567	11216.91
506.936	11276.12
507.304	11494.87
507.672	11523.12
508.041	11649.44
508.409	11815.76
508.777	11922.65
509.145	12019.15
509.514	12020.28
509.882	12318.12
510.25	12260.95
510.618	12490.77
510.986	12594.05
511.354	12714.95
511.722	12746.13
512.09	12939.35
512.458	12996.75
512.826	13084.88
513.193	13171.66
513.561	13319.45
513.929	13387.47
514.297	13573.23
514.664	13658.2
515.032	13782.04
515.4	13861.13
515.767	13904.07
516.135	14019.55
516.502	13983.39
516.869	14343.15
517.237	14410.5
517.604	14314
517.972	14647.33
518.339	14662.69
518.706	14779.75
519.073	14813.88
519.44	14968.45
519.808	15115.56
520.175	15082.12
520.542	15282.11
520.909	15421.77
521.276	15421.54
521.643	15601.43
522.009	15776.56
522.376	15913.06
522.743	15940.17
523.11	16113.5
523.477	16274.4
523.843	16364.34
524.21	16542.19
524.577	16626.71
524.943	16748.74
525.31	16918
525.676	17009.98
526.043	17035.96
526.409	17234.38
526.776	17369.29
527.142	17377.88
527.508	17513.92
527.874	17757.75
528.241	17808.15
528.607	17821.93
528.973	18014.24
529.339	18100.34
529.705	18154.35
530.071	18405.87
530.437	18443.16
530.803	18565.64
531.169	18628.01
531.535	18642.02
531.901	18706.2
532.267	18855.35
532.632	19020.77
532.998	18972.86
533.364	19253.08
533.73	19253.76
534.095	19361.1
534.461	19448.56
534.826	19734.2
535.192	19605.16
535.557	19755.67
535.923	19813.52
536.288	19755.89
536.653	20016
537.019	19884.48
537.384	20056.22
537.749	20260.51
538.114	20218.48
538.479	20218.93
538.845	20382.32
539.21	20401.98
539.575	20553.16
539.94	20576.21
540.305	20672.03
540.67	20639.49
541.034	20804
541.399	20956.31
541.764	20944.34
542.129	21100.94
542.494	21154.95
542.858	21084.67
543.223	21180.04
543.587	21413.48
543.952	21404.44
544.316	21554.49
544.681	21509.52
545.045	21581.83
545.41	21775.5
545.774	21820.92
546.138	21870.19
546.503	21881.03
546.867	21779.12
547.231	22080.8
547.595	22048.04
547.959	22228.6
548.324	22246
548.688	22346.56
549.052	22422.04
549.416	22583.84
549.779	22510.4
550.143	22510.62
550.507	22754.46
550.871	22762.59
551.235	22830.61
551.599	23010.5
551.962	23023.83
552.326	23096.14
552.689	23086.65
553.053	23098.86
553.417	23259.98
553.78	23528.9
554.143	23363.03
554.507	23399.86
554.87	23609.58
555.234	23824.49
555.597	23653.42
555.96	23928.66
556.323	23968.89
556.686	24063.8
557.05	24121.43
557.413	24239.62
557.776	24304.7
558.139	24395.77
558.502	24468.31
558.865	24511.02
559.228	24732.03
559.59	24809.55
559.953	24887.51
560.316	25187.84
560.679	25113.72
561.041	25296.54
561.404	25379.47
561.767	25529.53
562.129	25373.15
562.492	25680.48
562.854	25785.34
563.217	25727.26
563.579	25965
563.941	26050.42
564.304	26074.6
564.666	26272.33
565.028	26355.27
565.39	26316.62
565.753	26537.64
566.115	26495.6
566.477	26588.71
566.839	26812.66
567.201	26920.45
567.563	26945.76
567.925	27127.9
568.287	27194.57
568.648	27191.18
569.01	27374.22
569.372	27427.1
569.734	27504.84
570.095	27690.37
570.457	27851.95
570.819	27941.44
571.18	28022.12
571.542	28181.21
571.903	28117.03
572.265	28313.18
572.626	28352.28
572.987	28512.5
573.349	28638.15
573.71	28610.35
574.071	28800.85
574.432	28913.62
574.794	29098.7
575.155	29112.48
575.516	29129.21
575.877	29242.88
576.238	29403.77
576.599	29474.06
576.96	29494.39
577.32	29708.4
577.681	29744.33
578.042	29845.35
578.403	29980.26
578.763	30116.75
579.124	30025.91
579.485	30279.68
579.845	30507.47
580.206	30500.47
580.566	30588.83
580.927	30718.77
581.287	30905.88
581.648	30908.14
582.008	31156.72
582.368	31191.75
582.728	31279.88
583.089	31363.05
583.449	31491.18
583.809	31638.07
584.169	31682.13
584.529	31697.27
584.889	32153.53
585.249	31989.7
585.609	32071.05
585.969	32294.55
586.329	32440.53
586.688	32502.22
587.048	32758.71
587.408	32817.92
587.768	32861.76
588.127	32882.33
588.487	32932.5
588.846	33190.79
589.206	33082.1
589.565	33356.67
589.925	33729.31
590.284	33523.44
590.643	33717.33
591.003	33924.33
591.362	34131.79
591.721	34050.43
592.08	34185.34
592.44	34378.79
592.799	34598.67
593.158	34563.41
593.517	34669.85
593.876	34850.64
594.235	34859.45
594.593	35008.37
594.952	35248.37
595.311	35168.82
595.67	35315.48
596.029	35564.06
596.387	35808.13
596.746	35811.97
597.104	35877.5
597.463	35939.65
597.822	36141.68
598.18	36113.2
598.538	36156.37
598.897	36450.82
599.255	36215.12
599.613	36809
599.972	36796.12
600.33	36869.34
600.688	36727.65
601.046	36971.94
601.404	37194.98
601.762	37131.48
602.12	37246.51
602.478	37529.89
602.836	37531.7
603.194	37327.18
603.552	37639.49
603.91	37543.22
604.268	37739.37
604.625	37861.86
604.983	38009.2
605.341	37933.49
605.698	38046.71
606.056	38315.63
606.413	38279.93
606.771	38465.91
607.128	38535.29
607.485	38342.52
607.843	38429.75
608.2	38754.04
608.557	38875.39
608.914	38748.84
609.272	39021.15
609.629	39024.31
609.986	39317.64
610.343	39173.24
610.7	39602.38
611.057	39387.24
611.414	39514.24
611.771	39554.92
612.127	39669.04
612.484	39674.01
612.841	39891.41
613.198	39800.79
613.554	39931.63
613.911	40225.86
614.267	40292.98
614.624	40183.15
614.98	40324.84
615.337	40340.44
615.693	40453.65
616.05	40348.8
616.406	40723.93
616.762	40538.17
617.118	40485.74
617.475	40636.93
617.831	40797.37
618.187	40994.43
618.543	40833.76
618.899	41164.14
619.255	41204.59
619.611	41170.02
619.967	41293.18
620.323	41364.59
620.678	41091.6
621.034	41280.52
621.39	41308.77
621.746	41308.77
622.101	41659.95
622.457	41337.92
622.812	41623.79
623.168	41623.79
623.523	41682.77
623.879	41812.26
624.234	41645.26
624.589	41739.5
624.945	41708.76
625.3	41792.6
625.655	41689.55
626.01	41958.02
626.365	42003.67
626.72	41821.98
627.075	41926.61
627.43	41932.03
627.785	41823.79
628.14	41887.29
628.495	41910.11
628.85	41843.45
629.205	41873.05
629.559	41975.65
629.914	41840.51
630.269	41954.41
630.623	41876.89
630.978	41678.93
631.332	41844.35
631.687	42145.81
632.041	41900.62
632.396	42042.09
632.75	41929.32
633.104	41877.35
633.459	41702.66
633.813	41812.94
634.167	41810.91
634.521	41737.69
634.875	41821.53
635.229	41845.48
635.583	41652.72
635.937	41610.23
636.291	41654.3
636.645	41586.51
636.999	41422.44
637.352	41743.56
637.706	41546.28
638.06	41621.53
638.413	41525.49
638.767	41381.31
639.121	41468.09
639.474	41409.56
639.828	41301.77
640.181	41397.58
640.534	41532.95
640.888	41345.16
641.241	40986.97
641.594	41280.98
641.947	41325.95
642.301	41116.91
642.654	41156.91
643.007	41058.61
643.36	41155.56
643.713	41117.82
644.066	41192.17
644.419	40934.77
644.771	40738.17
645.124	40462.02
645.477	40280.55
645.83	40180.89
646.182	39942.71
646.535	39898.19
646.888	39965.31
647.24	39714.46
647.593	39960.11
647.945	39946.55
648.298	39740.9
648.65	39605.77
649.002	39658.42
649.355	39749.27
649.707	39725.76
650.059	39859.09
650.411	40266.77
650.763	40255.92
651.115	40845.73
651.467	40487.33
651.819	40636.02
652.171	40495.91
652.523	40502.47
652.875	40353.09
653.227	40151.51
653.578	40509.7
653.93	40426.99
654.282	40251.17
654.633	40133.66
654.985	40252.98
655.337	40228.12
655.688	40179.54
656.039	40307.44
656.391	40076.71
656.742	40042.14
657.094	40039.43
657.445	40193.55
657.796	40081.69
658.147	39928.92
658.498	40070.39
658.849	40134.11
659.2	39996.72
659.551	39802.37
659.902	40134.11
660.253	39943.16
660.604	40004.4
660.955	39804.18
661.306	40068.13
661.656	39893.44
662.007	40050.73
662.358	39941.12
662.708	39956.49
663.059	39914.46
663.409	39701.81
663.76	40075.13
664.11	40134.57
664.461	40017.51
664.811	39873.78
665.161	39874.91
665.511	39790.39
665.862	39934.57
666.212	39973.44
666.562	39928.47
666.912	39887.34
667.262	39861.58
667.612	39713.33
667.962	39836.04
668.312	39773.45
668.662	40140.44
669.011	39894.8
669.361	39807.57
669.711	39605.09
670.06	39616.16
670.41	39581.13
670.76	39495.71
671.109	39713.56
671.459	39583.39
671.808	39532.55
672.157	39551.3
672.507	39276.96
672.856	39312.67
673.205	39446
673.554	39617.29
673.904	39349.5
674.253	39612.32
674.602	39362.84
674.951	38885.11
675.3	38617.32
675.649	39314.02
675.998	39386.56
676.346	39403.74
676.695	39456.17
677.044	39200.13
677.393	39326.23
677.741	39200.13
678.09	39215.72
678.438	39135.27
678.787	39183.86
679.135	39030.87
679.484	38919
679.832	39040.81
680.181	38870.42
680.529	38934.82
680.877	38804.88
681.225	38818.89
681.573	39031.09
681.922	38568.05
682.27	38582.52
682.618	38700.71
682.966	38509.52
683.314	38625
683.661	38487.83
684.009	38380.94
684.357	38259.14
684.705	38213.49
685.053	38317.44
685.4	38147.95
685.748	38064.79
686.095	38044.9
686.443	37955.19
686.79	37840.39
687.138	37963.1
687.485	37958.13
687.832	37713.39
688.18	37773.05
688.527	37520.4
688.874	37563.33
689.221	37342.78
689.568	37313.85
689.915	37449.44
690.262	37328.76
690.609	37137.81
690.956	37044.48
691.303	37088.32
691.65	36895.56
691.997	36926.29
692.344	36618.73
692.69	36569.69
693.037	36620.99
693.383	36378.28
693.73	36506.19
694.077	36284.5
694.423	36316.14
694.769	36110.72
695.116	36129.02
695.462	36041.11
695.808	35947.78
696.155	36000.21
696.501	35712.08
696.847	35844.06
697.193	35396.16
697.539	35578.75
697.885	35319.33
698.231	35282.04
698.577	35348.7
698.923	35181.48
699.269	34953.23
699.614	34875.27
699.96	34799.11
700.306	34732.22
700.651	34762.28
700.997	34519.35
701.342	34405.23
701.688	34539.46
702.033	34377.2
702.379	34417.2
702.724	34113.03
703.069	34172.46
703.415	33929.76
703.76	33864.45
704.105	33901.06
704.45	33861.51
704.795	33634.62
705.14	33700.84
705.485	33529.99
705.83	33479.15
706.175	33530.9
706.52	33325.25
706.865	33377.91
707.209	33287.51
707.554	33154.41
707.899	33144.02
708.243	33003.91
708.588	32922.1
708.932	32714.42
709.277	32702.45
709.621	32675.55
709.966	32564.37
710.31	32711.26
710.654	32185.4
710.998	32369.57
711.342	32287.09
711.687	32176.13
712.031	32269.01
712.375	32053.2
712.719	32122.57
713.063	32066.76
713.407	32170.48
713.75	32005.06
714.094	31879.42
714.438	31728.01
714.782	31840.32
715.125	31530.05
715.469	31697.95
715.812	31488.69
716.156	31328.47
716.499	31311.07
716.843	31357.4
717.186	31169.6
717.53	31290.05
717.873	31182.71
718.216	31283.05
718.559	31083.96
718.902	30783.17
719.246	30934.58
719.589	30885.77
719.932	30623.18
720.275	30747.92
720.617	30770.52
720.96	30715.83
721.303	30663.18
721.646	30625.89
721.989	30267.26
722.331	30614.59
722.674	30462.96
723.016	30470.41
723.359	30421.38
723.701	30432.67
724.044	30069.29
724.386	30064.55
724.729	30253.02
725.071	30017.54
725.413	29962.86
725.755	30016.87
726.097	29911.11
726.439	29713.15
726.782	29817.1
727.124	29900.94
727.465	29639.93
727.807	29592.47
728.149	29545.47
728.491	29559.48
728.833	29598.57
729.175	29396.32
729.516	29382.98
729.858	29303.89
730.199	29368.52
730.541	29310.22
730.882	29221.63
731.224	29334.4
731.565	29085.14
731.906	29114.97
732.248	29129.43
732.589	28942.32
732.93	28823.68
733.271	28926.5
733.612	28940.96
733.953	28984.8
734.294	28775.32
734.635	28654.87
734.976	28830.91
735.317	28587.3
735.658	28669.33
735.999	28539.84
736.339	28521.99
736.68	28553.4
737.021	28427.98
737.361	28339.17
737.702	28597.92
738.042	28417.81
738.383	28227.53
738.723	28326.29
739.063	28110.02
739.404	28358.15
739.744	28150.47
740.084	28171.49
740.424	28161.77
740.764	27956.36
741.104	28180.53
741.444	27895.11
741.784	27839.97
742.124	27965.85
742.464	27877.04
742.804	27857.83
743.143	27783.25
743.483	27775.57
743.823	27644.27
744.162	27744.61
744.502	27640.21
744.841	27572.41
745.181	27598.62
745.52	27482.02
745.86	27477.27
746.199	27367.9
746.538	27281.57
746.877	27479.08
747.216	27346.2
747.556	27308.24
747.895	27380.78
748.234	27123.16
748.573	27203.83
748.911	27279.31
749.25	27075.25
749.589	26919.55
749.928	26991.41
750.267	27000.67
750.605	26862.15
750.944	26847.46
751.283	26664.86
751.621	26739.44
751.96	26719.1
752.298	26672.77
752.636	26497.86
752.975	26469.39
753.313	26510.29
753.651	26472.78
753.989	26473.23
754.327	26353.23
754.666	26231.2
755.004	26117.31
755.342	26268.04
755.679	26200.24
756.017	26001.6
756.355	26008.16
756.693	25859.24
757.031	25946.01
