Data from hue_80_FLMS001491_95.txt Node
Date: Mon Feb 06 15:24:05 GMT 2017
User: dcchb
Spectrometer: FLMS00149
Trigger mode: 0
Integration Time (sec): 2.000000E-2
Scans to average: 10
Electric dark correction enabled: true
Nonlinearity correction enabled: false
Boxcar width: 0
XAxis mode: Wavelengths
Number of Pixels in Spectrum: 2048
>>>>>Begin Spectral Data<<<<<
341.393	6.88
341.776	6.88
342.16	6.88
342.543	-22.95
342.927	-66.11
343.31	-74.93
343.693	-58.88
344.077	-57.3
344.46	-58.43
344.843	-39.9
345.226	-43.29
345.61	-52.1
345.993	-23.18
346.376	-5.1
346.759	0.55
347.142	33.32
347.525	48.01
347.908	76.03
348.291	68.57
348.674	83.03
349.057	103.6
349.44	135.69
349.823	161.9
350.206	160.77
350.588	191.73
350.971	210.26
351.354	232.41
351.737	249.36
352.119	252.07
352.502	266.08
352.884	273.31
353.267	274.89
353.65	303.37
354.032	303.82
354.414	315.12
354.797	315.8
355.179	320.32
355.562	328.68
355.944	340.2
356.326	326.42
356.709	341.33
357.091	315.34
357.473	351.28
357.855	353.31
358.238	357.83
358.62	369.13
359.002	357.15
359.384	339.52
359.766	368.22
360.148	334.78
360.53	347.43
360.912	335.23
361.294	326.42
361.676	318.06
362.057	334.78
362.439	341.56
362.821	336.81
363.203	317.15
363.584	329.81
363.966	315.12
364.348	335.01
364.729	327.1
365.111	338.62
365.493	313.31
365.874	314.67
366.256	320.32
366.637	307.44
367.019	316.25
367.4	315.34
367.781	332.52
368.163	339.98
368.544	322.12
368.925	321.67
369.306	322.35
369.688	328.45
370.069	302.92
370.45	319.64
370.831	318.96
371.212	316.7
371.593	319.64
371.974	339.52
372.355	294.33
372.736	322.12
373.117	325.51
373.498	321.9
373.879	308.79
374.26	316.7
374.641	309.47
375.021	307.89
375.402	295.91
375.783	316.47
376.163	322.12
376.544	322.12
376.925	333.2
377.305	347.21
377.686	316.47
378.066	326.42
378.447	357.38
378.827	361.22
379.208	323.71
379.588	343.37
379.968	362.58
380.349	351.05
380.729	345.17
381.109	339.3
381.489	347.66
381.87	347.21
382.25	346.98
382.63	356.02
383.01	342.91
383.39	345.85
383.77	352.63
384.15	341.56
384.53	355.12
384.91	353.54
385.29	338.62
385.67	346.53
386.049	356.47
386.429	348.56
386.809	365.06
387.189	343.14
387.568	352.18
387.948	363.48
388.328	377.49
388.707	370.03
389.087	376.59
389.466	381.78
389.846	397.15
390.225	372.29
390.605	377.94
390.984	388.11
391.363	381.33
391.743	356.47
392.122	368.68
392.501	367.09
392.881	373.65
393.26	400.99
393.639	396.7
394.018	378.85
394.397	394.44
394.776	371.61
395.155	371.16
395.534	386.3
395.913	390.15
396.292	389.92
396.671	384.27
397.05	412.07
397.429	408.68
397.808	417.04
398.186	382.01
398.565	391.73
398.944	391.73
399.323	410.94
399.701	396.92
400.08	410.26
400.458	420.43
400.837	420.65
401.215	410.03
401.594	414.78
401.972	423.36
402.351	418.84
402.729	410.26
403.107	412.07
403.486	393.31
403.864	414.1
404.242	410.94
404.62	414.33
404.999	419.3
405.377	427.88
405.755	431.95
406.133	433.76
406.511	432.4
406.889	424.72
407.267	440.77
407.645	456.13
408.023	459.97
408.401	464.72
408.779	455.23
409.156	460.43
409.534	439.18
409.912	479.41
410.29	437.15
410.667	478.96
411.045	461.1
411.422	470.59
411.8	473.08
412.178	478.96
412.555	477.15
412.933	491.16
413.31	505.62
413.687	511.5
414.065	498.62
414.442	482.8
414.819	512.63
415.197	521.22
415.574	522.8
415.951	519.18
416.328	500.88
416.705	512.18
417.082	524.38
417.46	554.21
417.837	539.07
418.214	529.12
418.591	542.68
418.967	534.77
419.344	542.23
419.721	549.69
420.098	561.44
420.475	548.56
420.852	551.27
421.228	570.48
421.605	568.67
421.982	569.58
422.358	549.91
422.735	592.85
423.111	583.36
423.488	575.45
423.864	574.32
424.241	571.61
424.617	575
424.994	597.37
425.37	605.51
425.746	588.56
426.123	591.04
426.499	627.65
426.875	602.79
427.251	611.83
427.627	614.77
428.003	619.07
428.379	623.81
428.756	631.04
429.132	640.76
429.507	636.47
429.883	672.4
430.259	679.18
430.635	673.3
431.011	661.1
431.387	667.88
431.763	708.1
432.138	694.77
432.514	708.78
432.89	684.37
433.265	720.53
433.641	711.04
434.016	709.68
434.392	717.37
434.767	741.77
435.143	729.8
435.518	729.12
435.894	732.51
436.269	744.49
436.644	766.86
437.02	765.73
437.395	774.77
437.77	789.68
438.145	780.42
438.52	762.11
438.895	782.23
439.271	786.97
439.646	795.56
440.021	810.47
440.395	818.38
440.77	812.96
441.145	816.12
441.52	823.13
441.895	813.18
442.27	843.01
442.645	838.49
443.019	853.41
443.394	844.14
443.769	883.69
444.143	862.22
444.518	866.74
444.892	883.01
445.267	871.71
445.641	902.67
446.016	880.3
446.39	869.91
446.764	894.99
447.139	907.42
447.513	879.85
447.887	903.13
448.262	923.69
448.636	914.2
449.01	919.62
449.384	924.14
449.758	964.82
450.132	968.89
450.506	958.49
450.88	957.81
451.254	954.2
451.628	981.09
452.002	985.38
452.376	1009.11
452.75	1002.11
453.123	1010.92
453.497	1036.91
453.871	1029
454.244	1054.99
454.618	1064.48
454.992	1086.62
455.365	1092.95
455.739	1085.72
456.112	1100.18
456.486	1100.18
456.859	1123.69
457.232	1128.43
457.606	1115.1
457.979	1139.5
458.352	1170.69
458.725	1184.7
459.099	1196.68
459.472	1220.63
459.845	1240.29
460.218	1260.63
460.591	1249.11
460.964	1240.97
461.337	1280.74
461.71	1300.18
462.083	1315.09
462.456	1316.45
462.829	1299.05
463.201	1345.37
463.574	1366.39
463.947	1369.1
464.32	1399.84
464.692	1420.63
465.065	1433.28
465.438	1467.4
465.81	1473.96
466.183	1492.04
466.555	1524.35
466.928	1545.37
467.3	1570.45
467.672	1576.33
468.045	1595.09
468.417	1624.24
468.789	1638.93
469.161	1690.68
469.534	1712.82
469.906	1727.06
470.278	1751.47
470.65	1784.46
471.022	1859.71
471.394	1896.09
471.766	1859.26
472.138	1930.44
472.51	1974.96
472.882	1997.33
473.253	2039.37
473.625	2103.32
473.997	2110.33
474.369	2168.18
474.74	2222.41
475.112	2258.12
475.484	2313.94
475.855	2373.82
476.227	2395.52
476.598	2466.47
476.97	2511.45
477.341	2566.59
477.713	2660.82
478.084	2712.8
478.455	2768.61
478.827	2812.45
479.198	2914.15
479.569	2969.06
479.94	3080.47
480.311	3164.54
480.682	3258.54
481.053	3306.45
481.424	3456.28
481.795	3471.65
482.166	3617.63
482.537	3667.8
482.908	3790.51
483.279	3907.34
483.65	4001.12
484.021	4095.81
484.391	4185.3
484.762	4259.2
485.133	4360.44
485.503	4458.06
485.874	4615.57
486.244	4732.4
486.615	4851.5
486.985	5002.23
487.356	5140.98
487.726	5188.44
488.097	5384.82
488.467	5408.77
488.837	5627.75
489.207	5763.11
489.578	5916.55
489.948	5996.1
490.318	6145.25
490.688	6282.42
491.058	6375.3
491.428	6546.82
491.798	6661.84
492.168	6875.17
492.538	7016.86
492.908	7188.61
493.278	7304.99
493.648	7410.75
494.017	7606
494.387	7715.15
494.757	7857.29
495.126	8054.35
495.496	8143.16
495.866	8258.19
496.235	8411.86
496.605	8479.2
496.974	8591.96
497.344	8831.51
497.713	8928.45
498.082	9110.82
498.452	9318.05
498.821	9423.35
499.19	9451.6
499.559	9564.82
499.928	9720.3
500.298	9840.29
500.667	9924.81
501.036	9968.42
501.405	10215.42
501.774	10210.68
502.143	10378.81
502.512	10502.65
502.88	10634.4
503.249	10726.14
503.618	10872.58
503.987	10925.46
504.356	11092.24
504.724	11171.56
505.093	11204.55
505.462	11286.36
505.83	11451.1
506.199	11567.25
506.567	11726.12
506.936	11759.79
507.304	11997.52
507.672	12007.01
508.041	12099.67
508.409	12200
508.777	12307.8
509.145	12524.52
509.514	12501.47
509.882	12615.59
510.25	12687.67
510.618	12762.02
510.986	12836.6
511.354	13050.83
511.722	13067.1
512.09	13175.35
512.458	13206.08
512.826	13332.86
513.193	13444.94
513.561	13486.98
513.929	13623.92
514.297	13704.82
514.664	13804.48
515.032	13783.24
515.4	13906.17
515.767	13962.9
516.135	14119.5
516.502	14058.94
516.869	14257.58
517.237	14323.34
517.604	14287.18
517.972	14489.21
518.339	14503.22
518.706	14548.19
519.073	14632.48
519.44	14634.97
519.808	14820.95
520.175	14908.86
520.542	14999.25
520.909	15134.62
521.276	14976.2
521.643	15115.86
522.009	15262.52
522.376	15251.68
522.743	15412.35
523.11	15465.68
523.477	15672.23
523.843	15707.03
524.21	15806.69
524.577	15893.01
524.943	15890.3
525.31	15906.57
525.676	16137.53
526.043	16243.51
526.409	16229.73
526.776	16347.92
527.142	16494.58
527.508	16447.35
527.874	16533.68
528.241	16508.82
528.607	16564.64
528.973	16632.43
529.339	16600.34
529.705	16755.82
530.071	16867
530.437	16907.45
530.803	16879.2
531.169	16991.52
531.535	16892.99
531.901	17017.05
532.267	17035.36
532.632	17090.5
532.998	17154.68
533.364	17147.67
533.73	17174.79
534.095	17258.18
534.461	17282.81
534.826	17299.76
535.192	17289.81
535.557	17421.34
535.923	17288.23
536.288	17440.77
536.653	17374.33
537.019	17275.35
537.384	17443.93
537.749	17361.9
538.114	17362.81
538.479	17392.86
538.845	17415.23
539.21	17332.3
539.575	17405.74
539.94	17461.79
540.305	17586.98
540.67	17464.95
541.034	17498.17
541.399	17581.78
541.764	17458.85
542.129	17522.8
542.494	17533.65
542.858	17621.56
543.223	17495.23
543.587	17626.53
543.952	17464.27
544.316	17552.63
544.681	17481.67
545.045	17510.37
545.41	17577.94
545.774	17517.6
546.138	17605.29
546.503	17476.7
546.867	17463.14
547.231	17542.46
547.595	17497.27
547.959	17524.61
548.324	17440.77
548.688	17571.61
549.052	17532.52
549.416	17450.26
549.779	17520.77
550.143	17529.81
550.507	17497.27
550.871	17586.08
551.235	17489.36
551.599	17598.96
551.962	17564.83
552.326	17549.02
552.689	17675.34
553.053	17550.82
553.417	17513.76
553.78	17711.05
554.143	17672.85
554.507	17680.09
554.87	17597.15
555.234	17713.53
555.597	17523.03
555.96	17594.21
556.323	17614.55
556.686	17573.2
557.05	17720.54
557.413	17705.4
557.776	17765.28
558.139	17824.26
558.502	17713.53
558.865	17762.12
559.228	17943.36
559.59	17924.15
559.953	17826.97
560.316	17926.41
560.679	18028.1
561.041	18135.22
561.404	18043.01
561.767	18104.48
562.129	18067.87
562.492	18174.08
562.854	18151.49
563.217	18155.1
563.579	18196.46
563.941	18305.38
564.304	18359.39
564.666	18286.17
565.028	18355.1
565.39	18370.24
565.753	18502.21
566.115	18437.81
566.477	18474.64
566.839	18574.07
567.201	18651.13
567.563	18679.83
567.925	18756.89
568.287	18612.26
568.648	18687.52
569.01	18704.69
569.372	18860.17
569.734	18791.47
570.095	18889.09
570.457	18948.3
570.819	18923.9
571.18	18960.5
571.542	18984.68
571.903	19074.63
572.265	19080.28
572.626	19055.64
572.987	19081.63
573.349	19103.78
573.71	19209.54
574.071	19196.43
574.432	19289.54
574.794	19349.19
575.155	19297.67
575.516	19217.22
575.877	19418.57
576.238	19346.93
576.599	19426.03
576.96	19469.19
577.32	19315.52
577.681	19476.2
578.042	19505.57
578.403	19391.68
578.763	19371.34
579.124	19546.7
579.485	19593.03
579.845	19531.56
580.206	19595.52
580.566	19477.1
580.927	19438.01
581.287	19579.25
581.648	19567.72
582.008	19556.65
582.368	19511.45
582.728	19579.7
583.089	19573.37
583.449	19465.8
583.809	19490.89
584.169	19515.07
584.529	19413.83
584.889	19641.62
585.249	19490.43
585.609	19402.53
585.969	19630.54
586.329	19508.96
586.688	19557.1
587.048	19473.03
587.408	19469.19
587.768	19479.59
588.127	19335.18
588.487	19420.38
588.846	19531.79
589.206	19435.52
589.565	19429.42
589.925	19394.17
590.284	19343.32
590.643	19475.97
591.003	19544.9
591.362	19484.78
591.721	19453.82
592.08	19440.94
592.44	19384
592.799	19472.81
593.158	19478.68
593.517	19481.17
593.876	19409.98
594.235	19361.4
594.593	19316.65
594.952	19443.43
595.311	19372.24
595.67	19367.5
596.029	19451.34
596.387	19482.07
596.746	19438.01
597.104	19393.49
597.463	19273.26
597.822	19362.98
598.18	19388.52
598.538	19349.19
598.897	19454.73
599.255	19192.81
599.613	19559.81
599.972	19442.75
600.33	19500.6
600.688	19367.27
601.046	19395.07
601.404	19587.38
601.762	19443.2
602.12	19629.19
602.478	19526.82
602.836	19563.43
603.194	19398.46
603.552	19423.54
603.91	19320.49
604.268	19473.94
604.625	19426.93
604.983	19449.08
605.341	19381.28
605.698	19516.42
606.056	19616.31
606.413	19463.99
606.771	19486.14
607.128	19560.71
607.485	19532.69
607.843	19549.19
608.2	19589.64
608.557	19566.14
608.914	19646.81
609.272	19645.23
609.629	19699.02
609.986	19706.7
610.343	19642.07
610.7	19800.26
611.057	19797.32
611.414	19663.08
611.771	19815.4
612.127	19925.45
612.484	19800.03
612.841	19842.51
613.198	19838.22
613.554	19860.37
613.911	20012.68
614.267	19923.19
614.624	19866.7
614.98	19917.77
615.337	19890.65
615.693	19935.62
616.05	20002.74
616.406	20048.84
616.762	20011.78
617.118	20004.09
617.475	19909.63
617.831	20051.32
618.187	20051.55
618.543	20164.99
618.899	20232.11
619.255	20148.5
619.611	20163.86
619.967	20322.95
620.323	20187.59
620.678	20231.88
621.034	20098.1
621.39	20170.19
621.746	20080.25
622.101	20419.45
622.457	20121.6
622.812	20194.37
623.168	20314.14
623.523	20319.34
623.879	20370.18
624.234	20149.63
624.589	20249.28
624.945	20221.94
625.3	20238.21
625.655	20174.71
626.01	20200.7
626.365	20253.13
626.72	20288.83
627.075	20281.83
627.43	20276.4
627.785	20212.9
628.14	20255.61
628.495	20285.44
628.85	20259.68
629.205	20164.31
629.559	20238.44
629.914	20211.54
630.269	20316.17
630.623	20154.37
630.978	20084.99
631.332	20236.63
631.687	20111.21
632.041	20045.67
632.396	20129.29
632.75	20167.7
633.104	20118.89
633.459	19975.62
633.813	19942.17
634.167	19954.38
634.521	20006.13
634.875	20081.6
635.229	20035.05
635.583	19899.24
635.937	19837.32
636.291	19856.3
636.645	19863.76
636.999	19835.96
637.352	19879.8
637.706	19743.08
638.06	19781.73
638.413	19720.71
638.767	19675.97
639.121	19799.35
639.474	19646.81
639.828	19679.13
640.181	19655.85
640.534	19698.56
640.888	19654.27
641.241	19515.07
641.594	19547.61
641.947	19677.32
642.301	19609.75
642.654	19587.15
643.007	19560.49
643.36	19514.39
643.713	19484.11
644.066	19600.26
644.419	19524.78
644.771	19303.55
645.124	19122.76
645.477	19141.74
645.83	19063.1
646.182	18932.48
646.535	18878.02
646.888	18969.54
647.24	18863.11
647.593	18839.38
647.945	18862.2
648.298	18747.4
648.65	18779.27
649.002	18731.13
649.355	18781.07
649.707	18800.06
650.059	18838.7
650.411	19106.26
650.763	19108.52
651.115	19331.57
651.467	19250.67
651.819	19291.34
652.171	19294.51
652.523	19221.97
652.875	19295.64
653.227	19186.71
653.578	19194.62
653.93	19163.89
654.282	19184.91
654.633	19120.05
654.985	19162.31
655.337	19225.13
655.688	19212.93
656.039	19217.67
656.391	19073.95
656.742	19133.16
657.094	19089.54
657.445	19185.13
657.796	19013.38
658.147	19051.12
658.498	19107.17
658.849	19164.11
659.2	19182.65
659.551	19167.28
659.902	19243.43
660.253	19167.28
660.604	19224.23
660.955	19212.48
661.306	19179.48
661.656	19226.49
662.007	19202.76
662.358	19248.41
662.708	19159.6
663.059	19267.39
663.409	19055.64
663.76	19297.44
664.11	19340.83
664.461	19228.29
664.811	19238.69
665.161	19261.97
665.511	19206.83
665.862	19266.48
666.212	19371.11
666.562	19372.92
666.912	19221.29
667.262	19134.51
667.612	19265.36
667.962	19270.55
668.312	19198.69
668.662	19306.48
669.011	19138.13
669.361	19158.01
669.711	19224.68
670.06	19147.39
670.41	19153.04
670.76	19128.64
671.109	19169.99
671.459	19198.24
671.808	19215.64
672.157	19232.14
672.507	19093.83
672.856	19054.29
673.205	19083.66
673.554	19206.15
673.904	19088.18
674.253	19163.21
674.602	19158.92
674.951	18808.87
675.3	18648.65
675.649	18942.88
675.998	19022.88
676.346	18896.33
676.695	19009.77
677.044	18923.9
677.393	18934.29
677.741	18865.82
678.09	18863.33
678.438	18753.73
678.787	18765.26
679.135	18797.34
679.484	18680.06
679.832	18725.26
680.181	18693.39
680.529	18732.71
680.877	18646.16
681.225	18593.73
681.573	18640.06
681.922	18580.85
682.27	18416.11
682.618	18511.7
682.966	18547.63
683.314	18508.54
683.661	18500.63
684.009	18298.83
684.357	18363.91
684.705	18290.69
685.053	18338.6
685.4	18351.93
685.748	18199.85
686.095	18111.49
686.443	18115.55
686.79	17952.17
687.138	18044.82
687.485	18160.3
687.832	18025.39
688.18	17921.21
688.527	17900.65
688.874	17919.85
689.221	17758.73
689.568	17703.81
689.915	17746.52
690.262	17707.66
690.609	17639.18
690.956	17655.91
691.303	17519.86
691.65	17459.75
691.997	17469.92
692.344	17298.4
692.69	17328.46
693.037	17362.58
693.383	17201.91
693.73	17243.26
694.077	17162.59
694.423	17122.36
694.769	17037.17
695.116	17006.21
695.462	16954.23
695.808	16819.77
696.155	16894.34
696.501	16689.6
696.847	16710.39
697.193	16647.12
697.539	16630.4
697.885	16450.74
698.231	16393.79
698.577	16370.52
698.923	16393.57
699.269	16248.71
699.614	16214.59
699.96	16165.1
700.306	16149.05
700.651	16031.54
700.997	16006.68
701.342	16003.07
701.688	15961.04
702.033	15851.43
702.379	15876.29
702.724	15837.42
703.069	15853.69
703.415	15579.8
703.76	15642.85
704.105	15620.25
704.45	15614.6
704.795	15475.4
705.14	15432.01
705.485	15413.25
705.83	15380.26
706.175	15333.93
706.52	15264.1
706.865	15220.04
707.209	15198.8
707.554	15177.33
707.899	15092.36
708.243	15045.58
708.588	15118.57
708.932	14948.41
709.277	14872.48
709.621	14904.79
709.966	14902.98
710.31	14792.7
710.654	14651.01
710.998	14782.54
711.342	14747.06
711.687	14629.09
712.031	14571.92
712.375	14617.34
712.719	14576.66
713.063	14500.73
713.407	14543.22
713.75	14419.15
714.094	14406.05
714.438	14314.52
714.782	14382.09
715.125	14291.7
715.469	14317.69
715.812	14284.92
716.156	14212.15
716.499	14201.53
716.843	14237.92
717.186	14154.75
717.53	14211.48
717.873	14193.4
718.216	14069.56
718.559	14098.03
718.902	14020.07
719.246	13980.07
719.589	13997.47
719.932	13909.79
720.275	13950.01
720.617	13947.08
720.96	13877.25
721.303	13950.24
721.646	13984.59
721.989	13842.45
722.331	13952.73
722.674	13786.86
723.016	13818.04
723.359	13785.95
723.701	13863.24
724.044	13781.88
724.386	13650.36
724.729	13722.22
725.071	13735.78
725.413	13737.36
725.755	13700.76
726.097	13609.23
726.439	13569.69
726.782	13668.44
727.124	13667.31
727.465	13628.67
727.807	13638.84
728.149	13618.5
728.491	13484.49
728.833	13561.1
729.175	13556.35
729.516	13533.3
729.858	13525.39
730.199	13460.31
730.541	13537.37
730.882	13502.57
731.224	13553.19
731.565	13387.32
731.906	13478.61
732.248	13489.46
732.589	13481.33
732.93	13390.71
733.271	13408.79
733.612	13348.9
733.953	13438.84
734.294	13438.62
734.635	13379.86
734.976	13509.57
735.317	13351.39
735.658	13379.63
735.999	13376.92
736.339	13369.24
736.68	13409.24
737.021	13362.46
737.361	13289.69
737.702	13403.81
738.042	13346.19
738.383	13338.28
738.723	13402.01
739.063	13326.75
739.404	13411.72
739.744	13429.35
740.084	13406.75
740.424	13365.85
740.764	13347.77
741.104	13458.28
741.444	13411.05
741.784	13431.16
742.124	13481.1
742.464	13438.62
742.804	13518.39
743.143	13470.71
743.483	13558.39
743.823	13512.29
744.162	13514.55
744.502	13529.23
744.841	13515.68
745.181	13593.87
745.52	13627.76
745.86	13736.91
746.199	13733.98
746.538	13777.36
746.877	13807.42
747.216	13853.52
747.556	13955.44
747.895	13881.54
748.234	13950.24
748.573	13977.13
748.911	14045.38
749.25	14045.15
749.589	14088.99
749.928	14192.27
750.267	14270.01
750.605	14326.05
750.944	14378.48
751.283	14375.54
751.621	14539.83
751.96	14579.38
752.298	14642.2
752.636	14731.24
752.975	14722.42
753.313	14868.63
753.651	14974.17
753.989	15037.44
754.327	15074.96
754.666	15149.76
755.004	15334.38
755.342	15515.17
755.679	15518.33
756.017	15599.69
756.355	15705.67
756.693	15877.2
