Data from hue_26_FLMS001491_00069.txt Node
Date: Tue Feb 07 17:14:21 GMT 2017
User: dcchb
Spectrometer: FLMS00149
Trigger mode: 0
Integration Time (sec): 2.000000E-2
Scans to average: 10
Electric dark correction enabled: true
Nonlinearity correction enabled: false
Boxcar width: 0
XAxis mode: Wavelengths
Number of Pixels in Spectrum: 2048
>>>>>Begin Spectral Data<<<<<
341.393	-3.84
341.776	-3.84
342.16	-3.84
342.543	-43.16
342.927	-65.76
343.31	-68.25
343.693	-97.17
344.077	-47.91
344.46	-62.37
344.843	-24.63
345.226	-35.03
345.61	-35.03
345.993	-19.89
346.376	-11.98
346.759	17.85
347.142	25.54
347.525	25.99
347.908	50.17
348.291	75.03
348.674	85.87
349.057	121.8
349.44	143.05
349.823	149.83
350.206	163.84
350.588	203.16
350.971	217.4
351.354	232.76
351.737	238.64
352.119	242.03
352.502	266.43
352.884	276.6
353.267	292.65
353.65	279.54
354.032	309.82
354.414	324.74
354.797	296.04
355.179	336.71
355.562	331.97
355.944	327.22
356.326	332.87
356.709	358.63
357.091	360.44
357.473	352.76
357.855	342.82
358.238	356.37
358.62	365.19
359.002	363.83
359.384	345.08
359.766	329.26
360.148	336.94
360.53	341.46
360.912	352.31
361.294	318.18
361.676	328.13
362.057	351.18
362.439	355.02
362.821	357.5
363.203	334.68
363.584	340.1
363.966	341.69
364.348	352.99
364.729	336.94
365.111	329.48
365.493	319.31
365.874	312.76
366.256	336.71
366.637	334.91
367.019	329.26
367.4	343.27
367.781	305.98
368.163	325.19
368.544	325.19
368.925	308.24
369.306	308.24
369.688	319.31
370.069	309.82
370.45	308.92
370.831	309.82
371.212	331.29
371.593	319.31
371.974	339.88
372.355	344.85
372.736	313.44
373.117	346.21
373.498	324.96
373.879	323.83
374.26	312.08
374.641	333.55
375.021	328.35
375.402	341.46
375.783	359.54
376.163	324.06
376.544	349.37
376.925	339.43
377.305	328.58
377.686	335.13
378.066	313.66
378.447	317.96
378.827	359.54
379.208	350.73
379.588	349.6
379.968	353.44
380.349	362.7
380.729	336.26
381.109	359.31
381.489	362.48
381.87	372.42
382.25	341.69
382.63	345.08
383.01	371.97
383.39	340.33
383.77	360.22
384.15	368.58
384.53	373.1
384.91	374
385.29	371.74
385.67	388.24
386.049	367.22
386.429	376.04
386.809	369.03
387.189	370.16
387.568	401.35
387.948	387.33
388.328	374.45
388.707	387.56
389.087	383.94
389.466	371.06
389.846	398.41
390.225	407.22
390.605	402.25
390.984	414.68
391.363	389.59
391.743	398.63
392.122	419.2
392.501	398.41
392.881	404.28
393.26	422.36
393.639	392.31
394.018	402.02
394.397	410.84
394.776	400.67
395.155	411.97
395.534	401.12
395.913	419.88
396.292	422.36
396.671	401.57
397.05	398.86
397.429	403.83
397.808	424.62
398.186	413.55
398.565	419.2
398.944	402.25
399.323	423.94
399.701	422.14
400.08	447.9
400.458	414.9
400.837	435.47
401.215	434.11
401.594	416.26
401.972	442.7
402.351	422.59
402.729	433.21
403.107	448.58
403.486	458.74
403.864	437.28
404.242	448.58
404.62	450.16
404.999	452.42
405.377	468.01
405.755	454.68
406.133	489.03
406.511	472.08
406.889	467.78
407.267	493.77
407.645	494
408.023	480.67
408.401	489.48
408.779	488.57
409.156	488.35
409.534	498.74
409.912	495.35
410.29	512.98
410.667	511.4
411.045	504.17
411.422	512.98
411.8	504.39
412.178	520.21
412.555	524.28
412.933	515.69
413.31	529.93
413.687	557.27
414.065	522.47
414.442	556.82
414.819	547.78
415.197	545.52
415.574	536.71
415.951	534
416.328	554.79
416.705	554.34
417.082	562.25
417.46	579.87
417.837	576.48
418.214	558.63
418.591	585.52
418.967	569.48
419.344	585.97
419.721	605.18
420.098	595.92
420.475	595.46
420.852	609.25
421.228	627.33
421.605	622.13
421.982	614.22
422.358	594.79
422.735	604.05
423.111	630.04
423.488	628.23
423.864	616.71
424.241	615.8
424.617	653.32
424.994	647.67
425.37	627.55
425.746	642.92
426.123	644.95
426.499	658.51
426.875	670.49
427.251	660.55
427.627	681.34
428.003	707.55
428.379	672.75
428.756	699.19
429.132	699.64
429.507	717.5
429.883	714.56
430.259	728.57
430.635	733.54
431.011	733.54
431.387	752.07
431.763	770.15
432.138	725.4
432.514	755.46
432.89	787.1
433.265	769.92
433.641	751.62
434.016	791.84
434.392	806.31
434.767	806.53
435.143	799.98
435.518	817.38
435.894	823.26
436.269	819.41
436.644	837.04
437.02	828.68
437.395	852.63
437.77	870.94
438.145	861.9
438.52	859.64
438.895	872.52
439.271	877.27
439.646	917.04
440.021	879.07
440.395	902.58
440.77	892.41
441.145	916.36
441.52	962.01
441.895	915.91
442.27	916.36
442.645	914.1
443.019	917.72
443.394	930.15
443.769	946.64
444.143	966.75
444.518	951.39
444.892	997.71
445.267	953.65
445.641	976.02
446.016	969.01
446.39	974.66
446.764	1008.11
447.139	1013.08
447.513	984.38
447.887	1007.88
448.262	1017.6
448.636	1015.11
449.01	1031.61
449.384	1023.48
449.758	1044.72
450.132	1032.29
450.506	1056.24
450.88	1046.3
451.254	1061.67
451.628	1069.12
452.002	1068.45
452.376	1078.62
452.75	1110.03
453.123	1095.11
453.497	1136.69
453.871	1117.48
454.244	1143.25
454.618	1169.91
454.992	1187.77
455.365	1179.86
455.739	1158.61
456.112	1192.06
456.486	1203.58
456.859	1237.03
457.232	1235.9
457.606	1258.72
457.979	1286.52
458.352	1280.64
458.725	1296.01
459.099	1291.94
459.472	1341.89
459.845	1322.23
460.218	1331.04
460.591	1342.56
460.964	1341.21
461.337	1348.21
461.71	1413.07
462.083	1443.8
462.456	1439.28
462.829	1453.3
463.201	1442.9
463.574	1452.17
463.947	1474.76
464.32	1539.62
464.692	1542.33
465.065	1542.33
465.438	1543.91
465.81	1581.43
466.183	1597.92
466.555	1640.18
466.928	1631.82
467.3	1636.12
467.672	1686.06
468.045	1708.43
468.417	1710.92
468.789	1705.04
469.161	1762.67
469.534	1759.95
469.906	1810.12
470.278	1805.6
470.65	1840.63
471.022	1886.5
471.394	1921.31
471.766	1913.85
472.138	1950.46
472.51	1997.24
472.882	1979.83
473.253	2048.99
473.625	2043.11
473.997	2104.58
474.369	2112.94
474.74	2156.33
475.112	2185.03
475.484	2255.99
475.855	2274.06
476.227	2307.06
476.598	2382.54
476.97	2386.38
477.341	2450.56
477.713	2485.13
478.084	2520.84
478.455	2588.86
478.827	2651
479.198	2661.17
479.569	2686.03
479.94	2764.22
480.311	2813.71
480.682	2868.63
481.053	2912.92
481.424	3005.57
481.795	3035.63
482.166	3061.16
482.537	3117.43
482.908	3206.92
483.279	3264.09
483.65	3327.6
484.021	3351.1
484.391	3413.24
484.762	3481.49
485.133	3510.64
485.503	3566.69
485.874	3650.07
486.244	3701.82
486.615	3776.17
486.985	3847.58
487.356	3913.34
487.726	3916.28
488.097	4030.4
488.467	4071.08
488.837	4138.65
489.207	4180.68
489.578	4278.08
489.948	4308.36
490.318	4322.15
490.688	4399.66
491.058	4480.33
491.428	4543.61
491.798	4580.67
492.168	4729.37
492.538	4746.09
492.908	4811.4
493.278	4855.92
493.648	4876.03
494.017	4939.08
494.387	4977.5
494.757	5072.63
495.126	5151.05
495.496	5138.4
495.866	5206.64
496.235	5245.29
496.605	5346.3
496.974	5370.71
497.344	5382.23
497.713	5446.64
498.082	5462.68
498.452	5496.35
498.821	5602.56
499.19	5567.54
499.559	5681.21
499.928	5745.61
500.298	5772.05
500.667	5766.18
501.036	5844.59
501.405	5854.31
501.774	5864.48
502.143	5921.88
502.512	5947.87
502.88	5994.42
503.249	6066.28
503.618	6036.9
503.987	6108.99
504.356	6104.02
504.724	6157.13
505.093	6223.57
505.462	6262.89
505.83	6248.42
506.199	6320.06
506.567	6386.5
506.936	6391.7
507.304	6479.38
507.672	6492.03
508.041	6471.92
508.409	6587.62
508.777	6658.81
509.145	6688.64
509.514	6655.64
509.882	6755.3
510.25	6744.68
510.618	6829.2
510.986	6814.06
511.354	6902.64
511.722	6929.54
512.09	6971.79
512.458	6926.6
512.826	7098.57
513.193	7027.84
513.561	7111
513.929	7079.14
514.297	7186.93
514.664	7238
515.032	7274.39
515.4	7303.08
515.767	7276.87
516.135	7350.99
516.502	7328.39
516.869	7363.87
517.237	7415.17
517.604	7387.15
517.972	7503.31
518.339	7552.8
518.706	7553.25
519.073	7562.29
519.44	7621.72
519.808	7706.46
520.175	7645.9
520.542	7831.66
520.909	7849.74
521.276	7805.44
521.643	7931.09
522.009	7943.75
522.376	8033.69
522.743	8057.19
523.11	8093.35
523.477	8115.49
523.843	8178.77
524.21	8250.86
524.577	8275.04
524.943	8418.54
525.31	8424.64
525.676	8453.56
526.043	8454.24
526.409	8523.84
526.776	8608.81
527.142	8604.75
527.508	8658.53
527.874	8727.91
528.241	8708.92
528.607	8779.66
528.973	8843.16
529.339	8884.29
529.705	8997.28
530.071	8970.61
530.437	9011.74
530.803	9081.8
531.169	9182.58
531.535	9223.26
531.901	9169.48
532.267	9227.55
532.632	9315.46
532.998	9247.89
533.364	9382.58
533.73	9466.42
534.095	9535.12
534.461	9512.29
534.826	9613.98
535.192	9695.56
535.557	9667.09
535.923	9691.72
536.288	9695.34
536.653	9758.84
537.019	9809.91
537.384	9856.92
537.749	9884.26
538.114	9858.72
538.479	9904.82
538.845	9994.77
539.21	9980.3
539.575	10030.92
539.94	10027.31
540.305	10131.49
540.67	10037.25
541.034	10243.57
541.399	10205.38
541.764	10225.27
542.129	10359.28
542.494	10387.52
542.858	10364.25
543.223	10399.73
543.587	10502.1
543.952	10514.07
544.316	10535.09
544.681	10550.23
545.045	10637.23
545.41	10660.74
545.774	10737.57
546.138	10711.13
546.503	10748.64
546.867	10816.66
547.231	10922.65
547.595	10919.49
547.959	10942.54
548.324	10985.7
548.688	10982.31
549.052	11072.93
549.416	11016.89
549.779	11101.63
550.143	11142.31
550.507	11223.21
550.871	11245.13
551.235	11252.36
551.599	11378.46
551.962	11407.84
552.326	11425.46
552.689	11494.61
553.053	11482.86
553.417	11423.43
553.78	11645.12
554.143	11492.81
554.507	11614.38
554.87	11626.36
555.234	11771.44
555.597	11664.33
555.96	11754.95
556.323	11862.51
556.686	11887.15
557.05	11899.57
557.413	11986.13
557.776	11974.37
558.139	12079.46
558.502	12024.32
558.865	12071.77
559.228	12241.26
559.59	12223.18
559.953	12263.18
560.316	12390.18
560.679	12394.25
561.041	12464.76
561.404	12517.86
561.767	12561.48
562.129	12488.26
562.492	12580.69
562.854	12658.42
563.217	12596.96
563.579	12672.89
563.941	12747.01
564.304	12852.77
564.666	12865.65
565.028	12874.24
565.39	12940
565.753	13081.69
566.115	13031.97
566.477	13134.34
566.839	13149.26
567.201	13240.33
567.563	13252.08
567.925	13350.84
568.287	13402.81
568.648	13455.24
569.01	13529.59
569.372	13547.44
569.734	13565.29
570.095	13699.53
570.457	13652.97
570.819	13731.39
571.18	13861.56
571.542	13843.25
571.903	13873.53
572.265	13952.63
572.626	14003.93
572.987	14093.87
573.349	14151.94
573.71	14210.7
574.071	14318.72
574.432	14356.23
574.794	14459.96
575.155	14512.61
575.516	14536.79
575.877	14651.37
576.238	14743.34
576.599	14858.59
576.96	14830.12
577.32	14955.09
577.681	15108.53
578.042	15198.24
578.403	15277.11
578.763	15326.83
579.124	15499.48
579.485	15670.55
579.845	15764.33
580.206	15831.67
580.566	15977.66
580.927	16125.45
581.287	16279.8
581.648	16355.05
582.008	16657.42
582.368	16728.15
582.728	16934.02
583.089	16929.72
583.449	17260.79
583.809	17343.95
584.169	17696.48
584.529	17708.46
584.889	18056.25
585.249	18185.06
585.609	18348.44
585.969	18656.91
586.329	18844.48
586.688	19153.39
587.048	19315.42
587.408	19546.83
587.768	19727.39
588.127	20140.49
588.487	20252.35
588.846	20559.91
589.206	20815.5
589.565	21083.29
589.925	21500.9
590.284	21725.53
590.643	22003.94
591.003	22270.83
591.362	22740.87
591.721	22923.24
592.08	23129.11
592.44	23678.7
592.799	23918.02
593.158	24175.18
593.517	24510.99
593.876	24871.21
594.235	25222.39
594.593	25531.53
594.952	25913.89
595.311	26104.17
595.67	26509.59
596.029	27018.72
596.387	27373.74
596.746	27670.23
597.104	27902.32
597.463	28230.9
597.822	28656.87
598.18	28924.66
598.538	29161.72
598.897	29671.31
599.255	29803.74
599.613	30538.41
599.972	30567.33
600.33	30880.09
600.688	31147.66
601.046	31552.84
601.404	32042.32
601.762	32339.04
602.12	32622.42
602.478	33137.21
602.836	33355.51
603.194	33459.91
603.552	33826.91
603.91	34105.54
604.268	34414.46
604.625	34591.18
604.983	35079.3
605.341	35197.94
605.698	35691.72
606.056	35921.77
606.413	36128.09
606.771	36656.89
607.128	36870.89
607.485	37092.81
607.843	37310.43
608.2	37666.13
608.557	38006.68
608.914	38172.33
609.272	38523.51
609.629	38861.8
609.986	39141.8
610.343	39205.97
610.7	39724.61
611.057	39725.96
611.414	39834.43
611.771	40169.11
612.127	40647.07
612.484	40685.94
612.841	41021.52
613.198	40973.61
613.554	41339.03
613.911	41746.7
614.267	41814.49
614.624	41927.71
614.98	42271.43
615.337	42514.81
615.693	42571.08
616.05	42754.36
616.406	43169.49
616.762	43091.75
617.118	43196.15
617.475	43363.83
617.831	43677.95
618.187	43903.48
618.543	43965.85
618.899	44322.68
619.255	44343.47
619.611	44437.02
619.967	44571.03
620.323	44845.83
620.678	44859.39
621.034	44873.62
621.39	44977.35
621.746	45028.19
622.101	45653.71
622.457	45450.78
622.812	45580.72
623.168	45688.06
623.523	45903.2
623.879	45923.09
624.234	45769.87
624.589	45897.1
624.945	46138.67
625.3	46185.45
625.655	46283.98
626.01	46447.14
626.365	46494.6
626.72	46586.57
627.075	46605.55
627.43	46645.33
627.785	46600.58
628.14	46773.23
628.495	46860.91
628.85	46927.81
629.205	46730.07
629.559	46943.62
629.914	46953.34
630.269	47012.78
630.623	46848.26
630.978	46932.55
631.332	47132.77
631.687	47299.77
632.041	47021.14
632.396	47156.5
632.75	46961.93
633.104	47266.78
633.459	47026.11
633.813	47090.97
634.167	47194.24
634.521	47115.37
634.875	47070.17
635.229	47232.43
635.583	46979.1
635.937	47118.31
636.291	47167.57
636.645	47127.35
636.999	47038.09
637.352	47205.99
637.706	47063.85
638.06	47180.45
638.413	47071.76
638.767	47088.93
639.121	47147.46
639.474	46968.71
639.828	46973.68
640.181	47053
640.534	47047.58
640.888	46913.79
641.241	46802.16
641.594	46995.15
641.947	47090.06
642.301	47050.74
642.654	47084.86
643.007	46944.53
643.36	46971.65
643.713	46861.82
644.066	47085.99
644.419	46791.99
644.771	46615.05
645.124	46221.16
645.477	45983.65
645.83	45962.63
646.182	45734.39
646.535	45770.77
646.888	45719.93
647.24	45521.06
647.593	45819.81
647.945	45878.12
648.298	45586.82
648.65	45688.52
649.002	45406.72
649.355	45792.69
649.707	45479.48
650.059	45898.91
650.411	46186.13
650.763	46326.92
651.115	46671.77
651.467	46513.81
651.819	46597.64
652.171	46488.5
652.523	46361.72
652.875	46425.22
653.227	46201.95
653.578	46489.4
653.93	46368.05
654.282	46167.83
654.633	46087.83
654.985	46164.21
655.337	46333.92
655.688	46296.18
656.039	46296.41
656.391	46210.54
656.742	46260.03
657.094	46231.33
657.445	46333.02
657.796	46309.29
658.147	46079.92
658.498	46166.47
658.849	46211.67
659.2	46293.92
659.551	46100.03
659.902	46208.73
660.253	46067.26
660.604	46116.53
660.955	45874.05
661.306	46153.14
661.656	46030.2
662.007	46050.54
662.358	46046.02
662.708	46049.86
663.059	46027.04
663.409	45739.36
663.76	46087.6
664.11	45918.34
664.461	46041.28
664.811	46007.38
665.161	45987.94
665.511	46019.58
665.862	45904.33
666.212	46133.7
666.562	46124.89
666.912	45914.5
667.262	45850.55
667.612	45893.71
667.962	45978.68
668.312	45902.75
668.662	46147.71
669.011	45936.87
669.361	45902.07
669.711	46008.06
670.06	45813.03
670.41	45759.02
670.76	45629.99
671.109	45853.48
671.459	45821.39
671.808	45725.13
672.157	45850.09
672.507	45581.85
672.856	45601.96
673.205	45632.7
673.554	45804.9
673.904	45542.53
674.253	45914.72
674.602	45620.72
674.951	45183.22
675.3	44927.86
675.649	45499.37
675.998	45366.72
676.346	45498.46
676.695	45711.57
677.044	45280.84
677.393	45390.9
677.741	45578.91
678.09	45316.1
678.438	45303.89
678.787	45398.81
679.135	45441.52
679.484	45142.09
679.832	45211.24
680.181	44867.52
680.529	45157.46
680.877	44978.7
681.225	44937.35
681.573	45295.31
681.922	44928.99
682.27	44830.23
682.618	44748.2
682.966	44767.86
683.314	44768.31
683.661	44622.56
684.009	44405.84
684.357	44386.86
684.705	44416.46
685.053	44487.42
685.4	44281.1
685.748	44234.77
686.095	44158.61
686.443	44146.41
686.79	43849.92
687.138	44011.5
687.485	44090.59
687.832	43777.83
688.18	43796.36
688.527	43686.31
688.874	43602.7
689.221	43445.19
689.568	43579.42
689.915	43433.89
690.262	43288.58
690.609	43262.82
690.956	43031.18
691.303	43057.85
691.65	42893.34
691.997	42878.87
692.344	42673.68
692.69	42617.41
693.037	42599.11
693.383	42305.78
693.73	42530.63
694.077	42158.89
694.423	42329.51
694.769	42158.67
695.116	41953.02
695.462	42030.76
695.808	41923.42
696.155	41827.37
696.501	41597.78
696.847	41642.75
697.193	41395.75
697.539	41427.84
697.885	41160.27
698.231	41212.25
698.577	41065.13
698.923	41034.63
699.269	40889.09
699.614	40637.12
699.96	40542.21
700.306	40483.23
700.651	40351.48
700.997	40204.14
701.342	40241.65
701.688	40181.99
702.033	40032.62
702.379	40042.79
702.724	40029.46
703.069	40084.82
703.415	39767.32
703.76	39715.11
704.105	39717.37
704.45	39500.88
704.795	39316.03
705.14	39216.6
705.485	39271.06
705.83	39006.88
706.175	39169.82
706.52	38907.9
706.865	38881.24
707.209	38830.17
707.554	38765.31
707.899	38767.34
708.243	38460.91
708.588	38423.4
708.932	38066.12
709.277	38101.15
709.621	38269.5
709.966	37935.73
710.31	38092.33
710.654	37745.67
710.998	37792.23
711.342	37762.85
711.687	37714.71
712.031	37655.73
712.375	37441.28
712.719	37479.24
713.063	37491.67
713.407	37401.95
713.75	37303.2
714.094	37319.47
714.438	37067.05
714.782	37220.04
715.125	36813.72
715.469	36992.93
715.812	36730.33
716.156	36525.82
716.499	36660.96
716.843	36657.57
717.186	36538.93
717.53	36586.83
717.873	36542.99
718.216	36404.47
718.559	36343.68
718.902	36224.58
719.246	36249.22
719.589	36121.08
719.932	36051.71
720.275	36037.92
720.617	35969.68
720.96	35850.81
721.303	35854.2
721.646	35842.22
721.989	35515.9
722.331	35759.51
722.674	35546.64
723.016	35669.57
723.359	35573.53
723.701	35570.14
724.044	35304.61
724.386	35211.28
724.729	35264.16
725.071	35211.28
725.413	35275.23
725.755	35145.97
726.097	35053.99
726.439	34783.94
726.782	34868.46
727.124	35043.82
727.465	34756.83
727.807	34751.4
728.149	34652.2
728.491	34492.43
728.833	34688.58
729.175	34497.62
729.516	34446.1
729.858	34458.53
730.199	34444.74
730.541	34451.98
730.882	34303.96
731.224	34363.84
731.565	34133.57
731.906	34163.85
732.248	34176.28
732.589	34136.73
732.93	33942.38
733.271	33919.79
733.612	33830.07
733.953	33955.27
734.294	33792.11
734.635	33776.96
734.976	33742.39
735.317	33443.19
735.658	33570.87
735.999	33588.72
736.339	33539.91
736.68	33623.52
737.021	33466.46
737.361	33303.53
737.702	33660.13
738.042	33356.86
738.383	33350.99
738.723	33422.85
739.063	33182.18
739.404	33265.57
739.744	33175.62
740.084	33036.42
740.424	33073.93
740.764	33020.37
741.104	32995.52
741.444	32822.87
741.784	32758.69
742.124	32830.1
742.464	32751.68
742.804	32623.32
743.143	32607.96
743.483	32611.12
743.823	32442.08
744.162	32477.11
744.502	32436.44
744.841	32315.99
745.181	32473.72
745.52	32264.24
745.86	32361.18
746.199	32145.6
746.538	32223.11
746.877	32240.06
747.216	32146.95
747.556	31954.19
747.895	32118.03
748.234	32003.45
748.573	31943.79
748.911	31899.95
749.25	31900.18
749.589	31818.82
749.928	31716.91
750.267	31843.91
750.605	31605.27
750.944	31617.7
751.283	31571.6
751.621	31610.24
751.96	31535.22
752.298	31480.3
752.636	31417.7
752.975	31187.43
753.313	31199.18
753.651	31257.48
753.989	31100.2
754.327	31101.1
754.666	30882.35
755.004	31002.57
755.342	30885.52
755.679	30798.51
756.017	30723.71
756.355	30910.15
756.693	30595.58
757.031	30682.36
757.368	30509.48
757.706	30414.79
