Data from hue_270_FLMS001491_00058.txt Node
Date: Tue Feb 07 15:57:24 GMT 2017
User: dcchb
Spectrometer: FLMS00149
Trigger mode: 0
Integration Time (sec): 2.000000E-2
Scans to average: 10
Electric dark correction enabled: true
Nonlinearity correction enabled: false
Boxcar width: 0
XAxis mode: Wavelengths
Number of Pixels in Spectrum: 2048
>>>>>Begin Spectral Data<<<<<
341.393	-19.02
341.776	-19.02
342.16	-19.02
342.543	-35.07
342.927	-63.32
343.31	-79.81
343.693	-57.44
344.077	-82.98
344.46	-53.37
344.843	-58.12
345.226	-24.67
345.61	-28.06
345.993	-10.21
346.376	-9.99
346.759	27.53
347.142	22.33
347.525	44.48
347.908	70.92
348.291	61.65
348.674	72.72
349.057	105.04
349.44	139.16
349.823	156.56
350.206	148.43
350.588	186.39
350.971	207.86
351.354	213.74
351.737	257.58
352.119	232.72
352.502	269.33
352.884	274.75
353.267	268.88
353.65	297.12
354.032	301.19
354.414	296.22
354.797	310.91
355.179	320.63
355.562	295.77
355.944	312.72
356.326	344.58
356.709	321.98
357.091	347.97
357.473	332.15
357.855	366.05
358.238	337.12
358.62	318.82
359.002	322.66
359.384	344.81
359.766	347.07
360.148	344.36
360.53	336.9
360.912	335.99
361.294	330.12
361.676	327.41
362.057	336.67
362.439	347.07
362.821	310.01
363.203	316.79
363.584	323.34
363.966	312.49
364.348	338.25
364.729	335.09
365.111	316.56
365.493	334.19
365.874	314.98
366.256	304.58
366.637	303
367.019	293.74
367.4	321.08
367.781	282.66
368.163	310.91
368.544	301.64
368.925	312.72
369.306	317.69
369.688	324.47
370.069	292.15
370.45	317.69
370.831	312.72
371.212	311.81
371.593	304.36
371.974	324.92
372.355	307.29
372.736	305.94
373.117	332.83
373.498	303.9
373.879	314.3
374.26	307.75
374.641	317.69
375.021	324.24
375.402	329.67
375.783	327.18
376.163	337.8
376.544	314.3
376.925	325.6
377.305	328.08
377.686	344.13
378.066	338.93
378.447	325.82
378.827	319.72
379.208	348.2
379.588	333.06
379.968	328.54
380.349	335.09
380.729	347.75
381.109	344.81
381.489	333.96
381.87	331.25
382.25	343
382.63	325.82
383.01	326.73
383.39	342.77
383.77	375.54
384.15	346.84
384.53	344.13
384.91	352.26
385.29	353.85
385.67	341.19
386.049	364.92
386.429	372.83
386.809	350.91
387.189	353.17
387.568	339.38
387.948	367.63
388.328	336.67
388.707	369.89
389.087	351.59
389.466	353.17
389.846	367.86
390.225	351.13
390.605	373.51
390.984	386.16
391.363	365.82
391.743	375.09
392.122	374.86
392.501	373.73
392.881	392.49
393.26	381.87
393.639	399.04
394.018	380.51
394.397	385.71
394.776	387.97
395.155	384.13
395.534	391.13
395.913	392.04
396.292	409.66
396.671	391.36
397.05	413.96
397.429	416.22
397.808	394.52
398.186	378.7
398.565	386.16
398.944	409.66
399.323	429.78
399.701	405.37
400.08	422.55
400.458	437.69
400.837	433.84
401.215	424.81
401.594	427.52
401.972	441.3
402.351	429.78
402.729	439.27
403.107	440.62
403.486	434.97
403.864	439.49
404.242	459.38
404.62	440.17
404.999	460.51
405.377	454.63
405.755	452.83
406.133	469.32
406.511	474.3
406.889	476.78
407.267	467.74
407.645	482.43
408.023	497.57
408.401	474.07
408.779	489.89
409.156	520.85
409.534	502.77
409.912	484.01
410.29	519.27
410.667	547.51
411.045	514.97
411.422	530.57
411.8	521.53
412.178	561.3
412.555	555.88
412.933	555.88
413.31	575.76
413.687	574.86
414.065	573.73
414.442	591.58
414.819	587.51
415.197	610.34
415.574	598.81
415.951	626.61
416.328	646.04
416.705	637.91
417.082	638.13
417.46	634.07
417.837	657.57
418.214	634.29
418.591	667.06
418.967	679.49
419.344	691.92
419.721	693.05
420.098	698.24
420.475	710.9
420.852	730.56
421.228	710.22
421.605	726.94
421.982	732.82
422.358	768.75
422.735	744.12
423.111	782.54
423.488	799.71
423.864	782.99
424.241	785.47
424.617	798.81
424.994	805.36
425.37	848.3
425.746	823.89
426.123	845.59
426.499	865.92
426.875	830.44
427.251	872.7
427.627	893.95
428.003	908.86
428.379	909.76
428.756	927.62
429.132	944.79
429.507	966.71
429.883	971.68
430.259	958.35
430.635	958.58
431.011	1001.74
431.387	1000.84
431.763	1029.08
432.138	1008.07
432.514	1030.44
432.89	1043.32
433.265	1079.7
433.641	1088.52
434.016	1095.52
434.392	1122.87
434.767	1142.3
435.143	1156.09
435.518	1150.89
435.894	1134.62
436.269	1168.29
436.644	1194.73
437.02	1234.73
437.395	1240.6
437.77	1268.4
438.145	1283.54
438.52	1295.06
438.895	1317.66
439.271	1325.12
439.646	1341.17
440.021	1341.62
440.395	1375.51
440.77	1369.87
441.145	1408.28
441.52	1442.63
441.895	1415.06
442.27	1456.19
442.645	1481.5
443.019	1459.13
443.394	1446.47
443.769	1478.56
444.143	1480.37
444.518	1483.08
444.892	1516.08
445.267	1523.08
445.641	1535.51
446.016	1530.54
446.39	1563.53
446.764	1566.92
447.139	1556.75
447.513	1575.74
447.887	1591.1
448.262	1586.13
448.636	1631.1
449.01	1626.58
449.384	1627.03
449.758	1625.23
450.132	1696.86
450.506	1651.21
450.88	1700.93
451.254	1684.43
451.628	1726.47
452.002	1743.64
452.376	1693.7
452.75	1743.41
453.123	1779.57
453.497	1771.21
453.871	1765.56
454.244	1811.21
454.618	1851.66
454.992	1852.11
455.365	1839.68
455.739	1864.99
456.112	1919.91
456.486	1903.41
456.859	1919
457.232	1942.96
457.606	1961.04
457.979	1950.87
458.352	1999
458.725	2018.44
459.099	2022.5
459.472	2107.02
459.845	2090.75
460.218	2078.55
460.591	2172.56
460.964	2131.43
461.337	2168.04
461.71	2192.89
462.083	2234.25
462.456	2241.93
462.829	2219.79
463.201	2276.51
463.574	2266.79
463.947	2294.13
464.32	2328.71
464.692	2335.04
465.065	2360.12
465.438	2392.89
465.81	2422.04
466.183	2435.6
466.555	2464.75
466.928	2520.34
467.3	2519.21
467.672	2547.01
468.045	2538.87
468.417	2627.01
468.789	2597.63
469.161	2624.3
469.534	2664.52
469.906	2730.06
470.278	2742.48
470.65	2728.93
471.022	2802.6
471.394	2822.93
471.766	2870.62
472.138	2864.52
472.51	2952.2
472.882	2966.43
473.253	2954.23
473.625	3011.63
473.997	3077.84
474.369	3093.44
474.74	3110.61
475.112	3166.88
475.484	3251.17
475.855	3268.35
476.227	3248.91
476.598	3398.74
476.97	3351.06
477.341	3428.79
477.713	3464.95
478.084	3498.85
478.455	3565.51
478.827	3560.54
479.198	3661.78
479.569	3690.93
479.94	3734.1
480.311	3803.47
480.682	3854.55
481.053	3932.28
481.424	3949.68
481.795	3993.98
482.166	4085.27
482.537	4057.03
482.908	4127.53
483.279	4227.87
483.65	4250.47
484.021	4319.62
484.391	4382.67
484.762	4318.49
485.133	4399.62
485.503	4443
485.874	4548.09
486.244	4580.85
486.615	4656.11
486.985	4684.13
487.356	4727.06
487.726	4776.78
488.097	4840.28
488.467	4868.53
488.837	4935.2
489.207	4961.64
489.578	5047.96
489.948	5080.5
490.318	5153.27
490.688	5176.77
491.058	5184
491.428	5269.42
491.798	5325.24
492.168	5422.87
492.538	5435.75
492.908	5466.48
493.278	5529.53
493.648	5476.42
494.017	5536.31
494.387	5583.31
494.757	5658.11
495.126	5709.86
495.496	5729.07
495.866	5737.43
496.235	5795.06
496.605	5835.06
496.974	5861.5
497.344	5911.67
497.713	5905.11
498.082	5966.81
498.452	5991.89
498.821	5993.25
499.19	5992.34
499.559	6114.83
499.928	6054.94
500.298	6091.55
500.667	6154.6
501.036	6183.75
501.405	6230.08
501.774	6219.23
502.143	6305.33
502.512	6263.52
502.88	6300.13
503.249	6270.75
503.618	6323.86
503.987	6333.8
504.356	6338.77
504.724	6399.34
505.093	6451.31
505.462	6410.41
505.83	6401.37
506.199	6472.33
506.567	6557.53
506.936	6529.28
507.304	6589.61
507.672	6638.2
508.041	6621.7
508.409	6674.13
508.777	6714.58
509.145	6730.4
509.514	6700.8
509.882	6734.47
510.25	6739.44
510.618	6767.01
510.986	6783.28
511.354	6881.58
511.722	6868.93
512.09	6913.22
512.458	6878.42
512.826	6989.83
513.193	6952.77
513.561	6975.14
513.929	7006.33
514.297	7058.3
514.664	7048.81
515.032	7080.68
515.4	7066.89
515.767	7096.72
516.135	7110.73
516.502	7093.33
516.869	7158.41
517.237	7141.46
517.604	7088.36
517.972	7182.37
518.339	7214.01
518.706	7215.14
519.073	7198.19
519.44	7206.1
519.808	7327.22
520.175	7284.29
520.542	7356.83
520.909	7370.16
521.276	7391.4
521.643	7442.25
522.009	7445.19
522.376	7420.78
522.743	7468.91
523.11	7558.18
523.477	7531.29
523.843	7574.22
524.21	7655.8
524.577	7635.01
524.943	7651.28
525.31	7610.38
525.676	7724.27
526.043	7762.24
526.409	7742.13
526.776	7810.83
527.142	7806.08
527.508	7830.26
527.874	7887.89
528.241	7789.13
528.607	7876.81
528.973	7997.71
529.339	7938.05
529.705	7966.08
530.071	8041.1
530.437	8078.16
530.803	8063.7
531.169	8079.97
531.535	8101.89
531.901	8111.61
532.267	8128.78
532.632	8154.32
532.998	8180.99
533.364	8213.08
533.73	8225.28
534.095	8166.07
534.461	8246.07
534.826	8268.67
535.192	8257.14
535.557	8321.77
535.923	8276.35
536.288	8355.44
536.653	8259.4
537.019	8277.03
537.384	8238.39
537.749	8315.22
538.114	8317.25
538.479	8306.86
538.845	8390.92
539.21	8345.27
539.575	8406.97
539.94	8374.2
540.305	8403.58
540.67	8419.85
541.034	8384.82
541.399	8392.51
541.764	8456.91
542.129	8451.49
542.494	8449.23
542.858	8482.67
543.223	8448.1
543.587	8497.36
543.952	8505.27
544.316	8490.13
544.681	8470.02
545.045	8540.75
545.41	8564.48
545.774	8654.65
546.138	8498.04
546.503	8571.94
546.867	8537.13
547.231	8654.87
547.595	8601.77
547.959	8630.92
548.324	8606.51
548.688	8610.8
549.052	8617.13
549.416	8670.92
549.779	8647.19
550.143	8623.01
550.507	8674.08
550.871	8687.41
551.235	8715.21
551.599	8753.17
551.962	8736.23
552.326	8778.71
552.689	8805.15
553.053	8779.39
553.417	8794.3
553.78	8836.79
554.143	8809.22
554.507	8848.54
554.87	8800.4
555.234	8889.89
555.597	8827.97
555.96	8877.46
556.323	8870.01
556.686	8892.15
557.05	8960.17
557.413	8955.65
557.776	8917.69
558.139	9059.38
558.502	9033.17
558.865	9038.59
559.228	9072.49
559.59	9076.1
559.953	9048.08
560.316	9134.18
560.679	9204.01
561.041	9221.86
561.404	9276.55
561.767	9291.69
562.129	9204.01
562.492	9360.39
562.854	9326.72
563.217	9297.79
563.579	9350.22
563.941	9361.07
564.304	9387.51
564.666	9551.12
565.028	9479.71
565.39	9538.24
565.753	9584.79
566.115	9614.17
566.477	9620.95
566.839	9644
567.201	9671.34
567.563	9604.45
567.925	9724.67
568.287	9698.23
568.648	9738.23
569.01	9804.9
569.372	9848.51
569.734	9866.14
570.095	9867.27
570.457	9972.12
570.819	9940.04
571.18	9968.06
571.542	10022.29
571.903	9979.13
572.265	10083.31
572.626	10130.76
572.987	10122.63
573.349	10154.27
573.71	10224.77
574.071	10175.06
574.432	10290.99
574.794	10362.85
575.155	10331.44
575.516	10305.22
575.877	10349.06
576.238	10408.72
576.599	10389.97
576.96	10456.18
577.32	10493.69
577.681	10584.31
578.042	10563.97
578.403	10540.7
578.763	10591.32
579.124	10634.03
579.485	10690.07
579.845	10676.29
580.206	10677.87
580.566	10793.57
580.927	10786.57
581.287	10818.43
581.648	10795.83
582.008	10958.09
582.368	10880.58
582.728	10874.25
583.089	10882.16
583.449	11009.39
583.809	11013.91
584.169	11064.75
584.529	11121.93
584.889	11140.23
585.249	11092.77
585.609	11100.46
585.969	11219.55
586.329	11202.6
586.688	11224.07
587.048	11199.44
587.408	11277.4
587.768	11286.21
588.127	11304.75
588.487	11271.75
588.846	11347.23
589.206	11310.62
589.565	11420.9
589.925	11407.12
590.284	11393.1
590.643	11518.3
591.003	11504.06
591.362	11532.54
591.721	11542.48
592.08	11583.16
592.44	11610.27
592.799	11644.85
593.158	11624.28
593.517	11594.68
593.876	11772.76
594.235	11703.38
594.593	11720.33
594.952	11786.77
595.311	11698.63
595.67	11829.25
596.029	11838.52
596.387	11825.18
596.746	11917.16
597.104	11853.43
597.463	11941.11
597.822	11997.83
598.18	11983.82
598.538	11948.57
598.897	12036.7
599.255	11956.71
599.613	12138.85
599.972	12116.48
600.33	12023.37
600.688	12043.48
601.046	12047.78
601.404	12148.34
601.762	12145.85
602.12	12215.46
602.478	12210.48
602.836	12172.07
603.194	12113.54
603.552	12184.72
603.91	12133.42
604.268	12259.3
604.625	12122.58
604.983	12263.36
605.341	12150.6
605.698	12254.1
606.056	12358.95
606.413	12250.48
606.771	12365.96
607.128	12351.5
607.485	12307.2
607.843	12335
608.2	12406.86
608.557	12437.37
608.914	12403.93
609.272	12469.69
609.629	12415.9
609.986	12512.4
610.343	12495.9
610.7	12548.1
611.057	12532.51
611.414	12521.44
611.771	12532.51
612.127	12532.06
612.484	12584.94
612.841	12556.01
613.198	12576.35
613.554	12609.12
613.911	12618.38
614.267	12628.55
614.624	12660.87
614.98	12614.32
615.337	12725.5
615.693	12646.4
616.05	12686.63
616.406	12798.04
616.762	12700.64
617.118	12726.63
617.475	12714.65
617.831	12725.27
618.187	12742
618.543	12789.68
618.899	12837.59
619.255	12762.11
619.611	12800.98
619.967	12816.12
620.323	12865.61
620.678	12856.79
621.034	12820.64
621.39	12738.61
621.746	12718.49
622.101	12904.03
622.457	12790.13
622.812	12869.9
623.168	12855.66
623.523	12829.22
623.879	12858.6
624.234	12822.67
624.589	12786.29
624.945	12815.44
625.3	12893.63
625.655	12918.49
626.01	12922.33
626.365	12936.79
626.72	12900.86
627.075	12885.49
627.43	12827.87
627.785	12828.55
628.14	12890.69
628.495	12953.74
628.85	12820.19
629.205	12780.86
629.559	12881.2
629.914	12851.6
630.269	12749.23
630.623	12810.69
630.978	12756.46
631.332	12886.4
631.687	12789
632.041	12685.95
632.396	12657.48
632.75	12725.95
633.104	12747.87
633.459	12565.05
633.813	12627.42
634.167	12657.7
634.521	12621.32
634.875	12622.45
635.229	12647.08
635.583	12593.75
635.937	12576.8
636.291	12573.64
636.645	12586.29
636.999	12586.97
637.352	12605.28
637.706	12490.93
638.06	12490.25
638.413	12434.21
638.767	12454.77
639.121	12545.16
639.474	12371.38
639.828	12427.43
640.181	12473.3
640.534	12456.13
640.888	12401.21
641.241	12335.9
641.594	12308.56
641.947	12301.56
642.301	12359.41
642.654	12345.17
643.007	12358.05
643.36	12321.67
643.713	12318.96
644.066	12315.11
644.419	12290.71
644.771	12317.37
645.124	12120.99
645.477	12051.39
645.83	11999.42
646.182	12006.87
646.535	11846.65
646.888	11954.9
647.24	11885.07
647.593	11943.15
647.945	11949.7
648.298	11810.72
648.65	11932.07
649.002	11816.82
649.355	11922.81
649.707	11835.13
650.059	11971.39
650.411	12045.52
650.763	12125.51
651.115	12112.63
651.467	12196.02
651.819	12141.79
652.171	12156.02
652.523	12095.91
652.875	12079.19
653.227	12087.32
653.578	12155.57
653.93	12126.19
654.282	12014.33
654.633	11983.37
654.985	12061.56
655.337	12088.68
655.688	12114.44
656.039	12151.95
656.391	12077.83
656.742	12096.14
657.094	12070.37
657.445	12176.36
657.796	12109.7
658.147	12061.56
658.498	12086.87
658.849	12149.24
659.2	12004.84
659.551	12074.89
659.902	12166.19
660.253	12052.52
660.604	12127.55
660.955	12080.32
661.306	12111.96
661.656	12126.42
662.007	12072.86
662.358	12179.75
662.708	12064.5
663.059	12140.66
663.409	11999.87
663.76	12153.08
664.11	12086.65
664.461	12117.61
664.811	12189.02
665.161	12114.22
665.511	12071.73
665.862	12067.44
666.212	12081.22
666.562	12088.68
666.912	12107.66
667.262	12042.58
667.612	12068.79
667.962	12062.01
668.312	12048.91
668.662	12117.83
669.011	12068.79
669.361	12069.24
669.711	12082.8
670.06	12030.15
670.41	12089.81
670.76	12019.3
671.109	12106.53
671.459	12029.25
671.808	12044.84
672.157	12114.44
672.507	11928.23
672.856	11947.44
673.205	11967.55
673.554	12022.01
673.904	12001.68
674.253	11996.93
674.602	12014.78
674.951	11841.45
675.3	11749.93
675.649	11932.53
675.998	11967.33
676.346	11891.17
676.695	12025.63
677.044	11881.91
677.393	11873.54
677.741	11917.84
678.09	11874.45
678.438	11812.53
678.787	11855.24
679.135	11868.35
679.484	11672.87
679.832	11778.18
680.181	11711.29
680.529	11733.43
680.877	11731.4
681.225	11710.38
681.573	11711.06
681.922	11688.01
682.27	11629.71
682.618	11613.66
682.966	11535.93
683.314	11608.47
683.661	11588.81
684.009	11528.69
684.357	11406.44
684.705	11447.11
685.053	11420
685.4	11415.25
685.748	11374.57
686.095	11394.69
686.443	11309.94
686.79	11286.44
687.138	11358.98
687.485	11309.04
687.832	11240.79
688.18	11261.36
688.527	11185.65
688.874	11235.14
689.221	11190.62
689.568	11057.07
689.915	11120.12
690.262	11107.91
690.609	11095.71
690.956	11025.88
691.303	10956.28
691.65	10983.85
691.997	10872.21
692.344	10904.98
692.69	10824.98
693.037	10895.94
693.383	10719.68
693.73	10777.75
694.077	10673.8
694.423	10665.67
694.769	10662.95
695.116	10629.06
695.462	10572.56
695.808	10559
696.155	10591.09
696.501	10457.08
696.847	10443.52
697.193	10412.79
697.539	10396.52
697.885	10352
698.231	10346.8
698.577	10274.49
698.923	10290.76
699.269	10202.18
699.614	10083.99
699.96	10086.92
700.306	10119.01
700.651	10066.59
700.997	9999.02
701.342	10004.67
701.688	9965.35
702.033	9970.77
702.379	9909.53
702.724	9859.36
703.069	9924.44
703.415	9778.01
703.76	9766.71
704.105	9710.44
704.45	9771.9
704.795	9661.17
705.14	9667.73
705.485	9658.46
705.83	9592.7
706.175	9615.3
706.52	9548.18
706.865	9503.66
707.209	9508.41
707.554	9483.78
707.899	9448.97
708.243	9389.09
708.588	9427.05
708.932	9316.1
709.277	9427.28
709.621	9312.26
709.966	9318.58
710.31	9299.15
710.654	9248.08
710.998	9286.27
711.342	9210.79
711.687	9292.37
712.031	9210.56
712.375	9081.75
712.719	9103.45
713.063	9176.44
713.407	9079.49
713.75	9113.16
714.094	9159.26
714.438	9038.14
714.782	9067.29
715.125	8946.16
715.469	9023.68
715.812	9044.01
716.156	8981.87
716.499	9011.47
716.843	9003.11
717.186	8914.3
717.53	8873.85
717.873	8922.66
718.216	8903
718.559	8830.91
718.902	8825.49
719.246	8838.82
719.589	8743.23
719.932	8754.53
720.275	8779.16
720.617	8754.08
720.96	8774.19
721.303	8722.89
721.646	8770.12
721.989	8723.34
722.331	8774.42
722.674	8754.53
723.016	8705.04
723.359	8722.89
723.701	8669.33
724.044	8660.29
724.386	8594.08
724.729	8758.15
725.071	8650.13
725.413	8637.24
725.755	8592.5
726.097	8613.74
726.439	8538.72
726.782	8547.76
727.124	8550.92
727.465	8523.35
727.807	8560.41
728.149	8568.09
728.491	8500.07
728.833	8518.15
729.175	8470.7
729.516	8505.5
729.858	8519.28
730.199	8506.4
730.541	8449
730.882	8453.29
731.224	8457.14
731.565	8469.57
731.906	8445.16
732.248	8520.41
732.589	8480.64
732.93	8519.51
733.271	8384.82
733.612	8373.97
733.953	8448.78
734.294	8483.12
734.635	8342.56
734.976	8425.72
735.317	8371.94
735.658	8498.49
735.999	8366.74
736.339	8387.99
736.68	8486.51
737.021	8427.08
737.361	8407.87
737.702	8464.59
738.042	8414.43
738.383	8437.48
738.723	8493.07
739.063	8434.54
739.404	8483.12
739.744	8449.23
740.084	8444.03
740.424	8499.17
740.764	8460.98
741.104	8560.86
741.444	8529.9
741.784	8445.39
742.124	8504.14
742.464	8472.28
742.804	8493.07
743.143	8536.91
743.483	8596.79
743.823	8514.54
744.162	8584.59
744.502	8512.28
744.841	8583.01
745.181	8665.49
745.52	8624.59
745.86	8676.34
746.199	8711.82
746.538	8682.67
746.877	8792.72
747.216	8859.16
747.556	8802.66
747.895	8872.04
748.234	8842.44
748.573	8947.97
748.911	8972.6
749.25	9010.34
749.589	9040.17
749.928	9106.16
750.267	9201.07
750.605	9200.17
750.944	9333.05
751.283	9328.98
751.621	9436.55
751.96	9520.84
752.298	9488.07
752.636	9660.95
752.975	9667.95
753.313	9746.14
753.651	9896.65
753.989	9935.06
754.327	10061.61
754.666	10121.95
755.004	10212.57
755.342	10326.92
755.679	10506.57
756.017	10495.95
756.355	10658.21
756.693	10715.16
757.031	10936.85
757.368	10938.88
757.706	11136.16
758.044	11288.93
758.381	11423.61
758.719	11479.2
759.056	11704.28
759.394	11824.73
759.731	11956.93
760.068	12133.42
760.405	12161.45
760.743	12291.84
761.08	12512.17
761.417	12613.19
761.754	12723.01
