Data from hue_190_FLMS001491_00035.txt Node
Date: Tue Feb 07 16:45:12 GMT 2017
User: dcchb
Spectrometer: FLMS00149
Trigger mode: 0
Integration Time (sec): 2.000000E-2
Scans to average: 10
Electric dark correction enabled: true
Nonlinearity correction enabled: false
Boxcar width: 0
XAxis mode: Wavelengths
Number of Pixels in Spectrum: 2048
>>>>>Begin Spectral Data<<<<<
341.393	-3.12
341.776	-3.12
342.16	-3.12
342.543	-49.9
342.927	-59.62
343.31	-64.81
343.693	-65.49
344.077	-52.61
344.46	-41.31
344.843	-62.78
345.226	-42.44
345.61	-33.4
345.993	-42.67
346.376	-0.18
346.759	19.93
347.142	15.64
347.525	42.98
347.908	67.61
348.291	75.29
348.674	98.57
349.057	85.69
349.44	123.65
349.823	127.5
350.206	169.53
350.588	193.48
350.971	208.4
351.354	220.83
351.737	216.99
352.119	248.62
352.502	252.24
352.884	258.34
353.267	257.44
353.65	282.97
354.032	282.97
354.414	287.04
354.797	313.71
355.179	299.02
355.562	321.16
355.944	334.5
356.326	327.27
356.709	325.68
357.091	329.75
357.473	334.27
357.855	338.79
358.238	320.26
358.62	327.72
359.002	332.24
359.384	333.82
359.766	343.54
360.148	307.6
360.53	346.93
360.912	328.17
361.294	340.82
361.676	347.15
362.057	327.04
362.439	335.4
362.821	318.68
363.203	302.18
363.584	324.55
363.966	305.57
364.348	308.51
364.729	306.02
365.111	320.26
365.493	304.22
365.874	314.61
366.256	300.37
366.637	331.56
367.019	312.35
367.4	320.94
367.781	311.67
368.163	328.4
368.544	304.67
368.925	280.94
369.306	311.67
369.688	306.47
370.069	283.88
370.45	321.84
370.831	300.37
371.212	313.48
371.593	306.25
371.974	301.73
372.355	314.84
372.736	329.3
373.117	307.15
373.498	309.64
373.879	301.5
374.26	310.32
374.641	308.06
375.021	300.15
375.402	313.48
375.783	299.24
376.163	304.44
376.544	332.69
376.925	323.88
377.305	318
377.686	341.5
378.066	312.12
378.447	335.4
378.827	309.64
379.208	346.25
379.588	318.23
379.968	329.07
380.349	318.45
380.729	324.33
381.109	330.2
381.489	330.66
381.87	321.39
382.25	319.13
382.63	327.49
383.01	338.11
383.39	334.27
383.77	331.56
384.15	344.89
384.53	327.27
384.91	351.22
385.29	334.5
385.67	339.24
386.049	350.32
386.429	341.5
386.809	338.11
387.189	338.11
387.568	339.02
387.948	348.28
388.328	369.07
388.707	346.7
389.087	342.63
389.466	364.33
389.846	359.58
390.225	353.48
390.605	367.49
390.984	343.76
391.363	361.84
391.743	369.3
392.122	358.68
392.501	362.29
392.881	361.16
393.26	368.39
393.639	370.88
394.018	350.77
394.397	361.39
394.776	389.18
395.155	368.39
395.534	365
395.913	386.47
396.292	385.12
396.671	372.46
397.05	397.55
397.429	384.21
397.808	395.06
398.186	381.5
398.565	391.22
398.944	376.3
399.323	404.33
399.701	399.13
400.08	408.85
400.458	391.22
400.837	425.57
401.215	383.99
401.594	393.7
401.972	409.3
402.351	412.46
402.729	416.3
403.107	404.55
403.486	407.94
403.864	423.76
404.242	415.62
404.62	420.6
404.999	453.36
405.377	409.52
405.755	420.14
406.133	425.12
406.511	437.54
406.889	461.5
407.267	438
407.645	460.14
408.023	467.37
408.401	465.79
408.779	454.95
409.156	478.67
409.534	485.23
409.912	480.03
410.29	496.53
410.667	505.11
411.045	499.69
411.422	514.38
411.8	522.29
412.178	502.18
412.555	527.94
412.933	543.08
413.31	565
413.687	560.93
414.065	587.37
414.442	560.03
414.819	589.63
415.197	585.34
415.574	610.2
415.951	603.19
416.328	585.56
416.705	621.49
417.082	626.47
417.46	637.09
417.837	653.81
418.214	630.08
418.591	662.62
418.967	663.75
419.344	675.28
419.721	679.35
420.098	682.28
420.475	702.85
420.852	717.54
421.228	704.43
421.605	732.9
421.982	737.88
422.358	744.2
422.735	754.15
423.111	786.91
423.488	776.97
423.864	788.95
424.241	812.9
424.617	815.39
424.994	832.79
425.37	856.07
425.746	855.84
426.123	892.22
426.499	890.19
426.875	910.75
427.251	872.56
427.627	937.19
428.003	924.54
428.379	951.66
428.756	943.07
429.132	991.65
429.507	994.59
429.883	976.74
430.259	991.88
430.635	995.95
431.011	1013.58
431.387	1030.98
431.763	1049.51
432.138	1075.04
432.514	1088.83
432.89	1072.78
433.265	1090.86
433.641	1143.06
434.016	1149.84
434.392	1153.01
434.767	1187.81
435.143	1204.98
435.518	1228.94
435.894	1244.98
436.269	1260.12
436.644	1289.27
437.02	1328.14
437.395	1317.07
437.77	1364.75
438.145	1374.47
438.52	1387.12
438.895	1409.95
439.271	1442.26
439.646	1458.08
440.021	1467.57
440.395	1489.04
440.77	1480
441.145	1515.03
441.52	1552.32
441.895	1570.85
442.27	1596.84
442.645	1567.46
443.019	1594.8
443.394	1614.69
443.769	1622.37
444.143	1657.85
444.518	1694.24
444.892	1691.3
445.267	1689.26
445.641	1733.1
446.016	1730.39
446.39	1741.92
446.764	1761.58
447.139	1762.93
447.513	1762.93
447.887	1795.48
448.262	1795.7
448.636	1810.62
449.01	1838.64
449.384	1873.21
449.758	1884.96
450.132	1922.03
450.506	1937.84
450.88	1893.33
451.254	1936.94
451.628	1956.6
452.002	2002.25
452.376	2004.51
452.75	2039.08
453.123	2032.08
453.497	2062.81
453.871	2064.85
454.244	2132.87
454.618	2126.99
454.992	2166.99
455.365	2155.69
455.739	2202.92
456.112	2261
456.486	2247.21
456.859	2257.16
457.232	2342.13
457.606	2304.16
457.979	2382.8
458.352	2432.97
458.725	2407.89
459.099	2444.72
459.472	2536.25
459.845	2555.46
460.218	2538.96
460.591	2588
460.964	2626.87
461.337	2633.87
461.71	2655.57
462.083	2732.85
462.456	2695.34
462.829	2729.24
463.201	2812.4
463.574	2817.14
463.947	2838.16
464.32	2931.26
464.692	2937.82
465.065	2975.11
465.438	3023.69
465.81	3021.21
466.183	3092.16
466.555	3149.56
466.928	3143.01
467.3	3137.81
467.672	3230.69
468.045	3331.48
468.417	3327.86
468.789	3356.34
469.161	3439.27
469.534	3469.56
469.906	3521.76
470.278	3574.64
470.65	3592.04
471.022	3660.29
471.394	3730.79
471.766	3822.77
472.138	3822.09
472.51	3936.44
472.882	3987.96
473.253	4061.18
473.625	4063.21
473.997	4182.98
474.369	4209.88
474.74	4237.67
475.112	4328.06
475.484	4394.28
475.855	4482.64
476.227	4490.55
476.598	4596.08
476.97	4703.42
477.341	4818.45
477.713	4881.27
478.084	4879.69
478.455	5033.58
478.827	5067.71
479.198	5222.05
479.569	5239.23
479.94	5377.08
480.311	5435.15
480.682	5569.84
481.053	5685.77
481.424	5775.03
481.795	5877.85
482.166	5933.45
482.537	6014.12
482.908	6092.31
483.279	6215.7
483.65	6316.94
484.021	6444.39
484.391	6549.47
484.762	6600.55
485.133	6681.45
485.503	6713.09
485.874	6926.19
486.244	6930.71
486.615	7057.26
486.985	7167.76
487.356	7327.76
487.726	7373.18
488.097	7499.05
488.467	7500.41
488.837	7716.45
489.207	7817.01
489.578	7881.64
489.948	7939.72
490.318	8035.31
490.688	8124.35
491.058	8261.07
491.428	8343.78
491.798	8402.31
492.168	8551
492.538	8529.08
492.908	8681.4
493.278	8723.88
493.648	8762.07
494.017	8841.39
494.387	8958.9
494.757	9010.88
495.126	9154.6
495.496	9164.55
495.866	9233.92
496.235	9276.86
496.605	9355.5
496.974	9428.04
497.344	9488.61
497.713	9626.91
498.082	9593.69
498.452	9661.03
498.821	9654.7
499.19	9722.95
499.559	9743.06
499.928	9844.98
500.298	9895.83
500.667	9911.87
501.036	9932.89
501.405	9926.56
501.774	9933.79
502.143	10057.41
502.512	10054.69
502.88	10136.27
503.249	10135.6
503.618	10171.3
503.987	10210.85
504.356	10294.91
504.724	10251.07
505.093	10305.31
505.462	10290.85
505.83	10349.15
506.199	10448.13
506.567	10552.08
506.936	10499.65
507.304	10548.69
507.672	10573.78
508.041	10541.46
508.409	10667.78
508.777	10649.71
509.145	10695.35
509.514	10641.34
509.882	10779.42
510.25	10792.53
510.618	10794.79
510.986	10791.4
511.354	10831.62
511.722	10837.5
512.09	10944.16
512.458	10867.1
512.826	10926.76
513.193	10909.81
513.561	10928.79
513.929	10912.98
514.297	10930.6
514.664	11017.83
515.032	11051.73
515.4	11136.47
515.767	11075.68
516.135	11067.32
516.502	10993.2
516.869	11162.91
517.237	11140.54
517.604	11025.74
517.972	11150.71
518.339	11151.16
518.706	11099.86
519.073	11123.82
519.44	11091.28
519.808	11212.85
520.175	11124.5
520.542	11220.09
520.909	11218.28
521.276	11155.23
521.643	11195.68
522.009	11204.72
522.376	11252.85
522.743	11264.15
523.11	11254.66
523.477	11318.61
523.843	11348.22
524.21	11363.36
524.577	11356.81
524.943	11270.93
525.31	11369.91
525.676	11330.14
526.043	11350.93
526.409	11284.27
526.776	11411.95
527.142	11375.56
527.508	11416.69
527.874	11382.57
528.241	11415.79
528.607	11301.67
528.973	11312.51
529.339	11281.78
529.705	11326.98
530.071	11329.69
530.437	11251.05
530.803	11225.51
531.169	11258.5
531.535	11199.3
531.901	11121.33
532.267	11094.89
532.632	11135.12
532.998	11133.99
533.364	11151.84
533.73	11093.76
534.095	11020.54
534.461	10977.83
534.826	10983.03
535.192	10930.83
535.557	10899.42
535.923	10909.36
536.288	10856.48
536.653	10752.3
537.019	10730.83
537.384	10764.05
537.749	10658.97
538.114	10603.38
538.479	10536.94
538.845	10521.35
539.21	10432.31
539.575	10420.11
539.94	10439.09
540.305	10375.14
540.67	10407.68
541.034	10273.9
541.399	10230.06
541.764	10218.53
542.129	10154.58
542.494	10130.17
542.858	10040.23
543.223	9974.92
543.587	10021.47
543.952	9874.81
544.316	9913.45
544.681	9792.33
545.045	9802.04
545.41	9773.34
545.774	9744.87
546.138	9668.71
546.503	9597.08
546.867	9537.42
547.231	9561.82
547.595	9448.38
547.959	9430.08
548.324	9389.17
548.688	9239.57
549.052	9249.06
549.416	9215.39
549.779	9188.05
550.143	9088.39
550.507	9113.25
550.871	9088.16
551.235	9052.46
551.599	8980.6
551.962	9036.87
552.326	8851.56
552.689	8946.93
553.053	8768.85
553.417	8723.65
553.78	8769.3
554.143	8700.6
554.507	8657.22
554.87	8642.75
555.234	8661.96
555.597	8587.16
555.96	8520.95
556.323	8547.84
556.686	8499.03
557.05	8492.93
557.413	8450.44
557.776	8382.87
558.139	8431.91
558.502	8363.44
558.865	8353.04
559.228	8379.48
559.59	8266.04
559.953	8299.49
560.316	8322.99
560.679	8274.18
561.041	8326.38
561.404	8308.75
561.767	8256.77
562.129	8246.38
562.492	8195.31
562.854	8232.82
563.217	8185.59
563.579	8199.83
563.941	8183.78
564.304	8185.59
564.666	8207.06
565.028	8143.33
565.39	8139.94
565.753	8152.37
566.115	8136.55
566.477	8112.82
566.839	8086.84
567.201	8096.33
567.563	8101.07
567.925	8125.48
568.287	8087.74
568.648	8120.73
569.01	8122.77
569.372	8141.3
569.734	8078.02
570.095	8117.12
570.457	8146.95
570.819	8086.84
571.18	8122.31
571.542	8111.69
571.903	8120.51
572.265	8098.59
572.626	8085.48
572.987	8114.18
573.349	8074.63
573.71	8068.3
574.071	8031.24
574.432	8104.01
574.794	8096.33
575.155	8108.98
575.516	8064.24
575.877	8045.48
576.238	8067.85
576.599	8078.02
576.96	8065.59
577.32	8071.69
577.681	8091.13
578.042	8045.93
578.403	8059.04
578.763	8058.59
579.124	8088.87
579.485	8074.18
579.845	8063.11
580.206	8011.13
580.566	8033.96
580.927	8030.34
581.287	8059.72
581.648	8038.48
582.008	8045.03
582.368	7975.65
582.728	7986.05
583.089	7960.74
583.449	7947.18
583.809	8055.88
584.169	7982.88
584.529	7936.1
584.889	7989.44
585.249	7896.33
585.609	7893.85
585.969	7887.29
586.329	7931.81
586.688	7898.82
587.048	7903.34
587.408	7861.53
587.768	7844.58
588.127	7821.08
588.487	7800.29
588.846	7890.46
589.206	7799.61
589.565	7840.97
589.925	7826.28
590.284	7841.87
590.643	7875.32
591.003	7839.38
591.362	7847.29
591.721	7840.74
592.08	7797.58
592.44	7785.6
592.799	7788.99
593.158	7796.45
593.517	7751.7
593.876	7742.89
594.235	7741.76
594.593	7684.13
594.952	7721.87
595.311	7703.79
595.67	7699.95
596.029	7775.43
596.387	7691.59
596.746	7704.25
597.104	7665.83
597.463	7647.98
597.822	7765.49
598.18	7652.27
598.538	7592.39
598.897	7708.54
599.255	7611.82
599.613	7698.82
599.972	7650.01
600.33	7713.29
600.688	7595.32
601.046	7685.26
601.404	7681.42
601.762	7630.8
602.12	7693.63
602.478	7624.7
602.836	7701.53
603.194	7557.13
603.552	7679.61
603.91	7527.08
604.268	7564.82
604.625	7611.14
604.983	7613.4
605.341	7673.51
605.698	7650.91
606.056	7621.31
606.413	7639.39
606.771	7619.05
607.128	7661.76
607.485	7597.58
607.843	7628.32
608.2	7684.36
608.557	7688.65
608.914	7619.96
609.272	7616.57
609.629	7673.51
609.986	7638.71
610.343	7607.07
610.7	7735.43
611.057	7654.3
611.414	7624.7
611.771	7657.02
612.127	7693.63
612.484	7680.74
612.841	7734.75
613.198	7648.2
613.554	7714.87
613.911	7686.62
614.267	7675.77
614.624	7686.62
614.98	7682.55
615.337	7767.52
615.693	7741.31
616.05	7702.66
616.406	7754.87
616.762	7684.36
617.118	7707.64
617.475	7738.14
617.831	7752.15
618.187	7699.05
618.543	7723.91
618.899	7742.66
619.255	7804.81
619.611	7787.41
619.967	7757.35
620.323	7724.36
620.678	7801.65
621.034	7753.06
621.39	7748.54
621.746	7709.67
622.101	7820.63
622.457	7777.01
622.812	7748.31
623.168	7754.64
623.523	7758.26
623.879	7824.92
624.234	7708.09
624.589	7792.61
624.945	7724.36
625.3	7815.2
625.655	7803.9
626.01	7766.84
626.365	7753.06
626.72	7777.24
627.075	7679.61
627.43	7697.92
627.785	7729.1
628.14	7775.88
628.495	7741.31
628.85	7823.11
629.205	7670.35
629.559	7795.54
629.914	7690.24
630.269	7733.4
630.623	7672.16
630.978	7681.87
631.332	7717.35
631.687	7684.36
632.041	7633.51
632.396	7699.5
632.75	7648.65
633.104	7607.75
633.459	7585.15
633.813	7597.36
634.167	7541.09
634.521	7576.57
634.875	7598.26
635.229	7597.81
635.583	7589.45
635.937	7516
636.291	7521.88
636.645	7548.09
636.999	7495.44
637.352	7509.68
637.706	7426.51
638.06	7560.97
638.413	7512.39
638.767	7513.52
639.121	7429.45
639.474	7412.95
639.828	7466.74
640.181	7414.08
640.534	7490.69
640.888	7492.05
641.241	7342.9
641.594	7400.98
641.947	7434.88
642.301	7374.09
642.654	7426.97
643.007	7424.03
643.36	7409.11
643.713	7388.1
644.066	7442.78
644.419	7385.61
644.771	7278.95
645.124	7220.42
645.477	7275.56
645.83	7190.14
646.182	7145.39
646.535	7093.64
646.888	7158.05
647.24	7075.34
647.593	7109.91
647.945	7101.1
648.298	7106.52
648.65	7097.03
649.002	7131.61
649.355	7127.54
649.707	7104.49
650.059	7177.48
650.411	7223.36
650.763	7241.66
651.115	7348.55
651.467	7334.31
651.819	7352.62
652.171	7262.45
652.523	7258.61
652.875	7283.69
653.227	7252.73
653.578	7277.14
653.93	7273.3
654.282	7223.81
654.633	7281.88
654.985	7265.16
655.337	7239.4
655.688	7335.22
656.039	7378.61
656.391	7254.09
656.742	7273.07
657.094	7251.38
657.445	7274.88
657.796	7316.01
658.147	7350.13
658.498	7314.65
658.849	7345.39
659.2	7290.7
659.551	7310.13
659.902	7345.39
660.253	7354.43
660.604	7334.54
660.955	7297.03
661.306	7329.79
661.656	7329.79
662.007	7353.75
662.358	7349
662.708	7353.75
663.059	7359.4
663.409	7317.59
663.76	7368.21
664.11	7391.49
664.461	7360.3
664.811	7332.73
665.161	7342.45
665.511	7391.71
665.862	7386.97
666.212	7410.24
666.562	7406.18
666.912	7333.63
667.262	7363.24
667.612	7370.92
667.962	7411.15
668.312	7354.2
668.662	7417.47
669.011	7344.48
669.361	7351.26
669.711	7376.12
670.06	7374.76
670.41	7354.65
670.76	7349.91
671.109	7334.09
671.459	7384.03
671.808	7375.89
672.157	7342.22
672.507	7331.38
672.856	7279.85
673.205	7317.36
673.554	7344.71
673.904	7311.26
674.253	7380.87
674.602	7277.82
674.951	7203.24
675.3	7176.12
675.649	7227.42
675.998	7281.88
676.346	7281.88
676.695	7297.03
677.044	7233.75
677.393	7164.6
677.741	7262.9
678.09	7217.03
678.438	7139.52
678.787	7186.97
679.135	7241.66
679.484	7170.93
679.832	7181.1
680.181	7068.33
680.529	7152.85
680.877	7104.26
681.225	7113.98
681.573	7129.8
681.922	7077.82
682.27	7062.68
682.618	7050.93
682.966	7059.07
683.314	7033.53
683.661	6994.89
684.009	6995.79
684.357	6964.15
684.705	6926.41
685.053	6983.81
685.4	6933.19
685.748	6938.84
686.095	6902.46
686.443	6890.03
686.79	6854.1
687.138	6902.46
687.485	6879.64
687.832	6811.16
688.18	6830.37
688.527	6781.56
688.874	6746.31
689.221	6772.97
689.568	6749.7
689.915	6685.52
690.262	6695.01
690.609	6702.69
690.956	6668.34
691.303	6675.35
691.65	6611.62
691.997	6604.61
692.344	6605.97
692.69	6615.46
693.037	6598.29
693.383	6524.16
693.73	6506.76
694.077	6451.85
694.423	6405.3
694.769	6416.82
695.116	6451.17
695.462	6335.92
695.808	6346.09
696.155	6307.45
696.501	6276.94
696.847	6304.74
697.193	6275.13
697.539	6265.19
697.885	6213.21
698.231	6198.98
698.577	6180.9
698.923	6192.87
699.269	6154
699.614	6099.54
699.96	6129.6
700.306	6109.71
700.651	6065.65
700.997	6024.52
701.342	6024.29
701.688	6017.29
702.033	6025.87
702.379	5957.17
702.724	5964.63
703.069	5949.26
703.415	5864.29
703.76	5858.19
704.105	5828.14
704.45	5876.5
704.795	5762.6
705.14	5803.51
705.485	5795.14
705.83	5718.31
706.175	5767.12
706.52	5740.68
706.865	5734.13
707.209	5692.77
707.554	5682.38
707.899	5688.71
708.243	5610.06
708.588	5625.21
708.932	5541.37
709.277	5595.15
709.621	5539.11
709.966	5539.33
710.31	5492.78
710.654	5504.08
710.998	5504.08
711.342	5477.86
711.687	5495.72
712.031	5448.26
712.375	5466.11
712.719	5481.48
713.063	5449.62
713.407	5418.88
713.75	5416.4
714.094	5453.91
714.438	5385.89
714.782	5404.65
715.125	5401.26
715.469	5420.46
715.812	5378.21
716.156	5301.15
716.499	5331.65
716.843	5410.3
717.186	5331.88
717.53	5290.75
717.873	5323.29
718.216	5294.37
718.559	5280.58
718.902	5313.12
719.246	5287.13
719.589	5332.33
719.932	5284.2
720.275	5223.86
720.617	5253.46
720.96	5224.76
721.303	5248.49
721.646	5280.36
721.989	5196.97
722.331	5225.44
722.674	5257.76
723.016	5244.2
723.359	5209.4
723.701	5245.1
724.044	5185.89
724.386	5151.32
724.729	5242.16
725.071	5158.78
725.413	5199.91
725.755	5182.96
726.097	5176.4
726.439	5185.44
726.782	5121.94
727.124	5159.68
727.465	5163.97
727.807	5177.99
728.149	5164.65
728.491	5178.66
728.833	5185.89
729.175	5112.68
729.516	5129.4
729.858	5133.24
730.199	5087.14
730.541	5172.34
730.882	5125.33
731.224	5146.8
731.565	5146.8
731.906	5164.65
732.248	5177.31
732.589	5168.95
732.93	5118.55
733.271	5134.6
733.612	5134.6
733.953	5217.76
734.294	5132.34
734.635	5149.51
734.976	5175.05
735.317	5199.23
735.658	5206.91
735.999	5174.6
736.339	5182.73
736.68	5239
737.021	5201.94
737.361	5193.13
737.702	5242.39
738.042	5212.33
738.383	5179.12
738.723	5222.28
739.063	5258.66
739.404	5267.93
739.744	5311.54
740.084	5234.03
740.424	5246.68
740.764	5287.13
741.104	5319.45
741.444	5314.25
741.784	5327.13
742.124	5353.35
742.464	5331.43
742.804	5357.87
743.143	5367.36
743.483	5362.39
743.823	5399.22
744.162	5399
744.502	5422.72
744.841	5455.04
745.181	5488.26
745.52	5528.71
745.86	5527.81
746.199	5595.38
746.538	5618.43
746.877	5662.72
747.216	5699.78
747.556	5767.57
747.895	5753.79
748.234	5839.66
748.573	5874.46
748.911	5896.38
749.25	5971.86
749.589	6026.78
749.928	6071.97
750.267	6182.25
750.605	6175.47
750.944	6243.49
751.283	6323.94
751.621	6414.56
751.96	6533.66
752.298	6596.48
752.636	6669.25
752.975	6726.65
753.313	6821.78
753.651	6990.37
753.989	7036.69
754.327	7113.08
754.666	7229
755.004	7338.83
755.342	7501.31
755.679	7603.46
756.017	7746.73
756.355	7830.34
756.693	7916.67
757.031	8132.94
757.368	8243.44
757.706	8336.09
758.044	8518.91
758.381	8678.23
758.719	8841.84
759.056	9008.85
759.394	9131.78
759.731	9299.91
760.068	9493.58
760.405	9618.09
760.743	9759.79
761.08	9908.93
761.417	10050.17
761.754	10237.97
762.091	10450.16
762.428	10560.22
762.765	10808.12
763.102	10945.74
763.438	11064.61
763.775	11265.96
764.112	11413.3
764.449	11667.98
764.785	11759.96
765.122	11808.77
765.458	12022.1
765.795	12255.77
766.131	12415.76
766.467	12568.98
766.804	12676.77
767.14	12805.13
