Data from hue_60_FLMS001491_24.txt Node
Date: Mon Feb 06 15:17:08 GMT 2017
User: dcchb
Spectrometer: FLMS00149
Trigger mode: 0
Integration Time (sec): 2.000000E-2
Scans to average: 10
Electric dark correction enabled: true
Nonlinearity correction enabled: false
Boxcar width: 0
XAxis mode: Wavelengths
Number of Pixels in Spectrum: 2048
>>>>>Begin Spectral Data<<<<<
341.393	-14.17
341.776	-14.17
342.16	-14.17
342.543	-34.96
342.927	-61.62
343.31	-77.89
343.693	-79.48
344.077	-81.51
344.46	-63.88
344.843	-50.32
345.226	-23.88
345.61	-29.76
345.993	-11.91
346.376	12.05
346.759	-13.26
347.142	7.08
347.525	45.27
347.908	67.64
348.291	86.62
348.674	98.83
349.057	114.42
349.44	109.67
349.823	130.01
350.206	177.92
350.588	210.01
350.971	205.71
351.354	220.86
351.737	250.91
352.119	256.11
352.502	247.75
352.884	271.25
353.267	294.53
353.65	272.38
354.032	297.24
354.414	319.16
354.797	314.41
355.179	314.86
355.562	302.89
355.944	336.11
356.326	329.55
356.709	348.54
357.091	354.64
357.473	325.26
357.855	338.59
358.238	358.48
358.62	352.83
359.002	346.73
359.384	337.46
359.766	335.88
360.148	334.75
360.53	346.05
360.912	348.76
361.294	342.21
361.676	333.62
362.057	330.23
362.439	332.94
362.821	323
363.203	341.3
363.584	342.66
363.966	328.2
364.348	316.9
364.729	309.89
365.111	319.61
365.493	306.5
365.874	306.73
366.256	320.06
366.637	305.83
367.019	315.99
367.4	317.35
367.781	323.9
368.163	328.88
368.544	320.74
368.925	310.12
369.306	321.64
369.688	324.36
370.069	309.44
370.45	309.22
370.831	307.18
371.212	313.96
371.593	329.78
371.974	296.33
372.355	316.67
372.736	313.73
373.117	325.26
373.498	322.77
373.879	315.09
374.26	298.82
374.641	295.66
375.021	309.44
375.402	306.73
375.783	312.83
376.163	339.95
376.544	315.77
376.925	322.1
377.305	334.3
377.686	315.09
378.066	320.97
378.447	349.21
378.827	314.86
379.208	321.87
379.588	332.72
379.968	320.29
380.349	311.93
380.729	340.85
381.109	326.62
381.489	344.92
381.87	327.07
382.25	337.24
382.63	329.33
383.01	340.85
383.39	327.52
383.77	342.43
384.15	334.53
384.53	354.64
384.91	348.08
385.29	350.57
385.67	344.24
386.049	351.93
386.429	342.89
386.809	348.99
387.189	350.12
387.568	354.86
387.948	346.5
388.328	359.38
388.707	350.34
389.087	345.37
389.466	357.12
389.846	368.87
390.225	335.66
390.605	340.63
390.984	371.81
391.363	340.63
391.743	355.09
392.122	367.07
392.501	355.77
392.881	365.71
393.26	373.17
393.639	376.33
394.018	348.54
394.397	385.37
394.776	367.97
395.155	370.91
395.534	374.75
395.913	352.83
396.292	361.42
396.671	384.47
397.05	366.16
397.429	369.55
397.808	380.63
398.186	379.72
398.565	365.94
398.944	371.81
399.323	376.33
399.701	365.71
400.08	375.2
400.458	376.78
400.837	386.28
401.215	379.5
401.594	411.13
401.972	371.36
402.351	384.69
402.729	397.8
403.107	379.95
403.486	386.28
403.864	411.13
404.242	410.68
404.62	398.25
404.999	413.39
405.377	402.55
405.755	390.57
406.133	407.07
406.511	367.07
406.889	393.28
407.267	403.9
407.645	422.88
408.023	398.48
408.401	403
408.779	404.58
409.156	403.45
409.534	425.6
409.912	412.72
410.29	424.92
410.667	413.39
411.045	444.13
411.422	441.64
411.8	448.19
412.178	462.21
412.555	457.91
412.933	428.31
413.31	441.19
413.687	460.62
414.065	445.26
414.442	445.26
414.819	456.33
415.197	451.13
415.574	456.1
415.951	477.57
416.328	470.34
416.705	487.74
417.082	467.63
417.46	464.69
417.837	472.37
418.214	474.18
418.591	473.96
418.967	480.51
419.344	478.02
419.721	491.36
420.098	474.18
420.475	507.63
420.852	509.89
421.228	490.91
421.605	483.9
421.982	503.11
422.358	503.79
422.735	508.53
423.111	502.43
423.488	506.72
423.864	500.4
424.241	508.98
424.617	501.07
424.994	518.48
425.37	545.14
425.746	523.67
426.123	527.51
426.499	515.99
426.875	533.62
427.251	539.72
427.627	543.11
428.003	562.99
428.379	560.51
428.756	543.11
429.132	547.4
429.507	561.41
429.883	570.23
430.259	599.83
430.635	581.98
431.011	587.4
431.387	583.78
431.763	601.86
432.138	593.95
432.514	575.65
432.89	599.15
433.265	612.48
433.641	610.22
434.016	604.35
434.392	626.49
434.767	615.87
435.143	622.43
435.518	635.53
435.894	647.74
436.269	632.37
436.644	667.17
437.02	645.48
437.395	639.38
437.77	636.89
438.145	642.77
438.52	652.71
438.895	684.57
439.271	668.08
439.646	686.38
440.021	678.47
440.395	706.27
440.77	678.02
441.145	689.77
441.52	724.12
441.895	704.46
442.27	708.07
442.645	716.89
443.019	707.17
443.394	714.63
443.769	713.72
444.143	728.87
444.518	714.63
444.892	734.97
445.267	716.89
445.641	735.64
446.016	744.46
446.39	737.68
446.764	724.8
447.139	756.43
447.513	760.28
447.887	764.12
448.262	765.93
448.636	765.02
449.01	749.66
449.384	777.45
449.758	784.91
450.132	774.97
450.506	791.24
450.88	764.8
451.254	810.9
451.628	821.07
452.002	800.05
452.376	818.13
452.75	830.78
453.123	817.68
453.497	833.72
453.871	826.04
454.244	839.37
454.618	855.64
454.992	869.2
455.365	861.74
455.739	875.53
456.112	884.12
456.486	912.59
456.859	897
457.232	895.87
457.606	921.85
457.979	936.09
458.352	938.8
458.725	950.33
459.099	951.23
459.472	962.98
459.845	982.19
460.218	979.03
460.591	1009.76
460.964	1003.21
461.337	999.82
461.71	1027.16
462.083	1050.21
462.456	1075.3
462.829	1036.2
463.201	1094.05
463.574	1065.13
463.947	1083.43
464.32	1115.52
464.692	1132.92
465.065	1141.96
465.438	1136.31
465.81	1158.23
466.183	1162.75
466.555	1219.02
466.928	1228.96
467.3	1255.4
467.672	1256.31
468.045	1283.43
468.417	1281.62
468.789	1301.96
469.161	1337.66
469.534	1362.29
469.906	1370.2
470.278	1420.15
470.65	1442.74
471.022	1453.59
471.394	1496.53
471.766	1481.84
472.138	1536.08
472.51	1612.91
472.882	1591.89
473.253	1593.48
473.625	1683.64
473.997	1727.03
474.369	1761.38
474.74	1741.49
475.112	1833.47
475.484	1856.29
475.855	1907.59
476.227	1966.35
476.598	2035.72
476.97	2065.1
477.341	2140.13
477.713	2175.61
478.084	2238.2
478.455	2324.76
478.827	2364.75
479.198	2402.04
479.569	2498.99
479.94	2550.29
480.311	2612.66
480.682	2723.84
481.053	2830.96
481.424	2892.2
481.795	2970.16
482.166	3071.18
482.537	3177.61
482.908	3261
483.279	3316.37
483.65	3445.4
484.021	3569.02
484.391	3640.2
484.762	3778.05
485.133	3809.01
485.503	3917.03
485.874	4083.35
486.244	4159.06
486.615	4315.66
486.985	4411.03
487.356	4599.95
487.726	4701.64
488.097	4888.3
488.467	4931.47
488.837	5107.51
489.207	5228.86
489.578	5368.74
489.948	5520.83
490.318	5692.35
490.688	5772.8
491.058	5963.08
491.428	6098.22
491.798	6217.08
492.168	6476.51
492.538	6597.19
492.908	6704.98
493.278	6899.32
493.648	7006.21
494.017	7206.89
494.387	7299.09
494.757	7481
495.126	7635.58
495.496	7772.75
495.866	7927.55
496.235	8097.48
496.605	8240.53
496.974	8408.89
497.344	8573.18
497.713	8707.41
498.082	8910.8
498.452	9047.74
498.821	9231.92
499.19	9254.29
499.559	9502.65
499.928	9627.84
500.298	9801.85
500.667	9962.75
501.036	10075.96
501.405	10205.68
501.774	10347.37
502.143	10465.11
502.512	10634.59
502.88	10749.84
503.249	10920.24
503.618	11023.06
503.987	11144.18
504.356	11289.72
504.724	11433.89
505.093	11602.03
505.462	11693.1
505.83	11844.28
506.199	12005.86
506.567	12259.64
506.936	12342.57
507.304	12543.92
507.672	12645.84
508.041	12825.95
508.409	12853.74
508.777	13103
509.145	13121.76
509.514	13204.47
509.882	13511.58
510.25	13541.41
510.618	13667.06
510.986	13728.3
511.354	13952.7
511.722	14071.34
512.09	14276.08
512.458	14309.98
512.826	14471.1
513.193	14632
513.561	14667.48
513.929	14881.49
514.297	15069.73
514.664	15182.72
515.032	15230.18
515.4	15504.97
515.767	15629.72
516.135	15725.98
516.502	15645.99
516.869	15997.62
517.237	16048.24
517.604	16106.31
517.972	16382.46
518.339	16400.77
518.706	16549.47
519.073	16639.41
519.44	16853.86
519.808	17067.42
520.175	16995.78
520.542	17334.08
520.909	17464.7
521.276	17442.55
521.643	17753.73
522.009	17763.22
522.376	17901.75
522.743	18064.68
523.11	18265.58
523.477	18541.5
523.843	18592.58
524.21	18775.17
524.577	18934.26
524.943	19025.11
525.31	19251.99
525.676	19458.77
526.043	19527.92
526.409	19573.34
526.776	19865.99
527.142	19889.94
527.508	20025.98
527.874	20234.57
528.241	20308.01
528.607	20404.73
528.973	20601.11
529.339	20619.42
529.705	20862.12
530.071	21049.69
530.437	21130.36
530.803	21333.75
531.169	21392.73
531.535	21424.82
531.901	21523.12
532.267	21595.66
532.632	21884.69
532.998	21830.01
533.364	22023.9
533.73	22068.42
534.095	22301.18
534.461	22295.08
534.826	22432.02
535.192	22389.09
535.557	22607.61
535.923	22645.12
536.288	22794.05
536.653	22963.53
537.019	22858.68
537.384	23018.67
537.749	23175.96
538.114	23182.96
538.479	23222.74
538.845	23323.07
539.21	23423.18
539.575	23510.19
539.94	23598.55
540.305	23736.4
540.67	23746.56
541.034	23803.74
541.399	23999.21
541.764	24060.68
542.129	24090.06
542.494	24133.22
542.858	24285.31
543.223	24305.65
543.587	24462.93
543.952	24464.74
544.316	24539.54
544.681	24563.27
545.045	24693.43
545.41	24767.78
545.774	24751.06
546.138	24900.88
546.503	25036.47
546.867	24921.68
547.231	25178.84
547.595	25231.95
547.959	25390.82
548.324	25442.11
548.688	25415.45
549.052	25583.58
549.416	25581.09
549.779	25728.21
550.143	25713.97
550.507	26046.17
550.871	25925.26
551.235	26059.95
551.599	26174.52
551.962	26290.9
552.326	26380.62
552.689	26485.7
553.053	26458.13
553.417	26545.81
553.78	26846.14
554.143	26710.78
554.507	26849.31
554.87	26965.01
555.234	27235.06
555.597	27109.19
555.96	27231.9
556.323	27405.68
556.686	27538.33
557.05	27573.81
557.413	27675.05
557.776	27770.19
558.139	28070.07
558.502	28069.39
558.865	28087.47
559.228	28333.56
559.59	28323.39
559.953	28541.69
560.316	28804.96
560.679	28847.9
561.041	28851.74
561.404	29039.08
561.767	29196.82
562.129	29110.27
562.492	29585.51
562.854	29350.71
563.217	29370.6
563.579	29670.7
563.941	29625.73
564.304	29834.09
564.666	30146.4
565.028	30267.07
565.39	30308.88
565.753	30477.46
566.115	30583.22
566.477	30860.05
566.839	30839.49
567.201	30942.53
567.563	31011.68
567.925	31196.09
568.287	31276.54
568.648	31238.35
569.01	31592.46
569.372	31666.13
569.734	31573.93
570.095	31853.7
570.457	31896.63
570.819	32081.71
571.18	32103.63
571.542	32310.86
571.903	32286.45
572.265	32449.61
572.626	32525.54
572.987	32605.31
573.349	32742.03
573.71	32839.21
574.071	32811.64
574.432	32992.42
574.794	33202.81
575.155	33229.93
575.516	33067.45
575.877	33291.85
576.238	33375.01
576.599	33552.41
576.96	33538.62
577.32	33580.66
577.681	33636.47
578.042	33828.33
578.403	33820.65
578.763	33753.99
579.124	33874.89
579.485	34083.47
579.845	34083.24
580.206	34040.98
580.566	34037.59
580.927	34197.82
581.287	34272.62
581.648	34095.45
582.008	34399.84
582.368	34306.06
582.728	34339.28
583.089	34352.84
583.449	34408.66
583.809	34466.96
584.169	34585.38
584.529	34454.31
584.889	34634.19
585.249	34400.52
585.609	34339.51
585.969	34662.66
586.329	34441.2
586.688	34584.47
587.048	34636.9
587.408	34610.46
587.768	34617.69
588.127	34582.44
588.487	34528.2
588.846	34892.03
589.206	34691.81
589.565	34733.62
589.925	34900.85
590.284	34744.92
590.643	34798.03
591.003	34939.26
591.362	35057.23
591.721	34918.25
592.08	34897.91
592.44	34995.31
592.799	35067.17
593.158	35078.02
593.517	35018.36
593.876	35142.2
594.235	35084.35
594.593	35148.98
594.952	35141.75
595.311	35086.38
595.67	35074.63
596.029	35379.71
596.387	35341.51
596.746	35300.84
597.104	35335.19
597.463	35273.04
597.822	35366.6
598.18	35236.43
598.538	35232.36
598.897	35587.38
599.255	35204.12
599.613	35759.58
599.972	35630.55
600.33	35610.89
600.688	35408.63
601.046	35586.25
601.404	35836.87
601.762	35784.44
602.12	35933.14
602.478	35925.91
602.836	35902.86
603.194	35691.56
603.552	35944.21
603.91	35898.11
604.268	36144.43
604.625	36009.75
604.983	36163.41
605.341	35973.14
605.698	36226.24
606.056	36401.15
606.413	36341.71
606.771	36378.55
607.128	36464.87
607.485	36210.87
607.843	36301.26
608.2	36522.5
608.557	36708.48
608.914	36524.31
609.272	36842.49
609.629	36839.1
609.986	36953
610.343	36816.73
610.7	37063.05
611.057	37150.96
611.414	37094.46
611.771	37176.72
612.127	37259.2
612.484	37283.16
612.841	37473.44
613.198	37263.72
613.554	37298.52
613.911	37524.51
614.267	37588.46
614.624	37585.07
614.98	37596.37
615.337	37763.82
615.693	37803.37
616.05	37753.88
616.406	37944.38
616.762	37901.67
617.118	37869.81
617.475	37927.21
617.831	38066.64
618.187	38158.16
618.543	38188.22
618.899	38383.24
619.255	38327.42
619.611	38338.27
619.967	38519.96
620.323	38422.34
620.678	38348.21
621.034	38374.2
621.39	38411.26
621.746	38510.7
622.101	38818.71
622.457	38438.83
622.812	38653.97
623.168	38690.13
623.523	38676.57
623.879	38743.68
624.234	38609.9
624.589	38709.79
624.945	38844.47
625.3	38748.43
625.655	38846.96
626.01	38928.31
626.365	38933.06
626.72	39004.92
627.075	38854.42
627.43	38879.95
627.785	38855.77
628.14	38826.17
628.495	38956.33
628.85	38875.21
629.205	38830.46
629.559	38998.14
629.914	38771.25
630.269	38921.99
630.623	38910.69
630.978	38805.6
631.332	38827.07
631.687	39050.12
632.041	38871.14
632.396	38966.96
632.75	38870.91
633.104	38689.9
633.459	38662.78
633.813	38672.73
634.167	38623.01
634.521	38765.83
634.875	38712.05
635.229	38861.2
635.583	38578.04
635.937	38571.03
636.291	38562.67
636.645	38588.89
636.999	38432.28
637.352	38697.13
637.706	38258.05
638.06	38487.87
638.413	38496.91
638.767	38461.43
639.121	38523.35
639.474	38191.83
639.828	38373.75
640.181	38364.94
640.534	38170.59
640.888	38214.21
641.241	38145.51
641.594	38155.23
641.947	38310.48
642.301	38101.22
642.654	38220.08
643.007	38291.49
643.36	38242
643.713	38144.15
644.066	38301.21
644.419	38022.12
644.771	37709.36
645.124	37362.03
645.477	37315.7
645.83	37125.42
646.182	36870.51
646.535	36805.43
646.888	37008.14
647.24	36910.29
647.593	36978.99
647.945	36934.92
648.298	36656.28
648.65	36751.65
649.002	36484.76
649.355	36667.13
649.707	36668.48
650.059	36758.43
650.411	37166.33
650.763	37388.01
651.115	37641.34
651.467	37561.57
651.819	37617.84
652.171	37468.24
652.523	37294.01
652.875	37459.88
653.227	37178.3
653.578	37515.02
653.93	37358.86
654.282	37198.64
654.633	37085.42
654.985	37248.81
655.337	37161.13
655.688	37102.37
656.039	37303.95
656.391	36978.53
656.742	37119.09
657.094	37115.48
657.445	37084.29
657.796	37094.01
658.147	37031.19
658.498	37012.43
658.849	37105.76
659.2	37147.34
659.551	37076.38
659.902	37135.37
660.253	36985.31
660.604	37037.06
660.955	36875.71
661.306	36947.8
661.656	36820.57
662.007	36853.34
662.358	37006.33
662.708	36923.62
663.059	36819.89
663.409	36630.75
663.76	36809.95
664.11	36809.05
664.461	37010.17
664.811	36813.11
665.161	36842.94
665.511	36746
665.862	36805.66
666.212	36903.51
666.562	36864.64
666.912	36833.45
667.262	36761.82
667.612	36794.36
667.962	36820.12
668.312	36851.08
668.662	36806.11
669.011	36876.84
669.361	36720.46
669.711	36696.73
670.06	36535.38
670.41	36549.17
670.76	36687.47
671.109	36659.45
671.459	36581.48
671.808	36580.35
672.157	36578.32
672.507	36357.53
672.856	36351.66
673.205	36489.73
673.554	36601.82
673.904	36392.79
674.253	36544.42
674.602	36630.29
674.951	35999.8
675.3	35887.26
675.649	36446.34
675.998	36349.17
676.346	36253.13
676.695	36422.84
677.044	36229.17
677.393	36305.1
677.741	36242.06
678.09	36205.67
678.438	36132.23
678.787	36196.86
679.135	36193.7
679.484	35962.51
679.832	36001.16
680.181	35818.56
680.529	36061.95
680.877	35953.48
681.225	35813.14
681.573	36065.56
681.922	35835.51
682.27	35626.7
682.618	35649.98
682.966	35642.98
683.314	35739.24
683.661	35579.25
684.009	35328.63
684.357	35472.13
684.705	35264
685.053	35304.45
685.4	35353.72
685.748	35203.21
686.095	35224.68
686.443	35060.84
686.79	35070.11
687.138	35013.16
687.485	35044.57
687.832	34705.6
688.18	34947.85
688.527	34820.62
688.874	34757.57
689.221	34692.04
689.568	34666.28
689.915	34566.17
690.262	34484.81
690.609	34336.34
690.956	34275.78
691.303	34213.18
691.65	34109.23
691.997	34062
692.344	33852.97
692.69	33838.05
693.037	33971.15
693.383	33645.97
693.73	33627.44
694.077	33500.21
694.423	33527.1
694.769	33451.39
695.116	33232.19
695.462	33327.78
695.808	33059.77
696.155	33300.66
696.501	33057.73
696.847	33079.43
697.193	32735.71
697.539	32937.74
697.885	32718.08
698.231	32578.2
698.577	32554.92
698.923	32566.9
699.269	32248.04
699.614	32198.09
699.96	32123.97
700.306	32243.74
700.651	31967.14
700.997	31948.61
701.342	31964.88
701.688	31785.45
702.033	31799.91
702.379	31818.67
702.724	31612.8
703.069	31661.16
703.415	31284.45
703.76	31354.95
704.105	31307.5
704.45	31224.79
704.795	31072.25
705.14	31086.48
705.485	31022.31
705.83	30813.5
706.175	30886.94
706.52	30719.94
706.865	30615.08
707.209	30592.49
707.554	30627.51
707.899	30617.8
708.243	30500.96
708.588	30403.34
708.932	30157.47
709.277	30171.48
709.621	30133.97
709.966	29956.57
710.31	30108.21
710.654	29947.31
710.998	29924.26
711.342	29827.76
711.687	29713.87
712.031	29727.2
712.375	29547.99
712.719	29617.37
713.063	29585.73
713.407	29598.61
713.75	29444.04
714.094	29461.44
714.438	29259.87
714.782	29371.28
715.125	29255.57
715.469	29307.77
715.812	29116.37
716.156	28868.92
716.499	28921.12
716.843	28956.15
717.186	28689.94
717.53	28896.71
717.873	28791.63
718.216	28760.9
718.559	28749.37
718.902	28405.43
719.246	28613.78
719.589	28444.52
719.932	28314.81
720.275	28329.5
720.617	28237.52
720.96	28261.47
721.303	28268.48
721.646	28272.32
721.989	28136.96
722.331	28048.6
722.674	28015.83
723.016	28131.76
723.359	27969.05
723.701	27946.23
724.044	27730.64
724.386	27744.65
724.729	27885.44
725.071	27783.29
725.413	27717.76
725.755	27680.25
726.097	27510.31
726.439	27536.75
726.782	27347.37
727.124	27496.07
727.465	27493.36
727.807	27305.12
728.149	27235.06
728.491	27305.57
728.833	27224.67
729.175	27123.43
729.516	27069.87
729.858	27107.38
730.199	27131.33
730.541	26959.14
730.882	27052.47
731.224	26998.23
731.565	26907.61
731.906	26814.96
732.248	26935.18
732.589	26676.66
732.93	26632.36
733.271	26648.86
733.612	26585.59
733.953	26710.1
734.294	26518.47
734.635	26579.48
734.976	26459.94
735.317	26466.04
735.658	26426.27
735.999	26408.64
736.339	26392.15
736.68	26354.63
737.021	26301.53
737.361	26238.25
737.702	26334.97
738.042	26198.25
738.383	26225.6
738.723	26205.26
739.063	26000.29
739.404	26081.42
739.744	25905.6
740.084	25978.6
740.424	25957.81
740.764	25915.1
741.104	25934.08
741.444	25833.52
741.784	25676.01
742.124	25762.78
742.464	25731.6
742.804	25607.53
743.143	25571.83
743.483	25667.87
743.823	25508.78
744.162	25431.04
744.502	25515.33
744.841	25397.14
745.181	25505.16
745.52	25307.2
745.86	25270.37
746.199	25250.93
746.538	25239.63
746.877	25254.55
747.216	25250.03
747.556	25158.73
747.895	25193.76
748.234	25038.06
748.573	25046.42
748.911	24999.19
749.25	25010.49
749.589	24860.89
749.928	24887.33
750.267	24796.48
750.605	24781.11
750.944	24746.09
751.283	24625.64
751.621	24694.79
751.96	24538.41
752.298	24433.33
752.636	24474.91
752.975	24421.8
753.313	24309.26
753.651	24481.91
753.989	24255.48
754.327	24197.85
754.666	24173.45
755.004	24132.32
755.342	24106.78
755.679	24058.65
756.017	23953.11
756.355	23971.19
756.693	23847.58
