Data from hue_50_FLMS001491_33.txt Node
Date: Mon Feb 06 15:10:02 GMT 2017
User: dcchb
Spectrometer: FLMS00149
Trigger mode: 0
Integration Time (sec): 2.000000E-2
Scans to average: 10
Electric dark correction enabled: true
Nonlinearity correction enabled: false
Boxcar width: 0
XAxis mode: Wavelengths
Number of Pixels in Spectrum: 2048
>>>>>Begin Spectral Data<<<<<
341.393	-1.09
341.776	-1.09
342.16	-1.09
342.543	-79.96
342.927	-64.81
343.31	-56.45
343.693	-51.03
344.077	-57.13
344.46	-65.72
344.843	-70.92
345.226	-52.61
345.61	-36.79
345.993	-26.85
346.376	-8.09
346.759	-0.18
347.142	19.25
347.525	55.41
347.908	58.57
348.291	79.36
348.674	93.6
349.057	119.59
349.44	127.5
349.823	165.91
350.206	153.94
350.588	173.82
350.971	204.78
351.354	216.99
351.737	244.56
352.119	257.89
352.502	254.27
352.884	276.19
353.267	295.4
353.65	295.85
354.032	289.07
354.414	305.12
354.797	305.57
355.179	313.93
355.562	342.86
355.944	337.21
356.326	333.82
356.709	348.73
357.091	337.21
357.473	339.69
357.855	339.02
358.238	352.35
358.62	369.52
359.002	336.3
359.384	355.51
359.766	341.73
360.148	339.47
360.53	343.08
360.912	327.72
361.294	338.79
361.676	334.72
362.057	346.02
362.439	334.95
362.821	360.26
363.203	337.66
363.584	348.28
363.966	326.36
364.348	334.72
364.729	327.04
365.111	327.04
365.493	313.93
365.874	313.48
366.256	320.49
366.637	315.97
367.019	294.5
367.4	319.36
367.781	308.51
368.163	308.73
368.544	308.06
368.925	282.52
369.306	325.23
369.688	287.04
370.069	295.18
370.45	323.65
370.831	297.89
371.212	304.22
371.593	324.55
371.974	318.68
372.355	306.25
372.736	317.32
373.117	337.43
373.498	312.8
373.879	321.62
374.26	300.83
374.641	293.37
375.021	315.97
375.402	319.81
375.783	311.9
376.163	334.5
376.544	310.09
376.925	326.59
377.305	338.11
377.686	343.08
378.066	315.97
378.447	319.81
378.827	325.01
379.208	349.19
379.588	327.49
379.968	345.57
380.349	313.48
380.729	318.23
381.109	324.33
381.489	333.14
381.87	317.32
382.25	321.84
382.63	338.34
383.01	352.35
383.39	335.85
383.77	337.43
384.15	336.08
384.53	348.73
384.91	320.03
385.29	337.21
385.67	344.21
386.049	347.38
386.429	343.99
386.809	343.54
387.189	343.31
387.568	320.94
387.948	335.63
388.328	369.3
388.707	339.69
389.087	350.77
389.466	336.98
389.846	355.29
390.225	361.39
390.605	355.29
390.984	343.08
391.363	348.51
391.743	367.72
392.122	348.28
392.501	367.72
392.881	365.23
393.26	378.79
393.639	356.64
394.018	383.99
394.397	362.07
394.776	375.4
395.155	362.52
395.534	363.65
395.913	364.55
396.292	344.44
396.671	397.32
397.05	359.81
397.429	361.16
397.808	371.56
398.186	360.26
398.565	376.08
398.944	369.3
399.323	404.78
399.701	359.35
400.08	370.2
400.458	376.98
400.837	372.01
401.215	376.08
401.594	386.47
401.972	404.55
402.351	384.67
402.729	374.04
403.107	401.84
403.486	381.05
403.864	387.38
404.242	385.79
404.62	383.99
404.999	385.12
405.377	395.96
405.755	411.56
406.133	414.72
406.511	385.34
406.889	429.64
407.267	406.59
407.645	411.78
408.023	425.12
408.401	408.39
408.779	419.92
409.156	419.69
409.534	402.52
409.912	417.88
410.29	428.73
410.667	431.9
411.045	425.34
411.422	456.3
411.8	418.34
412.178	456.98
412.555	451.1
412.933	437.54
413.31	442.74
413.687	437.09
414.065	451.78
414.442	428.05
414.819	454.72
415.197	454.95
415.574	466.24
415.951	434.38
416.328	445.45
416.705	457.21
417.082	488.84
417.46	482.52
417.837	495.17
418.214	475.96
418.591	473.93
418.967	472.12
419.344	480.03
419.721	483.87
420.098	462.18
420.475	492.91
420.852	476.41
421.228	479.58
421.605	506.24
421.982	486.13
422.358	498.11
422.735	491.78
423.111	491.55
423.488	514.15
423.864	502.63
424.241	498.33
424.617	521.38
424.994	509.63
425.37	520.71
425.746	533.14
426.123	537.66
426.499	519.35
426.875	517.32
427.251	513.7
427.627	544.43
428.003	542.63
428.379	539.46
428.756	532.46
429.132	538.33
429.507	559.58
429.883	542.85
430.259	552.8
430.635	584.21
431.011	554.38
431.387	586.92
431.763	580.37
432.138	590.99
432.514	581.5
432.89	586.47
433.265	586.24
433.641	602.06
434.016	592.34
434.392	621.27
434.767	610.87
435.143	607.71
435.518	631.21
435.894	612.46
436.269	628.5
436.644	635.73
437.02	611.1
437.395	615.17
437.77	654.49
438.145	635.73
438.52	642.51
438.895	645.9
439.271	660.82
439.646	655.84
440.021	646.81
440.395	656.52
440.77	670.53
441.145	659.01
441.52	664.43
441.895	656.75
442.27	682.28
442.645	688.84
443.019	697.88
443.394	682.28
443.769	691.32
444.143	693.36
444.518	694.49
444.892	705.33
445.267	686.35
445.641	726.8
446.016	710.08
446.39	732.68
446.764	718.67
447.139	734.71
447.513	731.32
447.887	735.84
448.262	718.44
448.636	720.48
449.01	721.83
449.384	731.55
449.758	731.77
450.132	763.86
450.506	772.45
450.88	765.45
451.254	760.02
451.628	782.17
452.002	787.37
452.376	782.17
452.75	793.02
453.123	805.67
453.497	813.13
453.871	819
454.244	818.55
454.618	810.42
454.992	824.2
455.365	845.67
455.739	839.57
456.112	826.46
456.486	855.84
456.859	850.87
457.232	849.06
457.606	877.99
457.979	900.58
458.352	907.36
458.725	915.27
459.099	906.69
459.472	945.55
459.845	945.1
460.218	943.75
460.591	952.56
460.964	953.01
461.337	989.85
461.71	990.3
462.083	985.33
462.456	1036.4
462.829	1006.8
463.201	1013.8
463.574	1035.72
463.947	1050.86
464.32	1052.9
464.692	1057.64
465.065	1076.85
465.438	1090.86
465.81	1089.96
466.183	1113.91
466.555	1142.84
466.928	1142.16
467.3	1180.12
467.672	1195.94
468.045	1220.58
468.417	1203.4
468.789	1232.1
469.161	1227.58
469.534	1257.18
469.906	1307.58
470.278	1303.51
470.65	1315.04
471.022	1373.11
471.394	1365.66
471.766	1402.94
472.138	1439.55
472.51	1483.85
472.882	1480.68
473.253	1523.62
473.625	1531.98
473.997	1587.35
474.369	1585.76
474.74	1629.15
475.112	1681.35
475.484	1725.65
475.855	1793.89
476.227	1790.28
476.598	1860.33
476.97	1892.65
477.341	1950.73
477.713	2005.64
478.084	2082.02
478.455	2099.65
478.827	2173.77
479.198	2258.74
479.569	2297.38
479.94	2373.77
480.311	2418.28
480.682	2505.29
481.053	2567.88
481.424	2627.09
481.795	2722.23
482.166	2791.61
482.537	2850.59
482.908	2922.23
483.279	3039.28
483.65	3105.05
484.021	3251.93
484.391	3293.74
484.762	3362.89
485.133	3493.74
485.503	3538.25
485.874	3682.66
486.244	3740.28
486.615	3891.47
486.985	3970.79
487.356	4142.08
487.726	4209.2
488.097	4309.99
488.467	4411.45
488.837	4564.67
489.207	4662.97
489.578	4841.27
489.948	4909.52
490.318	5034.26
490.688	5116.74
491.058	5302.95
491.428	5397.19
491.798	5504.76
492.168	5678.54
492.538	5799.44
492.908	5939.32
493.278	6106.77
493.648	6166.89
494.017	6346.99
494.387	6420.66
494.757	6556.71
495.126	6692.3
495.496	6781.56
495.866	6914.89
496.235	7070.14
496.605	7189.68
496.974	7318.72
497.344	7425.16
497.713	7527.3
498.082	7743.79
498.452	7864.24
498.821	7910.79
499.19	7996.67
499.559	8161.41
499.928	8296.32
500.298	8408.63
500.667	8538.8
501.036	8614.05
501.405	8749.19
501.774	8863.31
502.143	9013.36
502.512	9151.44
502.88	9208.84
503.249	9268.73
503.618	9494.03
503.987	9466.01
504.356	9643.4
504.724	9750.07
505.093	9853.79
505.462	9972.66
505.83	9975.15
506.199	10138.98
506.567	10351.41
506.936	10371.3
507.304	10539.43
507.672	10600.89
508.041	10672.08
508.409	10836.37
508.777	10981.22
509.145	11120.43
509.514	11040.66
509.882	11219.41
510.25	11339.41
510.618	11388.9
510.986	11456.01
511.354	11693.52
511.722	11792.5
512.09	11924.02
512.458	11918.6
512.826	12104.58
513.193	12141.42
513.561	12271.36
513.929	12381.41
514.297	12438.81
514.664	12540.05
515.032	12680.84
515.4	12805.36
515.767	12817.11
516.135	12907.73
516.502	12912.02
516.869	13078.57
517.237	13225.23
517.604	13279.02
517.972	13374.83
518.339	13420.71
518.706	13484.43
519.073	13633.58
519.44	13746.57
519.808	13980.47
520.175	13998.77
520.542	14138.2
520.909	14253.68
521.276	14349.72
521.643	14457.97
522.009	14500.9
522.376	14574.8
522.743	14666.32
523.11	14875.58
523.477	15018.18
523.843	15057.95
524.21	15246.42
524.577	15319.64
524.943	15411.16
525.31	15597.37
525.676	15669.91
526.043	15852.28
526.409	15881.66
526.776	16116.68
527.142	16054.76
527.508	16088.43
527.874	16297.47
528.241	16324.81
528.607	16438.48
528.973	16614.29
529.339	16514.41
529.705	16798.7
530.071	16931.8
530.437	16997.79
530.803	17057.9
531.169	17203.43
531.535	17289.76
531.901	17329.3
532.267	17413.82
532.632	17503.08
532.998	17602.74
533.364	17735.62
533.73	17706.47
534.095	17859.69
534.461	17978.55
534.826	18077.31
535.192	18117.76
535.557	18175.38
535.923	18263.74
536.288	18361.14
536.653	18360.69
537.019	18424.64
537.384	18501.25
537.749	18561.14
538.114	18626.9
538.479	18641.81
538.845	18662.15
539.21	18788.47
539.575	18847.23
539.94	18856.5
540.305	19095.59
540.67	19139.2
541.034	19143.72
541.399	19270.72
541.764	19277.95
542.129	19282.25
542.494	19425.07
542.858	19448.57
543.223	19604.27
543.587	19791.61
543.952	19660.09
544.316	19744.16
544.681	19869.58
545.045	19975.34
545.41	20072.51
545.774	20088.55
546.138	20009.91
546.503	20186.4
546.867	20270.24
547.231	20294.65
547.595	20304.14
547.959	20356.8
548.324	20475.89
548.688	20559.28
549.052	20700.52
549.416	20703.23
549.779	20745.49
550.143	20849.66
550.507	20939.15
550.871	20903.45
551.235	21001.52
551.599	21161.29
551.962	21164.91
552.326	21198.13
552.689	21387.5
553.053	21326.04
553.417	21393.38
553.78	21738.68
554.143	21669.98
554.507	21699.13
554.87	21795.4
555.234	22028.16
555.597	21888.73
555.96	21931.22
556.323	22103.19
556.686	22031.55
557.05	22327.59
557.413	22326.46
557.776	22378.44
558.139	22552.44
558.502	22598.54
558.865	22738.43
559.228	22817.75
559.59	22827.46
559.953	22788.14
560.316	23140.45
560.679	23148.36
561.041	23311.07
561.404	23287.79
561.767	23524.62
562.129	23469.48
562.492	23695.24
562.854	23736.37
563.217	23726.42
563.579	23956.47
563.941	23998.51
564.304	24075.12
564.666	24231.04
565.028	24281.66
565.39	24448.89
565.753	24527.76
566.115	24517.82
566.477	24632.84
566.839	24732.95
567.201	24911.25
567.563	24930.01
567.925	25143.56
568.287	25132.26
568.648	25111.02
569.01	25319.83
569.372	25395.76
569.734	25396.44
570.095	25533.83
570.457	25731.34
570.819	25660.84
571.18	25772.92
571.542	26006.36
571.903	26017.21
572.265	26201.39
572.626	26150.32
572.987	26416.07
573.349	26470.98
573.71	26479.35
574.071	26627.59
574.432	26705.1
574.794	26883.63
575.155	26844.53
575.516	26852.67
575.877	26992.33
576.238	27110.06
576.599	27229.16
576.96	27164.75
577.32	27265.99
577.681	27443.84
578.042	27633.21
578.403	27601.12
578.763	27705.3
579.124	27793.44
579.485	27982.13
579.845	28033.66
580.206	28193.43
580.566	28124.95
580.927	28289.92
581.287	28358.62
581.648	28360.65
582.008	28539.18
582.368	28550.48
582.728	28769.91
583.089	28777.82
583.449	28840.87
583.809	28996.79
584.169	29168.09
584.529	29212.61
584.889	29328.54
585.249	29351.81
585.609	29323.79
585.969	29717.68
586.329	29696.44
586.688	29801.74
587.048	29912.93
587.408	29938.46
587.768	30018.24
588.127	30243.09
588.487	30177.1
588.846	30388.17
589.206	30279.47
589.565	30278.12
589.925	30664.09
590.284	30668.61
590.643	30759.91
591.003	30931.88
591.362	31086.68
591.721	31111.31
592.08	31263.4
592.44	31273.8
592.799	31452.55
593.158	31556.27
593.517	31621.58
593.876	31657.74
594.235	31731.64
594.593	31858.64
594.952	31924.85
595.311	32012.31
595.67	32076.71
596.029	32367.1
596.387	32408.46
596.746	32574.55
597.104	32390.15
597.463	32466.99
597.822	32723.7
598.18	32666.53
598.538	32765.51
598.897	32959.63
599.255	32742.91
599.613	33454.08
599.972	33276.91
600.33	33353.52
600.688	33262.67
601.046	33563.68
601.404	33713.51
601.762	33636.45
602.12	33897.23
602.478	33986.49
602.836	33987.62
603.194	33889.55
603.552	34045.7
603.91	34002.76
604.268	34203.89
604.625	34139.26
604.983	34442.75
605.341	34307.84
605.698	34560.72
606.056	34645.46
606.413	34604.78
606.771	34871.67
607.128	34784.89
607.485	34744.89
607.843	34874.38
608.2	35157.76
608.557	35214.03
608.914	35049.06
609.272	35394.37
609.629	35477.75
609.986	35706.9
610.343	35390.52
610.7	35639.11
611.057	35653.57
611.414	35765.2
611.771	35757.29
612.127	35901.92
612.484	35902.6
612.841	36281.57
613.198	36081.13
613.554	36079.55
613.911	36369.71
614.267	36296.26
614.624	36258.3
614.98	36458.29
615.337	36740.55
615.693	36750.94
616.05	36664.16
616.406	36850.37
616.762	36799.53
617.118	36776.48
617.475	36800.43
617.831	37093.3
618.187	36988.45
618.543	37117.03
618.899	37343.02
619.255	37238.61
619.611	37190.48
619.967	37538.94
620.323	37535.55
620.678	37332.62
621.034	37341.89
621.39	37387.53
621.746	37359.74
622.101	37805.83
622.457	37498.72
622.812	37655.78
623.168	37774.64
623.523	37775.09
623.879	37910.46
624.234	37672.95
624.589	37833.17
624.945	37781.2
625.3	37931.25
625.655	37835.66
626.01	37885.37
626.365	38022.55
626.72	37886.05
627.075	37994.07
627.43	37896.45
627.785	37867.52
628.14	37997.46
628.495	37994.07
628.85	37888.99
629.205	37850.35
629.559	38120.85
629.914	37893.74
630.269	38134.86
630.623	37875.88
630.978	37973.06
631.332	38064.13
631.687	38036.56
632.041	37954.52
632.396	38068.19
632.75	37950.91
633.104	37987.74
633.459	37879.72
633.813	37891.48
634.167	37834.75
634.521	37891.02
634.875	37897.8
635.229	37879.95
635.583	37844.7
635.937	37747.3
636.291	37770.57
636.645	37712.5
636.999	37809.67
637.352	37784.36
637.706	37565.61
638.06	37699.84
638.413	37539.17
638.767	37676.34
639.121	37780.74
639.474	37403.35
639.828	37511.6
640.181	37555.44
640.534	37536.68
640.888	37469.79
641.241	37456.46
641.594	37469.79
641.947	37414.65
642.301	37341.66
642.654	37503.46
643.007	37348.44
643.36	37166.97
643.713	37231.38
644.066	37407.65
644.419	37011.05
644.771	37059.63
645.124	36634.11
645.477	36511.4
645.83	36279.09
646.182	36396.37
646.535	36203.16
646.888	36219.43
647.24	36009.04
647.593	36255.81
647.945	35980.57
648.298	35968.14
648.65	35970.17
649.002	35792.77
649.355	36059.89
649.707	35951.87
650.059	36185.08
650.411	36448.35
650.763	36524.73
651.115	36871.84
651.467	36728.34
651.819	36717.95
652.171	36792.52
652.523	36715.24
652.875	36633.2
653.227	36497.61
653.578	36688.12
653.93	36679.98
654.282	36450.38
654.633	36419.2
654.985	36549.36
655.337	36520.66
655.688	36504.85
656.039	36584.84
656.391	36309.82
656.742	36457.39
657.094	36388.92
657.445	36509.82
657.796	36510.49
658.147	36446.09
658.498	36378.29
658.849	36433.43
659.2	36390.95
659.551	36176.72
659.902	36421.68
660.253	36321.12
660.604	36404.51
660.955	36087.68
661.306	36368.13
661.656	36265.76
662.007	36242.25
662.358	36096.04
662.708	36148.92
663.059	36146.44
663.409	35916.84
663.76	36268.47
664.11	36073.67
664.461	36278.18
664.811	36205.64
665.161	36065.99
665.511	36062.37
665.862	36239.09
666.212	36163.84
666.562	36224.17
666.912	36125.42
667.262	36025.54
667.612	36141.69
667.962	36176.27
668.312	36160.67
668.662	36296.72
669.011	36094.23
669.361	36139.43
669.711	36008.81
670.06	36035.48
670.41	35989.15
670.76	35888.59
671.109	36126.1
671.459	35983.73
671.808	35967.68
672.157	36033.9
672.507	35711.87
672.856	35818.99
673.205	35778.99
673.554	35935.59
673.904	35689.05
674.253	36018.3
674.602	35961.13
674.951	35292.45
675.3	35213.58
675.649	35754.58
675.998	35788.71
676.346	35685.21
676.695	35890.17
677.044	35525.66
677.393	35781.02
677.741	35688.37
678.09	35512.33
678.438	35447.47
678.787	35608.6
679.135	35594.81
679.484	35227.82
679.832	35439.34
680.181	35205.9
680.529	35449.73
680.877	35266.69
681.225	35274.82
681.573	35422.84
681.922	35111.89
682.27	35098.33
682.618	35136.29
682.966	34891.33
683.314	35115.73
683.661	34978.78
684.009	34838.45
684.357	34773.14
684.705	34781.27
685.053	34854.04
685.4	34654.05
685.748	34592.58
686.095	34708.96
686.443	34439.36
686.79	34390.55
687.138	34408.86
687.485	34441.62
687.832	34381.96
688.18	34364.56
688.527	34105.59
688.874	34060.16
689.221	34172.7
689.568	34086.38
689.915	34004.12
690.262	33886.83
690.609	33888.19
690.956	33689.55
691.303	33661.08
691.65	33455.21
691.997	33488.65
692.344	33260.41
692.69	33255.67
693.037	33407.53
693.383	33077.59
693.73	33190.81
694.077	33124.82
694.423	32927.76
694.769	32768.67
695.116	32887.09
695.462	32777.71
695.808	32514.22
696.155	32755.79
696.501	32481.22
696.847	32487.32
697.193	32215.69
697.539	32301.34
697.885	32037.62
698.231	32052.98
698.577	32062.7
698.923	31961.24
699.269	31825.87
699.614	31800.34
699.96	31745.2
700.306	31737.96
700.651	31608.25
700.997	31612.32
701.342	31480.34
701.688	31362.38
702.033	31206
702.379	31259.11
702.724	31211.65
703.069	31148.38
703.415	30733.92
703.76	30844.88
704.105	30794.94
704.45	30615.73
704.795	30624.55
705.14	30543.65
705.485	30686.47
705.83	30336.65
706.175	30400.82
706.52	30343.43
706.865	30241.51
707.209	30251.45
707.554	30022.08
707.899	30078.8
708.243	30038.8
708.588	30009.87
708.932	29688.08
709.277	29727.4
709.621	29701.63
709.966	29653.95
710.31	29703.22
710.654	29337.58
710.998	29370.34
711.342	29395.88
711.687	29383.45
712.031	29215.55
712.375	29063.68
712.719	29108.2
713.063	29156.79
713.407	29254.64
713.75	29034.53
714.094	28941.43
714.438	28919.06
714.782	28874.31
715.125	28724.48
715.469	28696.46
715.812	28750.02
716.156	28532.4
716.499	28515.9
716.843	28564.94
717.186	28315.91
717.53	28500.08
717.873	28507.77
718.216	28416.92
718.559	28244.27
718.902	28032.53
719.246	28128.12
719.589	28064.39
719.932	27971.06
720.275	27940.78
720.617	27922.25
720.96	27752.98
721.303	27830.95
721.646	27801.8
721.989	27601.58
722.331	27758.86
722.674	27571.52
723.016	27564.06
723.359	27654.23
723.701	27610.39
724.044	27324.07
724.386	27269.38
724.729	27383.5
725.071	27413.33
725.413	27288.36
725.755	27221.02
726.097	27182.38
726.439	26880.69
726.782	27036.39
727.124	27129.05
727.465	27000.24
727.807	27011.76
728.149	26900.13
728.491	26885.21
728.833	26978.09
729.175	26932.67
729.516	26807.25
729.858	26669.17
730.199	26801.6
730.541	26653.58
730.882	26493.36
731.224	26731.32
731.565	26442.51
731.906	26554.37
732.248	26608.83
732.589	26272.8
732.93	26223.31
733.271	26224.89
733.612	26227.38
733.953	26324.55
734.294	26260.14
734.635	26114.38
734.976	26128.17
735.317	25933.82
735.658	25933.82
735.999	26078
736.339	25956.42
736.68	26088.17
737.021	26014.73
737.361	25738.57
737.702	26057.89
738.042	25812.02
738.383	25729.31
738.723	25773.83
739.063	25662.42
739.404	25671.46
739.744	25600.5
740.084	25603.89
740.424	25590.33
740.764	25382.43
741.104	25559.6
741.444	25457.68
741.784	25314.41
742.124	25383.56
742.464	25321.86
742.804	25376.78
743.143	25233.28
743.483	25237.57
743.823	25171.13
744.162	25145.14
744.502	25168.87
744.841	24943.34
745.181	25140.4
745.52	24984.7
745.86	25078.7
746.199	25010.91
746.538	25004.36
746.877	24886.85
747.216	24944.92
747.556	24786.28
747.895	24919.61
748.234	24642.11
748.573	24734.53
748.911	24764.14
749.25	24554.88
749.589	24408.44
749.928	24534.09
750.267	24521.21
750.605	24417.03
750.944	24365.05
751.283	24342.68
751.621	24355.79
751.96	24215.22
752.298	24227.88
752.636	24235.79
752.975	24179.29
753.313	23994.89
753.651	24074.44
753.989	23860.21
754.327	23864.73
754.666	23778.63
755.004	23738.18
755.342	23917.61
755.679	23805.29
756.017	23664.05
756.355	23723.03
756.693	23571.63
