Data from hue_20_FLMS001491_20.txt Node
Date: Mon Feb 06 15:33:42 GMT 2017
User: dcchb
Spectrometer: FLMS00149
Trigger mode: 0
Integration Time (sec): 2.000000E-2
Scans to average: 10
Electric dark correction enabled: true
Nonlinearity correction enabled: false
Boxcar width: 0
XAxis mode: Wavelengths
Number of Pixels in Spectrum: 2048
>>>>>Begin Spectral Data<<<<<
341.393	-14.04
341.776	-14.04
342.16	-14.04
342.543	-56.07
342.927	-70.99
343.31	-65.11
343.693	-80.93
344.077	-41.16
344.46	-60.59
344.843	-49.74
345.226	-58.56
345.61	-21.95
345.993	-22.63
346.376	-4.55
346.759	8.79
347.142	25.73
347.525	50.37
347.908	54.21
348.291	53.98
348.674	108.44
349.057	103.7
349.44	125.84
349.823	147.54
350.206	162.91
350.588	216.24
350.971	216.92
351.354	227.08
351.737	234.09
352.119	239.06
352.502	250.36
352.884	264.37
353.267	271.15
353.65	299.85
354.032	283.13
354.414	295.56
354.797	282.68
355.179	308.21
355.562	305.95
355.944	318.83
356.326	346.86
356.709	322.45
357.091	322
357.473	324.26
357.855	336.69
358.238	322
358.62	335.78
359.002	347.53
359.384	342.79
359.766	333.52
360.148	336.91
360.53	350.7
360.912	332.39
361.294	332.17
361.676	315.44
362.057	314.31
362.439	339.17
362.821	345.73
363.203	334.43
363.584	312.96
363.966	319.51
364.348	318.16
364.729	324.26
365.111	299.85
365.493	330.36
365.874	313.64
366.256	320.64
366.637	321.77
367.019	290.36
367.4	324.48
367.781	298.27
368.163	314.09
368.544	306.18
368.925	282.68
369.306	287.65
369.688	314.77
370.069	283.81
370.45	302.34
370.831	321.09
371.212	310.47
371.593	313.41
371.974	318.16
372.355	296.91
372.736	322.22
373.117	322.22
373.498	333.3
373.879	319.06
374.26	312.05
374.641	314.99
375.021	319.06
375.402	320.64
375.783	335.56
376.163	324.03
376.544	311.6
376.925	317.93
377.305	306.18
377.686	317.48
378.066	323.13
378.447	332.39
378.827	338.72
379.208	329.45
379.588	339.4
379.968	328.32
380.349	332.84
380.729	317.25
381.109	317.03
381.489	338.95
381.87	353.63
382.25	338.49
382.63	306.18
383.01	321.09
383.39	329.91
383.77	333.97
384.15	342.34
384.53	357.48
384.91	343.01
385.29	349.79
385.67	329.23
386.049	334.43
386.429	345.95
386.809	325.84
387.189	351.6
387.568	344.82
387.948	347.31
388.328	338.04
388.707	368.55
389.087	362.9
389.466	340.75
389.846	342.79
390.225	355.89
390.605	368.1
390.984	376.69
391.363	346.63
391.743	363.8
392.122	349.12
392.501	365.16
392.881	355.22
393.26	347.53
393.639	373.07
394.018	373.07
394.397	369.68
394.776	364.48
395.155	364.48
395.534	364.26
395.913	368.1
396.292	387.98
396.671	360.64
397.05	361.77
397.429	374.43
397.808	388.21
398.186	350.25
398.565	393.41
398.944	377.14
399.323	387.76
399.701	377.59
400.08	392.5
400.458	398.15
400.837	394.54
401.215	366.97
401.594	408.32
401.972	416.46
402.351	405.61
402.729	409
403.107	390.02
403.486	395.89
403.864	413.52
404.242	407.19
404.62	401.32
404.999	399.96
405.377	376.46
405.755	408.1
406.133	404.03
406.511	398.83
406.889	404.03
407.267	434.08
407.645	418.94
408.023	390.92
408.401	425.72
408.779	415.78
409.156	423.24
409.534	402
409.912	422.79
410.29	443.12
410.667	426.4
411.045	432.73
411.422	452.16
411.8	421.43
412.178	448.32
412.555	437.47
412.933	430.24
413.31	433.41
413.687	440.64
414.065	470.47
414.442	453.75
414.819	460.75
415.197	451.94
415.574	469.79
415.951	482.44
416.328	467.76
416.705	463.46
417.082	470.92
417.46	470.69
417.837	481.09
418.214	485.61
418.591	480.86
418.967	472.73
419.344	490.81
419.721	494.42
420.098	495.78
420.475	505.5
420.852	496.91
421.228	514.08
421.605	511.14
421.982	503.01
422.358	506.63
422.735	507.53
423.111	513.63
423.488	516.12
423.864	501.43
424.241	521.99
424.617	540.07
424.994	519.73
425.37	520.41
425.746	522.22
426.123	530.13
426.499	530.35
426.875	521.77
427.251	536.23
427.627	539.39
428.003	552.27
428.379	552.73
428.756	550.24
429.132	548.88
429.507	576.45
429.883	553.4
430.259	604.02
430.635	584.14
431.011	595.66
431.387	572.84
431.763	592.5
432.138	572.39
432.514	585.95
432.89	591.59
433.265	605.83
433.641	593.18
434.016	621.2
434.392	614.19
434.767	645.83
435.143	609.67
435.518	622.55
435.894	645.38
436.269	666.85
436.644	640.18
437.02	627.3
437.395	636.11
437.77	645.6
438.145	647.64
438.52	655.77
438.895	663.46
439.271	639.73
439.646	690.58
440.021	659.16
440.395	678.6
440.77	686.51
441.145	693.29
441.52	718.14
441.895	693.74
442.27	693.51
442.645	697.13
443.019	694.42
443.394	717.02
443.769	712.5
444.143	702.78
444.518	721.08
444.892	738.48
445.267	727.64
445.641	740.74
446.016	744.81
446.39	746.62
446.764	758.6
447.139	760.4
447.513	766.28
447.887	745.26
448.262	761.76
448.636	761.53
449.01	766.96
449.384	763.57
449.758	750.91
450.132	766.51
450.506	768.09
450.88	810.12
451.254	820.52
451.628	808.54
452.002	799.05
452.376	806.05
452.75	793.17
453.123	805.15
453.497	811.7
453.871	827.75
454.244	840.63
454.618	840.63
454.992	862.55
455.365	851.25
455.739	855.32
456.112	879.27
456.486	911.59
456.859	892.38
457.232	911.59
457.606	888.08
457.979	905.48
458.352	950.46
458.725	928.76
459.099	926.95
459.472	943.9
459.845	963.34
460.218	969.21
460.591	969.89
460.964	960.4
461.337	980.96
461.71	990
462.083	989.55
462.456	997.23
462.829	1003.79
463.201	1009.21
463.574	1032.04
463.947	1052.83
464.32	1079.27
464.692	1070
465.065	1065.25
465.438	1080.85
465.81	1082.88
466.183	1119.04
466.555	1150.22
466.928	1146.61
467.3	1168.98
467.672	1153.61
468.045	1169.43
468.417	1203.78
468.789	1210.56
469.161	1197.91
469.534	1236.1
469.906	1239.49
470.278	1267.96
470.65	1280.39
471.022	1263.89
471.394	1325.81
471.766	1337.79
472.138	1362.87
472.51	1390.67
472.882	1390.67
473.253	1413.49
473.625	1438.8
473.997	1477.67
474.369	1442.65
474.74	1487.62
475.112	1524.9
475.484	1541.4
475.855	1561.29
476.227	1574.85
476.598	1616.65
476.97	1650.55
477.341	1665.01
477.713	1720.38
478.084	1720.6
478.455	1766.7
478.827	1758.12
479.198	1829.08
479.569	1823.2
479.94	1914.5
480.311	1941.16
480.682	1952.24
481.053	2011.22
481.424	2050.99
481.795	2076.98
482.166	2081.05
482.537	2138.45
482.908	2166.69
483.279	2185
483.65	2226.13
484.021	2264.77
484.391	2298.89
484.762	2333.24
485.133	2343.19
485.503	2405.11
485.874	2468.83
486.244	2483.52
486.615	2524.2
486.985	2594.93
487.356	2607.81
487.726	2635.83
488.097	2686
488.467	2736.62
488.837	2777.53
489.207	2858.65
489.578	2854.13
489.948	2907.01
490.318	2965.09
490.688	2974.58
491.058	3028.82
491.428	3043.06
491.798	3077.86
492.168	3141.13
492.538	3160.11
492.908	3173.67
493.278	3249.83
493.648	3244.63
494.017	3333.67
494.387	3367.34
494.757	3358.75
495.126	3394.23
495.496	3434.01
495.866	3484.17
496.235	3523.27
496.605	3544.29
496.974	3577.96
497.344	3599.88
497.713	3658.18
498.082	3669.25
498.452	3719.42
498.821	3693.66
499.19	3701.8
499.559	3742.02
499.928	3806.65
500.298	3837.38
500.667	3880.55
501.036	3832.64
501.405	3904.73
501.774	3902.24
502.143	3944.73
502.512	3951.51
502.88	3986.08
503.249	3979.53
503.618	4037.61
503.987	4005.97
504.356	4088.68
504.724	4101.56
505.093	4117.15
505.462	4177.72
505.83	4121.45
506.199	4152.63
506.567	4197.15
506.936	4237.37
507.304	4273.76
507.672	4231.72
508.041	4285.06
508.409	4304.04
508.777	4320.54
509.145	4323.25
509.514	4345.62
509.882	4396.24
510.25	4437.37
510.618	4429.91
510.986	4440.76
511.354	4489.8
511.722	4480.53
512.09	4513.75
512.458	4487.76
512.826	4538.84
513.193	4586.97
513.561	4592.39
513.929	4612.73
514.297	4666.29
514.664	4687.31
515.032	4722.33
515.4	4699.96
515.767	4761.65
516.135	4767.98
516.502	4756
516.869	4796.46
517.237	4785.16
517.604	4800.75
517.972	4857.02
518.339	4848.43
518.706	4826.74
519.073	4859.73
519.44	4892.05
519.808	4946.28
520.175	4901.76
520.542	4964.14
520.909	4971.59
521.276	4951.71
521.643	5060.4
522.009	5074.41
522.376	5119.61
522.743	5099.95
523.11	5188.31
523.477	5168.42
523.843	5170.68
524.21	5256.33
524.577	5289.32
524.943	5300.17
525.31	5288.42
525.676	5360.73
526.043	5404.12
526.409	5393.28
526.776	5421.52
527.142	5434.41
527.508	5449.09
527.874	5520.96
528.241	5519.37
528.607	5510.56
528.973	5572.71
529.339	5637.11
529.705	5643.21
530.071	5708.97
530.437	5685.92
530.803	5736.09
531.169	5767.5
531.535	5783.32
531.901	5736.54
532.267	5815.64
532.632	5895.18
532.998	5862.64
533.364	5901.29
533.73	5943.32
534.095	5960.94
534.461	5994.84
534.826	5995.97
535.192	6001.62
535.557	6108.96
535.923	6064.45
536.288	6026.93
536.653	6154.84
537.019	6127.95
537.384	6161.39
537.749	6202.52
538.114	6217.44
538.479	6162.52
538.845	6302.86
539.21	6190.77
539.575	6255.85
539.94	6273.71
540.305	6298.34
540.67	6307.38
541.034	6355.96
541.399	6379.69
541.764	6401.84
542.129	6494.49
542.494	6465.79
542.858	6499.46
543.223	6536.3
543.587	6592.57
543.952	6537.43
544.316	6605.45
544.681	6557.31
545.045	6654.94
545.41	6701.94
545.774	6721.38
546.138	6751.88
546.503	6815.84
546.867	6806.57
547.231	6823.3
547.595	6849.74
547.959	6875.05
548.324	6827.81
548.688	6879.79
549.052	6882.5
549.416	6986.91
549.779	6934.03
550.143	6970.41
550.507	7083.85
550.871	7062.84
551.235	7101.93
551.599	7134.93
551.962	7117.07
552.326	7123.85
552.689	7177.18
553.053	7159.56
553.417	7212.21
553.78	7187.13
554.143	7239.33
554.507	7265.77
554.87	7253.79
555.234	7321.36
555.597	7270.74
555.96	7314.81
556.323	7389.16
556.686	7335.15
557.05	7454.92
557.413	7450.17
557.776	7507.57
558.139	7487.46
558.502	7505.09
558.865	7550.06
559.228	7618.3
559.59	7636.83
559.953	7649.94
560.316	7703.95
560.679	7662.82
561.041	7703.27
561.404	7823.72
561.767	7807.68
562.129	7819.2
562.492	7882.02
562.854	7844.96
563.217	7854
563.579	7923.38
563.941	7984.39
564.304	7994.79
564.666	8009.48
565.028	8013.77
565.39	8036.37
565.753	8100.78
566.115	8192.3
566.477	8151.4
566.839	8150.27
567.201	8243.14
567.563	8204.28
567.925	8262.81
568.287	8323.14
568.648	8287.44
569.01	8395.68
569.372	8424.16
569.734	8374.21
570.095	8460.54
570.457	8545.74
570.819	8524.27
571.18	8565.62
571.542	8537.83
571.903	8604.72
572.265	8648.56
572.626	8692.85
572.987	8774.88
573.349	8774.88
573.71	8817.37
574.071	8870.7
574.432	8922
574.794	9043.58
575.155	9063.91
575.516	9035.67
575.877	9179.39
576.238	9196.11
576.599	9248.09
576.96	9325.83
577.32	9332.38
577.681	9519.27
578.042	9552.04
578.403	9576.67
578.763	9688.76
579.124	9764.46
579.485	9865.25
579.845	9971.69
580.206	9975.98
580.566	10115.86
580.927	10249.87
581.287	10384.56
581.648	10474.5
582.008	10641.05
582.368	10668.84
582.728	10811.21
583.089	10939.12
583.449	11084.2
583.809	11282.61
584.169	11393.34
584.529	11601.47
584.889	11872.2
585.249	11891.41
585.609	12121.23
585.969	12257.95
586.329	12462.69
586.688	12623.82
587.048	12891.38
587.408	13086.41
587.768	13242.11
588.127	13439.62
588.487	13655.88
588.846	13948.31
589.206	14114.85
589.565	14333.83
589.925	14648.4
590.284	14819.47
590.643	15238.89
591.003	15442.05
591.362	15731.99
591.721	15956.16
592.08	16150.51
592.44	16571.51
592.799	16736.03
593.158	17082.46
593.517	17328.33
593.876	17562.22
594.235	17859.84
594.593	18167.63
594.952	18534.85
595.311	18673.83
595.67	19101.84
596.029	19438.1
596.387	19766.68
596.746	20134.81
597.104	20238.08
597.463	20477.17
597.822	20982.47
598.18	21145.18
598.538	21413.87
598.897	21818.61
599.255	21959.17
599.613	22502.43
599.972	22663.56
600.33	22957.33
600.688	23158.46
601.046	23609.29
601.404	23894.71
601.762	24174.7
602.12	24582.38
602.478	24735.59
602.836	25035.7
603.194	25233.21
603.552	25610.15
603.91	25756.81
604.268	26293.07
604.625	26371.03
604.983	26804.24
605.341	26892.37
605.698	27338.24
606.056	27650.32
606.413	27755.4
606.771	28115.84
607.128	28430.86
607.485	28535.04
607.843	28831.53
608.2	29130.73
608.557	29342.7
608.914	29502.7
609.272	29772.3
609.629	30083.93
609.986	30318.72
610.343	30363.24
610.7	30916.67
611.057	31042.77
611.414	31156.67
611.771	31448.41
612.127	31774.96
612.484	31840.72
612.841	32170.2
613.198	32277.99
613.554	32419.46
613.911	32811.31
614.267	32850.41
614.624	32966.56
614.98	33213.56
615.337	33639.31
615.693	33730.38
616.05	33705.53
616.406	34149.13
616.762	34103.03
617.118	34227.09
617.475	34396.36
617.831	34688.1
618.187	34878.38
618.543	34896.46
618.899	35284.47
619.255	35208.31
619.611	35299.61
619.967	35660.05
620.323	35837
620.678	35740.5
621.034	35948.41
621.39	36018.23
621.746	36027.73
622.101	36430.43
622.457	36315.18
622.812	36587.03
623.168	36806.46
623.523	36799.46
623.879	36947.02
624.234	36835.61
624.589	37013.01
624.945	37207.58
625.3	37324.19
625.655	37307.69
626.01	37625.2
626.365	37572.09
626.72	37610.96
627.075	37655.48
627.43	37616.61
627.785	37803.27
628.14	37856.6
628.495	38048.91
628.85	37792.42
629.205	37990.84
629.559	38194.45
629.914	37984.28
630.269	38279.64
630.623	38102.25
630.978	38107.9
631.332	38192.19
631.687	38363.93
632.041	38208.01
632.396	38454.78
632.75	38291.62
633.104	38550.82
633.459	38204.62
633.813	38366.87
634.167	38417.27
634.521	38449.58
634.875	38537.72
635.229	38381.56
635.583	38272.19
635.937	38401.22
636.291	38272.64
636.645	38352.86
636.999	38393.54
637.352	38627.66
637.706	38118.52
638.06	38479.86
638.413	38357.83
638.767	38364.39
639.121	38487.32
639.474	38269.7
639.828	38438.96
640.181	38372.75
640.534	38447.77
640.888	38371.17
641.241	38322.35
641.594	38404.16
641.947	38430.83
642.301	38442.35
642.654	38434.22
643.007	38329.81
643.36	38276.25
643.713	38294.11
644.066	38515.57
644.419	38080.1
644.771	38061.34
645.124	37567.12
645.477	37559.44
645.83	37362.15
646.182	37292.1
646.535	37285.77
646.888	37423.39
647.24	37186.34
647.593	37290.29
647.945	37209.61
648.298	37123.06
648.65	37128.94
649.002	37015.27
649.355	37141.82
649.707	37025.44
650.059	37240.8
650.411	37695.48
650.763	37849.15
651.115	38129.82
651.467	37993.1
651.819	37910.39
652.171	38074.45
652.523	37948.35
652.875	37872.65
653.227	37781.13
653.578	38074
653.93	37952.65
654.282	37800.33
654.633	37723.05
654.985	37706.1
655.337	37816.83
655.688	37708.36
656.039	37948.8
656.391	37658.64
656.742	37747.68
657.094	37635.37
657.445	37812.76
657.796	37674.01
658.147	37604.86
658.498	37816.6
658.849	37693.9
659.2	37710.39
659.551	37709.04
659.902	37667.91
660.253	37821.8
660.604	37831.07
660.955	37495.93
661.306	37810.95
661.656	37724.18
662.007	37854.12
662.358	37704.97
662.708	37706.78
663.059	37607.34
663.409	37581.58
663.76	37689.38
664.11	37839.43
664.461	37802.37
664.811	37789.03
665.161	37754.91
665.511	37612.54
665.862	37694.12
666.212	37877.62
666.562	37916.26
666.912	37784.97
667.262	37696.16
667.612	37657.06
667.962	37744.74
668.312	37625.65
668.662	37765.53
669.011	37631.52
669.361	37508.82
669.711	37578.87
670.06	37433.34
670.41	37471.3
670.76	37524.86
671.109	37749.94
671.459	37626.78
671.808	37591.98
672.157	37793.55
672.507	37353.34
672.856	37503.17
673.205	37429.5
673.554	37540.23
673.904	37502.04
674.253	37680.34
674.602	37569.61
674.951	36945.67
675.3	36914.48
675.649	37535.26
675.998	37409.61
676.346	37450.29
676.695	37533.22
677.044	37236.28
677.393	37414.13
677.741	37444.64
678.09	37360.35
678.438	37235.38
678.787	37260.23
679.135	37336.39
679.484	37123.74
679.832	37219.11
680.181	37021.82
680.529	37183.85
680.877	37215.49
681.225	37043.74
681.573	37369.16
681.922	37025.89
682.27	36898.89
682.618	36906.57
682.966	36836.29
683.314	36881.26
683.661	36704.32
684.009	36644.21
684.357	36627.48
684.705	36438.56
685.053	36633.13
685.4	36494.83
685.748	36362.63
686.095	36336.42
686.443	36254.39
686.79	36128.74
687.138	36307.27
687.485	36347.94
687.832	36067.27
688.18	36229.08
688.527	35989.08
688.874	36037.22
689.221	36003.09
689.568	35738.92
689.915	35604.69
690.262	35846.94
690.609	35633.61
690.956	35604.01
691.303	35546.38
691.65	35459.83
691.997	35473.62
692.344	35228.88
692.69	35204.24
693.037	35187.52
693.383	34883.12
693.73	35032.04
694.077	34889
694.423	34825.95
694.769	34639.29
695.116	34588.44
695.462	34643.13
695.808	34498.5
696.155	34567.65
696.501	34416.47
696.847	34302.8
697.193	34124.05
697.539	34173.99
697.885	34079.3
698.231	33937.61
698.577	33836.14
698.923	33793.89
699.269	33581.69
699.614	33461.92
699.96	33499.88
700.306	33510.28
700.651	33354.12
700.997	33191.42
701.342	33283.16
701.688	33159.55
702.033	33081.36
702.379	32980.35
702.724	32893.57
703.069	33047.46
703.415	32694.03
703.76	32684.76
704.105	32784.42
704.45	32563.64
704.795	32458.1
705.14	32507.82
705.485	32396.18
705.83	32256.98
706.175	32304.43
706.52	32116.42
706.865	32030.54
707.209	32052.01
707.554	31893.6
707.899	32016.31
708.243	31797.33
708.588	31916.19
708.932	31584.45
709.277	31554.62
709.621	31560.05
709.966	31297.23
710.31	31398.69
710.654	31168.87
710.998	31175.42
711.342	31188.76
711.687	31105.14
712.031	31017.69
712.375	30901.98
712.719	30984.47
713.063	30849.56
713.407	31037.8
713.75	30735.89
714.094	30772.04
714.438	30568.66
714.782	30676.45
715.125	30498.6
715.469	30424.71
715.812	30405.73
716.156	30196.24
716.499	30289.12
716.843	30271.27
717.186	30135.68
717.53	30233.08
717.873	30185.39
718.216	30178.84
718.559	30024.27
718.902	29765.74
719.246	29924.61
719.589	29828.79
719.932	29635.12
720.275	29775.91
720.617	29747.89
720.96	29758.51
721.303	29629.48
721.646	29663.6
721.989	29421.57
722.331	29528.01
722.674	29295.92
723.016	29430.38
723.359	29305.87
723.701	29319.88
724.044	29161.24
724.386	29002.82
724.729	29109.26
725.071	29128.25
725.413	28976.84
725.755	29091.41
726.097	28895.48
726.439	28760.12
726.782	28807.12
727.124	28905.2
727.465	28738.2
727.807	28673.57
728.149	28689.39
728.491	28699.78
728.833	28714.7
729.175	28623.63
729.516	28545.89
729.858	28453.69
730.199	28496.17
730.541	28349.28
730.882	28353.35
731.224	28516.28
731.565	28261.15
731.906	28302.28
732.248	28316.52
732.589	28141.15
732.93	28040.14
733.271	28082.62
733.612	28107.26
733.953	28041.49
734.294	27956.3
734.635	27864.32
734.976	27754.95
735.317	27795.63
735.658	27730.09
735.999	27623.65
736.339	27720.82
736.68	27799.24
737.021	27592.24
737.361	27508.18
737.702	27633.14
738.042	27506.59
738.383	27360.61
738.723	27512.24
739.063	27385.47
739.404	27380.95
739.744	27330.78
740.084	27124.91
740.424	27271.12
740.764	27154.29
741.104	27340.72
741.444	27139.6
741.784	27106.83
742.124	27185.47
742.464	26958.81
742.804	27025.02
743.143	27006.27
743.483	26918.81
743.823	26853.73
744.162	26834.52
744.502	26951.81
744.841	26664.36
745.181	26884.91
745.52	26734.86
745.86	26860.51
746.199	26714.52
746.538	26598.14
746.877	26660.97
747.216	26616
747.556	26611.93
747.895	26608.09
748.234	26553.62
748.573	26459.62
748.911	26439.5
749.25	26391.14
749.589	26213.75
749.928	26240.19
750.267	26199.51
750.605	26221.43
750.944	26082.22
751.283	26089.23
751.621	25985.73
751.96	25906.18
752.298	25976.24
752.636	25889.23
752.975	25827.99
753.313	25683.36
753.651	25884.49
753.989	25675
754.327	25727.88
754.666	25515.23
755.004	25655.12
755.342	25497.15
755.679	25494.89
756.017	25411.28
756.355	25483.14
756.693	25264.17
757.031	25439.75
757.368	25244.05
757.706	25210.61
758.044	25186.2
758.381	25089.26
758.719	24965.64
759.056	25043.16
759.394	24935.14
759.731	24813.33
760.068	24755.25
760.405	24681.36
760.743	24629.38
761.08	24629.61
