Data from hue_30_FLMS001491_20.txt Node
Date: Mon Feb 06 15:04:50 GMT 2017
User: dcchb
Spectrometer: FLMS00149
Trigger mode: 0
Integration Time (sec): 2.000000E-2
Scans to average: 10
Electric dark correction enabled: true
Nonlinearity correction enabled: false
Boxcar width: 0
XAxis mode: Wavelengths
Number of Pixels in Spectrum: 2048
>>>>>Begin Spectral Data<<<<<
341.393	-26
341.776	-26
342.16	-26
342.543	-59.22
342.927	-54.7
343.31	-73.46
343.693	-50.18
344.077	-62.61
344.46	-47.02
344.843	-49.05
345.226	-35.27
345.61	-41.14
345.993	-37.75
346.376	-21.26
346.759	5.86
347.142	21.23
347.525	53.32
347.908	57.84
348.291	68.68
348.674	99.19
349.057	111.62
349.44	118.63
349.823	136.03
350.206	156.14
350.588	182.13
350.971	194.78
351.354	219.19
351.737	247.66
352.119	252.86
352.502	254.44
352.884	281.11
353.267	272.97
353.65	286.53
354.032	308.9
354.414	311.62
354.797	306.64
355.179	310.26
355.562	330.37
355.944	330.6
356.326	340.09
356.709	332.86
357.091	330.37
357.473	331.5
357.855	340.32
358.238	324.95
358.62	344.38
359.002	342.12
359.384	364.04
359.766	348.45
360.148	351.39
360.53	333.54
360.912	322.92
361.294	351.39
361.676	337.6
362.057	337.83
362.439	359.75
362.821	317.27
363.203	313.2
363.584	308.9
363.966	338.51
364.348	326.53
364.729	317.04
365.111	323.59
365.493	323.59
365.874	323.82
366.256	336.7
366.637	323.37
367.019	335.8
367.4	315.23
367.781	306.42
368.163	311.62
368.544	337.15
368.925	314.1
369.306	306.87
369.688	304.38
370.069	311.16
370.45	317.04
370.831	313.65
371.212	306.19
371.593	326.76
371.974	317.72
372.355	304.84
372.736	317.27
373.117	323.82
373.498	331.5
373.879	298.28
374.26	325.63
374.641	311.62
375.021	326.76
375.402	323.59
375.783	305.97
376.163	315.46
376.544	325.85
376.925	315.46
377.305	325.18
377.686	318.17
378.066	314.1
378.447	311.84
378.827	314.1
379.208	340.77
379.588	340.09
379.968	334.44
380.349	320.66
380.729	345.97
381.109	321.56
381.489	341.22
381.87	333.76
382.25	345.06
382.63	334.67
383.01	329.24
383.39	351.84
383.77	345.74
384.15	360.65
384.53	353.2
384.91	345.51
385.29	339.19
385.67	347.55
386.049	349.58
386.429	360.43
386.809	341.22
387.189	367.66
387.568	361.33
387.948	317.72
388.328	349.13
388.707	364.27
389.087	367.66
389.466	358.85
389.846	358.39
390.225	364.95
390.605	378.51
390.984	356.13
391.363	341.9
391.743	372.63
392.122	362.91
392.501	356.13
392.881	353.65
393.26	371.95
393.639	378.28
394.018	387.77
394.397	392.97
394.776	379.86
395.155	395.23
395.534	374.89
395.913	361.78
396.292	398.39
396.671	377.15
397.05	382.8
397.429	382.35
397.808	364.72
398.186	409.69
398.565	379.41
398.944	371.95
399.323	389.35
399.701	393.42
400.08	384.83
400.458	386.19
400.837	390.48
401.215	386.64
401.594	383.03
401.972	393.87
402.351	401.78
402.729	380.99
403.107	397.72
403.486	404.5
403.864	390.71
404.242	423.7
404.62	400.65
404.999	411.95
405.377	390.94
405.755	393.2
406.133	423.93
406.511	432.52
406.889	427.09
407.267	401.11
407.645	406.08
408.023	430.03
408.401	429.35
408.779	397.94
409.156	436.58
409.534	444.04
409.912	469.35
410.29	430.26
410.667	423.93
411.045	452.86
411.422	443.82
411.8	440.43
412.178	469.58
412.555	463.7
412.933	471.39
413.31	464.38
413.687	464.15
414.065	484.49
414.442	470.48
414.819	499.18
415.197	486.07
415.574	481.78
415.951	491.27
416.328	466.87
416.705	478.17
417.082	499.18
417.46	495.34
417.837	497.6
418.214	478.84
418.591	491.5
418.967	485.4
419.344	520.65
419.721	517.71
420.098	490.82
420.475	524.94
420.852	487.88
421.228	505.74
421.605	517.03
421.982	530.82
422.358	510.03
422.735	519.75
423.111	545.96
423.488	534.66
423.864	545.73
424.241	559.97
424.617	552.29
424.994	553.87
425.37	547.77
425.746	556.58
426.123	573.3
426.499	553.87
426.875	557.26
427.251	564.72
427.627	575.34
428.003	572.4
428.379	599.97
428.756	576.24
429.132	574.66
429.507	587.77
429.883	602.91
430.259	592.74
430.635	597.48
431.011	597.71
431.387	627.31
431.763	606.07
432.138	633.64
432.514	604.94
432.89	629.35
433.265	667.76
433.641	636.13
434.016	644.04
434.392	666.41
434.767	658.05
435.143	665.73
435.518	647.88
435.894	682
436.269	666.18
436.644	700.76
437.02	675.45
437.395	689.91
437.77	718.39
438.145	721.55
438.52	704.37
438.895	700.53
439.271	735.33
439.646	719.51
440.021	719.29
440.395	728.1
440.77	733.07
441.145	736.24
441.52	703.7
441.895	707.99
442.27	753.86
442.645	762.23
443.019	765.16
443.394	747.76
443.769	774.43
444.143	749.57
444.518	753.19
444.892	770.81
445.267	765.16
445.641	810.36
446.016	790.25
446.39	795.67
446.764	784.82
447.139	793.64
447.513	823.92
447.887	799.96
448.262	822.56
448.636	794.32
449.01	815.11
449.384	820.3
449.758	827.76
450.132	833.41
450.506	870.25
450.88	848.33
451.254	850.58
451.628	856.91
452.002	866.63
452.376	884.93
452.75	852.17
453.123	839.96
453.497	903.01
453.871	914.31
454.244	918.61
454.618	924.26
454.992	930.58
455.365	926.97
455.739	937.81
456.112	951.37
456.486	976.01
456.859	950.47
457.232	991.15
457.606	999.51
457.979	975.55
458.352	1001.09
458.725	1006.97
459.099	1021.88
459.472	1028.43
459.845	1049
460.218	1047.64
460.591	1085.38
460.964	1075.66
461.337	1094.87
461.71	1106.17
462.083	1133.97
462.456	1123.8
462.829	1099.39
463.201	1131.03
463.574	1142.1
463.947	1143.68
464.32	1194.76
464.692	1219.84
465.065	1175.77
465.438	1221.87
465.81	1231.37
466.183	1238.37
466.555	1292.38
466.928	1288.54
467.3	1284.92
467.672	1304.81
468.045	1356.56
468.417	1328.99
468.789	1331.25
469.161	1361.08
469.534	1394.3
469.906	1423.45
470.278	1424.36
470.65	1455.09
471.022	1479.49
471.394	1490.57
471.766	1514.52
472.138	1549.1
472.51	1536.44
472.882	1560.85
473.253	1611.47
473.625	1679.26
473.997	1657.34
474.369	1703.9
474.74	1684.69
475.112	1699.83
475.484	1755.19
475.855	1800.16
476.227	1827.73
476.598	1844.46
476.97	1925.81
477.341	1927.84
477.713	2000.84
478.084	1980.27
478.455	2016.88
478.827	2090.78
479.198	2141.17
479.569	2133.26
479.94	2211.91
480.311	2207.16
480.682	2299.13
481.053	2349.75
481.424	2384.33
481.795	2441.28
482.166	2493.93
482.537	2529.64
482.908	2567.83
483.279	2602.18
483.65	2676.98
484.021	2731.67
484.391	2741.38
484.762	2794.94
485.133	2840.82
485.503	2882.17
485.874	2985.9
486.244	3028.61
486.615	3088.49
486.985	3144.54
487.356	3226.79
487.726	3293.01
488.097	3369.61
488.467	3287.36
488.837	3441.48
489.207	3516.05
489.578	3547.24
489.948	3598.99
490.318	3663.84
490.688	3718.76
491.058	3780
491.428	3896.38
491.798	3898.87
492.168	3961.92
492.538	3980.22
492.908	4079.2
493.278	4122.36
493.648	4137.73
494.017	4233.55
494.387	4290.95
494.757	4314
495.126	4403.26
495.496	4438.29
495.866	4488.46
496.235	4506.31
496.605	4583.59
496.974	4591.96
497.344	4640.99
497.713	4691.61
498.082	4709.47
498.452	4739.07
498.821	4861.78
499.19	4882.57
499.559	4846.41
499.928	4898.39
500.298	4972.51
500.667	5039.85
501.036	5071.26
501.405	5094.32
501.774	5092.28
502.143	5222.9
502.512	5166.63
502.88	5278.27
503.249	5282.56
503.618	5308.09
503.987	5365.04
504.356	5412.5
504.724	5415.44
505.093	5442.33
505.462	5489.33
505.83	5553.51
506.199	5585.6
506.567	5602.32
506.936	5649.55
507.304	5686.39
507.672	5711.02
508.041	5758.7
508.409	5776.33
508.777	5871.24
509.145	5875.09
509.514	5914.86
509.882	5918.25
510.25	5943.33
510.618	6047.51
510.986	6002.54
511.354	6021.75
511.722	6057
512.09	6109.43
512.458	6158.02
512.826	6205.47
513.193	6236.43
513.561	6241.4
513.929	6258.35
514.297	6322.76
514.664	6380.61
515.032	6411.57
515.4	6364.79
515.767	6474.39
516.135	6460.38
516.502	6455.18
516.869	6573.82
517.237	6565.69
517.604	6599.13
517.972	6584.45
518.339	6622.41
518.706	6639.36
519.073	6647.04
519.44	6755.51
519.808	6751.22
520.175	6756.87
520.542	6836.42
520.909	6792.12
521.276	6901.27
521.643	6959.35
522.009	6944.21
522.376	7021.04
522.743	7014.72
523.11	7066.69
523.477	7106.01
523.843	7156.41
524.21	7262.39
524.577	7304.43
524.943	7283.64
525.31	7332
525.676	7369.28
526.043	7436.17
526.409	7444.76
526.776	7572.89
527.142	7589.84
527.508	7560.01
527.874	7657.19
528.241	7671.87
528.607	7658.77
528.973	7755.26
529.339	7819.44
529.705	7845.88
530.071	7873.23
530.437	7967.46
530.803	7916.61
531.169	8064.18
531.535	8032.54
531.901	8057.63
532.267	8109.83
532.632	8134.24
532.998	8144.86
533.364	8232.76
533.73	8286.77
534.095	8335.13
534.461	8368.13
534.826	8323.83
535.192	8415.81
535.557	8493.55
535.923	8447.67
536.288	8475.24
536.653	8550.27
537.019	8513.43
537.384	8554.79
537.749	8670.72
538.114	8683.83
538.479	8660.1
538.845	8713.43
539.21	8655.13
539.575	8764.73
539.94	8761.56
540.305	8847.44
540.67	8781
541.034	8837.95
541.399	8966.3
541.764	8986.87
542.129	8994.33
542.494	9066.41
542.858	9109.12
543.223	9089.92
543.587	9187.54
543.952	9198.16
544.316	9188.44
544.681	9189.8
545.045	9259.86
545.41	9342.79
545.774	9355.22
546.138	9352.28
546.503	9464.82
546.867	9414.43
547.231	9520.64
547.595	9553.63
547.959	9546.85
548.324	9537.81
548.688	9597.25
549.052	9608.09
549.416	9651.48
549.779	9715.44
550.143	9756.34
550.507	9780.52
550.871	9843.34
551.235	9841.54
551.599	9865.26
551.962	9878.82
552.326	9927.18
552.689	9976.9
553.053	9983
553.417	10019.16
553.78	10131.92
554.143	10074.75
554.507	10150.91
554.87	10173.96
555.234	10197.68
555.597	10185.48
555.96	10226.38
556.323	10286.95
556.686	10311.13
557.05	10359.04
557.413	10332.37
557.776	10440.39
558.139	10526.04
558.502	10502.76
558.865	10506.6
559.228	10648.75
559.59	10552.93
559.953	10670.89
560.316	10712.47
560.679	10692.81
561.041	10791.57
561.404	10760.38
561.767	10839.25
562.129	10834.73
562.492	10920.38
562.854	10951.34
563.217	10926.03
563.579	10969.64
563.941	11070.2
564.304	11084.44
564.666	11130.31
565.028	11187.94
565.39	11143.65
565.753	11292.57
566.115	11281.5
566.477	11328.28
566.839	11302.74
567.201	11416.18
567.563	11424.54
567.925	11474.94
568.287	11508.61
568.648	11470.87
569.01	11651.88
569.372	11675.39
569.734	11659.11
570.095	11705.89
570.457	11756.29
570.819	11862.95
571.18	11847.58
571.542	11912.22
571.903	11975.49
572.265	12020.91
572.626	12131.19
572.987	12152.89
573.349	12211.42
573.71	12277.4
574.071	12285.54
574.432	12412.31
574.794	12580.9
575.155	12578.86
575.516	12544.06
575.877	12662.03
576.238	12774.79
576.599	12892.3
576.96	12878.29
577.32	12986.54
577.681	13082.58
578.042	13135.46
578.403	13268.11
578.763	13418.16
579.124	13497.03
579.485	13672.62
579.845	13687.54
580.206	13748.32
580.566	13879.85
580.927	14005.04
581.287	14256.33
581.648	14232.38
582.008	14499.49
582.368	14606.61
582.728	14841.63
583.089	14871.69
583.449	15094.73
583.809	15222.64
584.169	15533.14
584.529	15637.99
584.889	15897.87
585.249	15935.84
585.609	16014.25
585.969	16332.89
586.329	16563.39
586.688	16736.72
587.048	16969.71
587.408	17110.72
587.768	17349.36
588.127	17534.21
588.487	17700.31
588.846	17994.09
589.206	18145.27
589.565	18384.36
589.925	18670
590.284	18865.7
590.643	19169.88
591.003	19509.53
591.362	19832.01
591.721	19851.89
592.08	20171.66
592.44	20492.33
592.799	20672.21
593.158	20934.8
593.517	21178.64
593.876	21473.32
594.235	21593.09
594.593	22007.54
594.952	22228.78
595.311	22342.68
595.67	22704.47
596.029	23107.85
596.387	23286.61
596.746	23507.16
597.104	23742.41
597.463	23906.7
597.822	24313.47
598.18	24424.88
598.538	24576.74
598.897	25087.24
599.255	25044.98
599.613	25658.75
599.972	25751.4
600.33	25955.69
600.688	26063.26
601.046	26461.21
601.404	26716.57
601.762	26938.94
602.12	27183
602.478	27350
602.836	27640.84
603.194	27729.43
603.552	27805.58
603.91	28041.96
604.268	28415.06
604.625	28553.59
604.983	28845.1
605.341	28947.7
605.698	29306.11
606.056	29551.98
606.413	29663.39
606.771	30012.08
607.128	30251.17
607.485	30140.89
607.843	30349.02
608.2	30668.78
608.557	30947.19
608.914	30990.81
609.272	31395.77
609.629	31404.81
609.986	31831.69
610.343	31686.38
610.7	32139.48
611.057	32315.75
611.414	32362.3
611.771	32490.88
612.127	32760.03
612.484	32768.16
612.841	33205.67
613.198	33132.22
613.554	33305.55
613.911	33597.52
614.267	33534.92
614.624	33717.74
614.98	33932.43
615.337	34113.89
615.693	34215.13
616.05	34228.46
616.406	34411.06
616.762	34531.73
617.118	34618.74
617.475	34631.84
617.831	34972.17
618.187	34904.6
618.543	35150.25
618.899	35383.24
619.255	35493.29
619.611	35452.61
619.967	35693.28
620.323	35768.76
620.678	35642.44
621.034	35740.06
621.39	35917.46
621.746	35944.13
622.101	36448.97
622.457	36194.51
622.812	36288.98
623.168	36397.9
623.523	36519.7
623.879	36700.72
624.234	36485.35
624.589	36689.19
624.945	36724.9
625.3	36853.25
625.655	36945
626.01	37069.29
626.365	37111.55
626.72	37057.54
627.075	37076.98
627.43	37117.43
627.785	37180.25
628.14	37292.56
628.495	37279.68
628.85	37416.4
629.205	37165.34
629.559	37429.06
629.914	37485.1
630.269	37347.03
630.623	37401.26
630.978	37473.58
631.332	37509.96
631.687	37617.3
632.041	37443.52
632.396	37443.75
632.75	37534.37
633.104	37515.61
633.459	37390.87
633.813	37455.95
634.167	37429.96
634.521	37460.02
634.875	37550.86
635.229	37526
635.583	37363.07
635.937	37487.59
636.291	37437.42
636.645	37383.86
636.999	37447.59
637.352	37625.66
637.706	37273.36
638.06	37533.69
638.413	37302.51
638.767	37388.38
639.121	37401.04
639.474	37312.68
639.828	37309.74
640.181	37344.54
640.534	37385.67
640.888	37256.86
641.241	37202.85
641.594	37236.97
641.947	37467.93
642.301	37196.07
642.654	37269.74
643.007	37348.61
643.36	37244.66
643.713	37113.36
644.066	37416.18
644.419	37076.75
644.771	36742.97
645.124	36645.8
645.477	36540.49
645.83	36409.42
646.182	36156.55
646.535	36069.55
646.888	36288.3
647.24	35993.16
647.593	36141.18
647.945	36042.65
648.298	35920.4
648.65	35831.59
649.002	35714.75
649.355	36107.74
649.707	35956.33
650.059	36118.13
650.411	36524.68
650.763	36649.19
651.115	36962.18
651.467	36969.64
651.819	36883.08
652.171	36681.96
652.523	36773.26
652.875	36713.6
653.227	36655.75
653.578	36850.32
653.93	36656.65
654.282	36580.49
654.633	36454.39
654.985	36556.31
655.337	36564
655.688	36464.56
656.039	36808.74
656.391	36520.38
656.742	36481.74
657.094	36544.11
657.445	36714.27
657.796	36527.39
658.147	36514.28
658.498	36377.56
658.849	36598.35
659.2	36479.93
659.551	36474.06
659.902	36573.71
660.253	36492.13
660.604	36500.04
660.955	36328.75
661.306	36473.15
661.656	36392.93
662.007	36432.93
662.358	36392.02
662.708	36455.3
663.059	36468.63
663.409	36205.59
663.76	36438.8
664.11	36357.9
664.461	36403.77
664.811	36476.31
665.161	36411.01
665.511	36288.07
665.862	36253.27
666.212	36387.5
666.562	36502.75
666.912	36306.15
667.262	36340.73
667.612	36281.52
667.962	36200.39
668.312	36235.42
668.662	36295.3
669.011	36318.8
669.361	36146.15
669.711	36288.75
670.06	36205.14
670.41	36054.86
670.76	36098.7
671.109	36240.39
671.459	36149.54
671.808	36138.92
672.157	36275.19
672.507	35851.47
672.856	35866.61
673.205	36148.87
673.554	36138.24
673.904	35922.88
674.253	36135.31
674.602	36029.1
674.951	35509.56
675.3	35562.89
675.649	35992.94
675.998	36010.56
676.346	35966.5
676.695	36053.05
677.044	35797.91
677.393	35845.37
677.741	35879.72
678.09	35770.12
678.438	35670.91
678.787	35773.28
679.135	35871.13
679.484	35545.04
679.832	35761.98
680.181	35630.24
680.529	35684.92
680.877	35471.14
681.225	35304.37
681.573	35610.8
681.922	35352.05
682.27	35343.24
682.618	35292.17
682.966	35092.4
683.314	35426.17
683.661	35224.82
684.009	35028.9
684.357	34967.43
684.705	35032.29
685.053	34858.96
685.4	34977.6
685.748	34785.96
686.095	34648.34
686.443	34561.79
686.79	34611.51
687.138	34630.04
687.485	34673.65
687.832	34486.99
688.18	34589.81
688.527	34264.85
688.874	34311.63
689.221	34348.69
689.568	34185.75
689.915	34115.92
690.262	34082.48
690.609	34005.87
690.956	33909.6
691.303	33914.35
691.65	33719.78
691.997	33810.85
692.344	33554.13
692.69	33521.14
693.037	33532.21
693.383	33301.94
693.73	33220.13
694.077	33230.98
694.423	33204.76
694.769	33157.08
695.116	33054.03
695.462	32927.03
695.808	32830.08
696.155	32893.13
696.501	32732.46
696.847	32693.36
697.193	32456.76
697.539	32602.29
697.885	32351
698.231	32233.94
698.577	32199.82
698.923	32214.96
699.269	32028.3
699.614	32001.4
699.96	31994.85
700.306	31878.02
700.651	31740.17
700.997	31672.15
701.342	31656.78
701.688	31608.65
702.033	31481.42
702.379	31362.33
702.724	31245.72
703.069	31392.61
703.415	31055.89
703.76	30990.58
704.105	31088.89
704.45	30971.37
704.795	30908.55
705.14	30620.42
705.485	30591.72
705.83	30512.4
706.175	30569.13
706.52	30565.28
706.865	30378.62
707.209	30408.45
707.554	30225.41
707.899	30334.56
708.243	30224.05
708.588	30191.06
708.932	29958.97
709.277	29885.08
709.621	29832.65
709.966	29685.98
710.31	29800.56
710.654	29631.3
710.998	29585.42
711.342	29578.87
711.687	29545.2
712.031	29434.01
712.375	29242.61
712.719	29347.01
713.063	29377.52
713.407	29392.21
713.75	29167.13
714.094	29149.05
714.438	29061.14
714.782	29135.49
715.125	28911.99
715.469	28954.25
715.812	28750.64
716.156	28697.31
716.499	28688.72
716.843	28732.11
717.186	28576.64
717.53	28654.37
717.873	28684.66
718.216	28638.33
718.559	28467.94
718.902	28240.15
719.246	28350.88
719.589	28178.45
719.932	28094.39
720.275	28122.18
720.617	28076.31
720.96	28003.09
721.303	27999.93
721.646	28043.54
721.989	27839.71
722.331	27979.14
722.674	27847.39
723.016	27832.47
723.359	27668.41
723.701	27765.81
724.044	27546.83
724.386	27375.31
724.729	27557
725.071	27428.19
725.413	27477
725.755	27403.56
726.097	27342.09
726.439	27220.51
726.782	27204.92
727.124	27389.1
727.465	27105.26
727.807	27090.57
728.149	27093.74
728.491	27014.64
728.833	26955.21
729.175	26956.57
729.516	26904.59
729.858	26847.42
730.199	26931.03
730.541	26974.87
730.882	26830.92
731.224	26907.3
731.565	26676.57
731.906	26675.89
732.248	26659.4
732.589	26611.72
732.93	26444.71
733.271	26615.33
733.612	26526.29
733.953	26564.71
734.294	26392.96
734.635	26378.28
734.976	26531.04
735.317	26268
735.658	26265.51
735.999	26200.88
736.339	26248.79
736.68	26238.39
737.021	26177.83
737.361	26082.92
737.702	26177.83
738.042	26060.32
738.383	25960.43
738.723	25970.38
739.063	25883.37
739.404	25800.21
739.744	25917.04
740.084	25813.09
740.424	25770.61
740.764	25612.42
741.104	25742.36
741.444	25546.43
741.784	25612.19
742.124	25662.59
742.464	25559.54
742.804	25534.68
743.143	25433.89
743.483	25406.78
743.823	25277.51
744.162	25360.9
744.502	25360.9
744.841	25211.75
745.181	25273.67
745.52	25215.82
745.86	25250.17
746.199	25143.51
746.538	25159.1
746.877	25212.43
747.216	25203.62
747.556	25079.55
747.895	25075.03
748.234	25029.16
748.573	24847.24
748.911	24870.97
749.25	24965.21
749.589	24779.45
749.928	24821.25
750.267	24826
750.605	24716.85
750.944	24667.13
751.283	24636.4
751.621	24702.61
751.96	24485.22
752.298	24540.36
752.636	24462.85
752.975	24361.61
753.313	24348.05
753.651	24415.84
753.989	24261.49
754.327	24226.24
754.666	24152.8
755.004	24236.86
755.342	24187.6
755.679	24086.81
756.017	23942.63
756.355	24036.42
756.693	23950.54
757.031	23994.61
757.368	23853.14
757.706	23749.64
758.044	23687.5
758.381	23693.6
758.719	23565.92
759.056	23692.47
759.394	23541.06
759.731	23368.86
