Data from hue_50_FLMS001491_82.txt Node
Date: Mon Feb 06 15:11:09 GMT 2017
User: dcchb
Spectrometer: FLMS00149
Trigger mode: 0
Integration Time (sec): 2.000000E-2
Scans to average: 10
Electric dark correction enabled: true
Nonlinearity correction enabled: false
Boxcar width: 0
XAxis mode: Wavelengths
Number of Pixels in Spectrum: 2048
>>>>>Begin Spectral Data<<<<<
341.393	-7.49
341.776	-7.49
342.16	-7.49
342.543	-45
342.927	-57.65
343.31	-69.4
343.693	-51.33
344.077	-56.07
344.46	-80.25
344.843	-44.77
345.226	-45
345.61	-34.15
345.993	-19.24
346.376	12.17
346.759	8.56
347.142	38.84
347.525	22.8
347.908	54.21
348.291	73.87
348.674	96.69
349.057	93.08
349.44	97.37
349.823	144.37
350.206	166.97
350.588	204.94
350.971	209.46
351.354	247.65
351.737	255.56
352.119	241.55
352.502	259.85
352.884	256.01
353.267	284.71
353.65	300.08
354.032	287.2
354.414	321.77
354.797	315.9
355.179	323.58
355.562	306.86
355.944	357.02
356.326	339.62
356.709	346.18
357.091	319.96
357.473	337.36
357.855	341.88
358.238	316.8
358.62	352.96
359.002	342.34
359.384	332.84
359.766	332.62
360.148	337.36
360.53	318.83
360.912	333.3
361.294	319.74
361.676	339.85
362.057	335.1
362.439	332.39
362.821	298.49
363.203	345.05
363.584	324.48
363.966	310.25
364.348	321.55
364.729	332.62
365.111	313.41
365.493	329.68
365.874	318.38
366.256	330.81
366.637	322.9
367.019	310.02
367.4	326.06
367.781	298.72
368.163	338.27
368.544	309.79
368.925	320.19
369.306	332.62
369.688	302.56
370.069	333.97
370.45	311.6
370.831	318.83
371.212	342.11
371.593	295.78
371.974	324.93
372.355	335.56
372.736	315.22
373.117	312.05
373.498	317.03
373.879	307.99
374.26	299.62
374.641	311.38
375.021	317.48
375.402	321.32
375.783	307.31
376.163	321.77
376.544	333.52
376.925	326.52
377.305	322.22
377.686	351.15
378.066	330.58
378.447	324.03
378.827	337.14
379.208	323.35
379.588	332.39
379.968	319.74
380.349	342.11
380.729	316.35
381.109	331.49
381.489	334.43
381.87	320.19
382.25	350.02
382.63	353.86
383.01	367.87
383.39	336.46
383.77	355.89
384.15	342.79
384.53	340.3
384.91	338.27
385.29	336.69
385.67	359.51
386.049	351.83
386.429	363.13
386.809	335.56
387.189	357.7
387.568	321.55
387.948	327.65
388.328	336.23
388.707	326.74
389.087	364.26
389.466	345.05
389.846	347.31
390.225	359.74
390.605	364.48
390.984	355.89
391.363	363.35
391.743	361.32
392.122	354.31
392.501	361.09
392.881	373.3
393.26	378.49
393.639	370.13
394.018	365.16
394.397	357.7
394.776	374.65
395.155	372.62
395.534	364.93
395.913	367.65
396.292	377.36
396.671	364.71
397.05	398.15
397.429	371.26
397.808	386.85
398.186	395.44
398.565	386.18
398.944	355.89
399.323	386.18
399.701	392.05
400.08	382.56
400.458	394.54
400.837	393.86
401.215	419.85
401.594	400.41
401.972	378.94
402.351	399.74
402.729	406.06
403.107	413.75
403.486	400.87
403.864	400.64
404.242	415.78
404.62	395.89
404.999	426.63
405.377	410.81
405.755	440.64
406.133	402
406.511	428.66
406.889	406.97
407.267	423.01
407.645	397.7
408.023	412.84
408.401	438.6
408.779	420.3
409.156	449.9
409.534	420.75
409.912	442.67
410.29	416.46
410.667	441.09
411.045	458.72
411.422	458.94
411.8	441.54
412.178	427.76
412.555	477.7
412.933	467.53
413.31	466.4
413.687	504.14
414.065	468.89
414.442	493.52
414.819	486.74
415.197	473.18
415.574	477.7
415.951	499.39
416.328	475.21
416.705	465.04
417.082	463.01
417.46	477.47
417.837	496.68
418.214	488.09
418.591	491.94
418.967	507.76
419.344	499.85
419.721	504.59
420.098	515.89
420.475	506.17
420.852	512.5
421.228	549.56
421.605	516.12
421.982	551.82
422.358	520.41
422.735	542.56
423.111	537.81
423.488	529.68
423.864	528.09
424.241	566.96
424.617	554.53
424.994	549.34
425.37	540.52
425.746	561.54
426.123	561.99
426.499	567.19
426.875	552.95
427.251	563.12
427.627	560.18
428.003	566.06
428.379	563.8
428.756	596.34
429.132	596.57
429.507	599.73
429.883	595.44
430.259	624.81
430.635	602.44
431.011	617.81
431.387	623.46
431.763	627.75
432.138	635.21
432.514	624.59
432.89	646.51
433.265	646.51
433.641	651.71
434.016	647.19
434.392	647.41
434.767	665.49
435.143	656.9
435.518	681.08
435.894	664.36
436.269	674.98
436.644	699.61
437.02	677.69
437.395	683.8
437.77	711.37
438.145	703.91
438.52	702.33
438.895	719.27
439.271	728.09
439.646	727.41
440.021	734.64
440.395	730.35
440.77	734.42
441.145	744.81
441.52	760.86
441.895	741.42
442.27	755.21
442.645	754.08
443.019	763.34
443.394	762.89
443.769	747.07
444.143	759.73
444.518	776.67
444.892	766.28
445.267	766.96
445.641	786.39
446.016	783.45
446.39	799.72
446.764	789.78
447.139	796.79
447.513	792.27
447.887	805.37
448.262	820.06
448.636	806.5
449.01	802.21
449.384	832.49
449.758	850.12
450.132	836.11
450.506	837.24
450.88	852.15
451.254	853.28
451.628	858.48
452.002	866.39
452.376	872.49
452.75	850.57
453.123	867.29
453.497	889.21
453.871	921.98
454.244	941.64
454.618	941.42
454.992	939.16
455.365	926.95
455.739	942.32
456.112	945.94
456.486	976.22
456.859	968.08
457.232	992.71
457.606	999.27
457.979	969.89
458.352	1028.42
458.725	1040.4
459.099	1026.84
459.472	1027.52
459.845	1041.53
460.218	1058.93
460.591	1086.5
460.964	1083.33
461.337	1079.04
461.71	1119.72
462.083	1153.61
462.456	1145.25
462.829	1128.98
463.201	1143.67
463.574	1161.52
463.947	1182.99
464.32	1214.63
464.692	1224.57
465.065	1229.09
465.438	1236.1
465.81	1275.19
466.183	1269.77
466.555	1296.89
466.928	1313.61
467.3	1319.03
467.672	1348.86
468.045	1371.24
468.417	1373.27
468.789	1420.05
469.161	1413.72
469.534	1473.83
469.906	1480.16
470.278	1497.79
470.65	1505.47
471.022	1529.88
471.394	1588.4
471.766	1603.32
472.138	1638.8
472.51	1680.61
472.882	1704.33
473.253	1734.39
473.625	1728.29
473.997	1791.34
474.369	1831.56
474.74	1861.62
475.112	1894.84
475.484	1947.27
475.855	2027.26
476.227	2045.57
476.598	2125.34
476.97	2131.44
477.341	2191.78
477.713	2260.25
478.084	2327.37
478.455	2368.95
478.827	2424.09
479.198	2495.95
479.569	2580.24
479.94	2661.6
480.311	2692.56
480.682	2817.75
481.053	2878.99
481.424	2957.18
481.795	3031.3
482.166	3142.49
482.537	3162.15
482.908	3298.19
483.279	3380.9
483.65	3497.96
484.021	3600.33
484.391	3658.63
484.762	3746.54
485.133	3876.03
485.503	3953.31
485.874	4077.6
486.244	4170.71
486.615	4329.12
486.985	4439.18
487.356	4568.67
487.726	4694.09
488.097	4774.08
488.467	4897.7
488.837	5050.69
489.207	5201.87
489.578	5344.01
489.948	5440.73
490.318	5581.97
490.688	5671.24
491.058	5865.13
491.428	5956.43
491.798	6046.59
492.168	6247.49
492.538	6382.63
492.908	6529.74
493.278	6661.27
493.648	6739
494.017	6920.92
494.387	7068.49
494.757	7161.37
495.126	7326.56
495.496	7438.42
495.866	7626.89
496.235	7718.41
496.605	7885.64
496.974	8026.2
497.344	8149.36
497.713	8257.38
498.082	8380.54
498.452	8544.61
498.821	8698.73
499.19	8750.7
499.559	8919.51
499.928	9031.6
500.298	9211.71
500.667	9399.72
501.036	9392.49
501.405	9575.31
501.774	9663.9
502.143	9778.7
502.512	9874.74
502.88	9978.01
503.249	10168.74
503.618	10245.58
503.987	10356.99
504.356	10458.68
504.724	10654.61
505.093	10714.27
505.462	10801.04
505.83	10870.65
506.199	11009.17
506.567	11337.07
506.936	11300.92
507.304	11441.7
507.672	11577.52
508.041	11618.65
508.409	11785.2
508.777	11876.72
509.145	12084.17
509.514	12095.02
509.882	12304.73
510.25	12249.59
510.618	12439.42
510.986	12486.2
511.354	12717.15
511.722	12859.75
512.09	12950.14
512.458	12932.97
512.826	13002.34
513.193	13211.83
513.561	13313.07
513.929	13384.25
514.297	13608.2
514.664	13555.55
515.032	13715.54
515.4	13861.53
515.767	13982.2
516.135	14098.36
516.502	14071.24
516.869	14241.63
517.237	14386.71
517.604	14276.66
517.972	14552.13
518.339	14638.91
518.706	14737.44
519.073	14762.52
519.44	14896.76
519.808	15089.07
520.175	15176.52
520.542	15279.57
520.909	15418.32
521.276	15440.24
521.643	15623.29
522.009	15653.57
522.376	15770.63
522.743	15955.26
523.11	16070.28
523.477	16211.07
523.843	16327
524.21	16386.66
524.577	16672.75
524.943	16731.96
525.31	16732.87
525.676	16943.26
526.043	17008.11
526.409	17197.03
526.776	17373.07
527.142	17284.94
527.508	17489.68
527.874	17537.36
528.241	17679.28
528.607	17813.06
528.973	18014.87
529.339	17967.41
529.705	18140.51
530.071	18286.04
530.437	18336.44
530.803	18522.42
531.169	18591.35
531.535	18563.55
531.901	18648.52
532.267	18788.86
532.632	18865.92
532.998	18975.07
533.364	19089.87
533.73	19152.46
534.095	19294.61
534.461	19439.69
534.826	19387.26
535.192	19513.13
535.557	19661.83
535.923	19728.72
536.288	19743.18
536.653	19909.5
537.019	19841.26
537.384	19902.73
537.749	20027.47
538.114	20055.72
538.479	20191.08
538.845	20373.45
539.21	20317.18
539.575	20352.43
539.94	20501.35
540.305	20590.84
540.67	20580.45
541.034	20646.21
541.399	20712.87
541.764	20866.99
542.129	20932.53
542.494	20932.53
542.858	21139.3
543.223	21213.43
543.587	21293.88
543.952	21212.97
544.316	21363.7
544.681	21404.83
545.045	21462.23
545.41	21608.67
545.774	21724.37
546.138	21642.79
546.503	21815.22
546.867	21793.3
547.231	22048.21
547.595	22016.34
547.959	22120.29
548.324	22080.3
548.688	22148.09
549.052	22290.46
549.416	22443.9
549.779	22465.6
550.143	22568.42
550.507	22646.38
550.871	22640.73
551.235	22671.47
551.599	22905.58
551.962	22948.75
552.326	22986.49
552.689	23071.46
553.053	22928.63
553.417	23078.46
553.78	23382.18
554.143	23329.08
554.507	23425.57
554.87	23422.18
555.234	23634.83
555.597	23578.33
555.96	23755.28
556.323	23760.93
556.686	23823.98
557.05	24037.31
557.413	24145.33
557.776	24035.5
558.139	24362.5
558.502	24364.75
558.865	24394.36
559.228	24637.29
559.59	24694.01
559.953	24858.08
560.316	24966.77
560.679	24974
561.041	25130.61
561.404	25213.77
561.767	25418.96
562.129	25285.41
562.492	25652.4
562.854	25648.56
563.217	25564.5
563.579	25764.49
563.941	25945.73
564.304	26044.26
564.666	26100.98
565.028	26241.77
565.39	26237.93
565.753	26399.05
566.115	26464.81
566.477	26655.09
566.839	26666.16
567.201	26878.59
567.563	26733.28
567.925	27074.74
568.287	26980.73
568.648	27097.11
569.01	27267.73
569.372	27544.56
569.734	27363.77
570.095	27471.34
570.457	27627.72
570.819	27778.45
571.18	27900.71
571.542	28055.96
571.903	27955.39
572.265	28187.25
572.626	28287.14
572.987	28292.79
573.349	28429.05
573.71	28542.05
574.071	28658.2
574.432	28768.71
574.794	29019.1
575.155	28955.14
575.516	28865.43
575.877	29137.51
576.238	29250.05
576.599	29297.51
576.96	29354.45
577.32	29559.87
577.681	29579.53
578.042	29799.41
578.403	29812.3
578.763	29833.31
579.124	29977.26
579.485	30298.84
579.845	30301.1
580.206	30331.15
580.566	30387.87
580.927	30618.83
581.287	30787.64
581.648	30638.49
582.008	30989.89
582.368	30965.03
582.728	31199.6
583.089	31151.02
583.449	31217.46
583.809	31485.47
584.169	31578.8
584.529	31612.93
584.889	32027.38
585.249	31814.73
585.609	31998.9
585.969	32204.32
586.329	32144.21
586.688	32366.13
587.048	32535.61
587.408	32420.36
587.768	32648.83
588.127	32715.27
588.487	32783.52
588.846	33107.12
589.206	33053.79
589.565	33065.77
589.925	33347.12
590.284	33437.74
590.643	33538.07
591.003	33844.96
591.362	33997.27
591.721	34049.25
592.08	34051.96
592.44	34276.81
592.799	34387.54
593.158	34397.49
593.517	34503.25
593.876	34707.76
594.235	34717.48
594.593	34824.82
594.952	34996.79
595.311	35012.61
595.67	35179.16
596.029	35559.26
596.387	35617.57
596.746	35642.2
597.104	35634.52
597.463	35684.46
597.822	36063.88
598.18	35935.3
598.538	36099.14
598.897	36248.51
599.255	36079.25
599.613	36654.15
599.972	36562.4
600.33	36656.18
600.688	36528.28
601.046	36743.41
601.404	37036.96
601.762	37017.3
602.12	37178.43
602.478	37299.33
602.836	37302.04
603.194	37323.06
603.552	37314.47
603.91	37317.41
604.268	37645.54
604.625	37576.84
604.983	37826.77
605.341	37613.67
605.698	37920.1
606.056	38109.25
606.413	38046.88
606.771	38341.56
607.128	38295.46
607.485	38186.76
607.843	38249.81
608.2	38626.75
608.557	38729.35
608.914	38591.5
609.272	38902.45
609.629	38924.37
609.986	38996.46
610.343	38979.74
610.7	39251.6
611.057	39253.4
611.414	39270.35
611.771	39294.98
612.127	39504.92
612.484	39602.55
612.841	39688.19
613.198	39591.7
613.554	39804.57
613.911	40036.21
614.267	40000.73
614.624	39797.8
614.98	40009.09
615.337	40290.44
615.693	40192.59
616.05	40150.55
616.406	40455.41
616.762	40334.5
617.118	40368.85
617.475	40363.66
617.831	40710.09
618.187	40651.78
618.543	40715.06
618.899	41019.01
619.255	40992.11
619.611	41018.78
619.967	41132
620.323	41230.75
620.678	41091.55
621.034	41070.76
621.39	41130.87
621.746	41120.02
622.101	41468.49
622.457	41285.89
622.812	41330.18
623.168	41495.15
623.523	41480.01
623.879	41510.52
624.234	41336.51
624.589	41581.48
624.945	41524.53
625.3	41582.83
625.655	41668.71
626.01	41750.06
626.365	41734.47
626.72	41730.85
627.075	41657.41
627.43	41618.54
627.785	41526.79
628.14	41847.23
628.495	41728.37
628.85	41780.57
629.205	41688.59
629.559	42021.24
629.914	41628.03
630.269	41789.38
630.623	41655.15
630.978	41580.57
631.332	41787.8
631.687	41863.5
632.041	41749.16
632.396	41871.87
632.75	41641.14
633.104	41710.74
633.459	41455.38
633.813	41531.76
634.167	41535.6
634.521	41584.87
634.875	41571.53
635.229	41623.74
635.583	41471.42
635.937	41490.18
636.291	41358.66
636.645	41399.11
636.999	41357.75
637.352	41474.36
637.706	41275.27
638.06	41520.46
638.413	41315.27
638.767	41167.93
639.121	41358.43
639.474	41127.25
639.828	41109.17
640.181	41263.75
640.534	41219.45
640.888	41149.85
641.241	41091.32
641.594	41097.42
641.947	41085.9
642.301	40906.01
642.654	41004.32
643.007	41045.9
643.36	41135.39
643.713	40796.87
644.066	40947.6
644.419	40767.94
644.771	40534.73
645.124	40204.34
645.477	40152.36
645.83	39984.68
646.182	39811.13
646.535	39699.72
646.888	39865.59
647.24	39480.74
647.593	39716.67
647.945	39612.94
648.298	39505.6
648.65	39471.7
649.002	39474.64
649.355	39460.4
649.707	39399.61
650.059	39669.21
650.411	40065.13
650.763	40215.41
651.115	40598.68
651.467	40415.41
651.819	40332.92
652.171	40173.15
652.523	40313.26
652.875	40144.45
653.227	40201.17
653.578	40360.27
653.93	40182.19
654.282	40014.74
654.633	39957.34
654.985	39816.1
655.337	39898.58
655.688	40061.07
656.039	40142.87
656.391	39788.08
656.742	39989.2
657.094	39873.05
657.445	40065.36
657.796	39826.27
658.147	39887.06
658.498	39928.64
658.849	39823.56
659.2	39905.59
659.551	39800.73
659.902	39860.62
660.253	39721.64
660.604	39894.29
660.955	39544.02
661.306	39892.03
661.656	39741.75
662.007	39770.68
662.358	39812.71
662.708	39758.25
663.059	39705.37
663.409	39531.59
663.76	39710.34
664.11	39722.77
664.461	39629.44
664.811	39705.82
665.161	39849.77
665.511	39505.37
665.862	39673.73
666.212	39707.4
666.562	39757.8
666.912	39771.81
667.262	39673.28
667.612	39610.46
667.962	39665.6
668.312	39613.17
668.662	39707.4
669.011	39620.4
669.361	39615.65
669.711	39494.98
670.06	39506.73
670.41	39398.71
670.76	39253.18
671.109	39518.71
671.459	39506.05
671.808	39451.59
672.157	39396
672.507	39240.3
672.856	39169.79
673.205	39147.87
673.554	39301.76
673.904	39213.18
674.253	39358.94
674.602	39212.27
674.951	38767.31
675.3	38624.72
675.649	39208.66
675.998	39144.93
676.346	39137.93
676.695	39249.34
677.044	38958.95
677.393	39084.37
677.741	39114.42
678.09	39083.92
678.438	38893.19
678.787	38982
679.135	38988.33
679.484	38725.96
679.832	38678.73
680.181	38688.9
680.529	38812.06
680.877	38672.18
681.225	38649.13
681.573	38829.46
681.922	38509.92
682.27	38319.64
682.618	38568.45
682.966	38330.72
683.314	38379.75
683.661	38321.22
684.009	38129.59
684.357	38098.18
684.705	38029.25
685.053	37998.97
685.4	38045.98
685.748	37843.5
686.095	37828.36
686.443	37709.04
686.79	37688.02
687.138	37826.1
687.485	37725.31
687.832	37544.3
688.18	37602.15
688.527	37393.34
688.874	37385.43
689.221	37339.55
689.568	37304.98
689.915	37018.89
690.262	37187.24
690.609	37084.19
690.956	36864.77
691.303	36862.05
691.65	36741.83
691.997	36649.18
692.344	36520.37
692.69	36557.43
693.037	36470.88
693.383	36232.92
693.73	36325.8
694.077	36050.55
694.423	36156.08
694.769	35981.17
695.116	35989.76
695.462	35780.05
695.808	35731.91
696.155	35806.04
696.501	35576.89
696.847	35664.8
697.193	35330.12
697.539	35424.8
697.885	35209.67
698.231	35020.07
698.577	35069.56
698.923	35077.47
699.269	34984.81
699.614	34669.57
699.96	34623.02
700.306	34659.17
700.651	34456.47
700.997	34436.81
701.342	34244.95
701.688	34256.02
702.033	34152.07
702.379	34104.39
702.724	33903.71
703.069	34142.58
703.415	33707.56
703.76	33726.54
704.105	33886.09
704.45	33676.37
704.795	33453.33
705.14	33330.62
705.485	33457.4
705.83	33349.38
706.175	33380.56
706.52	33210.85
706.865	33153.22
707.209	33077.29
707.554	32980.35
707.899	33060.8
708.243	32936.96
708.588	32761.37
708.932	32649.06
709.277	32484.54
709.621	32497.87
709.966	32384.88
710.31	32370.19
710.654	32200.03
710.998	32219.92
711.342	32133.14
711.687	32143.76
712.031	32057.66
712.375	31840.49
712.719	31910.77
713.063	31779.02
713.407	31856.54
713.75	31665.13
714.094	31715.3
714.438	31536.09
714.782	31618.35
715.125	31509.43
715.469	31466.71
715.812	31344.68
716.156	31182.88
716.499	31164.12
716.843	31400.95
717.186	31075.09
717.53	31144.46
717.873	30977.46
718.216	31034.86
718.559	30810.24
718.902	30748.54
719.246	30748.09
719.589	30569.79
719.932	30593.07
720.275	30622.44
720.617	30579.96
720.96	30501.32
721.303	30488.21
721.646	30461.32
721.989	30245.28
722.331	30411.83
722.674	30328.21
723.016	30273.07
723.359	30155.11
723.701	30292.96
724.044	29978.39
724.386	29872.63
724.729	29945.4
725.071	29987.43
725.413	29807.32
725.755	29862.01
726.097	29742.01
726.439	29612.3
726.782	29649.81
727.124	29703.37
727.465	29567.33
727.807	29441.23
728.149	29457.73
728.491	29416.83
728.833	29428.12
729.175	29290.05
729.516	29245.3
729.858	29231.52
730.199	29255.7
730.541	29211.41
730.882	29113.56
731.224	29276.26
731.565	28971.64
731.906	28937.29
732.248	28921.92
732.589	28843.73
732.93	28704.75
733.271	28681.25
733.612	28772.32
733.953	28761.25
734.294	28664.08
734.635	28581.37
734.976	28744.53
735.317	28422.28
735.658	28453.91
735.999	28502.05
736.339	28434.25
736.68	28487.58
737.021	28333.69
737.361	28211.89
737.702	28400.35
738.042	28276.52
738.383	28298.21
738.723	28250.08
739.063	28130.31
739.404	28092.57
739.744	27976.86
740.084	27921.27
740.424	27923.76
740.764	27950.88
741.104	27966.02
741.444	27825
741.784	27727.83
742.124	27719.02
742.464	27667.27
742.804	27596.76
743.143	27575.07
743.483	27606.93
743.823	27412.13
744.162	27537.33
744.502	27638.12
744.841	27434.05
745.181	27547.95
745.52	27340.72
745.86	27457.1
746.199	27364.68
746.538	27212.36
746.877	27427.73
747.216	27281.51
747.556	27173.49
747.895	27134.17
748.234	27148.18
748.573	27081.97
748.911	26958.36
749.25	26891.92
749.589	26681.3
749.928	26851.02
750.267	26785.93
750.605	26802.88
750.944	26697.57
751.283	26659.61
751.621	26703
751.96	26577.13
752.298	26468.43
752.636	26573.28
752.975	26423.01
753.313	26236.34
753.651	26262.78
753.989	26224.59
754.327	26269.79
754.666	26073.18
755.004	26124.71
755.342	26124.93
755.679	26051.04
756.017	25971.72
756.355	25978.27
756.693	25886.97
757.031	25851.5
