Data from hue_130_FLMS001491_00058.txt Node
Date: Tue Feb 07 16:57:48 GMT 2017
User: dcchb
Spectrometer: FLMS00149
Trigger mode: 0
Integration Time (sec): 2.000000E-2
Scans to average: 10
Electric dark correction enabled: true
Nonlinearity correction enabled: false
Boxcar width: 0
XAxis mode: Wavelengths
Number of Pixels in Spectrum: 2048
>>>>>Begin Spectral Data<<<<<
341.393	2.08
341.776	2.08
342.16	2.08
342.543	-59.84
342.927	-72.5
343.31	-81.99
343.693	-59.62
344.077	-67.3
344.46	-59.62
344.843	-57.36
345.226	-54.87
345.61	-44.25
345.993	-27.98
346.376	2.98
346.759	18.8
347.142	28.29
347.525	36.88
347.908	70.32
348.291	78.23
348.674	103.54
349.057	113.94
349.44	120.04
349.823	149.87
350.206	157.55
350.588	191.22
350.971	219.7
351.354	208.85
351.737	209.98
352.119	235.29
352.502	256.53
352.884	276.87
353.267	271.67
353.65	297.66
354.032	291.56
354.414	290.66
354.797	305.12
355.179	326.59
355.562	319.36
355.944	328.17
356.326	333.14
356.709	338.79
357.091	338.79
357.473	354.61
357.855	313.93
358.238	336.53
358.62	363.2
359.002	345.12
359.384	331.11
359.766	340.15
360.148	324.78
360.53	333.82
360.912	340.15
361.294	330.43
361.676	336.53
362.057	332.69
362.439	346.47
362.821	341.73
363.203	323.88
363.584	327.04
363.966	313.93
364.348	317.77
364.729	322.07
365.111	323.2
365.493	299.02
365.874	313.03
366.256	310.54
366.637	303.76
367.019	335.85
367.4	317.77
367.781	317.77
368.163	292.01
368.544	314.16
368.925	304.22
369.306	317.32
369.688	302.18
370.069	305.57
370.45	307.6
370.831	316.64
371.212	308.06
371.593	328.85
371.974	305.12
372.355	309.86
372.736	308.51
373.117	349.41
373.498	324.78
373.879	306.7
374.26	320.49
374.641	298.34
375.021	321.62
375.402	327.94
375.783	324.1
376.163	320.49
376.544	349.86
376.925	332.69
377.305	334.95
377.686	331.33
378.066	332.91
378.447	331.79
378.827	337.89
379.208	327.27
379.588	339.24
379.968	344.44
380.349	348.28
380.729	325.91
381.109	330.43
381.489	348.06
381.87	315.97
382.25	315.51
382.63	371.11
383.01	347.38
383.39	352.58
383.77	350.54
384.15	355.29
384.53	345.57
384.91	346.47
385.29	344.89
385.67	344.89
386.049	354.38
386.429	359.58
386.809	364.33
387.189	348.73
387.568	368.17
387.948	352.8
388.328	348.73
388.707	376.76
389.087	373.59
389.466	372.01
389.846	360.03
390.225	341.73
390.605	375.63
390.984	361.61
391.363	364.55
391.743	371.11
392.122	386.7
392.501	351.45
392.881	379.47
393.26	377.43
393.639	370.65
394.018	398.9
394.397	371.78
394.776	378.56
395.155	377.43
395.534	391.22
395.913	373.82
396.292	394.83
396.671	397.77
397.05	407.72
397.429	412.23
397.808	411.11
398.186	395.06
398.565	385.79
398.944	415.4
399.323	390.77
399.701	405.68
400.08	389.18
400.458	404.33
400.837	408.17
401.215	404.33
401.594	419.24
401.972	429.64
402.351	419.01
402.729	420.6
403.107	416.53
403.486	435.96
403.864	431.22
404.242	404.78
404.62	442.74
404.999	437.32
405.377	455.62
405.755	426.02
406.133	432.8
406.511	438.45
406.889	432.8
407.267	435.51
407.645	453.14
408.023	455.62
408.401	447.49
408.779	452.91
409.156	471.67
409.534	464.89
409.912	464.66
410.29	459.47
410.667	484.78
411.045	475.96
411.422	457.88
411.8	496.98
412.178	491.55
412.555	477.32
412.933	495.4
413.31	498.79
413.687	483.42
414.065	487.71
414.442	512.57
414.819	513.93
415.197	480.48
415.574	530.65
415.951	530.42
416.328	521.38
416.705	511.44
417.082	524.1
417.46	525
417.837	529.52
418.214	546.92
418.591	532.91
418.967	532.46
419.344	531.1
419.721	543.08
420.098	539.69
420.475	553.02
420.852	534.72
421.228	540.82
421.605	570.42
421.982	567.49
422.358	575.85
422.735	569.29
423.111	577.43
423.488	583.98
423.864	594.83
424.241	604.09
424.617	609.07
424.994	582.4
425.37	605.68
425.746	601.16
426.123	603.87
426.499	613.59
426.875	617.65
427.251	609.97
427.627	597.99
428.003	611.78
428.379	622.85
428.756	636.64
429.132	651.55
429.507	656.52
429.883	638.44
430.259	667.82
430.635	649.74
431.011	692.68
431.387	683.41
431.763	678.89
432.138	681.83
432.514	698.33
432.89	697.65
433.265	702.17
433.641	727.03
434.016	731.55
434.392	730.19
434.767	750.08
435.143	755.5
435.518	746.46
435.894	762.28
436.269	735.84
436.644	781.26
437.02	766.8
437.395	783.75
437.77	774.49
438.145	809.06
438.52	817.65
438.895	787.82
439.271	809.51
439.646	793.92
440.021	831.43
440.395	829.85
440.77	833.01
441.145	842.73
441.52	847.93
441.895	866.23
442.27	857.42
442.645	857.42
443.019	882.28
443.394	862.84
443.769	878.21
444.143	858.32
444.518	886.12
444.892	895.39
445.267	895.84
445.641	889.06
446.016	896.74
446.39	913.24
446.764	938.32
447.139	896.52
447.513	927.02
447.887	925.44
448.262	948.94
448.636	932.9
449.01	925.89
449.384	998.43
449.758	982.62
450.132	986.46
450.506	968.83
450.88	978.1
451.254	968.38
451.628	989.85
452.002	1036.4
452.376	1020.58
452.75	1014.93
453.123	1020.58
453.497	1044.08
453.871	1058.77
454.244	1073.91
454.618	1071.88
454.992	1110.52
455.365	1066.91
455.739	1109.39
456.112	1117.08
456.486	1132.22
456.859	1152.55
457.232	1175.6
457.606	1188.49
457.979	1206.34
458.352	1228.48
458.725	1221.48
459.099	1218.54
459.472	1251.08
459.845	1263.96
460.218	1265.55
460.591	1293.34
460.964	1319.1
461.337	1339.67
461.71	1332.44
462.083	1364.98
462.456	1354.13
462.829	1362.94
463.201	1408.59
463.574	1426.22
463.947	1454.92
464.32	1464.64
464.692	1469.16
465.065	1481.36
465.438	1522.49
465.81	1557.29
466.183	1535.82
466.555	1586.44
466.928	1585.09
467.3	1585.09
467.672	1633.9
468.045	1677.74
468.417	1662.37
468.789	1734.46
469.161	1742.82
469.534	1769.04
469.906	1787.34
470.278	1827.11
470.65	1859.88
471.022	1910.27
471.394	1969.03
471.766	1986.66
472.138	2029.59
472.51	2061.46
472.882	2093.55
473.253	2131.74
473.625	2131.96
473.997	2227.78
474.369	2247.89
474.74	2284.05
475.112	2383.03
475.484	2411.73
475.855	2484.5
476.227	2526.98
476.598	2593.42
476.97	2644.27
477.341	2718.61
477.713	2787.31
478.084	2860.98
478.455	2896.46
478.827	2983.47
479.198	3106.4
479.569	3099.17
479.94	3222.33
480.311	3329.22
480.682	3399.5
481.053	3508.88
481.424	3588.2
481.795	3724.24
482.166	3794.29
482.537	3873.39
482.908	3987.06
483.279	4072.93
483.65	4178.69
484.021	4316.54
484.391	4434.05
484.762	4498.46
485.133	4615.74
485.503	4711.78
485.874	4901.61
486.244	4961.04
486.615	5154.03
486.985	5259.11
487.356	5403.74
487.726	5488.03
488.097	5697.75
488.467	5775.26
488.837	5951.3
489.207	6074.91
489.578	6219.09
489.948	6363.49
490.318	6518.52
490.688	6611.85
491.058	6730.94
491.428	6940.2
491.798	7057.26
492.168	7282.56
492.538	7400.53
492.908	7506.51
493.278	7654.08
493.648	7751.93
494.017	7949.66
494.387	8067.17
494.757	8175.87
495.126	8386.71
495.496	8426.26
495.866	8612.7
496.235	8743.09
496.605	8844.56
496.974	9011.33
497.344	9144.43
497.713	9329.51
498.082	9347.59
498.452	9520.92
498.821	9615.61
499.19	9710.52
499.559	9847.47
499.928	10013.56
500.298	10106.67
500.667	10196.16
501.036	10236.61
501.405	10456.26
501.774	10449.71
502.143	10605.64
502.512	10654.68
502.88	10838.18
503.249	10852.19
503.618	10996.14
503.987	11119.98
504.356	11231.16
504.724	11284.94
505.093	11357.48
505.462	11382.34
505.83	11494.88
506.199	11631.37
506.567	11669.34
506.936	11709.11
507.304	11922.89
507.672	11998.6
508.041	12019.84
508.409	12167.63
508.777	12254.86
509.145	12312.26
509.514	12360.62
509.882	12438.13
510.25	12494.4
510.618	12555.19
510.986	12648.98
511.354	12757
511.722	12737.11
512.09	12870.89
512.458	12874.96
512.826	12973.71
513.193	13053.03
513.561	13013.71
513.929	13193.14
514.297	13294.16
514.664	13295.96
515.032	13365.11
515.4	13356.98
515.767	13415.51
516.135	13484.21
516.502	13425
516.869	13681.04
517.237	13653.47
517.604	13601.04
517.972	13683.52
518.339	13770.08
518.706	13789.74
519.073	13776.63
519.44	13868.15
519.808	13876.97
520.175	13836.51
520.542	14061.14
520.909	14103.4
521.276	14104.08
521.643	14146.11
522.009	14251.19
522.376	14290.97
522.743	14384.52
523.11	14385.88
523.477	14489.15
523.843	14467.68
524.21	14521.47
524.577	14560.79
524.943	14611.41
525.31	14595.14
525.676	14711.75
526.043	14784.51
526.409	14807.79
526.776	14882.59
527.142	14793.33
527.508	14823.16
527.874	14915.81
528.241	14888.92
528.607	14985.41
528.973	14914.45
529.339	14993.55
529.705	15014.34
530.071	15039.19
530.437	15016.37
530.803	15097.72
531.169	15140.44
531.535	15038.07
531.901	15034.22
532.267	14942.02
532.632	15019.08
532.998	15076.71
533.364	15014.34
533.73	15068.57
534.095	15116.03
534.461	15083.71
534.826	15136.37
535.192	15070.15
535.557	15199.64
535.923	15054.34
536.288	15059.76
536.653	15049.14
537.019	14946.54
537.384	15010.95
537.749	15026.09
538.114	14970.5
538.479	14902.93
538.845	14935.92
539.21	14867.9
539.575	14764.85
539.94	14818.86
540.305	14756.26
540.67	14677.62
541.034	14725.53
541.399	14787.45
541.764	14684.18
542.129	14744.06
542.494	14661.13
542.858	14678.07
543.223	14612.31
543.587	14646.21
543.952	14493.45
544.316	14496.84
544.681	14462.03
545.045	14484.41
545.41	14483.28
545.774	14448.02
546.138	14396.95
546.503	14344.07
546.867	14332.09
547.231	14417.29
547.595	14373.22
547.959	14377.97
548.324	14246.9
548.688	14177.3
549.052	14235.37
549.416	14164.64
549.779	14143.63
550.143	14044.87
550.507	14147.24
550.871	14160.35
551.235	14007.58
551.599	14021.37
551.962	13973.69
552.326	13992.67
552.689	14064.08
553.053	13917.87
553.417	13905.21
553.78	14012.33
554.143	13965.55
554.507	13831.09
554.87	13826.8
555.234	14021.82
555.597	13849.4
555.96	13806.01
556.323	13847.36
556.686	13814.59
557.05	13822.28
557.413	13873.12
557.776	13720.59
558.139	13773.47
558.502	13829.06
558.865	13747.03
559.228	13789.74
559.59	13834.93
559.953	13768.72
560.316	13902.05
560.679	13855.27
561.041	13967.36
561.404	13879.23
561.767	13882.39
562.129	13862.5
562.492	13918.32
562.854	13826.35
563.217	13774.82
563.579	13909.06
563.941	13915.61
564.304	13873.12
564.666	13932.78
565.028	13901.15
565.39	13987.02
565.753	14051.2
566.115	14012.33
566.477	14037.41
566.839	14041.48
567.201	14129.39
567.563	14099.11
567.925	14157.86
568.287	14144.98
568.648	14166.45
569.01	14168.03
569.372	14217.75
569.734	14190.86
570.095	14247.8
570.457	14243.06
570.819	14232.89
571.18	14232.89
571.542	14233.11
571.903	14331.19
572.265	14356.95
572.626	14285.09
572.987	14315.6
573.349	14260.46
573.71	14385.65
574.071	14377.07
574.432	14413.9
574.794	14503.39
575.155	14445.31
575.516	14365.54
575.877	14458.65
576.238	14405.77
576.599	14415.48
576.96	14436.95
577.32	14392.88
577.681	14452.09
578.042	14447.35
578.403	14410.06
578.763	14483.73
579.124	14496.84
579.485	14512.66
579.845	14528.25
580.206	14452.32
580.566	14580.45
580.927	14598.3
581.287	14526.44
581.648	14486.67
582.008	14524.41
582.368	14458.65
582.728	14448.25
583.089	14522.6
583.449	14514.01
583.809	14446.22
584.169	14519.66
584.529	14450.06
584.889	14497.74
585.249	14390.85
585.609	14364.41
585.969	14411.41
586.329	14463.39
586.688	14457.97
587.048	14405.31
587.408	14358.08
587.768	14342.94
588.127	14373.22
588.487	14335.48
588.846	14446.67
589.206	14364.86
589.565	14302.27
589.925	14346.11
590.284	14356.28
590.643	14380.68
591.003	14368.93
591.362	14417.06
591.721	14389.95
592.08	14387.23
592.44	14371.87
592.799	14299.33
593.158	14307.46
593.517	14351.98
593.876	14346.33
594.235	14237.18
594.593	14299.33
594.952	14295.94
595.311	14185.88
595.67	14262.04
596.029	14395.14
596.387	14336.39
596.746	14206.9
597.104	14144.53
597.463	14199.67
597.822	14258.42
598.18	14250.97
598.538	14158.09
598.897	14163.96
599.255	14111.99
599.613	14294.58
599.972	14247.58
600.33	14178.2
600.688	14280.12
601.046	14254.81
601.404	14298.42
601.762	14278.54
602.12	14306.33
602.478	14321.7
602.836	14223.62
603.194	14173.46
603.552	14285.54
603.91	14194.7
604.268	14276.73
604.625	14250.06
604.983	14201.02
605.341	14223.62
605.698	14316.05
606.056	14333
606.413	14248.71
606.771	14255.03
607.128	14316.28
607.485	14215.71
607.843	14288.93
608.2	14353.79
608.557	14424.07
608.914	14299.33
609.272	14396.95
609.629	14380.46
609.986	14501.81
610.343	14303.62
610.7	14486.67
611.057	14345.43
611.414	14405.09
611.771	14428.59
612.127	14474.01
612.484	14453.22
612.841	14518.98
613.198	14458.19
613.554	14451.19
613.911	14520.79
614.267	14466.33
614.624	14569.15
614.98	14512.66
615.337	14589.94
615.693	14588.13
616.05	14585.42
616.406	14636.95
616.762	14496.84
617.118	14521.92
617.475	14565.31
617.831	14699.77
618.187	14599.21
618.543	14661.8
618.899	14739.99
619.255	14698.19
619.611	14658.41
619.967	14794.46
620.323	14810.73
620.678	14664.06
621.034	14633.78
621.39	14644.4
621.746	14576.38
622.101	14815.47
622.457	14617.51
622.812	14784.74
623.168	14736.15
623.523	14642.37
623.879	14824.96
624.234	14654.57
624.589	14747.68
624.945	14684.18
625.3	14710.39
625.655	14751.29
626.01	14723.72
626.365	14741.58
626.72	14719.2
627.075	14686.21
627.43	14713.1
627.785	14673.78
628.14	14711.97
628.495	14755.59
628.85	14680.56
629.205	14637.85
629.559	14746.77
629.914	14669.49
630.269	14651.18
630.623	14675.81
630.978	14539.55
631.332	14626.1
631.687	14627
632.041	14601.92
632.396	14600.79
632.75	14551.3
633.104	14491.19
633.459	14511.75
633.813	14455.93
634.167	14465.2
634.521	14534.35
634.875	14569.6
635.229	14497.74
635.583	14337.97
635.937	14485.09
636.291	14371.64
636.645	14428.59
636.999	14421.81
637.352	14415.71
637.706	14243.06
638.06	14277.41
638.413	14270.85
638.767	14326.22
639.121	14284.19
639.474	14171.42
639.828	14240.12
640.181	14217.97
640.534	14283.28
640.888	14199.89
641.241	14145.21
641.594	14210.29
641.947	14135.49
642.301	14180.01
642.654	14173.46
643.007	14113.12
643.36	14117.41
643.713	14088.71
644.066	14072.44
644.419	14015.27
644.771	13911.54
645.124	13891.88
645.477	13782.96
645.83	13718.33
646.182	13663.64
646.535	13656.18
646.888	13714.48
647.24	13572.57
647.593	13622.06
647.945	13570.98
648.298	13569.63
648.65	13533.25
649.002	13521.95
649.355	13556.97
649.707	13505.9
650.059	13546.8
650.411	13851.2
650.763	13842.62
651.115	13963.29
651.467	13897.76
651.819	13869.06
652.171	13824.31
652.523	13792.22
652.875	13788.38
653.227	13736.18
653.578	13905.44
653.93	13958.09
654.282	13876.51
654.633	13879.68
654.985	13910.86
655.337	13885.55
655.688	13860.69
656.039	13843.52
656.391	13736.86
656.742	13891.88
657.094	13844.65
657.445	13871.54
657.796	13868.15
658.147	13875.38
658.498	13838.32
658.849	13874.25
659.2	13973.91
659.551	13860.24
659.902	13948.83
660.253	13920.35
660.604	14050.97
660.955	13871.77
661.306	13922.16
661.656	14038.77
662.007	13944.76
662.358	13904.31
662.708	13917.64
663.059	13935.04
663.409	13856.4
663.76	13880.36
664.11	13955.83
664.461	13990.18
664.811	13920.81
665.161	13924.65
665.511	13917.19
665.862	13955.38
666.212	13945.21
666.562	13924.42
666.912	13916.51
667.262	13962.84
667.612	13925.55
667.962	13947.02
668.312	13861.82
668.662	13984.08
669.011	13906.57
669.361	13996.96
669.711	13955.16
670.06	13869.28
670.41	13970.3
670.76	13925.33
671.109	13920.58
671.459	13871.09
671.808	13803.07
672.157	13869.06
672.507	13752.68
672.856	13787.25
673.205	13795.16
673.554	13874.71
673.904	13810.98
674.253	13759.68
674.602	13808.49
674.951	13605.11
675.3	13556.52
675.649	13728.27
675.998	13707.93
676.346	13761.71
676.695	13766.69
677.044	13603.3
677.393	13745.67
677.741	13607.14
678.09	13663.41
678.438	13696.86
678.787	13669.51
679.135	13596.3
679.484	13597.65
679.832	13646.69
680.181	13440.59
680.529	13578.44
680.877	13491.89
681.225	13526.01
681.573	13536.64
681.922	13470.2
682.27	13411.89
682.618	13488.73
682.966	13393.81
683.314	13422.29
683.661	13399.24
684.009	13245.8
684.357	13290.54
684.705	13241.5
685.053	13232.01
685.4	13128.28
685.748	13104.78
686.095	13115.18
686.443	12994.5
686.79	13035.41
687.138	13076.08
687.485	13057.1
687.832	12925.58
688.18	12974.84
688.527	12910.66
688.874	12936.2
689.221	12811.23
689.568	12800.16
689.915	12772.81
690.262	12767.62
690.609	12761.29
690.956	12707.5
691.303	12677.68
691.65	12607.39
691.997	12582.54
692.344	12547.06
692.69	12494.4
693.037	12482.88
693.383	12385.93
693.73	12378.7
694.077	12327.4
694.423	12303.22
694.769	12237.69
695.116	12254.41
695.462	12280.85
695.808	12143.9
696.155	12142.55
696.501	12000.4
696.847	12034.53
697.193	12043.34
697.539	12017.13
697.885	11871.59
698.231	11867.75
698.577	11899.62
698.923	11837.92
699.269	11844.48
699.614	11731.49
699.96	11596.12
700.306	11589.79
700.651	11590.92
700.997	11542.56
701.342	11525.16
701.688	11491.27
702.033	11411.72
702.379	11442
702.724	11421.89
703.069	11346.41
703.415	11298.95
703.76	11262.8
704.105	11308.45
704.45	11293.3
704.795	11138.51
705.14	11111.61
705.485	11058.51
705.83	11097.83
706.175	11066.42
706.52	11052.63
706.865	10963.14
707.209	10928.12
707.554	10896.93
707.899	10945.52
708.243	10811.06
708.588	10817.61
708.932	10792.98
709.277	10740.78
709.621	10686.54
709.966	10647.9
710.31	10717.73
710.654	10579.43
710.998	10587.11
711.342	10528.58
711.687	10564.28
712.031	10489.48
712.375	10511.4
712.719	10531.97
713.063	10486.32
713.407	10492.87
713.75	10440.9
714.094	10402.93
714.438	10460.33
714.782	10425.98
715.125	10376.04
715.469	10331.97
715.812	10224.86
716.156	10196.16
716.499	10248.59
716.843	10273.44
717.186	10180.57
717.53	10290.39
717.873	10223.5
718.216	10154.8
718.559	10198.87
718.902	10141.92
719.246	10059.66
719.589	10112.77
719.932	10015.6
720.275	10077.74
720.617	10115.48
720.96	9963.62
721.303	10061.47
721.646	10097.63
721.989	10000.23
722.331	10000.68
722.674	9933.11
723.016	9923.85
723.359	9909.39
723.701	9961.36
724.044	9909.16
724.386	9894.25
724.729	9931.31
725.071	9881.14
725.413	9877.97
725.755	9868.71
726.097	9857.64
726.439	9805.66
726.782	9797.52
727.124	9850.4
727.465	9844.08
727.807	9838.88
728.149	9815.83
728.491	9755.72
728.833	9787.36
729.175	9746
729.516	9814.93
729.858	9778.54
730.199	9792.33
730.541	9744.42
730.882	9748.94
731.224	9758.2
731.565	9730.63
731.906	9733.35
732.248	9736.96
732.589	9724.53
732.93	9701.93
733.271	9688.15
733.612	9709.62
733.953	9759.79
734.294	9713.01
734.635	9619.68
734.976	9720.01
735.317	9609.06
735.658	9704.42
735.999	9726.11
736.339	9666.68
736.68	9751.42
737.021	9669.39
737.361	9731.54
737.702	9777.19
738.042	9693.35
738.383	9666.91
738.723	9689.96
739.063	9703.52
739.404	9762.72
739.744	9761.59
740.084	9666.45
740.424	9737.41
740.764	9786
741.104	9771.54
741.444	9814.02
741.784	9808.6
742.124	9875.94
742.464	9905.77
742.804	9853.34
743.143	9886.56
743.483	9826.9
743.823	9856.28
744.162	9892.21
744.502	9952.55
744.841	10028.93
745.181	10102.38
745.52	10097.4
745.86	10112.32
746.199	10085.65
746.538	10208.81
746.877	10129.95
747.216	10248.59
747.556	10278.19
747.895	10355.93
748.234	10355.02
748.573	10376.94
748.911	10481.35
749.25	10572.42
749.589	10603.61
749.928	10679.99
750.267	10744.62
750.605	10817.61
750.944	10891.73
751.283	10950.04
751.621	11032.75
751.96	11099.86
752.298	11174.44
752.636	11304.6
752.975	11353.64
753.313	11485.16
753.651	11620.53
753.989	11698.04
754.327	11733.97
754.666	11842.67
755.004	11973.74
755.342	12147.07
755.679	12238.59
756.017	12388.19
756.355	12541.41
756.693	12613.04
757.031	12825.69
757.368	12920.61
