Data from hue_310_FLMS001491_91.txt Node
Date: Mon Feb 06 15:50:28 GMT 2017
User: dcchb
Spectrometer: FLMS00149
Trigger mode: 0
Integration Time (sec): 2.000000E-2
Scans to average: 10
Electric dark correction enabled: true
Nonlinearity correction enabled: false
Boxcar width: 0
XAxis mode: Wavelengths
Number of Pixels in Spectrum: 2048
>>>>>Begin Spectral Data<<<<<
341.393	12.61
341.776	12.61
342.16	12.61
342.543	-58.57
342.927	-61.28
343.31	-56.54
343.693	-75.07
344.077	-64
344.46	-65.35
344.843	-60.61
345.226	-40.04
345.61	-16.31
345.993	-10.66
346.376	-14.96
346.759	-9.31
347.142	35.21
347.525	42.22
347.908	64.59
348.291	80.18
348.674	81.76
349.057	108.88
349.44	118.37
349.823	140.52
350.206	183.68
350.588	177.58
350.971	208.99
351.354	216.9
351.737	252.61
352.119	252.38
352.502	268.88
352.884	292.61
353.267	285.15
353.65	293.28
354.032	302.55
354.414	317.01
354.797	321.08
355.179	326.05
355.562	337.8
355.944	324.24
356.326	327.86
356.709	328.31
357.091	335.99
357.473	347.52
357.855	317.01
358.238	336.67
358.62	336.9
359.002	338.48
359.384	353.17
359.766	341.42
360.148	334.41
360.53	345.71
360.912	357.91
361.294	343.23
361.676	342.77
362.057	320.85
362.439	333.96
362.821	334.19
363.203	321.08
363.584	323.11
363.966	311.81
364.348	325.82
364.729	330.8
365.111	340.74
365.493	313.17
365.874	326.5
366.256	315.43
366.637	314.75
367.019	333.28
367.4	317.01
367.781	321.08
368.163	316.79
368.544	304.58
368.925	301.64
369.306	329.67
369.688	323.79
370.069	316.56
370.45	305.03
370.831	311.59
371.212	327.63
371.593	317.46
371.974	297.35
372.355	301.64
372.736	309.33
373.117	302.32
373.498	328.08
373.879	291.48
374.26	309.78
374.641	322.66
375.021	325.6
375.402	328.08
375.783	313.4
376.163	333.06
376.544	343.68
376.925	321.98
377.305	329.44
377.686	342.32
378.066	332.83
378.447	330.8
378.827	334.64
379.208	328.54
379.588	330.12
379.968	326.95
380.349	321.98
380.729	316.56
381.109	350.68
381.489	350.68
381.87	365.37
382.25	350
382.63	342.32
383.01	335.77
383.39	350.91
383.77	348.65
384.15	337.8
384.53	351.36
384.91	350.46
385.29	347.07
385.67	365.6
386.049	343.9
386.429	349.78
386.809	371.93
387.189	364.69
387.568	344.58
387.948	362.66
388.328	353.85
388.707	356.78
389.087	359.72
389.466	378.03
389.846	353.62
390.225	384.58
390.605	355.88
390.984	380.74
391.363	344.58
391.743	368.76
392.122	384.13
392.501	356.78
392.881	383.68
393.26	381.42
393.639	381.64
394.018	382.55
394.397	363.11
394.776	362.89
395.155	376.44
395.534	385.94
395.913	392.94
396.292	395.2
396.671	376.9
397.05	380.51
397.429	402.88
397.808	385.26
398.186	393.62
398.565	394.52
398.944	408.08
399.323	420.74
399.701	400.63
400.08	414.64
400.458	411.02
400.837	419.83
401.215	414.86
401.594	410.34
401.972	405.37
402.351	410.12
402.729	415.09
403.107	429.55
403.486	417.8
403.864	432.26
404.242	433.62
404.62	430.91
404.999	429.32
405.377	437.23
405.755	455.09
406.133	440.4
406.511	457.8
406.889	445.37
407.267	464.35
407.645	466.39
408.023	459.83
408.401	469.32
408.779	480.17
409.156	476.1
409.534	484.69
409.912	479.27
410.29	495.76
410.667	506.38
411.045	489.21
411.422	543.9
411.8	525.59
412.178	550.45
412.555	543.67
412.933	540.96
413.31	565.59
413.687	570.79
414.065	571.02
414.442	580.06
414.819	581.86
415.197	597.23
415.574	587.06
415.951	608.3
416.328	604.24
416.705	597.91
417.082	624.35
417.46	630.9
417.837	649.88
418.214	648.08
418.591	676.78
418.967	685.14
419.344	688.3
419.721	679.04
420.098	679.94
420.475	706.15
420.852	695.76
421.228	714.97
421.605	723.78
421.982	733.05
422.358	733.72
422.735	751.12
423.111	746.83
423.488	777.79
423.864	765.36
424.241	774.4
424.617	780.73
424.994	793.16
425.37	789.32
425.746	823.44
426.123	830.22
426.499	826.83
426.875	822.76
427.251	853.72
427.627	869.54
428.003	865.92
428.379	886.49
428.756	886.94
429.132	889.88
429.507	906.37
429.883	920.16
430.259	905.92
430.635	914.96
431.011	913.61
431.387	975.98
431.763	976.43
432.138	972.36
432.514	985.69
432.89	983.21
433.265	1003.55
433.641	1010.1
434.016	1043.77
434.392	1057.56
434.767	1039.48
435.143	1037.44
435.518	1088.74
435.894	1077.22
436.269	1079.93
436.644	1106.14
437.02	1087.61
437.395	1115.41
437.77	1129.87
438.145	1146.37
438.52	1150.44
438.895	1167.84
439.271	1176.65
439.646	1210.77
440.021	1199.47
440.395	1194.5
440.77	1202.86
441.145	1215.29
441.52	1226.14
441.895	1200.83
442.27	1262.3
442.645	1253.03
443.019	1273.6
443.394	1252.35
443.769	1265.46
444.143	1237.21
444.518	1270.43
444.892	1258.46
445.267	1268.17
445.641	1293.71
446.016	1287.38
446.39	1297.1
446.764	1295.97
447.139	1288.96
447.513	1310.21
447.887	1293.26
448.262	1293.03
448.636	1332.58
449.01	1315.86
449.384	1346.81
449.758	1311.11
450.132	1337.55
450.506	1357.66
450.88	1340.71
451.254	1333.71
451.628	1367.61
452.002	1379.13
452.376	1353.37
452.75	1400.6
453.123	1404.89
453.497	1427.49
453.871	1414.38
454.244	1427.72
454.618	1456.19
454.992	1434.95
455.365	1452.8
455.739	1499.13
456.112	1481.05
456.486	1485.57
456.859	1491.22
457.232	1508.17
457.606	1519.92
457.979	1559.92
458.352	1533.02
458.725	1570.09
459.099	1560.82
459.472	1590.65
459.845	1603.08
460.218	1610.31
460.591	1622.74
460.964	1610.31
461.337	1606.24
461.71	1662.29
462.083	1679.69
462.456	1679.69
462.829	1666.58
463.201	1691.89
463.574	1692.79
463.947	1712
464.32	1772.57
464.692	1758.33
465.065	1756.52
465.438	1776.63
465.81	1782.51
466.183	1831.77
466.555	1822.73
466.928	1841.27
467.3	1806.46
467.672	1857.76
468.045	1861.15
468.417	1885.78
468.789	1884.2
469.161	1898.21
469.534	1916.29
469.906	1952.67
470.278	1968.04
470.65	1980.7
471.022	2011.88
471.394	1984.54
471.766	2050.53
472.138	2066.12
472.51	2095.04
472.882	2075.38
473.253	2128.94
473.625	2144.53
473.997	2187.24
474.369	2199.9
474.74	2191.54
475.112	2222.72
475.484	2220.01
475.855	2257.75
476.227	2266.56
476.598	2311.54
476.97	2344.98
477.341	2336.62
477.713	2405.54
478.084	2386.11
478.455	2414.58
478.827	2453.9
479.198	2498.42
479.569	2527.57
479.94	2569.16
480.311	2586.56
480.682	2606.22
481.053	2650.74
481.424	2676.95
481.795	2700.68
482.166	2717.85
482.537	2735.25
482.908	2817.06
483.279	2806.44
483.65	2830.39
484.021	2872.42
484.391	2908.81
484.762	2916.27
485.133	2921.91
485.503	2940.45
485.874	3024.06
486.244	3058.41
486.615	3067.22
486.985	3099.99
487.356	3142.7
487.726	3132.53
488.097	3194
488.467	3181.34
488.837	3214.79
489.207	3279.65
489.578	3290.72
489.948	3361.23
490.318	3337.95
490.688	3352.19
491.058	3390.38
491.428	3393.77
491.798	3430.15
492.168	3487.1
492.538	3516.48
492.908	3513.09
493.278	3591.05
493.648	3572.75
494.017	3613.65
494.387	3628.34
494.757	3619.98
495.126	3642.35
495.496	3653.87
495.866	3699.97
496.235	3702.01
496.605	3764.6
496.974	3766.64
497.344	3819.74
497.713	3812.29
498.082	3798.28
498.452	3826.75
498.821	3875.11
499.19	3866.75
499.559	3923.24
499.928	3887.99
500.298	3902.23
500.667	3910.59
501.036	3955.33
501.405	4017.48
501.774	3993.75
502.143	3995.56
502.512	4020.87
502.88	4064.26
503.249	4032.17
503.618	4102.67
503.987	4064.03
504.356	4089.34
504.724	4132.73
505.093	4147.42
505.462	4101.77
505.83	4156.46
506.199	4191.49
506.567	4227.87
506.936	4198.27
507.304	4295.66
507.672	4252.28
508.041	4250.92
508.409	4329.56
508.777	4276.46
509.145	4276.91
509.514	4283.23
509.882	4357.81
510.25	4320.3
510.618	4325.95
510.986	4367.75
511.354	4398.03
511.722	4417.92
512.09	4410.01
512.458	4409.56
512.826	4468.31
513.193	4484.59
513.561	4463.8
513.929	4497.24
514.297	4549.22
514.664	4503.34
515.032	4518.48
515.4	4546.96
515.767	4552.15
516.135	4576.79
516.502	4486.17
516.869	4594.41
517.237	4590.35
517.604	4583.11
517.972	4614.98
518.339	4637.58
518.706	4633.28
519.073	4656.11
519.44	4650.68
519.808	4742.66
520.175	4699.27
520.542	4689.33
520.909	4732.26
521.276	4711.25
521.643	4737.46
522.009	4812.03
522.376	4803.45
522.743	4817.23
523.11	4809.32
523.477	4899.26
523.843	4892.94
524.21	4928.64
524.577	4976.32
524.943	4964.57
525.31	4974.74
525.676	4987.17
526.043	4996.66
526.409	5071.69
526.776	5090.9
527.142	5104.91
527.508	5150.56
527.874	5137.45
528.241	5156.21
528.607	5152.59
528.973	5200.72
529.339	5236.2
529.705	5308.52
530.071	5297.67
530.437	5335.86
530.803	5359.59
531.169	5391
531.535	5354.39
531.901	5404.34
532.267	5384.67
532.632	5455.86
532.998	5436.42
533.364	5485.46
533.73	5532.02
534.095	5561.39
534.461	5535.86
534.826	5574.27
535.192	5573.82
535.557	5647.94
535.923	5640.94
536.288	5662.41
536.653	5696.31
537.019	5635.97
537.384	5710.99
537.749	5748.96
538.114	5765.91
538.479	5764.1
538.845	5836.64
539.21	5811.56
539.575	5797.77
539.94	5822.63
540.305	5899.01
540.67	5890.2
541.034	5925.68
541.399	5963.19
541.764	5962.51
542.129	6012.68
542.494	6023.98
542.858	6086.35
543.223	6084.09
543.587	6111.44
543.952	6117.54
544.316	6143.52
544.681	6169.29
545.045	6130.42
545.41	6198.44
545.774	6243.18
546.138	6224.65
546.503	6265.78
546.867	6284.54
547.231	6345.55
547.595	6320.47
547.959	6366.8
548.324	6453.8
548.688	6372.9
549.052	6401.6
549.416	6428.26
549.779	6480.69
550.143	6532.89
550.507	6513.01
550.871	6583.74
551.235	6571.99
551.599	6586.23
551.962	6583.74
552.326	6624.64
552.689	6641.14
553.053	6630.52
553.417	6655.38
553.78	6726.33
554.143	6734.92
554.507	6821.47
554.87	6825.31
555.234	6857.4
555.597	6823.73
555.96	6838.2
556.323	6827.12
556.686	6845.88
557.05	6910.51
557.413	6918.87
557.776	6923.39
558.139	6945.54
558.502	6948.7
558.865	6979.21
559.228	7028.7
559.59	7059.21
559.953	7062.37
560.316	7149.37
560.679	7096.95
561.041	7133.1
561.404	7110.28
561.767	7224.4
562.129	7111.64
562.492	7202.71
562.854	7243.16
563.217	7243.61
563.579	7293.78
563.941	7266.43
564.304	7339.88
564.666	7382.81
565.028	7360.22
565.39	7455.58
565.753	7422.36
566.115	7481.12
566.477	7477.28
566.839	7476.15
567.201	7561.34
567.563	7539.42
567.925	7610.15
568.287	7632.3
568.648	7655.12
569.01	7682.69
569.372	7735.12
569.734	7743.48
570.095	7746.87
570.457	7783.93
570.819	7830.94
571.18	7824.38
571.542	7920.43
571.903	7941.67
572.265	8000.65
572.626	8001.56
572.987	8051.05
573.349	8091.5
573.71	8157.71
574.071	8259.4
574.432	8285.39
574.794	8336.91
575.155	8371.49
575.516	8356.12
575.877	8464.14
576.238	8522.67
576.599	8632.05
576.96	8638.15
577.32	8738.48
577.681	8884.02
578.042	8895.99
578.403	8971.93
578.763	9072.94
579.124	9186.83
579.485	9295.08
579.845	9340.73
580.206	9405.81
580.566	9583.66
580.927	9753.37
581.287	9863.2
581.648	9956.08
582.008	10154.27
582.368	10265.45
582.728	10386.35
583.089	10608.49
583.449	10733.91
583.809	10966.67
584.169	11172.77
584.529	11194.47
584.889	11567.56
585.249	11683.94
585.609	11804.17
585.969	12088.91
586.329	12318.5
586.688	12561.89
587.048	12790.36
587.408	13008.88
587.768	13194.41
588.127	13453.84
588.487	13768.41
588.846	14068.29
589.206	14138.79
589.565	14440.26
589.925	14785.56
590.284	15026.91
590.643	15409.27
591.003	15673.67
591.362	15887.22
591.721	16171.28
592.08	16530.37
592.44	16828.89
592.799	17162.22
593.158	17458.48
593.517	17649.66
593.876	18032.7
594.235	18226.82
594.593	18653.25
594.952	18915.62
595.311	19182.96
595.67	19578.43
596.029	19941.58
596.387	20351.29
596.746	20621.56
597.104	20760.77
597.463	21124.15
597.822	21517.58
598.18	21696.56
598.538	22040.51
598.897	22556.65
599.255	22641.85
599.613	23264.88
599.972	23348.72
600.33	23690.41
600.688	23853.12
601.046	24390.05
601.404	24654.22
601.762	24870.72
602.12	25136.92
602.478	25451.72
602.836	25780.75
603.194	26056.9
603.552	26248.76
603.91	26506.83
604.268	26852.13
604.625	27007.61
604.983	27484.21
605.341	27550.42
605.698	27892.33
606.056	28182.49
606.413	28376.39
606.771	28851.63
607.128	29034
607.485	29134.11
607.843	29295.23
608.2	29814.77
608.557	30060.41
608.914	30116.23
609.272	30581.98
609.629	30782.65
609.986	31079.14
610.343	31161.85
610.7	31555.06
611.057	31722.29
611.414	31849.29
611.771	31981.26
612.127	32315.72
612.484	32476.84
612.841	32720.68
613.198	32911.63
613.554	32929.94
613.911	33301.23
614.267	33414.45
614.624	33509.36
614.98	33901.44
615.337	34124.48
615.693	34165.61
616.05	34171.94
616.406	34658.26
616.762	34717.01
617.118	34702.1
617.475	34962.65
617.831	35196.55
618.187	35295.75
618.543	35356.77
618.899	35722.41
619.255	35937.09
619.611	35927.6
619.967	36093.47
620.323	36316.97
620.678	36159.01
621.034	36293.01
621.39	36413.24
621.746	36439.45
622.101	36968.25
622.457	36766.45
622.812	37018.65
623.168	37142.03
623.523	37426.32
623.879	37537.73
624.234	37339.99
624.589	37462.93
624.945	37688.46
625.3	37765.52
625.655	37833.09
626.01	37916.02
626.365	37977.26
626.72	38038.51
627.075	38068.11
627.43	38115.11
627.785	38125.06
628.14	38249.12
628.495	38294.54
628.85	38322.34
629.205	38411.6
629.559	38499.06
629.914	38393.07
630.269	38513.97
630.623	38609.79
630.978	38324.6
631.332	38543.58
631.687	38774.31
632.041	38756.45
632.396	38760.97
632.75	38751.26
633.104	38744.02
633.459	38619.06
633.813	38782.89
634.167	38734.98
634.521	38739.96
634.875	38794.19
635.229	38698.15
635.583	38679.84
635.937	38622.44
636.291	38723.01
636.645	38791.93
636.999	38771.14
637.352	38824.47
637.706	38721.88
638.06	38871.48
638.413	38805.72
638.767	38675.32
639.121	38881.87
639.474	38535.89
639.828	38609.34
640.181	38666.96
640.534	38783.57
640.888	38674.87
641.241	38478.95
641.594	38747.87
641.947	38673.74
642.301	38567.76
642.654	38789.9
643.007	38782.44
643.36	38606.85
643.713	38455.9
644.066	38780.86
644.419	38420.64
644.771	38306.75
645.124	37843.71
645.477	38047.32
645.83	37625.63
646.182	37502.93
646.535	37497.73
646.888	37576.82
647.24	37398.75
647.593	37601.23
647.945	37400.33
648.298	37329.15
648.65	37278.53
649.002	37287.56
649.355	37397.84
649.707	37440.56
650.059	37405.3
650.411	37911.73
650.763	38049.8
651.115	38225.62
651.467	38194.66
651.819	38244.6
652.171	38123.25
652.523	38256.58
652.875	38152.4
653.227	37936.59
653.578	38225.85
653.93	38080.31
654.282	38036.02
654.633	37892.75
654.985	37946.76
655.337	37955.57
655.688	38062.46
656.039	38135.9
656.391	37807.33
656.742	37931.84
657.094	37960.99
657.445	38037.15
657.796	37903.37
658.147	37831.28
658.498	37856.14
658.849	38065.85
659.2	37928
659.551	37813.2
659.902	38004.61
660.253	37889.58
660.604	37887.77
660.955	37764.39
661.306	37950.15
661.656	37883.48
662.007	37775.24
662.358	37855.23
662.708	37763.71
663.059	37860.21
663.409	37664.73
663.76	37873.99
664.11	37758.06
664.461	37909.47
664.811	37755.35
665.161	37776.82
665.511	37719.19
665.862	37799.19
666.212	37767.33
666.562	37961.67
666.912	37753.99
667.262	37660.89
667.612	37692.75
667.962	37707.44
668.312	37587.22
668.662	37758.74
669.011	37530.72
669.361	37739.76
669.711	37592.64
670.06	37594
670.41	37591.74
670.76	37566.88
671.109	37728.46
671.459	37564.17
671.808	37504.51
672.157	37569.37
672.507	37407.11
672.856	37463.61
673.205	37527.11
673.554	37557.84
673.904	37421.8
674.253	37516.49
674.602	37526.65
674.951	37024.29
675.3	36742.04
675.649	37451.63
675.998	37245.98
676.346	37442.14
676.695	37384.29
677.044	37253.89
677.393	37283.27
677.741	37457.96
678.09	37288.69
678.438	37117.17
678.787	37325.76
679.135	37252.76
679.484	37011.41
679.832	37237.4
680.181	36992.21
680.529	37004.86
680.877	37003.05
681.225	36905.88
681.573	37047.35
681.922	36881.02
682.27	36738.43
682.618	36666.79
682.966	36726.9
683.314	36794.92
683.661	36707.47
684.009	36458.21
684.357	36566.23
684.705	36430.41
685.053	36369.4
685.4	36277.42
685.748	36207.37
686.095	36171.89
686.443	36119.91
686.79	35897.09
687.138	36092.12
687.485	36118.56
687.832	36043.53
688.18	35833.82
688.527	35794.04
688.874	35720.15
689.221	35745.01
689.568	35687.61
689.915	35515.63
690.262	35541.17
690.609	35386.6
690.956	35198.58
691.303	35246.94
691.65	35114.74
691.997	35100.96
692.344	34918.81
692.69	34958.81
693.037	34988.87
693.383	34663.23
693.73	34784.13
694.077	34627.97
694.423	34594.53
694.769	34400.64
695.116	34324.48
695.462	34220.53
695.808	34204.03
696.155	34205.61
696.501	34031.38
696.847	34063.02
697.193	33829.8
697.539	33910.25
697.885	33657.38
698.231	33575.57
698.577	33610.15
698.923	33527.66
699.269	33424.39
699.614	33262.36
699.96	33195.02
700.306	33237.05
700.651	33038.18
700.997	33061.01
701.342	32944.4
701.688	32958.41
702.033	32714.13
702.379	32843.16
702.724	32600.46
703.069	32629.38
703.415	32417.18
703.76	32493.11
704.105	32462.61
704.45	32249.96
704.795	32147.59
705.14	32145.55
705.485	31950.98
705.83	31932
706.175	31816.52
706.52	31905.11
706.865	31748.5
707.209	31708.28
707.554	31530.88
707.899	31698.33
708.243	31485.68
708.588	31475.51
708.932	31223.32
709.277	31253.15
709.621	31344.44
709.966	30988.97
710.31	31111.46
710.654	30859.94
710.998	30917.79
711.342	30960.73
711.687	30734.97
712.031	30743.1
712.375	30614.07
712.719	30615.88
713.063	30540.4
713.407	30590.34
713.75	30393.28
714.094	30469.44
714.438	30307.41
714.782	30294.98
715.125	30146.06
715.469	30111.71
715.812	30131.82
716.156	29829.91
716.499	29734.77
716.843	29863.35
717.186	29820.19
717.53	29905.39
717.873	29861.55
718.216	29770.47
718.559	29543.81
718.902	29406.42
719.246	29575.45
719.589	29440.31
719.932	29211.39
720.275	29315.57
720.617	29286.65
720.96	29210.71
721.303	29278.06
721.646	29211.84
721.989	29024.28
722.331	29000.55
722.674	29096.82
723.016	29144.05
723.359	28932.98
723.701	29012.75
724.044	28871.06
724.386	28770.73
724.729	28838.3
725.071	28603.27
725.413	28639.66
725.755	28646.44
726.097	28624.29
726.439	28400.11
726.782	28458.19
727.124	28554.24
727.465	28388.59
727.807	28402.37
728.149	28323.28
728.491	28313.56
728.833	28260.91
729.175	28142.27
729.516	28122.83
729.858	28114.47
730.199	28141.36
730.541	28007.81
730.882	27992.67
731.224	28034.93
731.565	27862.73
731.906	27759.68
732.248	27929.17
732.589	27794.71
732.93	27703.18
733.271	27730.53
733.612	27692.11
733.953	27642.17
734.294	27580.93
734.635	27476.75
734.976	27604.88
735.317	27334.61
735.658	27503.42
735.999	27522.85
736.339	27352.91
736.68	27378.9
737.021	27350.2
737.361	27214.16
737.702	27368.73
738.042	27225.68
738.383	27126.25
738.723	27171.9
739.063	27192.91
739.404	27053.03
739.744	27075.4
740.084	26838.8
740.424	26801.51
740.764	26805.81
741.104	26829.08
741.444	26723.77
741.784	26605.36
742.124	26683.78
742.464	26704.11
742.804	26571.46
743.143	26618.47
743.483	26538.69
743.823	26375.08
744.162	26479.94
744.502	26509.09
744.841	26230.68
745.181	26488.53
745.52	26351.58
745.86	26382.77
746.199	26192.04
746.538	26166.28
746.877	26246.5
747.216	26039.72
747.556	26076.33
747.895	26051.48
748.234	26011.25
748.573	25996.79
748.911	25880.41
749.25	25857.58
749.589	25753.18
749.928	25718.38
750.267	25834.31
750.605	25712.05
750.944	25652.62
751.283	25495.11
751.621	25580.98
751.96	25453.07
752.298	25435.9
752.636	25396.35
752.975	25289.91
753.313	25267.77
753.651	25339.4
753.989	25219.63
754.327	25158.84
754.666	25084.95
755.004	25098.51
755.342	24983.93
755.679	25034.33
756.017	24817.84
756.355	24845.18
756.693	24725.64
757.031	24785.29
757.368	24545.53
757.706	24648.58
758.044	24488.81
758.381	24519.31
758.719	24488.58
759.056	24474.79
