Data from hue_350_FLMS001491_28.txt Node
Date: Mon Feb 06 15:37:48 GMT 2017
User: dcchb
Spectrometer: FLMS00149
Trigger mode: 0
Integration Time (sec): 2.000000E-2
Scans to average: 10
Electric dark correction enabled: true
Nonlinearity correction enabled: false
Boxcar width: 0
XAxis mode: Wavelengths
Number of Pixels in Spectrum: 2048
>>>>>Begin Spectral Data<<<<<
341.393	1.54
341.776	1.54
342.16	1.54
342.543	-49.53
342.927	-86.59
343.31	-76.65
343.693	-58.35
344.077	-66.03
344.46	-74.39
344.843	-54.28
345.226	-51.57
345.61	-37.56
345.993	-3.88
346.376	4.03
346.759	11.93
347.142	25.04
347.525	46.51
347.908	63.23
348.291	79.5
348.674	96.45
349.057	96
349.44	113.4
349.823	148.2
350.206	152.5
350.588	200.63
350.971	216
351.354	237.47
351.737	219.39
352.119	243.34
352.502	251.02
352.884	263.45
353.267	280.63
353.65	295.54
354.032	305.71
354.414	283.11
354.797	304.58
355.179	317.92
355.562	332.6
355.944	313.62
356.326	330.12
356.709	308.42
357.091	335.99
357.473	334.19
357.855	346.62
358.238	324.24
358.62	335.77
359.002	342.1
359.384	316.79
359.766	319.95
360.148	331.02
360.53	333.28
360.912	355.65
361.294	346.39
361.676	324.24
362.057	304.81
362.439	336.45
362.821	321.98
363.203	290.12
363.584	339.84
363.966	325.6
364.348	322.21
364.729	333.96
365.111	302.55
365.493	297.12
365.874	298.25
366.256	311.59
366.637	308.2
367.019	301.19
367.4	313.17
367.781	306.16
368.163	298.71
368.544	316.56
368.925	308.88
369.306	324.92
369.688	324.92
370.069	317.69
370.45	307.97
370.831	314.07
371.212	312.27
371.593	296.67
371.974	296.22
372.355	321.76
372.736	314.07
373.117	306.84
373.498	309.55
373.879	305.26
374.26	296
374.641	313.62
375.021	321.08
375.402	301.64
375.783	296.22
376.163	309.33
376.544	305.26
376.925	331.93
377.305	319.05
377.686	310.01
378.066	341.87
378.447	342.77
378.827	295.77
379.208	316.33
379.588	318.59
379.968	338.03
380.349	321.53
380.729	345.26
381.109	313.85
381.489	309.78
381.87	320.85
382.25	334.64
382.63	345.26
383.01	319.5
383.39	328.99
383.77	335.09
384.15	332.38
384.53	317.69
384.91	354.75
385.29	342.1
385.67	357.69
386.049	354.52
386.429	319.95
386.809	344.58
387.189	349.1
387.568	356.78
387.948	334.19
388.328	352.26
388.707	327.86
389.087	345.71
389.466	327.41
389.846	336.67
390.225	350.68
390.605	380.96
390.984	331.47
391.363	366.05
391.743	350
392.122	348.65
392.501	339.16
392.881	357.91
393.26	367.63
393.639	345.94
394.018	367.63
394.397	376.22
394.776	357.46
395.155	357.01
395.534	344.81
395.913	346.39
396.292	385.48
396.671	395.43
397.05	356.56
397.429	364.47
397.808	363.79
398.186	382.09
398.565	357.46
398.944	350.46
399.323	365.37
399.701	367.86
400.08	396.11
400.458	390
400.837	375.77
401.215	380.74
401.594	382.77
401.972	379.16
402.351	395.2
402.729	387.74
403.107	401.08
403.486	388.42
403.864	383
404.242	429.1
404.62	398.14
404.999	394.98
405.377	406.95
405.755	400.63
406.133	380.96
406.511	410.12
406.889	413.28
407.267	400.63
407.645	424.81
408.023	410.79
408.401	432.04
408.779	442.66
409.156	407.4
409.534	433.39
409.912	432.04
410.29	428.65
410.667	413.51
411.045	467.29
411.422	439.04
411.8	431.58
412.178	421.87
412.555	451.47
412.933	457.12
413.31	448.08
413.687	462.77
414.065	481.53
414.442	442.88
414.819	484.01
415.197	470.91
415.574	463.9
415.951	477.91
416.328	489.66
416.705	476.1
417.082	477.46
417.46	471.58
417.837	492.6
418.214	487.85
418.591	497.57
418.967	514.29
419.344	507.51
419.721	521.98
420.098	523.33
420.475	527.63
420.852	505.03
421.228	529.44
421.605	541.41
421.982	513.84
422.358	528.31
422.735	542.09
423.111	556.78
423.488	558.36
423.864	561.98
424.241	541.64
424.617	555.65
424.994	558.14
425.37	573.05
425.746	568.53
426.123	559.72
426.499	580.28
426.875	566.95
427.251	575.31
427.627	591.81
428.003	593.84
428.379	610.11
428.756	602.2
429.132	599.49
429.507	635.2
429.883	613.95
430.259	619.83
430.635	623.44
431.011	603.56
431.387	633.61
431.763	647.85
432.138	625.48
432.514	640.62
432.89	638.58
433.265	665.02
433.641	654.18
434.016	686.27
434.392	685.36
434.767	699.15
435.143	680.39
435.518	712.48
435.894	699.37
436.269	721.07
436.644	718.58
437.02	703.22
437.395	717.45
437.77	710.67
438.145	708.64
438.52	729.88
438.895	742.09
439.271	725.81
439.646	745.93
440.021	747.51
440.395	761.29
440.77	746.83
441.145	766.72
441.52	786.15
441.895	784.12
442.27	765.36
442.645	781.86
443.019	782.54
443.394	780.95
443.769	812.59
444.143	794.29
444.518	785.93
444.892	806.04
445.267	808.75
445.641	793.16
446.016	838.58
446.39	828.86
446.764	811.01
447.139	811.91
447.513	824.34
447.887	849.43
448.262	832.48
448.636	862.53
449.01	868.64
449.384	845.81
449.758	891.23
450.132	870.22
450.506	853.27
450.88	874.28
451.254	844
451.628	907.28
452.002	904.79
452.376	900.72
452.75	907.96
453.123	897.79
453.497	909.76
453.871	904.79
454.244	952.25
454.618	939.82
454.992	949.76
455.365	942.31
455.739	931.91
456.112	959.93
456.486	989.54
456.859	974.17
457.232	1007.61
457.606	996.32
457.979	1003.1
458.352	1034.73
458.725	1015.3
459.099	1008.52
459.472	1059.36
459.845	1045.13
460.218	1055.52
460.591	1084
460.964	1064.11
461.337	1098.46
461.71	1117.22
462.083	1109.08
462.456	1137.33
462.829	1127.84
463.201	1149.08
463.574	1153.83
463.947	1154.05
464.32	1182.98
464.692	1196.08
465.065	1156.31
465.438	1219.59
465.81	1258.68
466.183	1224.33
466.555	1246.93
466.928	1244.22
467.3	1244.22
467.672	1291.9
468.045	1329.19
468.417	1314.27
468.789	1309.08
469.161	1330.09
469.534	1335.97
469.906	1389.98
470.278	1368.28
470.65	1396.98
471.022	1422.07
471.394	1440.6
471.766	1486.25
472.138	1470.2
472.51	1528.51
472.882	1517.88
473.253	1503.19
473.625	1564.21
473.997	1582.97
474.369	1601.5
474.74	1629.97
475.112	1640.59
475.484	1674.49
475.855	1770.98
476.227	1736.41
476.598	1759.91
476.97	1753.58
477.341	1771.66
477.713	1835.39
478.084	1863.86
478.455	1910.64
478.827	1910.87
479.198	1986.35
479.569	1951.54
479.94	2038.55
480.311	2019.11
480.682	2082.39
481.053	2132.33
481.424	2168.49
481.795	2162.61
482.166	2194.25
482.537	2225.21
482.908	2288.03
483.279	2323.29
483.65	2358.09
484.021	2386.34
484.391	2412.1
484.762	2452.77
485.133	2476.95
485.503	2532.32
485.874	2548.14
486.244	2566.67
486.615	2643.73
486.985	2654.35
487.356	2732.99
487.726	2708.36
488.097	2781.13
488.467	2793.33
488.837	2871.97
489.207	2921.24
489.578	2994.91
489.948	2978.64
490.318	2982.93
490.688	3026.09
491.058	3088.92
491.428	3121.01
491.798	3176.37
492.168	3198.74
492.538	3210.04
492.908	3302.24
493.278	3285.07
493.648	3350.83
494.017	3340.89
494.387	3407.1
494.757	3410.72
495.126	3477.38
495.496	3487.32
495.866	3500.88
496.235	3567.55
496.605	3514.22
496.974	3597.15
497.344	3593.99
497.713	3645.96
498.082	3699.3
498.452	3719.41
498.821	3725.96
499.19	3724.15
499.559	3746.53
499.928	3791.27
500.298	3800.54
500.667	3824.49
501.036	3863.13
501.405	3888.67
501.774	3902.45
502.143	3934.09
502.512	3947.42
502.88	3994.65
503.249	3978.61
503.618	3979.74
503.987	3974.32
504.356	4054.31
504.724	4047.99
505.093	4083.92
505.462	4133.86
505.83	4161.43
506.199	4165.72
506.567	4210.24
506.936	4207.76
507.304	4202.78
507.672	4265.16
508.041	4299.73
508.409	4252.05
508.777	4316
509.145	4353.29
509.514	4288.21
509.882	4362.55
510.25	4323.46
510.618	4378.6
510.986	4407.98
511.354	4479.16
511.722	4475.55
512.09	4479.84
512.458	4461.54
512.826	4492.04
513.193	4532.04
513.561	4520.97
513.929	4571.14
514.297	4619.05
514.664	4640.74
515.032	4600.74
515.4	4713.51
515.767	4644.13
516.135	4667.63
516.502	4644.36
516.869	4749.44
517.237	4719.61
517.604	4711.7
517.972	4751.47
518.339	4775.43
518.706	4777.23
519.073	4801.41
519.44	4816.78
519.808	4870.11
520.175	4827.85
520.542	4928.64
520.909	4939.71
521.276	4875.99
521.643	5027.85
522.009	5005.48
522.376	5012.93
522.743	5026.27
523.11	5077.11
523.477	5084.12
523.843	5122.76
524.21	5146.49
524.577	5214.74
524.943	5137
525.31	5221.06
525.676	5231.91
526.043	5286.82
526.409	5306.71
526.776	5379.25
527.142	5283.21
527.508	5392.13
527.874	5369.99
528.241	5420.15
528.607	5472.58
528.973	5482.75
529.339	5500.15
529.705	5490.21
530.071	5582.41
530.437	5642.3
530.803	5636.19
531.169	5665.57
531.535	5623.54
531.901	5666.93
532.267	5702.63
532.632	5767.04
532.998	5730.2
533.364	5747.6
533.73	5847.04
534.095	5833.25
534.461	5855.85
534.826	5968.61
535.192	5908.05
535.557	5926.58
535.923	5948.95
536.288	5919.8
536.653	5964.09
537.019	6021.27
537.384	6041.38
537.749	6004.32
538.114	6102.62
538.479	6117.54
538.845	6156.18
539.21	6107.82
539.575	6148.27
539.94	6162.96
540.305	6228.95
540.67	6250.87
541.034	6250.19
541.399	6278.89
541.764	6293.58
542.129	6375.38
542.494	6335.38
542.858	6413.35
543.223	6368.83
543.587	6485.89
543.952	6453.8
544.316	6524.98
544.681	6491.09
545.045	6542.16
545.41	6573.34
545.774	6540.35
546.138	6552.55
546.503	6629.61
546.867	6679.56
547.231	6701.48
547.595	6663.29
547.959	6703.06
548.324	6801.59
548.688	6802.49
549.052	6778.08
549.416	6774.24
549.779	6824.86
550.143	6782.6
550.507	6860.79
550.871	6969.72
551.235	6887.69
551.599	6947.12
551.962	6984.86
552.326	7021.47
552.689	7028.7
553.053	7030.51
553.417	7081.81
553.78	7120.67
554.143	7080
554.507	7155.25
554.87	7105.31
555.234	7200.9
555.597	7162.48
555.96	7206.1
556.323	7277.28
556.686	7210.16
557.05	7291.97
557.413	7283.61
557.776	7333.32
558.139	7414.9
558.502	7420.1
558.865	7369.48
559.228	7444.51
559.59	7529.25
559.953	7486.99
560.316	7557.27
560.679	7502.81
561.041	7579.87
561.404	7590.04
561.767	7663.26
562.129	7654.22
562.492	7679.98
562.854	7687.89
563.217	7702.13
563.579	7705.07
563.941	7863.25
564.304	7833.42
564.666	7875.68
565.028	7848.34
565.39	7947.77
565.753	7968.79
566.115	7988
566.477	8014.21
566.839	8028.22
567.201	8049.24
567.563	8029.35
567.925	8071.61
568.287	8157.71
568.648	8147.77
569.01	8147.31
569.372	8235.9
569.734	8184.15
570.095	8313.19
570.457	8400.19
570.819	8330.36
571.18	8387.99
571.542	8410.36
571.903	8477.02
572.265	8503.91
572.626	8536.46
572.987	8584.59
573.349	8642.44
573.71	8731.93
574.071	8749.56
574.432	8814.19
574.794	8902.55
575.155	8914.3
575.516	8874.07
575.877	8972.83
576.238	9041.53
576.599	9108.42
576.96	9184.12
577.32	9166.72
577.681	9256.44
578.042	9397.22
578.403	9470.67
578.763	9538.92
579.124	9588.63
579.485	9727.84
579.845	9840.83
580.206	9859.36
580.566	9949.98
580.927	10179.58
581.287	10210.99
581.648	10309.52
582.008	10555.61
582.368	10639.68
582.728	10764.19
583.089	10846.45
583.449	11011.87
583.809	11176.84
584.169	11328.25
584.529	11522.14
584.889	11662.7
585.249	11817.95
585.609	11905.86
585.969	12159.86
586.329	12343.81
586.688	12543.36
587.048	12738.83
587.408	12915.78
587.768	13072.16
588.127	13247.07
588.487	13481.41
588.846	13902.19
589.206	13977.44
589.565	14270.99
589.925	14508.95
590.284	14665.11
590.643	15037.75
591.003	15274.81
591.362	15435.26
591.721	15698.53
592.08	16014.45
592.44	16228.23
592.799	16593.87
593.158	16782.57
593.517	17084.25
593.876	17327.41
594.235	17647.18
594.593	17950.45
594.952	18214.62
595.311	18418.68
595.67	18795.4
596.029	19170.75
596.387	19389.5
596.746	19700.46
597.104	19889.15
597.463	20120.11
597.822	20446.65
598.18	20699.3
598.538	21051.83
598.897	21396.23
599.255	21476
599.613	22106.95
599.972	22208.41
600.33	22432.14
600.688	22717.1
601.046	23080.71
601.404	23363.41
601.762	23638.21
602.12	24005.65
602.478	24124.3
602.836	24480.67
603.194	24628.01
603.552	24809.93
603.91	25076.59
604.268	25421.21
604.625	25540.3
604.983	25925.38
605.341	26071.36
605.698	26415.53
606.056	26709.09
606.413	26770.1
606.771	27058.23
607.128	27484.21
607.485	27507.26
607.843	27770.07
608.2	28080.35
608.557	28340.46
608.914	28544.74
609.272	28879.88
609.629	29001.23
609.986	29280.77
610.343	29392.86
610.7	29868.1
611.057	29996.46
611.414	30107.19
611.771	30253.85
612.127	30484.58
612.484	30635.54
612.841	30939.26
613.198	30981.06
613.554	31212.02
613.911	31553.48
614.267	31639.8
614.624	31787.14
614.98	32024.88
615.337	32242.27
615.693	32325.89
616.05	32439.78
616.406	32768.14
616.762	32718.65
617.118	32879.55
617.475	33002.03
617.831	33295.58
618.187	33420.55
618.543	33545.29
618.899	33846.07
619.255	33898.05
619.611	33928.78
619.967	34213.3
620.323	34389.11
620.678	34266.85
621.034	34456.23
621.39	34425.95
621.746	34542.78
622.101	35058.24
622.457	34897.35
622.812	35008.75
623.168	35234.74
623.523	35243.78
623.879	35376.2
624.234	35234.51
624.589	35457.56
624.945	35648.74
625.3	35611
625.655	35712.69
626.01	35799.24
626.365	35955.62
626.72	35838.56
627.075	35983.87
627.43	35989.75
627.785	36068.84
628.14	36227.03
628.495	36243.98
628.85	36379.34
629.205	36147.48
629.559	36395.16
629.914	36345.22
630.269	36477.19
630.623	36417.53
630.978	36410.07
631.332	36427.25
631.687	36756.51
632.041	36549.28
632.396	36747.47
632.75	36495.72
633.104	36665.66
633.459	36543.86
633.813	36713.57
634.167	36549.28
634.521	36687.58
634.875	36742.27
635.229	36673.12
635.583	36646.9
635.937	36766
636.291	36787.46
636.645	36733
636.999	36705.43
637.352	36882.38
637.706	36683.06
638.06	36942.49
638.413	36702.5
638.767	36676.73
639.121	36746.34
639.474	36610.52
639.828	36628.6
640.181	36690.74
640.534	36749.73
640.888	36564.65
641.241	36409.17
641.594	36528.71
641.947	36602.61
642.301	36642.16
642.654	36678.54
643.007	36576.62
643.36	36590.18
643.713	36403.29
644.066	36718.99
644.419	36436.29
644.771	36373.69
645.124	36083.08
645.477	35866.81
645.83	35855.51
646.182	35505.01
646.535	35509.98
646.888	35619.36
647.24	35296.43
647.593	35590.21
647.945	35483.32
648.298	35407.39
648.65	35293.27
649.002	35279.48
649.355	35340.05
649.707	35303.89
650.059	35474.51
650.411	35861.84
650.763	36004.66
651.115	36449.17
651.467	36176.63
651.819	36087.6
652.171	36163.3
652.523	36018.22
652.875	36034.72
653.227	35939.8
653.578	36285.33
653.93	36140.48
654.282	36042.17
654.633	36016.41
654.985	36018.67
655.337	35981.61
655.688	36032
656.039	36241.49
656.391	35872.91
656.742	35913.59
657.094	36092.57
657.445	36105
657.796	35933.7
658.147	35917.43
658.498	35931.44
658.849	35945.45
659.2	35949.97
659.551	35858.68
659.902	35977.54
660.253	35876.3
660.604	35976.86
660.955	35789.07
661.306	35841.28
661.656	35819.13
662.007	35719.47
662.358	35872.01
662.708	35888.51
663.059	35787.49
663.409	35628.17
663.76	35806.02
664.11	35719.47
664.461	35796.08
664.811	35793.59
665.161	35739.36
665.511	35696.42
665.862	35784.55
666.212	35949.29
666.562	35763.99
666.912	35662.75
667.262	35617.1
667.612	35852.12
667.962	35740.03
668.312	35628.17
668.662	35921.72
669.011	35758.79
669.361	35857.09
669.711	35735.52
670.06	35489.65
670.41	35592.92
670.76	35546.37
671.109	35644.44
671.459	35624.56
671.808	35520.61
672.157	35558.12
672.507	35345.69
672.856	35340.95
673.205	35540.04
673.554	35496.43
673.904	35447.84
674.253	35663.88
674.602	35554.95
674.951	35036.78
675.3	34804.92
675.649	35391.12
675.998	35255.75
676.346	35350.44
676.695	35441.96
677.044	35328.52
677.393	35241.97
677.741	35254.4
678.09	35270.67
678.438	35206.04
678.787	35182.99
679.135	35261.4
679.484	34969.89
679.832	35234.74
680.181	34871.81
680.529	35130.56
680.877	34964.46
681.225	34945.25
681.573	35154.06
681.922	34874.07
682.27	34745.94
682.618	34852.15
682.966	34850.79
683.314	34734.64
683.661	34725.15
684.009	34565.83
684.357	34420.07
684.705	34496.68
685.053	34447.41
685.4	34423.46
685.748	34241.32
686.095	34250.13
686.443	34156.8
686.79	34204.93
687.138	34152.51
687.485	34104.6
687.832	33971.49
688.18	34082
688.527	33808.33
688.874	33738.51
689.221	33811.95
689.568	33675
689.915	33577.83
690.262	33583.71
690.609	33591.16
690.956	33476.14
691.303	33410.15
691.65	33186.2
691.997	33243.38
692.344	32947.11
692.69	33016.04
693.037	33005.87
693.383	32811.75
693.73	32924.52
694.077	32691.08
694.423	32674.58
694.769	32621.92
695.116	32529.5
695.462	32560.68
695.808	32327.7
696.155	32439.56
696.501	32174.7
696.847	32268.26
697.193	31988.27
697.539	32046.35
697.885	31814.26
698.231	31800.48
698.577	31877.09
698.923	31610.43
699.269	31524.1
699.614	31516.42
699.96	31440.71
700.306	31350.77
700.651	31255.86
700.997	31239.59
701.342	31187.61
701.688	30981.52
702.033	30891.57
702.379	30794.4
702.724	30693.16
703.069	30824.01
703.415	30602.99
703.76	30549.66
704.105	30542.43
704.45	30390.8
704.795	30373.17
705.14	30290.69
705.485	30198.26
705.83	30094.31
706.175	30117.81
706.52	30057.47
706.865	29932.5
707.209	29893.86
707.554	29762.56
707.899	29777.03
708.243	29672.17
708.588	29679.18
708.932	29463.59
709.277	29509.24
709.621	29323.48
709.966	29342.01
710.31	29314.44
710.654	29236.03
710.998	29197.16
711.342	29200.77
711.687	29110.15
712.031	28937.28
712.375	28761.01
712.719	28946.99
713.063	28853.44
713.407	28906.77
713.75	28696.83
714.094	28634.01
714.438	28699.32
714.782	28660.22
715.125	28395.37
715.469	28551.98
715.812	28353.34
716.156	28173
716.499	28138.2
716.843	28195.15
717.186	28124.87
717.53	28225.66
717.873	28173.68
718.216	27996.74
718.559	27952.89
718.902	27789.28
719.246	27975.49
719.589	27757.42
719.932	27719.45
720.275	27611.89
720.617	27688.95
720.96	27674.94
721.303	27655.05
721.646	27494.15
721.989	27343.42
722.331	27531.44
722.674	27382.29
723.016	27343.87
723.359	27291.44
723.701	27297.77
724.044	27111.34
724.386	27036.53
724.729	27175.06
725.071	27028.63
725.413	27109.98
725.755	27016.42
726.097	26927.39
726.439	26746.15
726.782	26890.55
727.124	26971.23
727.465	26690.56
727.807	26750.21
728.149	26749.31
728.491	26540.5
728.833	26725.36
729.175	26492.82
729.516	26552.25
729.858	26521.97
730.199	26529.2
730.541	26551.12
730.882	26394.29
731.224	26479.26
731.565	26275.2
731.906	26208.53
732.248	26323.56
732.589	26056.67
732.93	26075.88
733.271	26140.74
733.612	26090.12
733.953	26135.77
734.294	25979.61
734.635	25921.54
734.976	25990.69
735.317	25822.33
735.658	25798.15
735.999	25910.24
736.339	25732.16
736.68	25891.03
737.021	25729.45
737.361	25600.64
737.702	25809.67
738.042	25622.11
738.383	25708.89
738.723	25646.06
739.063	25643.35
739.404	25628.21
739.744	25511.38
740.084	25340.53
740.424	25298.05
740.764	25368.1
741.104	25418.95
741.444	25296.24
741.784	25117.26
742.124	25218.28
742.464	25221.44
742.804	25178.5
743.143	25104.38
743.483	25093.54
743.823	24975.35
744.162	25053.54
744.502	24991.39
744.841	24977.38
745.181	25084.95
745.52	24892.18
745.86	24919.3
746.199	24839.08
746.538	24796.14
746.877	24885.86
747.216	24873.88
747.556	24655.58
747.895	24624.62
748.234	24629.37
748.573	24558.63
748.911	24526.77
749.25	24550.27
749.589	24432.31
749.928	24448.35
750.267	24389.15
750.605	24295.82
750.944	24224.41
751.283	24136.05
751.621	24295.59
751.96	24086.56
752.298	24183.95
752.636	24119.32
752.975	24018.08
753.313	23890.63
753.651	24021.47
753.989	23906
754.327	23904.41
754.666	23699.67
755.004	23882.72
755.342	23742.16
755.679	23716.85
756.017	23612.67
756.355	23633.46
756.693	23507.59
757.031	23624.42
757.368	23378.55
757.706	23326.12
758.044	23240.48
758.381	23420.13
758.719	23184.88
759.056	23250.19
759.394	23248.61
759.731	22979.69
760.068	22894.72
760.405	22912.58
760.743	22835.52
761.08	22852.92
