Data from hue_330_FLMS001491_55.txt Node
Date: Mon Feb 06 15:45:35 GMT 2017
User: dcchb
Spectrometer: FLMS00149
Trigger mode: 0
Integration Time (sec): 2.000000E-2
Scans to average: 10
Electric dark correction enabled: true
Nonlinearity correction enabled: false
Boxcar width: 0
XAxis mode: Wavelengths
Number of Pixels in Spectrum: 2048
>>>>>Begin Spectral Data<<<<<
341.393	-10.07
341.776	-10.07
342.16	-10.07
342.543	-49.17
342.927	-80.13
343.31	-72.44
343.693	-74.7
344.077	-86.23
344.46	-56.85
344.843	-60.01
345.226	-43.74
345.61	-35.15
345.993	-14.59
346.376	-2.39
346.759	20.66
347.142	22.25
347.525	58.63
347.908	56.37
348.291	72.41
348.674	92.75
349.057	123.03
349.44	140.43
349.823	135.69
350.206	159.19
350.588	186.08
350.971	201.9
351.354	225.4
351.737	220.43
352.119	251.62
352.502	269.7
352.884	271.96
353.267	285.06
353.65	288
354.032	290.71
354.414	305.4
354.797	312.18
355.179	321.67
355.562	330.71
355.944	322.35
356.326	316.47
356.709	354.44
357.091	354.21
357.473	343.37
357.855	339.3
358.238	337.72
358.62	341.78
359.002	329.58
359.384	330.71
359.766	348.34
360.148	312.86
360.53	341.33
360.912	348.56
361.294	331.39
361.676	332.29
362.057	312.18
362.439	335.23
362.821	324.61
363.203	322.58
363.584	317.15
363.966	342.24
364.348	324.38
364.729	334.78
365.111	336.14
365.493	307.21
365.874	312.18
366.256	321.22
366.637	309.92
367.019	310.83
367.4	307.66
367.781	318.06
368.163	309.02
368.544	310.6
368.925	307.66
369.306	329.81
369.688	334.1
370.069	313.31
370.45	301.79
370.831	330.71
371.212	311.96
371.593	324.16
371.974	314.67
372.355	309.7
372.736	321.45
373.117	340.43
373.498	316.7
373.879	327.77
374.26	320.09
374.641	290.26
375.021	315.12
375.402	322.8
375.783	311.5
376.163	319.19
376.544	337.72
376.925	309.92
377.305	333.65
377.686	311.5
378.066	317.83
378.447	316.7
378.827	326.87
379.208	326.19
379.588	351.28
379.968	338.85
380.349	329.81
380.729	355.34
381.109	351.28
381.489	332.75
381.87	328
382.25	323.71
382.63	335.46
383.01	330.71
383.39	352.63
383.77	350.37
384.15	345.85
384.53	331.84
384.91	348.11
385.29	344.72
385.67	352.63
386.049	348.56
386.429	337.94
386.809	332.52
387.189	334.55
387.568	346.98
387.948	356.47
388.328	351.05
388.707	346.3
389.087	359.41
389.466	360.09
389.846	347.43
390.225	361.45
390.605	349.02
390.984	361.22
391.363	363.03
391.743	366.64
392.122	367.55
392.501	366.42
392.881	388.79
393.26	387.43
393.639	358.28
394.018	378.85
394.397	393.76
394.776	379.3
395.155	364.61
395.534	392.86
395.913	383.82
396.292	378.39
396.671	387.66
397.05	396.25
397.429	412.97
397.808	366.19
398.186	393.53
398.565	378.62
398.944	384.04
399.323	393.99
399.701	401.22
400.08	384.72
400.458	395.57
400.837	407.09
401.215	410.94
401.594	408.68
401.972	421.78
402.351	405.96
402.729	419.07
403.107	420.2
403.486	431.05
403.864	394.21
404.242	424.49
404.62	436.02
404.999	434.21
405.377	429.69
405.755	437.38
406.133	422.01
406.511	444.38
406.889	434.44
407.267	441.44
407.645	463.82
408.023	467.43
408.401	454.55
408.779	454.55
409.156	470.14
409.534	475.11
409.912	465.62
410.29	497.03
410.667	494.55
411.045	487.77
411.422	488.9
411.8	478.05
412.178	495.91
412.555	494.32
412.933	521.22
413.31	530.93
413.687	512.85
414.065	549.24
414.442	515.34
414.819	524.6
415.197	551.27
415.574	569.12
415.951	532.97
416.328	581.33
416.705	579.97
417.082	569.35
417.46	567.77
417.837	585.17
418.214	593.3
418.591	559.41
418.967	614.32
419.344	596.69
419.721	607.54
420.098	628.56
420.475	634.21
420.852	630.14
421.228	619.97
421.605	651.61
421.982	656.8
422.358	660.87
422.735	660.19
423.111	661.32
423.488	681.44
423.864	682.11
424.241	694.09
424.617	684.15
424.994	692.51
425.37	699.52
425.746	708.78
426.123	735.22
426.499	693.87
426.875	729.35
427.251	724.83
427.627	742.45
428.003	750.14
428.379	754.2
428.756	771.6
429.132	746.29
429.507	782.45
429.883	786.74
430.259	795.56
430.635	802.11
431.011	811.38
431.387	827.65
431.763	821.55
432.138	836.46
432.514	840.98
432.89	853.86
433.265	862.45
433.641	885.95
434.016	889.79
434.392	870.81
434.767	909.23
435.143	904.26
435.518	881.88
435.894	909.23
436.269	929.79
436.644	921.66
437.02	956.68
437.395	969.34
437.77	956.68
438.145	966.63
438.52	955.55
438.895	1014.99
439.271	969.79
439.646	990.81
440.021	1003.46
440.395	1000.52
440.77	996
441.145	1034.42
441.52	1023.57
441.895	1008.21
442.27	1062.9
442.645	1030.35
443.019	1044.37
443.394	1056.79
443.769	1050.24
444.143	1050.47
444.518	1053.4
444.892	1064.48
445.267	1075.78
445.641	1070.13
446.016	1083.69
446.39	1097.92
446.764	1111.71
447.139	1120.07
447.513	1091.14
447.887	1124.59
448.262	1122.1
448.636	1109.22
449.01	1146.96
449.384	1141.54
449.758	1161.2
450.132	1157.13
450.506	1139.05
450.88	1141.76
451.254	1159.39
451.628	1174.98
452.002	1203.68
452.376	1198.94
452.75	1188.99
453.123	1199.39
453.497	1208.2
453.871	1217.69
454.244	1235.55
454.618	1266.96
454.992	1250.69
455.365	1257.24
455.739	1302.21
456.112	1281.65
456.486	1281.65
456.859	1299.05
457.232	1303.79
457.606	1322.55
457.979	1335.66
458.352	1319.61
458.725	1337.69
459.099	1350.57
459.472	1361.87
459.845	1403.23
460.218	1424.69
460.591	1410.46
460.964	1408.88
461.337	1471.92
461.71	1468.31
462.083	1493.17
462.456	1464.47
462.829	1454.07
463.201	1512.83
463.574	1486.16
463.947	1506.05
464.32	1550.57
464.692	1563.9
465.065	1579.27
465.438	1584.24
465.81	1611.58
466.183	1608.64
466.555	1621.3
466.928	1609.77
467.3	1659.72
467.672	1672.6
468.045	1674.63
468.417	1701.75
468.789	1704.69
469.161	1714.63
469.534	1769.77
469.906	1793.5
470.278	1792.37
470.65	1822.65
471.022	1822.65
471.394	1861.97
471.766	1841.86
472.138	1891.57
472.51	1863.78
472.882	1957.56
473.253	1969.31
473.625	1960.5
473.997	1978.58
474.369	1984.68
474.74	2012.25
475.112	2082.76
475.484	2085.47
475.855	2107.39
476.227	2111.46
476.598	2180.38
476.97	2226.48
477.341	2238.46
477.713	2262.41
478.084	2263.77
478.455	2300.15
478.827	2306.48
479.198	2399.36
479.569	2395.52
479.94	2435.97
480.311	2475.29
480.682	2490.88
481.053	2553.25
481.424	2583.08
481.795	2618.34
482.166	2630.31
482.537	2668.5
482.908	2694.04
483.279	2745.11
483.65	2797.31
484.021	2834.6
484.391	2860.81
484.762	2874.6
485.133	2914.6
485.503	2891.77
485.874	2982.39
486.244	2991.43
486.615	3011.77
486.985	3097.64
487.356	3096.51
487.726	3114.14
488.097	3169.06
488.467	3173.35
488.837	3288.15
489.207	3302.84
489.578	3328.15
489.948	3343.29
490.318	3424.42
490.688	3420.12
491.058	3454.25
491.428	3465.32
491.798	3536.28
492.168	3564.3
492.538	3576.05
492.908	3607.24
493.278	3676.39
493.648	3651.75
494.017	3724.07
494.387	3732.43
494.757	3744.86
495.126	3760.45
495.496	3781.02
495.866	3813.56
496.235	3821.92
496.605	3872.99
496.974	3903.73
497.344	3955.25
497.713	3917.96
498.082	3965.64
498.452	3986.89
498.821	3969.94
499.19	4031.41
499.559	4033.21
499.928	4078.64
500.298	4100.1
500.667	4149.14
501.036	4115.24
501.405	4152.76
501.774	4174.23
502.143	4186.88
502.512	4177.62
502.88	4238.18
503.249	4258.29
503.618	4226.2
503.987	4294.22
504.356	4326.31
504.724	4322.02
505.093	4304.84
505.462	4332.64
505.83	4359.08
506.199	4395.46
506.567	4400.89
506.936	4444.73
507.304	4465.74
507.672	4458.06
508.041	4525.86
508.409	4494.9
508.777	4559.75
509.145	4564.95
509.514	4582.8
509.882	4573.76
510.25	4564.27
510.618	4620.54
510.986	4616.25
511.354	4622.35
511.722	4631.62
512.09	4680.2
512.458	4672.29
512.826	4718.62
513.193	4752.74
513.561	4760.65
513.929	4723.59
514.297	4826.41
514.664	4800.88
515.032	4797.49
515.4	4857.15
515.767	4876.58
516.135	4910.93
516.502	4838.16
516.869	4921.55
517.237	4912.29
517.604	4890.59
517.972	4960.87
518.339	4947.09
518.706	4926.3
519.073	4972.17
519.44	4959.29
519.808	5035.67
520.175	5020.76
520.542	5074.09
520.909	5086.74
521.276	5074.99
521.643	5103.47
522.009	5175.1
522.376	5179.17
522.743	5176.01
523.11	5202
523.477	5267.76
523.843	5244.03
524.21	5276.34
524.577	5359.05
524.943	5354.76
525.31	5363.57
525.676	5420.07
526.043	5474.76
526.409	5451.71
526.776	5486.96
527.142	5514.08
527.508	5557.47
527.874	5572.38
528.241	5614.64
528.607	5634.75
528.973	5693.51
529.339	5677.69
529.705	5676.33
530.071	5750.23
530.437	5756.11
530.803	5746.61
531.169	5825.71
531.535	5816.9
531.901	5824.35
532.267	5863.22
532.632	5897.8
532.998	5904.58
533.364	5930.79
533.73	5985.93
534.095	6015.08
534.461	6047.85
534.826	6035.65
535.192	6074.06
535.557	6152.71
535.923	6121.52
536.288	6127.62
536.653	6186.15
537.019	6094.4
537.384	6168.3
537.749	6288.3
538.114	6297.11
538.479	6243.78
538.845	6303.44
539.21	6292.81
539.575	6344.11
539.94	6350.21
540.305	6408.07
540.67	6424.79
541.034	6468.4
541.399	6485.58
541.764	6511.57
542.129	6542.07
542.494	6556.76
542.858	6540.49
543.223	6618
543.587	6643.54
543.952	6654.39
544.316	6683.09
544.681	6706.82
545.045	6752.92
545.41	6825.68
545.774	6817.09
546.138	6797.89
546.503	6860.94
546.867	6857.55
547.231	6895.96
547.595	6913.36
547.959	6850.77
548.324	6921.05
548.688	6992.68
549.052	6953.81
549.416	7081.72
549.779	7035.85
550.143	7033.13
550.507	7073.13
550.871	7095.96
551.235	7036.3
551.599	7185.9
551.962	7175.5
552.326	7241.94
552.689	7311.55
553.053	7148.84
553.417	7183.86
553.78	7347.25
554.143	7295.95
554.507	7336.4
554.87	7323.52
555.234	7397.87
555.597	7406.46
555.96	7409.17
556.323	7396.29
556.686	7446.91
557.05	7492.33
557.413	7539.11
557.776	7449.62
558.139	7594.25
558.502	7551.09
558.865	7583.18
559.228	7627.02
559.59	7662.5
559.953	7633.8
560.316	7723.29
560.679	7753.57
561.041	7802.83
561.404	7773.23
561.767	7848.48
562.129	7867.24
562.492	7935.94
562.854	7908.82
563.217	7929.61
563.579	7958.31
563.941	8003.73
564.304	7978.42
564.666	8072.88
565.028	8056.84
565.39	8092.54
565.753	8175.25
566.115	8153.33
566.477	8230.62
566.839	8179.54
567.201	8211.63
567.563	8287.56
567.925	8361.91
568.287	8344.74
568.648	8336.38
569.01	8407.11
569.372	8453.89
569.734	8410.73
570.095	8435.81
570.457	8544.06
570.819	8563.72
571.18	8600.55
571.542	8617.95
571.903	8729.36
572.265	8721.68
572.626	8753.99
572.987	8771.62
573.349	8844.84
573.71	8884.16
574.071	8939.3
574.432	8985.85
574.794	9086.19
575.155	9094.1
575.516	9189.91
575.877	9147.2
576.238	9280.53
576.599	9362.56
576.96	9392.39
577.32	9487.98
577.681	9577.47
578.042	9634.42
578.403	9750.12
578.763	9877.58
579.124	9892.04
579.485	10047.07
579.845	10185.37
580.206	10201.86
580.566	10285.03
580.927	10408.64
581.287	10596.2
581.648	10754.62
582.008	10847.72
582.368	10964.33
582.728	11120.71
583.089	11261.05
583.449	11350.99
583.809	11597.53
584.169	11750.98
584.529	11889.5
584.889	12227.8
585.249	12305.31
585.609	12364.75
585.969	12719.99
586.329	12926.76
586.688	13066.42
587.048	13312.29
587.408	13482.23
587.768	13752.51
588.127	13939.85
588.487	14197.01
588.846	14450.34
589.206	14629.09
589.565	14853.95
589.925	15216.2
590.284	15453.03
590.643	15764.66
591.003	16055.04
591.362	16300.91
591.721	16654.58
592.08	16780.22
592.44	17195.35
592.799	17461.11
593.158	17730.48
593.517	17930.25
593.876	18283.01
594.235	18542.44
594.593	18792.6
594.952	19241.4
595.311	19387.61
595.67	19838.22
596.029	20109.63
596.387	20448.15
596.746	20842.49
597.104	20887.69
597.463	21189.37
597.822	21531.51
598.18	21789.36
598.538	22151.83
598.897	22531.03
599.255	22575.32
599.613	23206.72
599.972	23318.58
600.33	23582.3
600.688	23783.65
601.046	24170.08
601.404	24626.34
601.762	24803.29
602.12	25291.41
602.478	25403.72
602.836	25708.58
603.194	25816.82
603.552	26131.62
603.91	26389.46
604.268	26769.79
604.625	26834.65
604.983	27321.19
605.341	27358.48
605.698	27679.15
606.056	28044.11
606.413	28308.73
606.771	28463.31
607.128	28832.79
607.485	28904.2
607.843	29268.26
608.2	29445.65
608.557	29795.7
608.914	29821.69
609.272	30195.01
609.629	30288.12
609.986	30790.25
610.343	30844.49
610.7	31259.39
611.057	31237.02
611.414	31497.8
611.771	31704.8
612.127	32004.91
612.484	32233.6
612.841	32487.61
613.198	32626.36
613.554	32739.35
613.911	33102.73
614.267	33234.25
614.624	33416.62
614.98	33585.2
615.337	33769.83
615.693	33828.81
616.05	34023.61
616.406	34230.84
616.762	34350.16
617.118	34585.86
617.475	34634.89
617.831	34782.46
618.187	35003.02
618.543	35327.98
618.899	35392.39
619.255	35417.25
619.611	35433.97
619.967	35879.38
620.323	36041.64
620.678	36042.54
621.034	36033.5
621.39	36180.39
621.746	36244.12
622.101	36659.47
622.457	36487.95
622.812	36617.22
623.168	36845.68
623.523	36937.88
623.879	37014.72
624.234	36833.48
624.589	37020.37
624.945	37183.3
625.3	37377.2
625.655	37471.43
626.01	37513.69
626.365	37730.41
626.72	37607.02
627.075	37724.08
627.43	37715.94
627.785	37785.09
628.14	37751.2
628.495	38015.14
628.85	37989.61
629.205	37985.99
629.559	38329.03
629.914	38089.94
630.269	38319.77
630.623	38077.06
630.978	38114.35
631.332	38241.13
631.687	38416.94
632.041	38267.57
632.396	38402.93
632.75	38369.26
633.104	38474.57
633.459	38281.58
633.813	38249.94
634.167	38518.63
634.521	38425.3
634.875	38517.73
635.229	38373.33
635.583	38344.85
635.937	38474.57
636.291	38416.72
636.645	38463.49
636.999	38396.15
637.352	38533.55
637.706	38307.34
638.06	38474.79
638.413	38416.04
638.767	38420.78
639.121	38421.24
639.474	38271.18
639.828	38217.85
640.181	38292.43
640.534	38367.68
640.888	38457.84
641.241	38174.24
641.594	38253.1
641.947	38445.87
642.301	38334.01
642.654	38370.39
643.007	38377.17
643.36	38298.3
643.713	38366.77
644.066	38431.18
644.419	38195.03
644.771	37983.96
645.124	37755.72
645.477	37654.48
645.83	37354.14
646.182	37363.64
646.535	37241.15
646.888	37248.61
647.24	37125.22
647.593	37310.76
647.945	37241.15
648.298	36983.76
648.65	37081.16
649.002	37009.52
649.355	37154.15
649.707	37098.56
650.059	37215.17
650.411	37731.31
650.763	37727.92
651.115	38062.83
651.467	37990.51
651.819	37998.42
652.171	37946.9
652.523	37919.55
652.875	37881.81
653.227	37585.55
653.578	37970.85
653.93	37787.35
654.282	37661.71
654.633	37707.81
654.985	37652.67
655.337	37868.03
655.688	37685.66
656.039	37778.99
656.391	37559.79
656.742	37651.31
657.094	37753.23
657.445	37743.06
657.796	37716.62
658.147	37613.57
658.498	37593.01
658.849	37607.47
659.2	37644.98
659.551	37546
659.902	37704.19
660.253	37554.37
660.604	37449.06
660.955	37498.55
661.306	37624.65
661.656	37566.57
662.007	37483.18
662.358	37559.34
662.708	37555.27
663.059	37542.39
663.409	37351.89
663.76	37587.13
664.11	37527.25
664.461	37586
664.811	37624.42
665.161	37461.03
665.511	37406.35
665.862	37524.54
666.212	37533.58
666.562	37570.86
666.912	37512.11
667.262	37468.49
667.612	37393.92
667.962	37522.5
668.312	37433.46
668.662	37634.36
669.011	37455.16
669.361	37344.2
669.711	37499.23
670.06	37349.4
670.41	37187.37
670.76	37282.73
671.109	37392.11
671.459	37399.12
671.808	37253.58
672.157	37498.32
672.507	37122.06
672.856	37237.31
673.205	37285.67
673.554	37466.68
673.904	37201.15
674.253	37426.46
674.602	37167.26
674.951	36735.86
675.3	36619.02
675.649	37216.3
675.998	37071.89
676.346	37034.15
676.695	37221.27
677.044	36870.77
677.393	37062.63
677.741	37056.3
678.09	36994.38
678.438	36873.71
678.787	36946.25
679.135	37000.48
679.484	36710.77
679.832	36824.44
680.181	36811.33
680.529	36829.41
680.877	36719.36
681.225	36700.83
681.573	37022.85
681.922	36582.87
682.27	36486.15
682.618	36564.79
682.966	36508.29
683.314	36508.29
683.661	36296.32
684.009	36261.07
684.357	36299.26
684.705	36094.97
685.053	36179.49
685.4	35912.37
685.748	35859.72
686.095	35993.28
686.443	35877.8
686.79	35803.68
687.138	35866.95
687.485	35922.09
687.832	35802.32
688.18	35736.79
688.527	35579.95
688.874	35559.16
689.221	35378.15
689.568	35432.39
689.915	35313.97
690.262	35318.72
690.609	35266.52
690.956	35098.39
691.303	35020.2
691.65	34788.34
691.997	34795.79
692.344	34639.41
692.69	34747.43
693.037	34683.48
693.383	34355.13
693.73	34485.52
694.077	34323.49
694.423	34322.81
694.769	34217.28
695.116	34181.35
695.462	34062.93
695.808	33963.95
696.155	34033.55
696.501	33831.98
696.847	33768.02
697.193	33501.82
697.539	33724.18
697.885	33321.03
698.231	33422.04
698.577	33344.31
698.923	33350.86
699.269	33127.36
699.614	32994.26
699.96	32957.65
700.306	32994.26
700.651	32879.91
700.997	32773.47
701.342	32715.4
701.688	32688.28
702.033	32536.42
702.379	32449.19
702.724	32504.78
703.069	32456.19
703.415	32143.66
703.76	32118.12
704.105	32260.04
704.45	32099.82
704.795	31867.96
705.14	31765.82
705.485	31768.3
705.83	31639.72
706.175	31675.42
706.52	31630.91
706.865	31442.89
707.209	31365.83
707.554	31334.42
707.899	31498.25
708.243	31259.84
708.588	31313.4
708.932	31035.67
709.277	30910.02
709.621	31007.87
709.966	30774.43
710.31	30777.14
710.654	30611.95
710.998	30742.34
711.342	30658.95
711.687	30562.91
712.031	30481.11
712.375	30355.68
712.719	30458.73
713.063	30390.94
713.407	30376.25
713.75	30200.89
714.094	30159.31
714.438	29996.82
714.782	29967.67
715.125	29934.68
715.469	30033.43
715.812	29737.85
716.156	29660.56
716.499	29807.45
716.843	29706.89
717.186	29555.03
717.53	29715.48
717.873	29592.09
718.216	29509.83
718.559	29344.41
718.902	29252.44
719.246	29403.85
719.589	29299.22
719.932	29091.31
720.275	29170.18
720.617	29007.92
720.96	29021.03
721.303	29113.23
721.646	28988.49
721.989	28897.64
722.331	29047.47
722.674	28804.31
723.016	28774.94
723.359	28705.11
723.701	28813.13
724.044	28604.54
724.386	28449.29
724.729	28566.35
725.071	28467.37
725.413	28460.37
725.755	28373.59
726.097	28252.46
726.439	28148.74
726.782	28248.62
727.124	28369.97
727.465	28308.28
727.807	28087.95
728.149	28151
728.491	28069.19
728.833	28039.14
729.175	27980.83
729.516	27820.84
729.858	27842.3
730.199	27997.33
730.541	27763.66
730.882	27738.35
731.224	27930.44
731.565	27666.26
731.906	27621.97
732.248	27706.49
732.589	27555.76
732.93	27441.86
733.271	27422.43
733.612	27453.61
733.953	27503.33
734.294	27246.16
734.635	27290.68
734.976	27302.43
735.317	27150.8
735.658	27190.12
735.999	27195.32
736.339	27169.55
736.68	27083.91
737.021	27010.69
737.361	26928.43
737.702	27020.63
738.042	26862.9
738.383	26807.53
738.723	26984.25
739.063	26881.43
739.404	26805.04
739.744	26782.45
740.084	26670.81
740.424	26607.08
740.764	26641.88
741.104	26772.28
741.444	26536.35
741.784	26548.1
742.124	26463.36
742.464	26364.83
742.804	26493.87
743.143	26246.87
743.483	26322.12
743.823	26210.26
744.162	26165.29
744.502	26251.39
744.841	26096.36
745.181	26314.89
745.52	26196.47
745.86	26125.74
746.199	26090.94
746.538	26016.14
746.877	26124.84
747.216	26101.79
747.556	25834.9
747.895	25931.62
748.234	25788.35
748.573	25841
748.911	25792.64
749.25	25574.79
749.589	25720.78
749.928	25539.99
750.267	25662.7
750.605	25556.49
750.944	25497.51
751.283	25408.47
751.621	25438.3
751.96	25378.19
752.298	25372.09
752.636	25345.42
752.975	25162.15
753.313	25147.46
753.651	25239.89
753.989	25024.07
754.327	25029.5
754.666	24894.36
755.004	24940.01
755.342	24759
755.679	24844.87
756.017	24722.39
756.355	24726.91
756.693	24637.87
757.031	24633.12
757.368	24505.22
757.706	24542.5
758.044	24409.17
758.381	24420.25
758.719	24228.39
759.056	24271.78
759.394	24262.51
759.731	23996.98
