Data from hue_180_FLMS001491_00025.txt Node
Date: Tue Feb 07 16:46:46 GMT 2017
User: dcchb
Spectrometer: FLMS00149
Trigger mode: 0
Integration Time (sec): 2.000000E-2
Scans to average: 10
Electric dark correction enabled: true
Nonlinearity correction enabled: false
Boxcar width: 0
XAxis mode: Wavelengths
Number of Pixels in Spectrum: 2048
>>>>>Begin Spectral Data<<<<<
341.393	-8.08
341.776	-8.08
342.16	-8.08
342.543	-57.34
342.927	-68.87
343.31	-77.68
343.693	-65.25
344.077	-53.5
344.46	-65.03
344.843	-60.73
345.226	-42.43
345.61	-34.74
345.993	-29.55
346.376	-17.8
346.759	10.45
347.142	29.66
347.525	46.61
347.908	69.21
348.291	72.37
348.674	87.06
349.057	131.35
349.44	127.51
349.823	142.2
350.206	165.48
350.588	203.67
350.971	217.23
351.354	212.03
351.737	220.39
352.119	233.72
352.502	252.48
352.884	263.78
353.267	242.54
353.65	288.41
354.032	302.2
354.414	299.03
354.797	320.95
355.179	315.75
355.562	331.57
355.944	325.92
356.326	333.38
356.709	317.34
357.091	326.38
357.473	325.92
357.855	328.41
358.238	348.3
358.62	322.76
359.002	333.61
359.384	341.52
359.766	337.45
360.148	337.9
360.53	338.58
360.912	337.67
361.294	327.51
361.676	330.9
362.057	339.48
362.439	309.43
362.821	314.85
363.203	329.77
363.584	335.19
363.966	318.92
364.348	325.7
364.729	322.08
365.111	302.42
365.493	319.82
365.874	323.21
366.256	299.71
366.637	314.17
367.019	324.34
367.4	301.07
367.781	308.97
368.163	306.04
368.544	319.14
368.925	304.68
369.306	303.33
369.688	297.68
370.069	315.75
370.45	331.57
370.831	313.95
371.212	325.02
371.593	302.42
371.974	306.26
372.355	298.58
372.736	308.97
373.117	308.52
373.498	320.05
373.879	308.52
374.26	303.33
374.641	294.51
375.021	313.27
375.402	315.53
375.783	326.6
376.163	324.12
376.544	334.96
376.925	306.26
377.305	321.4
377.686	329.77
378.066	301.52
378.447	329.54
378.827	329.54
379.208	318.01
379.588	321.4
379.968	301.07
380.349	312.59
380.729	315.08
381.109	334.06
381.489	341.06
381.87	338.13
382.25	336.09
382.63	341.29
383.01	332.25
383.39	331.35
383.77	334.28
384.15	342.42
384.53	334.74
384.91	337.45
385.29	355.53
385.67	350.56
386.049	343.1
386.429	330.9
386.809	333.38
387.189	345.36
387.568	319.14
387.948	350.1
388.328	349.2
388.707	357.79
389.087	359.6
389.466	365.92
389.846	333.38
390.225	377.22
390.605	361.18
390.984	364.34
391.363	347.84
391.743	353.04
392.122	354.85
392.501	345.36
392.881	371.57
393.26	380.84
393.639	360.95
394.018	356.88
394.397	362.98
394.776	359.82
395.155	386.71
395.534	404.34
395.913	365.92
396.292	364.11
396.671	380.16
397.05	381.97
397.429	403.89
397.808	389.88
398.186	391.23
398.565	392.14
398.944	387.39
399.323	382.42
399.701	399.82
400.08	382.19
400.458	419.71
400.837	413.15
401.215	383.55
401.594	413.15
401.972	414.51
402.351	376.54
402.729	414.06
403.107	404.11
403.486	414.73
403.864	418.58
404.242	415.41
404.62	434.17
404.999	417.67
405.377	426.71
405.755	431.01
406.133	428.52
406.511	446.6
406.889	449.08
407.267	433.94
407.645	456.54
408.023	454.96
408.401	455.19
408.779	476.43
409.156	507.16
409.534	479.37
409.912	497.22
410.29	489.31
410.667	485.02
411.045	514.62
411.422	518.69
411.8	501.29
412.178	525.92
412.555	539.03
412.933	528.63
413.31	530.44
413.687	560.72
414.065	548.52
414.442	547.61
414.819	556.65
415.197	561.62
415.574	610.44
415.951	585.13
416.328	606.37
416.705	599.14
417.082	623.99
417.46	638.68
417.837	623.77
418.214	629.42
418.591	658.57
418.967	641.4
419.344	670.32
419.721	661.06
420.098	662.86
420.475	678.68
420.852	688.63
421.228	685.24
421.605	708.06
421.982	713.48
422.358	725.24
422.735	732.47
423.111	746.03
423.488	750.55
423.864	755.06
424.241	756.87
424.617	773.6
424.994	776.76
425.37	815.18
425.746	811.33
426.123	822.18
426.499	805.69
426.875	842.75
427.251	854.05
427.627	858.79
428.003	903.54
428.379	906.7
428.756	893.14
429.132	923.2
429.507	935.63
429.883	928.62
430.259	934.04
430.635	971.78
431.011	957.09
431.387	993.7
431.763	998.67
432.138	1008.17
432.514	1022.18
432.89	999.13
433.265	1022.18
433.641	1062.85
434.016	1084.77
434.392	1082.97
434.767	1136.52
435.143	1134.94
435.518	1139.01
435.894	1162.96
436.269	1176.52
436.644	1198.67
437.02	1202.51
437.395	1208.16
437.77	1249.97
438.145	1257.88
438.52	1282.96
438.895	1302.4
439.271	1308.72
439.646	1352.11
440.021	1370.42
440.395	1361.15
440.77	1352.56
441.145	1390.53
441.52	1417.65
441.895	1414.48
442.27	1437.76
442.645	1443.18
443.019	1464.2
443.394	1481.37
443.769	1502.16
444.143	1494.71
444.518	1517.53
444.892	1545.55
445.267	1536.29
445.641	1580.35
446.016	1557.98
446.39	1562.95
446.764	1591.43
447.139	1604.31
447.513	1623.97
447.887	1604.31
448.262	1637.98
448.636	1650.41
449.01	1668.04
449.384	1691.76
449.758	1683.85
450.132	1680.69
450.506	1702.16
450.88	1750.07
451.254	1765.21
451.628	1784.87
452.002	1820.12
452.376	1787.13
452.75	1810.4
453.123	1847.92
453.497	1883.62
453.871	1917.07
454.244	1913.23
454.618	1920.23
454.992	1939.44
455.365	1934.47
455.739	1977.18
456.112	2071.41
456.486	2050.62
456.859	2071.87
457.232	2093.33
457.606	2112.32
457.979	2145.76
458.352	2180.11
458.725	2194.58
459.099	2237.74
459.472	2277.28
459.845	2255.59
460.218	2269.15
460.591	2292.88
460.964	2342.59
461.337	2410.39
461.71	2435.7
462.083	2474.79
462.456	2484.06
462.829	2466.21
463.201	2550.95
463.574	2537.62
463.947	2541.68
464.32	2657.39
464.692	2685.41
465.065	2675.69
465.438	2715.01
465.81	2774.22
466.183	2836.59
466.555	2873.43
466.928	2888.34
467.3	2880.88
467.672	2962.92
468.045	3057.38
468.417	3002.01
468.789	3081.11
469.161	3125.85
469.534	3140.31
469.906	3247.2
470.278	3243.81
470.65	3296.47
471.022	3372.62
471.394	3410.14
471.766	3450.36
472.138	3540.53
472.51	3591.37
472.882	3663.46
473.253	3703.46
473.625	3743.69
473.997	3891.03
474.369	3932.83
474.74	3939.84
475.112	4016.22
475.484	4069.78
475.855	4158.37
476.227	4181.42
476.598	4354.97
476.97	4404.91
477.341	4483.1
477.713	4592.25
478.084	4612.36
478.455	4738.69
478.827	4767.39
479.198	4922.86
479.569	5024.33
479.94	5121.73
480.311	5174.16
480.682	5323.98
481.053	5434.49
481.424	5518.56
481.795	5582.96
482.166	5676.29
482.537	5776.63
482.908	5947.7
483.279	5991.09
483.65	6104.98
484.021	6201.93
484.391	6301.36
484.762	6460.68
485.133	6420.23
485.503	6552.65
485.874	6753.55
486.244	6834.45
486.615	6942.25
486.985	6986.09
487.356	7209.13
487.726	7253.88
488.097	7426.08
488.467	7453.19
488.837	7615
489.207	7712.17
489.578	7859.06
489.948	7899.28
490.318	8062.44
490.688	8029
491.058	8239.61
491.428	8393.96
491.798	8403.9
492.168	8582.43
492.538	8686.83
492.908	8734.06
493.278	8831.69
493.648	8835.76
494.017	9000.27
494.387	9114.85
494.757	9221.28
495.126	9305.12
495.496	9231.68
495.866	9381.5
496.235	9393.26
496.605	9568.39
496.974	9534.5
497.344	9694.94
497.713	9772.68
498.082	9806.58
498.452	9888.38
498.821	9917.76
499.19	9987.36
499.559	10102.84
499.928	10074.37
500.298	10148.94
500.667	10204.76
501.036	10195.95
501.405	10326.11
501.774	10352.33
502.143	10412.66
502.512	10376.28
502.88	10494.47
503.249	10510.51
503.618	10565.2
503.987	10608.14
504.356	10600.68
504.724	10636.39
505.093	10653.79
505.462	10759.55
505.83	10800.45
506.199	10833.44
506.567	10900.79
506.936	10894.91
507.304	11048.13
507.672	11068.24
508.041	11043.38
508.409	11141.91
508.777	11210.16
509.145	11211.29
509.514	11234.79
509.882	11248.12
510.25	11216.48
510.618	11280.44
510.986	11300.1
511.354	11374.22
511.722	11392.53
512.09	11433.88
512.458	11370.15
512.826	11421.23
513.193	11451.73
513.561	11493.54
513.929	11555.23
514.297	11641.78
514.664	11597.94
515.032	11571.05
515.4	11693.53
515.767	11709.13
516.135	11696.47
516.502	11613.76
516.869	11742.8
517.237	11743.02
517.604	11689.24
517.972	11783.48
518.339	11703.7
518.706	11645.17
519.073	11774.44
519.44	11822.8
519.808	11836.81
520.175	11728.34
520.542	11867.09
520.909	11879.07
521.276	11856.47
521.643	11905.96
522.009	11913.42
522.376	11963.13
522.743	11936.69
523.11	11943.92
523.477	12028.21
523.843	12008.55
524.21	12097.37
524.577	12090.13
524.943	12135.33
525.31	12186.18
525.676	12140.98
526.043	12158.15
526.409	12076.8
526.776	12163.35
527.142	12145.95
527.508	12172.84
527.874	12284.25
528.241	12081.32
528.607	12071.38
528.973	12204.93
529.339	12127.65
529.705	12171.71
530.071	12211.94
530.437	12159.06
530.803	12165.39
531.169	12123.58
531.535	12050.14
531.901	12046.52
532.267	12005.62
532.632	12042.45
532.998	12009.68
533.364	11986.63
533.73	11945.51
534.095	11984.37
534.461	11933.08
534.826	11941.44
535.192	11976.01
535.557	11931.04
535.923	11779.63
536.288	11826.41
536.653	11825.28
537.019	11652.63
537.384	11650.37
537.749	11653.76
538.114	11638.62
538.479	11509.81
538.845	11546.65
539.21	11422.58
539.575	11453.99
539.94	11378.97
540.305	11373.09
540.67	11396.14
541.034	11301
541.399	11233.43
541.764	11187.11
542.129	11189.14
542.494	11139.65
542.858	11141.23
543.223	11146.43
543.587	11143.72
543.952	11006.55
544.316	10966.32
544.681	10899.88
545.045	10884.52
545.41	10838.64
545.774	10837.29
546.138	10822.6
546.503	10695.14
546.867	10669.38
547.231	10677.97
547.595	10616.73
547.959	10536.95
548.324	10543.06
548.688	10413.12
549.052	10445.88
549.416	10394.59
549.779	10358.65
550.143	10357.3
550.507	10347.81
550.871	10284.53
551.235	10213.12
551.599	10213.35
551.962	10180.81
552.326	10115.04
552.689	10081.6
553.053	10075.05
553.417	10001.6
553.78	10066.23
554.143	9924.99
554.507	9953.24
554.87	9909.85
555.234	9913.69
555.597	9850.19
555.96	9892
556.323	9756.18
556.686	9735.85
557.05	9800.02
557.413	9757.54
557.776	9681.61
558.139	9743.76
558.502	9730.87
558.865	9572.91
559.228	9692.68
559.59	9624.66
559.953	9602.52
560.316	9675.51
560.679	9582.18
561.041	9640.25
561.404	9614.04
561.767	9613.14
562.129	9606.36
562.492	9601.39
562.854	9524.55
563.217	9562.06
563.579	9471.67
563.941	9525.68
564.304	9537.43
564.666	9508.73
565.028	9547.83
565.39	9531.78
565.753	9566.58
566.115	9587.15
566.477	9520.94
566.839	9504.44
567.201	9586.02
567.563	9543.08
567.925	9575.85
568.287	9535.85
568.648	9547.6
569.01	9510.77
569.372	9571.56
569.734	9511.67
570.095	9571.1
570.457	9582.86
570.819	9553.03
571.18	9523.65
571.542	9598.22
571.903	9552.8
572.265	9588.96
572.626	9619.92
572.987	9505.12
573.349	9563.65
573.71	9628.05
574.071	9562.97
574.432	9553.48
574.794	9586.25
575.155	9598
575.516	9508.28
575.877	9546.25
576.238	9527.26
576.599	9558.45
576.96	9543.99
577.32	9552.57
577.681	9588.5
578.042	9621.5
578.403	9559.81
578.763	9561.39
579.124	9584.66
579.485	9538.56
579.845	9538.34
580.206	9542.86
580.566	9533.59
580.927	9549.18
581.287	9517.32
581.648	9523.2
582.008	9520.94
582.368	9531.56
582.728	9489.52
583.089	9458.34
583.449	9431.9
583.809	9498.56
584.169	9430.77
584.529	9394.39
584.889	9449.07
585.249	9451.33
585.609	9419.92
585.969	9468.28
586.329	9445.91
586.688	9431.9
587.048	9388.28
587.408	9366.82
587.768	9356.42
588.127	9291.11
588.487	9251.56
588.846	9303.99
589.206	9261.28
589.565	9291.34
589.925	9338.57
590.284	9392.35
590.643	9295.18
591.003	9374.73
591.362	9315.07
591.721	9240.72
592.08	9244.79
592.44	9295.86
592.799	9270.77
593.158	9291.56
593.517	9234.16
593.876	9271.68
594.235	9227.61
594.593	9235.97
594.952	9202.75
595.311	9265.12
595.67	9191.91
596.029	9233.03
596.387	9237.55
596.746	9207.72
597.104	9236.2
597.463	9153.94
597.822	9196.65
598.18	9115.97
598.538	9145.58
598.897	9208.63
599.255	9130.89
599.613	9265.35
599.972	9145.13
600.33	9107.61
600.688	9102.19
601.046	9103.55
601.404	9245.01
601.762	9139.48
602.12	9140.16
602.478	9170.66
602.836	9168.18
603.194	9117.33
603.552	9120.72
603.91	9049.08
604.268	9136.77
604.625	9097.9
604.983	9121.4
605.341	9029.2
605.698	9094.96
606.056	9014.73
606.413	9036.66
606.771	9071.91
607.128	9112.36
607.485	9053.15
607.843	9038.46
608.2	9082.3
608.557	9147.16
608.914	9051.34
609.272	9145.8
609.629	9151.45
609.986	9224.45
610.343	9093.6
610.7	9200.27
611.057	9224.22
611.414	9146.03
611.771	9101.74
612.127	9156.2
612.484	9183.09
612.841	9208.63
613.198	9209.53
613.554	9197.55
613.911	9218.12
614.267	9226.48
614.624	9153.94
614.98	9219.93
615.337	9267.16
615.693	9253.37
616.05	9212.47
616.406	9257.89
616.762	9256.31
617.118	9228.74
617.475	9156.43
617.831	9232.58
618.187	9276.2
618.543	9252.47
618.899	9267.16
619.255	9221.28
619.611	9252.92
619.967	9233.26
620.323	9252.02
620.678	9277.1
621.034	9213.6
621.39	9252.02
621.746	9234.39
622.101	9311.45
622.457	9303.31
622.812	9278.23
623.168	9312.58
623.523	9292.24
623.879	9286.14
624.234	9280.72
624.589	9240.49
624.945	9298.57
625.3	9243.66
625.655	9264.9
626.01	9209.98
626.365	9249.08
626.72	9243.2
627.075	9276.65
627.43	9266.03
627.785	9241.62
628.14	9249.76
628.495	9235.07
628.85	9275.74
629.205	9202.3
629.559	9297.44
629.914	9181.74
630.269	9274.39
630.623	9215.41
630.978	9195.75
631.332	9162.75
631.687	9206.59
632.041	9149.19
632.396	9160.49
632.75	9155.52
633.104	9080.27
633.459	9036.43
633.813	9107.84
634.167	9084.34
634.521	9084.79
634.875	9068.74
635.229	9059.71
635.583	9006.37
635.937	9015.86
636.291	8977
636.645	8936.77
636.999	8982.65
637.352	9029.2
637.706	8973.15
638.06	9022.19
638.413	8957.56
638.767	8936.09
639.121	8942.87
639.474	8901.07
639.828	8916.21
640.181	8931.12
640.534	8959.59
640.888	8895.19
641.241	8845.93
641.594	8872.59
641.947	8891.8
642.301	8907.62
642.654	8923.21
643.007	8822.88
643.36	8876.21
643.713	8840.73
644.066	8885.92
644.419	8782.42
644.771	8724.8
645.124	8677.79
645.477	8655.2
645.83	8620.39
646.182	8562.54
646.535	8622.43
646.888	8647.51
647.24	8533.84
647.593	8589.89
647.945	8591.24
648.298	8535.88
648.65	8586.95
649.002	8515.09
649.355	8511.92
649.707	8523.67
650.059	8577.46
650.411	8701.52
650.763	8692.26
651.115	8802.99
651.467	8694.52
651.819	8751.01
652.171	8711.24
652.523	8712.14
652.875	8709.43
653.227	8709.43
653.578	8688.42
653.93	8724.12
654.282	8646.61
654.633	8615.2
654.985	8724.35
655.337	8736.32
655.688	8730.22
656.039	8791.69
656.391	8687.74
656.742	8770.45
657.094	8725.93
657.445	8736.32
657.796	8747.17
658.147	8774.06
658.498	8748.98
658.849	8792.82
659.2	8775.87
659.551	8734.52
659.902	8797.79
660.253	8808.19
660.604	8792.82
660.955	8780.16
661.306	8760.05
661.656	8800.28
662.007	8797.79
662.358	8825.36
662.708	8818.36
663.059	8773.16
663.409	8746.49
663.76	8767.51
664.11	8865.36
664.461	8836.66
664.811	8774.52
665.161	8841.41
665.511	8807.96
665.862	8871.69
666.212	8872.37
666.562	8866.49
666.912	8854.29
667.262	8789.2
667.612	8837.56
667.962	8873.5
668.312	8812.25
668.662	8875.98
669.011	8892.03
669.361	8866.26
669.711	8788.3
670.06	8798.02
670.41	8836.66
670.76	8779.94
671.109	8844.57
671.459	8830.11
671.808	8787.85
672.157	8863.55
672.507	8781.75
672.856	8739.94
673.205	8759.6
673.554	8784.68
673.904	8784.01
674.253	8751.92
674.602	8748.75
674.951	8654.07
675.3	8598.93
675.649	8718.92
675.998	8737.68
676.346	8692.94
676.695	8764.8
677.044	8688.64
677.393	8650.9
677.741	8717.34
678.09	8675.99
678.438	8654.29
678.787	8607.97
679.135	8641.64
679.484	8614.97
679.832	8584.92
680.181	8525.26
680.529	8562.32
680.877	8546.05
681.225	8548.08
681.573	8576.55
681.922	8474.18
682.27	8469.44
682.618	8458.14
682.966	8466.73
683.314	8459.72
683.661	8340.4
684.009	8387.41
684.357	8415.2
684.705	8375.88
685.053	8386.5
685.4	8378.82
685.748	8285.26
686.095	8268.31
686.443	8280.29
686.79	8274.87
687.138	8304.24
687.485	8251.82
687.832	8183.8
688.18	8200.52
688.527	8170.01
688.874	8168.43
689.221	8190.12
689.568	8058.38
689.915	8099.05
690.262	8047.98
690.609	8050.01
690.956	7953.29
691.303	7959.62
691.65	7920.75
691.997	7935.67
692.344	7922.56
692.69	7838.27
693.037	7933.41
693.383	7765.28
693.73	7749.46
694.077	7791.26
694.423	7737.48
694.769	7657.26
695.116	7713.98
695.462	7677.59
695.808	7644.6
696.155	7593.76
696.501	7542.23
696.847	7534.1
697.193	7471.72
697.539	7482.8
697.885	7438.05
698.231	7434.89
698.577	7400.09
698.923	7413.65
699.269	7329.81
699.614	7337.94
699.96	7231.28
700.306	7334.55
700.651	7285.97
700.997	7189.25
701.342	7233.31
701.688	7189.47
702.033	7117.61
702.379	7161.22
702.724	7082.13
703.069	7095.92
703.415	7012.98
703.76	7019.31
704.105	7001.45
704.45	6987.9
704.795	6980.89
705.14	6874.45
705.485	6915.58
705.83	6879.88
706.175	6820.44
706.52	6796.94
706.865	6821.12
707.209	6803.04
707.554	6742.03
707.899	6762.36
708.243	6745.87
708.588	6763.04
708.932	6631.07
709.277	6699.99
709.621	6642.59
709.966	6630.84
710.31	6616.38
710.654	6584.06
710.998	6591.75
711.342	6553.78
711.687	6506.33
712.031	6534.12
712.375	6551.52
712.719	6509.04
713.063	6484.18
713.407	6497.51
713.75	6449.6
714.094	6466.33
714.438	6409.15
714.782	6383.62
715.125	6456.38
715.469	6392.88
715.812	6384.97
716.156	6358.76
716.499	6355.14
716.843	6351.98
717.186	6341.58
717.53	6336.16
717.873	6327.8
718.216	6327.12
718.559	6321.25
718.902	6257.52
719.246	6236.95
719.589	6218.65
719.932	6242.83
720.275	6243.28
720.617	6240.34
720.96	6189.72
721.303	6215.94
721.646	6215.94
721.989	6165.77
722.331	6214.81
722.674	6217.52
723.016	6269.04
723.359	6175.04
723.701	6244.19
724.044	6136.39
724.386	6113.12
724.729	6139.33
725.071	6159.67
725.413	6173.45
725.755	6181.36
726.097	6136.62
726.439	6093.46
726.782	6124.64
727.124	6143.85
727.465	6167.58
727.807	6122.61
728.149	6164.64
728.491	6130.97
728.833	6130.52
729.175	6088.71
729.516	6102.27
729.858	6111.99
730.199	6121.48
730.541	6074.93
730.882	6139.33
731.224	6129.39
731.565	6113.79
731.906	6079.67
732.248	6113.12
732.589	6132.78
732.93	6062.27
733.271	6105.43
733.612	6128.93
733.953	6125.77
734.294	6127.8
734.635	6116.73
734.976	6150.18
735.317	6093.46
735.658	6092.33
735.999	6137.97
736.339	6135.94
736.68	6147.01
737.021	6145.43
737.361	6123.51
737.702	6148.14
738.042	6172.55
738.383	6151.76
738.723	6223.17
739.063	6212.1
739.404	6201.25
739.744	6173.23
740.084	6233.34
740.424	6220.46
740.764	6258.65
741.104	6290.96
741.444	6243.51
741.784	6279.21
742.124	6286.67
742.464	6243.73
742.804	6295.26
743.143	6351.75
743.483	6347.23
743.823	6365.76
744.162	6382.94
744.502	6469.94
744.841	6445.08
745.181	6514.24
745.52	6556.95
745.86	6572.09
746.199	6565.08
746.538	6645.31
746.877	6697.73
747.216	6691.86
747.556	6725.08
747.895	6819.76
748.234	6816.37
748.573	6867.67
748.911	6943.38
749.25	6958.52
749.589	7054.79
749.928	7137.04
750.267	7175.01
750.605	7242.58
750.944	7332.97
751.283	7372.74
751.621	7475.34
751.96	7521.21
752.298	7638.73
752.636	7791.04
752.975	7824.48
753.313	7904.26
753.651	8033.74
753.989	8081.2
754.327	8265.38
754.666	8261.08
755.004	8444.58
755.342	8569.1
755.679	8757.79
756.017	8731.13
756.355	8998.69
756.693	9034.4
757.031	9200.94
757.368	9324.11
757.706	9510.09
758.044	9638.22
758.381	9802.28
758.719	9898.55
759.056	10149.62
759.394	10302.61
759.731	10362.27
760.068	10503.74
760.405	10701.47
760.743	10860.79
761.08	11039.54
761.417	11141.23
761.754	11388.91
762.091	11511.39
762.428	11624.84
762.765	11860.31
763.102	11933.53
763.438	12144.14
763.775	12296.68
764.112	12473.17
764.449	12646.05
764.785	12754.3
765.122	12853.96
765.458	13034.74
765.795	13240.61
