Data from hue_140_FLMS001491_00021.txt Node
Date: Tue Feb 07 16:55:39 GMT 2017
User: dcchb
Spectrometer: FLMS00149
Trigger mode: 0
Integration Time (sec): 2.000000E-2
Scans to average: 10
Electric dark correction enabled: true
Nonlinearity correction enabled: false
Boxcar width: 0
XAxis mode: Wavelengths
Number of Pixels in Spectrum: 2048
>>>>>Begin Spectral Data<<<<<
341.393	-17.67
341.776	-17.67
342.16	-17.67
342.543	-70.32
342.927	-63.32
343.31	-68.06
343.693	-73.71
344.077	-78.46
344.46	-40.49
344.843	-58.35
345.226	-44.79
345.61	-31.91
345.993	-17.22
346.376	16.45
346.759	13.29
347.142	22.1
347.525	34.53
347.908	59.62
348.291	80.41
348.674	96.45
349.057	90.12
349.44	95.1
349.823	124.7
350.206	170.35
350.588	169.9
350.971	207.86
351.354	213.51
351.737	231.59
352.119	243.57
352.502	252.61
352.884	268.65
353.267	294.41
353.65	292.83
354.032	290.35
354.414	317.01
354.797	302.32
355.179	323.34
355.562	326.05
355.944	301.64
356.326	315.88
356.709	298.93
357.091	326.95
357.473	333.96
357.855	327.63
358.238	346.16
358.62	349.78
359.002	338.48
359.384	340.51
359.766	338.03
360.148	324.92
360.53	332.38
360.912	341.19
361.294	315.2
361.676	329.89
362.057	329.67
362.439	323.34
362.821	314.3
363.203	341.42
363.584	324.24
363.966	313.4
364.348	319.95
364.729	296.9
365.111	317.01
365.493	327.41
365.874	318.37
366.256	290.12
366.637	320.4
367.019	291.7
367.4	307.97
367.781	303.23
368.163	321.08
368.544	298.48
368.925	298.03
369.306	327.86
369.688	309.1
370.069	287.41
370.45	314.98
370.831	309.78
371.212	294.64
371.593	289.89
371.974	321.08
372.355	302.55
372.736	316.79
373.117	325.82
373.498	303.45
373.879	299.16
374.26	305.94
374.641	306.84
375.021	306.84
375.402	313.4
375.783	318.14
376.163	310.23
376.544	308.42
376.925	313.85
377.305	312.72
377.686	314.75
378.066	307.29
378.447	317.69
378.827	330.8
379.208	322.21
379.588	312.49
379.968	335.77
380.349	321.98
380.729	320.4
381.109	341.19
381.489	342.55
381.87	359.04
382.25	332.38
382.63	331.93
383.01	332.6
383.39	320.18
383.77	327.63
384.15	331.47
384.53	309.55
384.91	355.43
385.29	328.08
385.67	352.49
386.049	353.62
386.429	356.56
386.809	344.58
387.189	342.1
387.568	331.47
387.948	324.47
388.328	346.39
388.707	348.88
389.087	355.65
389.466	378.03
389.846	356.11
390.225	357.46
390.605	361.08
390.984	357.91
391.363	398.59
391.743	375.77
392.122	394.52
392.501	344.81
392.881	354.3
393.26	371.93
393.639	381.87
394.018	385.71
394.397	386.16
394.776	375.31
395.155	391.36
395.534	365.6
395.913	396.78
396.292	361.08
396.671	383.22
397.05	368.31
397.429	369.89
397.808	397.46
398.186	385.71
398.565	381.64
398.944	387.74
399.323	383.9
399.701	398.82
400.08	369.67
400.458	400.17
400.837	396.56
401.215	397.24
401.594	389.33
401.972	405.14
402.351	416.22
402.729	398.59
403.107	394.98
403.486	411.7
403.864	403.11
404.242	405.82
404.62	408.76
404.999	419.16
405.377	401.98
405.755	419.83
406.133	425.26
406.511	429.78
406.889	426.84
407.267	445.14
407.645	430
408.023	442.66
408.401	434.07
408.779	448.08
409.156	448.08
409.534	430.45
409.912	464.8
410.29	441.75
410.667	463
411.045	450.57
411.422	455.99
411.8	472.49
412.178	473.39
412.555	466.16
412.933	450.12
413.31	454.18
413.687	436.56
414.065	479.04
414.442	465.93
414.819	498.93
415.197	482.66
415.574	500.96
415.951	486.72
416.328	508.64
416.705	493.96
417.082	516.78
417.46	524.46
417.837	488.76
418.214	477.91
418.591	503.22
418.967	495.99
419.344	517.91
419.721	522.43
420.098	538.47
420.475	538.7
420.852	531.92
421.228	509.32
421.605	528.76
421.982	569.43
422.358	534.41
422.735	538.93
423.111	515.42
423.488	541.64
423.864	552.26
424.241	536.21
424.617	554.52
424.994	545.48
425.37	560.39
425.746	557.91
426.123	577.12
426.499	580.51
426.875	582.77
427.251	580.51
427.627	585.7
428.003	589.32
428.379	599.49
428.756	590.45
429.132	622.54
429.507	597.46
429.883	637.91
430.259	634.74
430.635	615.53
431.011	617.79
431.387	648.08
431.763	639.26
432.138	640.84
432.514	660.05
432.89	656.66
433.265	690.33
433.641	672.48
434.016	688.75
434.392	668.64
434.767	693.72
435.143	698.02
435.518	714.97
435.894	701.86
436.269	712.71
436.644	712.03
437.02	737.11
437.395	736.21
437.77	725.36
438.145	765.36
438.52	736.44
438.895	738.7
439.271	771.01
439.646	752.93
440.021	784.57
440.395	781.63
440.77	769.65
441.145	798.58
441.52	808.07
441.895	786.38
442.27	789.77
442.645	806.04
443.019	820.05
443.394	790.45
443.769	851.91
444.143	818.24
444.518	830.22
444.892	857.79
445.267	844
445.641	867.51
446.016	867.28
446.39	863.66
446.764	857.34
447.139	882.19
447.513	870.9
447.887	861.86
448.262	882.19
448.636	874.06
449.01	867.96
449.384	921.29
449.758	902.53
450.132	903.21
450.506	914.28
450.88	927.39
451.254	927.39
451.628	953.15
452.002	934.62
452.376	934.85
452.75	936.66
453.123	968.29
453.497	963.32
453.871	1003.77
454.244	1013.04
454.618	1022.3
454.992	1025.47
455.365	1027.05
455.739	1030.66
456.112	1050.1
456.486	1071.34
456.859	1062.3
457.232	1104.56
457.606	1082.42
457.979	1139.59
458.352	1112.47
458.725	1157.89
459.099	1147.72
459.472	1147.5
459.845	1165.35
460.218	1178.91
460.591	1188.17
460.964	1204.9
461.337	1251
461.71	1253.94
462.083	1260.49
462.456	1300.94
462.829	1289.42
463.201	1324.44
463.574	1328.96
463.947	1350.43
464.32	1368.96
464.692	1394.95
465.065	1370.54
465.438	1451.67
465.81	1448.51
466.183	1448.73
466.555	1436.3
466.928	1522.4
467.3	1491.67
467.672	1530.76
468.045	1543.42
468.417	1578
468.789	1596.98
469.161	1641.5
469.534	1650.54
469.906	1680.37
470.278	1697.31
470.65	1726.47
471.022	1767.59
471.394	1799.68
471.766	1850.98
472.138	1900.25
472.51	1919.46
472.882	1953.13
473.253	1971.43
473.625	2027.7
473.997	2078.1
474.369	2111.31
474.74	2138.88
475.112	2190.63
475.484	2247.36
475.855	2314.7
476.227	2315.38
476.598	2412.78
476.97	2442.38
477.341	2555.6
477.713	2577.07
478.084	2617.29
478.455	2700.9
478.827	2749.94
479.198	2866.55
479.569	2887.57
479.94	3028.58
480.311	3039.88
480.682	3159.87
481.053	3277.84
481.424	3344.05
481.795	3408.23
482.166	3553.31
482.537	3595.8
482.908	3731.16
483.279	3779.52
483.65	3883.02
484.021	4021.77
484.391	4113.52
484.762	4204.37
485.133	4284.59
485.503	4396.23
485.874	4535.88
486.244	4621.08
486.615	4774.52
486.985	4870.34
487.356	5041.18
487.726	5087.96
488.097	5283.43
488.467	5353.94
488.837	5508.06
489.207	5637.78
489.578	5752.35
489.948	5913.47
490.318	6054.04
490.688	6119.8
491.058	6337.42
491.428	6479.34
491.798	6532.22
492.168	6738.54
492.538	6816.73
492.908	6955.03
493.278	7156.83
493.648	7192.99
494.017	7319.54
494.387	7538.74
494.757	7594.11
495.126	7792.07
495.496	7858.28
495.866	7955.91
496.235	8144.6
496.605	8239.97
496.974	8418.27
497.344	8517.02
497.713	8636.11
498.082	8726.73
498.452	8809.44
498.821	8899.38
499.19	9004.24
499.559	9098.7
499.928	9285.59
500.298	9404
500.667	9472.25
501.036	9542.31
501.405	9748.4
501.774	9667.5
502.143	9855.07
502.512	9932.58
502.88	9978
503.249	10120.82
503.618	10255.28
503.987	10330.53
504.356	10393.13
504.724	10446.24
505.093	10556.29
505.462	10559.45
505.83	10678.55
506.199	10810.07
506.567	10959.9
506.936	10921.7
507.304	11122.6
507.672	11076.5
508.041	11230.4
508.409	11262.03
508.777	11371.86
509.145	11471.97
509.514	11448.02
509.882	11527.11
510.25	11599.88
510.618	11621.35
510.986	11679.88
511.354	11802.81
511.722	11902.24
512.09	12012.52
512.458	11938.63
512.826	12067.44
513.193	12086.42
513.561	12089.36
513.929	12228.11
514.297	12351.72
514.664	12393.98
515.032	12377.71
515.4	12410.93
515.767	12491.61
516.135	12567.99
516.502	12406.86
516.869	12648.21
517.237	12604.37
517.604	12570.47
517.972	12683.01
518.339	12739.28
518.706	12671.26
519.073	12690.02
519.44	12821.54
519.808	12899.51
520.175	12861.31
520.542	13017.02
520.909	13072.61
521.276	12971.82
521.643	13060.41
522.009	13080.29
522.376	13208.88
522.743	13113.51
523.11	13268.08
523.477	13307.86
523.843	13359.38
524.21	13422.2
524.577	13453.39
524.943	13478.02
525.31	13489.77
525.676	13636.44
526.043	13590.79
526.409	13577.45
526.776	13621.97
527.142	13638.92
527.508	13660.84
527.874	13760.73
528.241	13791.91
528.607	13801.63
528.973	13801.85
529.339	13801.18
529.705	13864.23
530.071	13891.8
530.437	13850.44
530.803	13793.49
531.169	13896.09
531.535	13811.8
531.901	13773.83
532.267	13834.4
532.632	13885.92
532.998	13887.95
533.364	13895.19
533.73	13830.78
534.095	13895.19
534.461	13946.94
534.826	13918.46
535.192	13847.28
535.557	13963.88
535.923	13832.59
536.288	13817.45
536.653	13787.17
537.019	13682.99
537.384	13741.07
537.749	13760.95
538.114	13705.13
538.479	13710.11
538.845	13724.79
539.21	13590.56
539.575	13600.05
539.94	13519.15
540.305	13610
540.67	13495.87
541.034	13573.39
541.399	13577.91
541.764	13537
542.129	13509.43
542.494	13459.49
542.858	13446.16
543.223	13323.22
543.587	13385.37
543.952	13333.62
544.316	13242.32
544.681	13272.6
545.045	13275.77
545.41	13318.25
545.774	13203.9
546.138	13196.22
546.503	13180.63
546.867	13025.83
547.231	13076.22
547.595	13087.98
547.959	13109.44
548.324	13010.46
548.688	12945.61
549.052	12894.31
549.416	12931.37
549.779	12984.25
550.143	12930.69
550.507	12970.69
550.871	12903.35
551.235	12925.49
551.599	12870.35
551.962	12813.41
552.326	12812.95
552.689	12835.78
553.053	12784.93
553.417	12689.12
553.78	12756.91
554.143	12683.69
554.507	12750.81
554.87	12658.38
555.234	12794.65
555.597	12674.65
555.96	12662
556.323	12624.71
556.686	12621.32
557.05	12565.73
557.413	12572.96
557.776	12597.14
558.139	12662.22
558.502	12652.96
558.865	12645.73
559.228	12668.55
559.59	12681.43
559.953	12582.45
560.316	12633.98
560.679	12641.43
561.041	12696.8
561.404	12645.73
561.767	12729.11
562.129	12581.55
562.492	12756.23
562.854	12603.24
563.217	12594.88
563.579	12687.08
563.941	12656.57
564.304	12675.1
564.666	12737.93
565.028	12711.71
565.39	12649.57
565.753	12798.27
566.115	12744.93
566.477	12832.84
566.839	12824.93
567.201	12916.91
567.563	12802.11
567.925	12927.3
568.287	12853.4
568.648	12835.33
569.01	12892.95
569.372	12896.12
569.734	12835.1
570.095	12949.45
570.457	12980.86
570.819	12947.87
571.18	12946.51
571.542	13095.88
571.903	12990.58
572.265	13020.63
572.626	12941.99
572.987	13010.91
573.349	13021.08
573.71	13031.03
574.071	13053.17
574.432	13002.1
574.794	13129.78
575.155	13176.56
575.516	13074.19
575.877	13134.53
576.238	13103.79
576.599	13162.1
576.96	13224.24
577.32	13062.21
577.681	13123.23
578.042	13221.08
578.403	13213.17
578.763	13204.13
579.124	13232.6
579.485	13243.45
579.845	13208.2
580.206	13259.95
580.566	13172.49
580.927	13086.39
581.287	13183.11
581.648	13174.98
582.008	13236.22
582.368	13109.9
582.728	13213.17
583.089	13179.5
583.449	13159.84
583.809	13123.68
584.169	13198.48
584.529	13135.43
584.889	13158.48
585.249	13119.39
585.609	13054.76
585.969	13174.98
586.329	13129.33
586.688	13131.14
587.048	13111.03
587.408	13077.81
587.768	13150.12
588.127	13083.46
588.487	13062.89
588.846	13173.4
589.206	13014.98
589.565	13067.18
589.925	13096.11
590.284	13043.91
590.643	13049.11
591.003	12969.56
591.362	13038.71
591.721	12953.52
592.08	13008.2
592.44	13104.92
592.799	13025.38
593.158	13039.84
593.517	13008.43
593.876	12989.45
594.235	12920.07
594.593	12957.13
594.952	12965.04
595.311	12913.29
595.67	12951.26
596.029	13002.78
596.387	13006.4
596.746	12988.99
597.104	12903.12
597.463	12940.63
597.822	12962.55
598.18	12974.31
598.538	12883.01
598.897	12938.6
599.255	12860.64
599.613	12999.39
599.972	12948.77
600.33	12976.79
600.688	12920.07
601.046	12902.44
601.404	13039.16
601.762	12922.56
602.12	12998.26
602.478	13015.21
602.836	13009.56
603.194	12893.4
603.552	12958.03
603.91	12814.54
604.268	12887.98
604.625	12819.96
604.983	12961.88
605.341	12885.95
605.698	13003.46
606.056	12938.83
606.413	13027.41
606.771	12925.95
607.128	13010.24
607.485	12933.85
607.843	12974.53
608.2	12970.69
608.557	13086.62
608.914	13015.21
609.272	13012.27
609.629	13122.78
609.986	13099.05
610.343	13043
610.7	13152.61
611.057	13100.86
611.414	13038.26
611.771	13088.88
612.127	13079.61
612.484	13176.56
612.841	13211.59
613.198	13196.45
613.554	13111.7
613.911	13217.01
614.267	13235.09
614.624	13145.37
614.98	13167.75
615.337	13233.73
615.693	13252.04
616.05	13286.84
616.406	13298.37
616.762	13253.62
617.118	13249.1
617.475	13194.86
617.831	13316.67
618.187	13392.83
618.543	13311.02
618.899	13421.75
619.255	13301.3
619.611	13231.47
619.967	13339.04
620.323	13309.21
620.678	13430.56
621.034	13264.69
621.39	13262.43
621.746	13319.16
622.101	13368.65
622.457	13369.1
622.812	13333.17
623.168	13335.88
623.523	13330.91
623.879	13429.66
624.234	13291.13
624.589	13365.93
624.945	13411.13
625.3	13334.52
625.655	13398.93
626.01	13421.3
626.365	13367.97
626.72	13318.93
627.075	13294.52
627.43	13367.06
627.785	13271.25
628.14	13365.93
628.495	13346.95
628.85	13261.98
629.205	13164.36
629.559	13360.51
629.914	13272.15
630.269	13217.92
630.623	13228.76
630.978	13132.72
631.332	13298.14
631.687	13308.08
632.041	13207.52
632.396	13269.67
632.75	13139.73
633.104	13197.12
633.459	13164.58
633.813	13158.93
634.167	13113.51
634.521	13080.97
634.875	13130.46
635.229	13080.97
635.583	13064.92
635.937	13066.05
636.291	13081.65
636.645	13008.88
636.999	12978.37
637.352	12990.12
637.706	12940.63
638.06	13012.04
638.413	12953.29
638.767	12954.19
639.121	12945.61
639.474	12824.93
639.828	12854.76
640.181	12942.22
640.534	12920.75
640.888	12881.2
641.241	12784.71
641.594	12828.09
641.947	12801.2
642.301	12811.6
642.654	12802.11
643.007	12784.03
643.36	12843.91
643.713	12758.49
644.066	12750.36
644.419	12677.82
644.771	12699.06
645.124	12627.87
645.477	12580.19
645.83	12488.67
646.182	12459.29
646.535	12377.71
646.888	12408.44
647.24	12232.63
647.593	12365.96
647.945	12285.28
648.298	12265.17
648.65	12182.24
649.002	12209.35
649.355	12305.85
649.707	12279.18
650.059	12374.77
650.411	12468.33
650.763	12500.65
651.115	12646.4
651.467	12579.97
651.819	12612.96
652.171	12591.72
652.523	12560.53
652.875	12608.21
653.227	12535.45
653.578	12604.82
653.93	12598.72
654.282	12564.82
654.633	12559.18
654.985	12605.73
655.337	12611.38
655.688	12601.66
656.039	12581.1
656.391	12519.4
656.742	12619.51
657.094	12583.36
657.445	12639.63
657.796	12598.72
658.147	12552.4
658.498	12577.93
658.849	12576.58
659.2	12610.47
659.551	12552.4
659.902	12578.38
660.253	12552.17
660.604	12654.99
660.955	12521.66
661.306	12589.23
661.656	12544.49
662.007	12614.54
662.358	12610.47
662.708	12584.03
663.059	12646.18
663.409	12549.91
663.76	12692.96
664.11	12645.05
664.461	12645.5
664.811	12601.89
665.161	12657.48
665.511	12573.41
665.862	12609.34
666.212	12645.95
666.562	12649.79
666.912	12638.27
667.262	12629.23
667.612	12636.24
667.962	12639.85
668.312	12567.99
668.662	12645.95
669.011	12608.21
669.361	12642.79
669.711	12527.54
670.06	12548.55
670.41	12455.22
670.76	12507.43
671.109	12548.1
671.459	12539.06
671.808	12460.19
672.157	12532.96
672.507	12491.38
672.856	12532.06
673.205	12504.49
673.554	12528.44
673.904	12499.52
674.253	12558.95
674.602	12443.7
674.951	12295
675.3	12270.14
675.649	12532.06
675.998	12423.59
676.346	12450.25
676.695	12531.83
677.044	12300.2
677.393	12385.39
677.741	12414.77
678.09	12422
678.438	12280.76
678.787	12461.32
679.135	12339.07
679.484	12189.47
679.832	12267.66
680.181	12188.11
680.529	12260.65
680.877	12124.16
681.225	12208.22
681.573	12234.89
681.922	12095.91
682.27	12102.69
682.618	12128.45
682.966	12079.41
683.314	12150.15
683.661	12024.95
684.009	12041.67
684.357	12026.31
684.705	11998.51
685.053	11950.38
685.4	11868.35
685.748	11871.74
686.095	11894.79
686.443	11879.19
686.79	11848.69
687.138	11870.15
687.485	11871.74
687.832	11796.94
688.18	11737.5
688.527	11673.77
688.874	11622.25
689.221	11634.23
689.568	11553.1
689.915	11537.73
690.262	11551.74
690.609	11497.96
690.956	11509.49
691.303	11479.66
691.65	11365.99
691.997	11413.67
692.344	11300
692.69	11259.1
693.037	11238.98
693.383	11209.61
693.73	11223.84
694.077	11156.95
694.423	11182.26
694.769	11111.98
695.116	11060.01
695.462	11087.12
695.808	11018.88
696.155	10979.33
696.501	10918.09
696.847	10919.44
697.193	10859.56
697.539	10867.24
697.885	10812.78
698.231	10732.1
698.577	10701.15
698.923	10645.1
699.269	10683.29
699.614	10581.6
699.96	10574.14
700.306	10544.31
700.651	10486.46
700.997	10453.69
701.342	10454.15
701.688	10327.37
702.033	10357.65
702.379	10295.28
702.724	10311.1
703.069	10278.56
703.415	10196.98
703.76	10178.67
704.105	10204.66
704.45	10146.81
704.795	10089.86
705.14	10106.81
705.485	10066.36
705.83	9996.76
706.175	10016.42
706.52	10011.67
706.865	9911.79
707.209	9934.61
707.554	9870.21
707.899	9908.4
708.243	9808.51
708.588	9766.48
708.932	9707.72
709.277	9740.49
709.621	9764.22
709.966	9587.95
710.31	9640.16
710.654	9606.71
710.998	9648.07
711.342	9594.51
711.687	9558.58
712.031	9514.51
712.375	9465.47
712.719	9526.03
713.063	9519.03
713.407	9492.36
713.75	9467.51
714.094	9431.35
714.438	9387.51
714.782	9428.64
715.125	9435.42
715.469	9401.29
715.812	9346.38
716.156	9313.16
716.499	9308.87
716.843	9281.07
717.186	9317
717.53	9245.14
717.873	9257.79
718.216	9258.92
718.559	9209.88
718.902	9183.67
719.246	9178.02
719.589	9168.53
719.932	9117.46
720.275	9066.16
720.617	9113.16
720.96	9107.06
721.303	9115.2
721.646	9105.93
721.989	9025.03
722.331	9049.89
722.674	9051.25
723.016	9053.28
723.359	9036.78
723.701	9046.95
724.044	8935.32
724.386	8900.97
724.729	8902.77
725.071	8947.74
725.413	8851.25
725.755	9016.22
726.097	8930.57
726.439	8876.33
726.782	8915.66
727.124	8877.01
727.465	8900.06
727.807	8887.86
728.149	8900.06
728.491	8935.99
728.833	8843.11
729.175	8846.5
729.516	8881.98
729.858	8855.77
730.199	8845.15
730.541	8832.72
730.882	8837.92
731.224	8861.65
731.565	8790.46
731.906	8848.09
732.248	8840.63
732.589	8789.78
732.93	8785.04
733.271	8791.82
733.612	8827.52
733.953	8834.08
734.294	8770.8
734.635	8747.75
734.976	8797.01
735.317	8734.64
735.658	8764.7
735.999	8798.37
736.339	8799.05
736.68	8867.07
737.021	8777.13
737.361	8780.52
737.702	8809.44
738.042	8815.77
738.383	8819.61
738.723	8794.3
739.063	8785.26
739.404	8831.82
739.744	8911.36
740.084	8845.83
740.424	8869.78
740.764	8839.27
741.104	8981.87
741.444	8888.76
741.784	8877.92
742.124	8917.24
742.464	8827.07
742.804	8838.37
743.143	8935.77
743.483	8937.8
743.823	8929.89
744.162	9055.09
744.502	9040.4
744.841	9022.77
745.181	9060.06
745.52	9085.82
745.86	9091.7
746.199	9208.76
746.538	9200.62
746.877	9295.31
747.216	9291.24
747.556	9318.81
747.895	9378.92
748.234	9420.73
748.573	9460.27
748.911	9591.8
749.25	9581.17
749.589	9571.46
749.928	9695.07
750.267	9765.12
750.605	9815.52
750.944	9936.19
751.283	9940.94
751.621	10091.22
751.96	10059.13
752.298	10208.05
752.636	10299.12
752.975	10377.09
753.313	10416.86
753.651	10621.83
753.989	10613.24
754.327	10682.61
754.666	10848.94
755.004	10948.82
755.342	11049.84
755.679	11135.94
756.017	11380.68
756.355	11396.04
756.693	11555.59
757.031	11698.41
757.368	11819.31
757.706	11852.53
758.044	11950.15
758.381	12288
758.719	12305.4
759.056	12504.26
759.394	12627.2
