Data from hue_180_FLMS001491_00092.txt Node
Date: Tue Feb 07 16:47:44 GMT 2017
User: dcchb
Spectrometer: FLMS00149
Trigger mode: 0
Integration Time (sec): 2.000000E-2
Scans to average: 10
Electric dark correction enabled: true
Nonlinearity correction enabled: false
Boxcar width: 0
XAxis mode: Wavelengths
Number of Pixels in Spectrum: 2048
>>>>>Begin Spectral Data<<<<<
341.393	-40.34
341.776	-40.34
342.16	-40.34
342.543	-67
342.927	-39.89
343.31	-59.77
343.693	-83.27
344.077	-52.54
344.46	-82.14
344.843	-69.49
345.226	-50.96
345.61	-24.52
345.993	-23.39
346.376	11.86
346.759	23.62
347.142	11.64
347.525	31.3
347.908	68.59
348.291	98.19
348.674	85.99
349.057	114.91
349.44	129.83
349.823	117.85
350.206	144.74
350.588	184.97
350.971	200.79
351.354	231.52
351.737	221.8
352.119	258.64
352.502	263.16
352.884	266.55
353.267	262.48
353.65	288.69
354.032	288.69
354.414	306.09
354.797	294.79
355.179	299.09
355.562	303.61
355.944	316.94
356.326	320.33
356.709	297.28
357.091	320.56
357.473	308.58
357.855	336.38
358.238	323.49
358.62	352.65
359.002	340.44
359.384	334.34
359.766	339.09
360.148	338.41
360.53	330.95
360.912	339.09
361.294	328.24
361.676	327.56
362.057	322.14
362.439	342.7
362.821	314.46
363.203	309.94
363.584	322.36
363.966	309.03
364.348	325.08
364.729	336.83
365.111	319.2
365.493	316.94
365.874	319.2
366.256	320.78
366.637	315.81
367.019	314
367.4	309.71
367.781	290.73
368.163	316.49
368.544	317.62
368.925	320.78
369.306	297.05
369.688	309.48
370.069	300.9
370.45	304.96
370.831	313.78
371.212	311.07
371.593	317.39
371.974	305.19
372.355	308.35
372.736	315.81
373.117	319.65
373.498	303.61
373.879	302.48
374.26	306.55
374.641	311.29
375.021	309.48
375.402	297.28
375.783	317.62
376.163	308.58
376.544	309.48
376.925	299.99
377.305	310.84
377.686	321.46
378.066	302.48
378.447	316.49
378.827	339.31
379.208	303.16
379.588	324.4
379.968	329.37
380.349	309.71
380.729	331.86
381.109	355.58
381.489	339.99
381.87	327.11
382.25	332.08
382.63	315.13
383.01	338.18
383.39	323.49
383.77	318.52
384.15	346.32
384.53	343.61
384.91	344.51
385.29	325.98
385.67	325.53
386.049	346.09
386.429	343.38
386.809	323.95
387.189	337.05
387.568	355.58
387.948	331.63
388.328	367.11
388.707	341.57
389.087	349.71
389.466	339.09
389.846	363.49
390.225	358.75
390.605	364.4
390.984	355.36
391.363	360.1
391.743	368.92
392.122	351.06
392.501	373.44
392.881	385.41
393.26	360.1
393.639	355.81
394.018	376.6
394.397	376.83
394.776	367.33
395.155	374.57
395.534	380.67
395.913	365.3
396.292	361.23
396.671	397.16
397.05	392.42
397.429	373.89
397.808	372.98
398.186	371.85
398.565	377.5
398.944	382.48
399.323	415.92
399.701	382.02
400.08	394.68
400.458	405.75
400.837	411.63
401.215	426.99
401.594	405.07
401.972	416.37
402.351	416.15
402.729	425.41
403.107	413.89
403.486	438.75
403.864	430.61
404.242	435.58
404.62	442.36
404.999	430.16
405.377	438.07
405.755	443.49
406.133	449.14
406.511	431.97
406.889	445.75
407.267	443.94
407.645	463.15
408.023	466.09
408.401	467.9
408.779	492.53
409.156	463.6
409.534	474.45
409.912	498.4
410.29	506.99
410.667	497.28
411.045	491.85
411.422	507.9
411.8	513.55
412.178	508.8
412.555	510.83
412.933	528.01
413.31	522.13
413.687	554.9
414.065	561.68
414.442	579.53
414.819	575.24
415.197	562.81
415.574	596.03
415.951	595.35
416.328	584.5
416.705	613.43
417.082	614.79
417.46	625.41
417.837	625.41
418.214	637.38
418.591	637.38
418.967	653.88
419.344	643.49
419.721	653.2
420.098	653.66
420.475	676.03
420.852	682.81
421.228	685.74
421.605	670.6
421.982	697.27
422.358	742.01
422.735	719.19
423.111	747.21
423.488	756.48
423.864	758.74
424.241	779.08
424.617	793.31
424.994	799.87
425.37	791.05
425.746	815.23
426.123	833.31
426.499	829.92
426.875	812.07
427.251	872.41
427.627	855.46
428.003	857.94
428.379	874.44
428.756	885.97
429.132	887.55
429.507	907.21
429.883	921.67
430.259	953.31
430.635	935
431.011	935.91
431.387	969.81
431.763	964.16
432.138	982.01
432.514	995.57
432.89	1024.49
433.265	1038.73
433.641	1055.23
434.016	1043.93
434.392	1092.51
434.767	1098.39
435.143	1095.23
435.518	1127.54
435.894	1156.92
436.269	1154.66
436.644	1197.14
437.02	1191.72
437.395	1216.58
437.77	1202.12
438.145	1229.91
438.52	1259.97
438.895	1291.15
439.271	1261.32
439.646	1324.6
440.021	1339.51
440.395	1356.46
440.77	1300.42
441.145	1356.24
441.52	1381.09
441.895	1374.99
442.27	1411.6
442.645	1418.83
443.019	1460.19
443.394	1405.05
443.769	1432.17
444.143	1476.91
444.518	1498.15
444.892	1512.39
445.267	1540.41
445.641	1524.14
446.016	1545.84
446.39	1536.57
446.764	1524.59
447.139	1554.87
447.513	1583.12
447.887	1608.21
448.262	1595.1
448.636	1612.05
449.01	1633.74
449.384	1623.57
449.758	1686.62
450.132	1679.16
450.506	1691.59
450.88	1715.1
451.254	1730.46
451.628	1732.72
452.002	1766.17
452.376	1790.8
452.75	1755.1
453.123	1782.44
453.497	1812.27
453.871	1849.78
454.244	1850.46
454.618	1885.04
454.992	1921.42
455.365	1920.51
455.739	1971.13
456.112	1978.82
456.486	1969.33
456.859	2024.47
457.232	2058.59
457.606	2074.18
457.979	2078.7
458.352	2135.42
458.725	2128.19
459.099	2174.97
459.472	2226.72
459.845	2237.79
460.218	2270.79
460.591	2295.42
460.964	2285.48
461.337	2326.38
461.71	2356.44
462.083	2410.67
462.456	2402.08
462.829	2421.74
463.201	2481.63
463.574	2499.48
463.947	2536.77
464.32	2564.57
464.692	2582.64
465.065	2658.57
465.438	2637.56
465.81	2709.19
466.183	2701.51
466.555	2767.95
466.928	2822.41
467.3	2812.24
467.672	2905.8
468.045	2918.23
468.417	2976.31
468.789	2971.33
469.161	3050.65
469.534	3101.05
469.906	3153.48
470.278	3174.27
470.65	3273.02
471.022	3288.39
471.394	3365.45
471.766	3416.29
472.138	3446.12
472.51	3519.79
472.882	3562.51
473.253	3619.68
473.625	3668.49
473.997	3782.16
474.369	3766.34
474.74	3831.2
475.112	3891.76
475.484	3976.96
475.855	4083.62
476.227	4151.42
476.598	4235.48
476.97	4274.35
477.341	4382.82
477.713	4437.51
478.084	4516.6
478.455	4638.86
478.827	4679.54
479.198	4835.47
479.569	4838.4
479.94	4975.35
480.311	5081.56
480.682	5195.68
481.053	5324.94
481.424	5309.35
481.795	5410.59
482.166	5535.33
482.537	5653.07
482.908	5736.91
483.279	5859.17
483.65	5960.18
484.021	6091.93
484.391	6203.57
484.762	6206.96
485.133	6272.49
485.503	6381.41
485.874	6600.62
486.244	6618.24
486.615	6759.03
486.985	6868.41
487.356	6947.95
487.726	7069.98
488.097	7218.68
488.467	7197.44
488.837	7380.94
489.207	7476.3
489.578	7669.52
489.948	7714.03
490.318	7840.58
490.688	7880.81
491.058	8056.4
491.428	8168.26
491.798	8272.21
492.168	8338.65
492.538	8429.27
492.908	8549.49
493.278	8691.18
493.648	8682.6
494.017	8806.21
494.387	8866.77
494.757	8954.23
495.126	9041.01
495.496	9083.94
495.866	9141.57
496.235	9222.92
496.605	9268.12
496.974	9309.25
497.344	9390.15
497.713	9566.64
498.082	9575.45
498.452	9730.03
498.821	9690.03
499.19	9735.68
499.559	9811.38
499.928	9908.55
500.298	9924.6
500.667	10001.88
501.036	9995.56
501.405	10101.99
501.774	10084.14
502.143	10155.33
502.512	10184.93
502.88	10294.53
503.249	10244.14
503.618	10335.43
503.987	10337.24
504.356	10354.87
504.724	10367.52
505.093	10428.31
505.462	10495.2
505.83	10525.26
506.199	10534.98
506.567	10788.53
506.936	10633.05
507.304	10771.58
507.672	10805.7
508.041	10821.75
508.409	10847.29
508.777	10909.88
509.145	10985.81
509.514	10969.99
509.882	10968.86
510.25	11001.18
510.618	11065.81
510.986	11031.01
511.354	11100.16
511.722	11206.6
512.09	11229.42
512.458	11310.1
512.826	11260.38
513.193	11294.05
513.561	11319.82
513.929	11307.84
514.297	11400.49
514.664	11378.8
515.032	11456.76
515.4	11494.73
515.767	11499.02
516.135	11497.44
516.502	11422.86
516.869	11608.62
517.237	11541.96
517.604	11504.22
517.972	11476.65
518.339	11588.51
518.706	11534.72
519.073	11595.06
519.44	11550.54
519.808	11647.94
520.175	11553.71
520.542	11754.15
520.909	11748.5
521.276	11678.45
521.643	11683.2
522.009	11655.85
522.376	11764.55
522.743	11789.41
523.11	11851.78
523.477	11921.83
523.843	11849.29
524.21	11968.16
524.577	11916.18
524.943	11925.45
525.31	11986.92
525.676	11963.19
526.043	12030.08
526.409	11999.35
526.776	12009.97
527.142	12048.61
527.508	11969.52
527.874	12032.56
528.241	12016.75
528.607	11985.11
528.973	12042.96
529.339	11994.83
529.705	11951.44
530.071	12063.52
530.437	12046.58
530.803	12063.07
531.169	12064.2
531.535	11985.79
531.901	11948.95
532.267	11892.91
532.632	11989.63
532.998	11948.05
533.364	11917.77
533.73	11874.15
534.095	11921.83
534.461	11939.01
534.826	11812.46
535.192	11783.31
535.557	11760.71
535.923	11786.92
536.288	11718
536.653	11706.7
537.019	11600.71
537.384	11659.69
537.749	11634.38
538.114	11599.13
538.479	11571.11
538.845	11459.25
539.21	11412.47
539.575	11393.49
539.94	11333.37
540.305	11305.58
540.67	11251.57
541.034	11222.42
541.399	11250.44
541.764	11224.45
542.129	11204.34
542.494	11076.43
542.858	11045.92
543.223	11064.45
543.587	11029.2
543.952	10982.65
544.316	10960.05
544.681	10903.1
545.045	10907.4
545.41	10864.01
545.774	10850
546.138	10793.28
546.503	10707.18
546.867	10679.83
547.231	10788.98
547.595	10674.18
547.959	10706.95
548.324	10513.51
548.688	10506.05
549.052	10539.27
549.416	10414.3
549.779	10432.38
550.143	10373.17
550.507	10381.76
550.871	10258.37
551.235	10275.78
551.599	10304.7
551.962	10190.58
552.326	10161.65
552.689	10149
553.053	10043.92
553.417	10078.27
553.78	10095.89
554.143	10035.33
554.507	10017.48
554.87	9946.74
555.234	9965.27
555.597	9876.92
555.96	9913.07
556.323	9907.88
556.686	9862.9
557.05	9836.69
557.413	9899.29
557.776	9792.4
558.139	9844.6
558.502	9789.69
558.865	9791.95
559.228	9727.54
559.59	9701.78
559.953	9693.42
560.316	9815.22
560.679	9738.84
561.041	9723.47
561.404	9712.63
561.767	9804.37
562.129	9651.38
562.492	9695.45
562.854	9753.53
563.217	9645.06
563.579	9646.86
563.941	9641.67
564.304	9701.1
564.666	9685.28
565.028	9645.96
565.39	9684.83
565.753	9692.97
566.115	9624.94
566.477	9679.63
566.839	9692.51
567.201	9708.78
567.563	9632.18
567.925	9734.09
568.287	9664.94
568.648	9669.01
569.01	9737.03
569.372	9683.93
569.734	9677.15
570.095	9729.35
570.457	9735.9
570.819	9707.65
571.18	9683.93
571.542	9709.01
571.903	9679.63
572.265	9688.9
572.626	9763.02
572.987	9687.77
573.349	9719.63
573.71	9731.38
574.071	9721.21
574.432	9760.99
574.794	9782.45
575.155	9718.05
575.516	9772.96
575.877	9743.59
576.238	9711.5
576.599	9747.43
576.96	9697.26
577.32	9744.04
577.681	9726.86
578.042	9772.96
578.403	9741.33
578.763	9764.6
579.124	9780.42
579.485	9786.3
579.845	9819.52
580.206	9730.93
580.566	9783.58
580.927	9851.61
581.287	9739.52
581.648	9647.77
582.008	9735.45
582.368	9690.03
582.728	9750.37
583.089	9735.45
583.449	9647.54
583.809	9706.98
584.169	9687.77
584.529	9646.19
584.889	9725.73
585.249	9680.76
585.609	9631.72
585.969	9668.79
586.329	9529.81
586.688	9611.39
587.048	9582.91
587.408	9584.72
587.768	9561.67
588.127	9510.6
588.487	9528.45
588.846	9593.08
589.206	9572.29
589.565	9525.51
589.925	9560.09
590.284	9494.33
590.643	9455.68
591.003	9570.03
591.362	9578.17
591.721	9521.67
592.08	9399.41
592.44	9504.04
592.799	9505.63
593.158	9458.17
593.517	9452.52
593.876	9436.7
594.235	9478.73
594.593	9422.24
594.952	9448.45
595.311	9398.51
595.67	9412.29
596.029	9488.23
596.387	9436.93
596.746	9407.55
597.104	9380.43
597.463	9463.14
597.822	9427.66
598.18	9339.3
598.538	9278.74
598.897	9316.93
599.255	9327.1
599.613	9433.09
599.972	9353.31
600.33	9369.36
600.688	9299.08
601.046	9394.22
601.404	9364.39
601.762	9323.03
602.12	9407.1
602.478	9350.83
602.836	9404.16
603.194	9307.66
603.552	9335.01
603.91	9323.71
604.268	9302.92
604.625	9296.37
604.983	9331.17
605.341	9236.93
605.698	9357.38
606.056	9371.17
606.413	9322.35
606.771	9406.42
607.128	9380.66
607.485	9308.12
607.843	9255.24
608.2	9385.85
608.557	9354.22
608.914	9341.56
609.272	9418.62
609.629	9378.85
609.986	9363.71
610.343	9332.75
610.7	9402.13
611.057	9352.18
611.414	9384.27
611.771	9377.95
612.127	9476.25
612.484	9393.09
612.841	9449.13
613.198	9352.18
613.554	9334.1
613.911	9477.15
614.267	9425.4
614.624	9430.15
614.98	9428.11
615.337	9470.82
615.693	9411.62
616.05	9401.22
616.406	9453.88
616.762	9441.22
617.118	9472.18
617.475	9431.5
617.831	9460.66
618.187	9509.47
618.543	9537.26
618.899	9484.38
619.255	9496.81
619.611	9440.99
619.967	9613.65
620.323	9556.7
620.678	9504.72
621.034	9489.81
621.39	9515.57
621.746	9518.96
622.101	9575
622.457	9513.76
622.812	9615.91
623.168	9602.8
623.523	9546.08
623.879	9569.8
624.234	9492.07
624.589	9538.62
624.945	9504.95
625.3	9557.6
625.655	9520.31
626.01	9520.54
626.365	9507.66
626.72	9539.52
627.075	9463.37
627.43	9535.68
627.785	9464.27
628.14	9502.46
628.495	9629.69
628.85	9458.4
629.205	9516.7
629.559	9519.18
629.914	9455.46
630.269	9448.45
630.623	9460.43
630.978	9371.84
631.332	9448.68
631.687	9457.49
632.041	9378.4
632.396	9408.91
632.75	9365.97
633.104	9451.62
633.459	9415.23
633.813	9344.27
634.167	9359.64
634.521	9403.93
634.875	9345.18
635.229	9398.28
635.583	9253.88
635.937	9269.7
636.291	9226.99
636.645	9295.69
636.999	9218.63
637.352	9311.28
637.706	9199.19
638.06	9214.79
638.413	9199.42
638.767	9197.16
639.121	9172.08
639.474	9130.95
639.828	9169.36
640.181	9189.48
640.534	9160.78
640.888	9127.56
641.241	9058.41
641.594	9120.78
641.947	9098.86
642.301	9066.99
642.654	9104.96
643.007	9058.18
643.36	9113.09
643.713	9076.03
644.066	9097.27
644.419	9087.56
644.771	8970.27
645.124	8928.92
645.477	8885.98
645.83	8867.9
646.182	8782.48
646.535	8801.46
646.888	8873.33
647.24	8721.92
647.593	8800.11
647.945	8783.38
648.298	8720.79
648.65	8760.33
649.002	8797.62
649.355	8768.47
649.707	8746.78
650.059	8775.02
650.411	8887.56
650.763	8886.21
651.115	8994.68
651.467	9015.02
651.819	8919.88
652.171	9023.83
652.523	8875.81
652.875	8942.48
653.227	8899.77
653.578	8984.06
653.93	8975.24
654.282	8978.41
654.633	8920.56
654.985	9017.28
655.337	8942.7
655.688	8951.74
656.039	9033.32
656.391	8955.81
656.742	8907.68
657.094	8992.64
657.445	9018.18
657.796	9003.72
658.147	9002.59
658.498	8927.56
658.849	8968.01
659.2	8971.63
659.551	9028.35
659.902	8986.32
660.253	8976.6
660.604	9045.75
660.955	8909.03
661.306	9091.17
661.656	9055.02
662.007	9002.81
662.358	9047.78
662.708	9005.53
663.059	9062.47
663.409	8988.35
663.76	9003.94
664.11	9045.75
664.461	9080.78
664.811	8981.12
665.161	9059.76
665.511	8996.71
665.862	9047.11
666.212	9091.17
666.562	9087.33
666.912	9066.32
667.262	9081
667.612	9015.7
667.962	9038.97
668.312	9032.87
668.662	9090.95
669.011	9031.06
669.361	9056.82
669.711	9055.92
670.06	9016.37
670.41	8977.28
670.76	9015.47
671.109	9067.22
671.459	8935.25
671.808	9031.29
672.157	8980.44
672.507	8962.82
672.856	8920.1
673.205	8974.34
673.554	8997.39
673.904	8960.1
674.253	8979.99
674.602	8883.27
674.951	8864.29
675.3	8797.85
675.649	8861.12
675.998	8859.32
676.346	8942.02
676.695	8928.01
677.044	8857.28
677.393	8923.04
677.741	8822.25
678.09	8872.2
678.438	8834.01
678.787	8876.49
679.135	8912.42
679.484	8806.21
679.832	8750.62
680.181	8741.58
680.529	8788.58
680.877	8744.97
681.225	8733.22
681.573	8694.8
681.922	8726.89
682.27	8636.04
682.618	8671.98
682.966	8670.62
683.314	8632.2
683.661	8580.23
684.009	8604.18
684.357	8619.1
684.705	8572.77
685.053	8676.04
685.4	8518.76
685.748	8530.96
686.095	8507.01
686.443	8455.48
686.79	8486.67
687.138	8515.82
687.485	8474.24
687.832	8434.69
688.18	8373.68
688.527	8352.66
688.874	8320.57
689.221	8326
689.568	8329.84
689.915	8271.99
690.262	8246
690.609	8180.46
690.956	8186.34
691.303	8178.88
691.65	8140.46
691.997	8120.58
692.344	8013.69
692.69	8093.46
693.037	8044.65
693.383	8001.03
693.73	8028.83
694.077	7960.58
694.423	7958.77
694.769	7896.18
695.116	7913.35
695.462	7947.02
695.808	7833.81
696.155	7839.91
696.501	7784.09
696.847	7779.57
697.193	7694.15
697.539	7738.44
697.885	7685.33
698.231	7684.66
698.577	7609.18
698.923	7523.31
699.269	7571.21
699.614	7525.11
699.96	7528.28
700.306	7465.23
700.651	7421.84
700.997	7405.57
701.342	7314.72
701.688	7362.18
702.033	7326.25
702.379	7335.74
702.724	7252.58
703.069	7295.29
703.415	7203.09
703.76	7238.11
704.105	7185.69
704.45	7169.19
704.795	7190.21
705.14	7088.74
705.485	7116.08
705.83	7048.97
706.175	7015.07
706.52	7002.19
706.865	7011
707.209	6979.36
707.554	6976.65
707.899	6958.35
708.243	6912.25
708.588	6924.45
708.932	6846.94
709.277	6838.8
709.621	6837.67
709.966	6771.23
710.31	6796.54
710.654	6756.77
710.998	6765.36
711.342	6804.91
711.687	6701.18
712.031	6716.77
712.375	6689.2
712.719	6717
713.063	6615.31
713.407	6668.64
713.75	6612.82
714.094	6653.05
714.438	6614.63
714.782	6574.86
715.125	6585.02
715.469	6565.59
715.812	6539.83
716.156	6561.07
716.499	6548.87
716.843	6532.6
717.186	6534.63
717.53	6542.09
717.873	6493.28
718.216	6516.1
718.559	6458.7
718.902	6415.09
719.246	6417.57
719.589	6444.92
719.932	6385.48
720.275	6464.12
720.617	6444.01
720.96	6425.48
721.303	6390.68
721.646	6361.75
721.989	6349.55
722.331	6409.44
722.674	6351.81
723.016	6375.31
723.359	6351.81
723.701	6358.36
724.044	6307.29
724.386	6320.85
724.729	6344.13
725.071	6283.34
725.413	6361.98
725.755	6258.03
726.097	6298.48
726.439	6272.94
726.782	6272.04
727.124	6329.21
727.465	6244.69
727.807	6263
728.149	6242.21
728.491	6291.7
728.833	6326.05
729.175	6243.11
729.516	6242.21
729.858	6254.64
730.199	6277.91
730.541	6258.93
730.882	6266.39
731.224	6287.63
731.565	6209.89
731.906	6258.25
732.248	6260.51
732.589	6234.07
732.93	6209.22
733.271	6256.45
733.612	6303
733.953	6284.69
734.294	6267.97
734.635	6259.84
734.976	6287.18
735.317	6275.65
735.658	6241.53
735.999	6330.34
736.339	6271.81
736.68	6284.69
737.021	6302.09
737.361	6249.89
737.702	6313.17
738.042	6285.15
738.383	6283.34
738.723	6320.17
739.063	6274.98
739.404	6397.23
739.744	6327.18
740.084	6386.16
740.424	6349.55
740.764	6378.7
741.104	6385.26
741.444	6335.31
741.784	6361.3
742.124	6431.36
742.464	6402.88
742.804	6424.8
743.143	6439.94
743.483	6424.12
743.823	6431.81
744.162	6510
744.502	6509.55
744.841	6591.35
745.181	6624.57
745.52	6657.34
745.86	6705.02
746.199	6710.67
746.538	6756.77
746.877	6779.6
747.216	6851.68
747.556	6847.84
747.895	6923.09
748.234	6928.29
748.573	6984.79
748.911	7049.65
749.25	7119.7
749.589	7116.31
749.928	7232.24
750.267	7307.27
750.605	7368.05
750.944	7382.97
751.283	7446.47
751.621	7552
751.96	7618.9
752.298	7683.53
752.636	7799.46
752.975	7869.74
753.313	7933.69
753.651	8127.13
753.989	8151.31
754.327	8228.15
754.666	8345.2
755.004	8495.03
755.342	8607.12
755.679	8745.87
756.017	8808.47
756.355	8939.99
756.693	9058.63
757.031	9177.27
757.368	9315.57
757.706	9436.25
758.044	9539.3
758.381	9720.31
758.719	9897.71
759.056	10095.21
759.394	10180.18
759.731	10278.94
760.068	10434.41
760.405	10573.39
760.743	10713.73
761.08	10838.25
761.417	11052.93
761.754	11166.15
762.091	11365.46
762.428	11516.87
762.765	11614.04
763.102	11808.84
763.438	11965.22
763.775	12113.47
764.112	12339.68
764.449	12490.18
764.785	12672.32
765.122	12781.92
765.458	12890.62
765.795	12997.06
766.131	13238.63
766.467	13332.64
