Data from hue_38_FLMS001491_00043.txt Node
Date: Tue Feb 07 17:31:33 GMT 2017
User: dcchb
Spectrometer: FLMS00149
Trigger mode: 0
Integration Time (sec): 2.000000E-2
Scans to average: 10
Electric dark correction enabled: true
Nonlinearity correction enabled: false
Boxcar width: 0
XAxis mode: Wavelengths
Number of Pixels in Spectrum: 2048
>>>>>Begin Spectral Data<<<<<
341.393	-1.13
341.776	-1.13
342.16	-1.13
342.543	-57.17
342.927	-53.78
343.31	-79.77
343.693	-65.76
344.077	-45.2
344.46	-49.49
344.843	-56.04
345.226	-40.45
345.61	-35.03
345.993	-12.43
346.376	-4.75
346.759	1.36
347.142	23.5
347.525	60.11
347.908	48.36
348.291	59.66
348.674	85.42
349.057	110.51
349.44	124.97
349.823	119.09
350.206	140.56
350.588	208.58
350.971	224.85
351.354	232.08
351.737	239.32
352.119	252.42
352.502	255.13
352.884	270.95
353.267	286.09
353.65	295.59
354.032	290.39
354.414	304.62
354.797	346.88
355.179	337.62
355.562	343.04
355.944	341.23
356.326	342.36
356.709	345.98
357.091	348.24
357.473	354.34
357.855	343.95
358.238	331.29
358.62	331.29
359.002	310.73
359.384	336.49
359.766	347.56
360.148	341.01
360.53	336.94
360.912	344.17
361.294	333.32
361.676	327.68
362.057	319.09
362.439	317.05
362.821	344.17
363.203	327.68
363.584	355.7
363.966	338.3
364.348	334
364.729	342.59
365.111	331.29
365.493	311.4
365.874	316.83
366.256	341.23
366.637	322.7
367.019	321.57
367.4	328.13
367.781	330.84
368.163	315.25
368.544	335.13
368.925	312.53
369.306	329.48
369.688	313.44
370.069	314.57
370.45	298.3
370.831	339.2
371.212	322.7
371.593	325.19
371.974	317.28
372.355	329.71
372.736	322.93
373.117	323.83
373.498	318.18
373.879	310.73
374.26	332.42
374.641	326.09
375.021	332.87
375.402	316.83
375.783	341.91
376.163	347.34
376.544	337.39
376.925	345.3
377.305	332.19
377.686	330.39
378.066	320.22
378.447	328.58
378.827	345.53
379.208	336.04
379.588	326.55
379.968	349.37
380.349	358.41
380.729	350.73
381.109	360.89
381.489	342.14
381.87	352.53
382.25	336.04
382.63	341.01
383.01	351.18
383.39	340.1
383.77	343.49
384.15	352.31
384.53	343.72
384.91	356.15
385.29	347.11
385.67	364.28
386.049	375.13
386.429	350.27
386.809	365.87
387.189	335.36
387.568	353.66
387.948	374.23
388.328	361.12
388.707	359.31
389.087	343.49
389.466	368.35
389.846	347.79
390.225	361.8
390.605	370.39
390.984	365.19
391.363	375.81
391.743	365.41
392.122	390.05
392.501	367
392.881	370.39
393.26	398.41
393.639	381.91
394.018	395.47
394.397	373.55
394.776	375.81
395.155	404.96
395.534	371.29
395.913	399.54
396.292	372.87
396.671	389.37
397.05	384.17
397.429	381.68
397.808	394.34
398.186	382.81
398.565	396.83
398.944	388.69
399.323	371.97
399.701	400.67
400.08	408.35
400.458	388.92
400.837	409.03
401.215	390.27
401.594	399.54
401.972	394.34
402.351	408.58
402.729	426.43
403.107	409.93
403.486	407.45
403.864	403.83
404.242	414.45
404.62	430.5
404.999	407.9
405.377	415.13
405.755	418.52
406.133	441.34
406.511	427.33
406.889	422.59
407.267	436.6
407.645	411.06
408.023	439.31
408.401	463.72
408.779	432.53
409.156	418.52
409.534	439.54
409.912	438.41
410.29	471.4
410.667	447.45
411.045	447.45
411.422	444.73
411.8	464.17
412.178	458.07
412.555	465.3
412.933	468.91
413.31	473.43
413.687	493.09
414.065	485.86
414.442	489.25
414.819	482.93
415.197	480.67
415.574	493.55
415.951	480.67
416.328	492.42
416.705	502.36
417.082	486.77
417.46	508.24
417.837	511.62
418.214	512.75
418.591	513.21
418.967	508.01
419.344	510.5
419.721	513.21
420.098	520.44
420.475	531.51
420.852	538.74
421.228	558.63
421.605	529.03
421.982	535.58
422.358	550.49
422.735	537.16
423.111	541.91
423.488	552.3
423.864	515.69
424.241	558.4
424.617	526.77
424.994	566.31
425.37	546.43
425.746	569.25
426.123	569.02
426.499	574
426.875	571.51
427.251	607.22
427.627	597.27
428.003	602.7
428.379	597.95
428.756	608.35
429.132	602.47
429.507	615.58
429.883	630.49
430.259	599.98
430.635	628.91
431.011	614.9
431.387	617.61
431.763	616.71
432.138	617.84
432.514	655.8
432.89	637.72
433.265	618.97
433.641	674.78
434.016	665.07
434.392	689.47
434.767	701.22
435.143	677.27
435.518	661.68
435.894	679.3
436.269	713.43
436.644	698.29
437.02	718.63
437.395	686.54
437.77	691.28
438.145	725.18
438.52	701.45
438.895	734.9
439.271	740.77
439.646	748.68
440.021	767.21
440.395	742.58
440.77	736.25
441.145	745.74
441.52	776.93
441.895	732.86
442.27	773.31
442.645	780.32
443.019	782.8
443.394	762.24
443.769	799.08
444.143	752.07
444.518	773.09
444.892	796.59
445.267	795.69
445.641	782.35
446.016	793.65
446.39	800.43
446.764	806.98
447.139	795.46
447.513	806.31
447.887	822.13
448.262	860.54
448.636	843.59
449.01	853.76
449.384	832.97
449.758	846.31
450.132	846.98
450.506	858.51
450.88	863.71
451.254	852.86
451.628	879.98
452.002	892.18
452.376	880.2
452.75	932.18
453.123	914.78
453.497	924.72
453.871	899.41
454.244	938.28
454.618	921.56
454.992	937.83
455.365	933.53
455.739	980.54
456.112	977.15
456.486	996.81
456.859	1012.4
457.232	1012.63
457.606	986.41
457.979	1012.18
458.352	1028.9
458.725	1033.65
459.099	1058.96
459.472	1070.48
459.845	1070.71
460.218	1077.71
460.591	1105.51
460.964	1071.61
461.337	1139.18
461.71	1118.61
462.083	1161.55
462.456	1184.83
462.829	1150.03
463.201	1193.41
463.574	1175.56
463.947	1226.18
464.32	1218.73
464.692	1251.72
465.065	1269.12
465.438	1262.34
465.81	1292.85
466.183	1294.88
466.555	1313.19
466.928	1345.05
467.3	1356.8
467.672	1351.15
468.045	1385.95
468.417	1370.81
468.789	1435.89
469.161	1449.23
469.534	1469.11
469.906	1463.24
470.278	1518.83
470.65	1538.72
471.022	1558.38
471.394	1574.65
471.766	1610.81
472.138	1636.57
472.51	1677.92
472.882	1702.1
473.253	1746.62
473.625	1751.82
473.997	1808.54
474.369	1820.74
474.74	1847.18
475.112	1903.23
475.484	1927.41
475.855	2011.02
476.227	2001.3
476.598	2101.87
476.97	2112.94
477.341	2192.71
477.713	2223.67
478.084	2255.31
478.455	2334.18
478.827	2386.15
479.198	2450.56
479.569	2502.53
479.94	2587.5
480.311	2606.26
480.682	2711.34
481.053	2797.89
481.424	2828.85
481.795	2901.17
482.166	2971.67
482.537	3061.84
482.908	3152.23
483.279	3218.45
483.65	3313.13
484.021	3430.42
484.391	3438.33
484.762	3550.87
485.133	3615.72
485.503	3697.08
485.874	3803.74
486.244	3879.45
486.615	3967.58
486.985	4080.34
487.356	4234.69
487.726	4282.83
488.097	4411.18
488.467	4460.9
488.837	4593.1
489.207	4687.79
489.578	4819.76
489.948	4918.51
490.318	5017.72
490.688	5092.3
491.058	5229.69
491.428	5343.36
491.798	5442.34
492.168	5552.4
492.538	5651.38
492.908	5787.64
493.278	5906.96
493.648	5945.61
494.017	6041.88
494.387	6159.39
494.757	6232.6
495.126	6354.41
495.496	6424.46
495.866	6560.73
496.235	6667.62
496.605	6794.4
496.974	6920.04
497.344	6990.78
497.713	7051.79
498.082	7104.22
498.452	7270.54
498.821	7356.87
499.19	7412.69
499.559	7612.91
499.928	7648.16
500.298	7737.42
500.667	7809.06
501.036	7853.58
501.405	7972.22
501.774	8078.66
502.143	8122.27
502.512	8215.83
502.88	8350.74
503.249	8407.46
503.618	8488.36
503.987	8544.63
504.356	8617.85
504.724	8729.71
505.093	8816.27
505.462	8881.35
505.83	8994.57
506.199	9091.29
506.567	9199.98
506.936	9182.81
507.304	9345.29
507.672	9374.67
508.041	9464.61
508.409	9501.67
508.777	9642.91
509.145	9752.96
509.514	9745.73
509.882	9856.01
510.25	9768.78
510.618	9971.04
510.986	9995.44
511.354	10145.04
511.722	10227.75
512.09	10294.64
512.458	10299.39
512.826	10461.87
513.193	10473.17
513.561	10492.61
513.929	10581.19
514.297	10740.96
514.664	10849.21
515.032	10922.2
515.4	10913.84
515.767	10936.21
516.135	11108.41
516.502	11025.92
516.869	11220.04
517.237	11229.76
517.604	11255.98
517.972	11392.24
518.339	11460.72
518.706	11494.84
519.073	11551.79
519.44	11676.08
519.808	11725.57
520.175	11763.53
520.542	11897.09
520.909	12002.62
521.276	11988.16
521.643	12015.05
522.009	12113.81
522.376	12189.51
522.743	12344.76
523.11	12484.64
523.477	12509.05
523.843	12500.46
524.21	12692.32
524.577	12815.71
524.943	12852.32
525.31	12915.82
525.676	13057.06
526.043	13101.8
526.409	13203.49
526.776	13327.11
527.142	13282.14
527.508	13417.5
527.874	13514.22
528.241	13578.4
528.607	13709.7
528.973	13796.47
529.339	13782.91
529.705	13820.88
530.071	13985.85
530.437	14037.6
530.803	14126.63
531.169	14177.71
531.535	14106.52
531.901	14307.42
532.267	14394.65
532.632	14467.42
532.998	14504.93
533.364	14564.14
533.73	14583.35
534.095	14710.35
534.461	14839.84
534.826	14835.32
535.192	14909.21
535.557	15000.74
535.923	15023.56
536.288	15101.98
536.653	15155.31
537.019	15142.65
537.384	15238.92
537.749	15319.6
538.114	15480.04
538.479	15426.49
538.845	15574.28
539.21	15452.25
539.575	15685.46
539.94	15605.24
540.305	15789.19
540.67	15690.43
541.034	15773.82
541.399	15796.42
541.764	15931.78
542.129	15998.68
542.494	16005.68
542.858	16077.32
543.223	16099.24
543.587	16195.51
543.952	16236.86
544.316	16375.61
544.681	16296.75
545.045	16453.35
545.41	16599.56
545.774	16649.05
546.138	16583.97
546.503	16760.01
546.867	16739.9
547.231	16836.17
547.595	16900.12
547.959	16942.83
548.324	17026.9
548.688	16945.77
549.052	17154.13
549.416	17168.14
549.779	17130.62
550.143	17309.38
550.507	17377.4
550.871	17389.6
551.235	17366.78
551.599	17574.45
551.962	17595.7
552.326	17552.08
552.689	17723.15
553.053	17721.79
553.417	17769.02
553.78	18023.03
554.143	17935.57
554.507	18091.05
554.87	18045.85
555.234	18244.72
555.597	18187.77
555.96	18223.93
556.323	18275.9
556.686	18281.78
557.05	18454.2
557.413	18509.34
557.776	18550.7
558.139	18670.24
558.502	18720.64
558.865	18735.1
559.228	18850.8
559.59	18868.43
559.953	18962.89
560.316	19127.86
560.679	19117.46
561.041	19260.28
561.404	19334.86
561.767	19453.5
562.129	19417.12
562.492	19565.14
562.854	19686.71
563.217	19555.42
563.579	19678.35
563.941	19770.1
564.304	19827.5
564.666	19932.36
565.028	19887.39
565.39	20038.8
565.753	20135.74
566.115	20299.35
566.477	20376.87
566.839	20405.57
567.201	20496.18
567.563	20546.58
567.925	20677.65
568.287	20674.48
568.648	20729.62
569.01	20900.02
569.372	20998.09
569.734	20819.34
570.095	21100.69
570.457	21157.86
570.819	21307.69
571.18	21245.32
571.542	21494.58
571.903	21573.22
572.265	21548.59
572.626	21552.2
572.987	21749.03
573.349	21735.02
573.71	21991.96
574.071	21968.24
574.432	22142.47
574.794	22357.15
575.155	22267.44
575.516	22309.02
575.877	22516.24
576.238	22652.06
576.599	22741.77
576.96	22866.97
577.32	22817.25
577.681	23084.14
578.042	23218.6
578.403	23280.29
578.763	23429.44
579.124	23590.57
579.485	23899.26
579.845	24001.18
580.206	24096.32
580.566	24245.24
580.927	24253.6
581.287	24568.39
581.648	24623.76
582.008	24883.19
582.368	25037.53
582.728	25134.48
583.089	25277.3
583.449	25393.68
583.809	25648.82
584.169	25924.97
584.529	25886.78
584.889	26328.12
585.249	26406.99
585.609	26546.65
585.969	26895.34
586.329	26908.67
586.688	27141.21
587.048	27352.73
587.408	27479.96
587.768	27605.38
588.127	27880.17
588.487	28018.25
588.846	28425.92
589.206	28434.05
589.565	28730.54
589.925	29022.29
590.284	29089.63
590.643	29433.58
591.003	29606.68
591.362	29954.24
591.721	29999.89
592.08	30182.03
592.44	30505.64
592.799	30725.29
593.158	30755.35
593.517	30820.66
593.876	31219.29
594.235	31396.46
594.593	31561.66
594.952	31706.06
595.311	32017.46
595.67	32259.72
596.029	32544
596.387	32685.92
596.746	32947.38
597.104	32866.48
597.463	33295.17
597.822	33522.28
598.18	33626.23
598.538	33738.77
598.897	34058.99
599.255	33960.91
599.613	34656.04
599.972	34447.23
600.33	34919.99
600.688	34816.03
601.046	35041.79
601.404	35380.54
601.762	35445.17
602.12	35919.51
602.478	35847.19
602.836	36018.26
603.194	36001.99
603.552	36354.75
603.91	36261.87
604.268	36594.52
604.625	36597.91
604.983	36829.31
605.341	36844
605.698	37070.89
606.056	37276.99
606.413	37355.4
606.771	37716.07
607.128	37777.09
607.485	37665.9
607.843	37799.91
608.2	38014.59
608.557	38278.99
608.914	38395.83
609.272	38599.44
609.629	38725.54
609.986	38910.84
610.343	38858.19
610.7	39135.02
611.057	39109.93
611.414	39232.64
611.771	39380.43
612.127	39682.35
612.484	39645.29
612.841	39900.42
613.198	39828.78
613.554	39916.24
613.911	40346.96
614.267	40273.29
614.624	40331.14
614.98	40426.96
615.337	40757.12
615.693	40694.07
616.05	40755.99
616.406	41018.58
616.762	40919.15
617.118	40940.62
617.475	41032.37
617.831	41325.47
618.187	41451.57
618.543	41415.63
618.899	41715.97
619.255	41658.57
619.611	41615.4
619.967	41850.2
620.323	42024.88
620.678	41974.49
621.034	41854.04
621.39	41929.29
621.746	41733.37
622.101	42400.24
622.457	42194.37
622.812	42324.54
623.168	42457.19
623.523	42435.27
623.879	42466
624.234	42293.58
624.589	42573.12
624.945	42570.18
625.3	42745.99
625.655	42675.26
626.01	42815.6
626.365	42839.33
626.72	42745.32
627.075	42753.45
627.43	42794.13
627.785	42774.69
628.14	42935.37
628.495	42924.52
628.85	42821.02
629.205	42695.83
629.559	43149.15
629.914	42816.5
630.269	43043.84
630.623	42802.72
630.978	42834.81
631.332	43057.62
631.687	43306.21
632.041	42991.64
632.396	43121.8
632.75	42986.44
633.104	43044.07
633.459	42892.66
633.813	43028.7
634.167	42987.34
634.521	42933.79
634.875	43201.58
635.229	43003.39
635.583	42919.78
635.937	42894.69
636.291	42962.03
636.645	42888.36
636.999	42872.77
637.352	42943.73
637.706	42614.7
638.06	42865.09
638.413	42596.85
638.767	42744.64
639.121	42748.71
639.474	42590.74
639.828	42631.42
640.181	42767.46
640.534	42762.72
640.888	42538.32
641.241	42483.63
641.594	42623.51
641.947	42578.32
642.301	42470.52
642.654	42632.1
643.007	42571.08
643.36	42515.72
643.713	42427.58
644.066	42708.48
644.419	42411.09
644.771	42073.92
645.124	41773.36
645.477	41677.55
645.83	41324.79
646.182	41301.51
646.535	41324.56
646.888	41409.53
647.24	41178.58
647.593	41513.94
647.945	41198.46
648.298	41160.95
648.65	41106.04
649.002	41112.82
649.355	41202.76
649.707	41001.86
650.059	41374.51
650.411	41777.66
650.763	41835.51
651.115	42122.06
651.467	42081.61
651.819	42001.38
652.171	42027.82
652.523	41751.22
652.875	41859.46
653.227	41701.28
653.578	42109.18
653.93	41912.8
654.282	41769.07
654.633	41647.72
654.985	41657.44
655.337	41772.23
655.688	41751.9
656.039	41869.86
656.391	41666.25
656.742	41684.78
657.094	41771.56
657.445	41742.18
657.796	41636.19
658.147	41619.47
658.498	41602.52
658.849	41769.52
659.2	41561.85
659.551	41491.11
659.902	41707.83
660.253	41548.06
660.604	41594.16
660.955	41391
661.306	41536.31
661.656	41491.56
662.007	41464.9
662.358	41553.94
662.708	41631.67
663.059	41481.17
663.409	41305.13
663.76	41597.32
664.11	41561.39
664.461	41495.41
664.811	41463.32
665.161	41469.87
665.511	41405.46
665.862	41593.93
666.212	41496.99
666.562	41517.33
666.912	41487.72
667.262	41487.27
667.612	41327.73
667.962	41498.12
668.312	41339.25
668.662	41606.36
669.011	41319.82
669.361	41479.36
669.711	41306.03
670.06	41312.59
670.41	41313.94
670.76	41247.95
671.109	41419.02
671.459	41062.2
671.808	41145.58
672.157	41329.31
672.507	41115.76
672.856	41143.32
673.205	41177
673.554	41357.33
673.904	41073.95
674.253	41427.61
674.602	41130.9
674.951	40705.37
675.3	40538.14
675.649	41055.87
675.998	41044.34
676.346	41031.24
676.695	41244.11
677.044	40909.43
677.393	40939.04
677.741	41011.13
678.09	40843.45
678.438	40785.82
678.787	40864.01
679.135	40834.86
679.484	40638.03
679.832	40707.18
680.181	40547.18
680.529	40584.92
680.877	40615.66
681.225	40571.14
681.573	40773.62
681.922	40364.14
682.27	40362.1
682.618	40263.8
682.966	40151.94
683.314	40389.67
683.661	40054.77
684.009	39949.91
684.357	39945.16
684.705	39998.95
685.053	39953.53
685.4	39736.81
685.748	39756.47
686.095	39751.05
686.443	39555.12
686.79	39619.07
687.138	39550.82
687.485	39717.6
687.832	39413.65
688.18	39518.96
688.527	39347.67
688.874	39386.76
689.221	39158.74
689.568	39090.5
689.915	38994.23
690.262	39076.26
690.609	39028.13
690.956	38761.24
691.303	38855.93
691.65	38603.5
691.997	38656.16
692.344	38348.82
692.69	38247.81
693.037	38344.08
693.383	38053.69
693.73	38155.15
694.077	38011.43
694.423	38051.65
694.769	37834.26
695.116	37899.12
695.462	37609.41
695.808	37589.52
696.155	37709.74
696.501	37369.41
696.847	37425.23
697.193	37099.82
697.539	37363.99
697.885	36937.33
698.231	36818.24
698.577	36968.52
698.923	36793.61
699.269	36690.11
699.614	36616.44
699.96	36535.76
700.306	36537.57
700.651	36415.31
700.997	36398.82
701.342	36149.78
701.688	36269.55
702.033	36057.36
702.379	35986.17
702.724	35807.42
703.069	36144.13
703.415	35539.86
703.76	35536.92
704.105	35592.51
704.45	35572.85
704.795	35278.17
705.14	35144.61
705.485	35119.53
705.83	35070.49
706.175	35109.81
706.52	34989.59
706.865	34869.59
707.209	34855.35
707.554	34722.25
707.899	34735.81
708.243	34416.5
708.588	34499.21
708.932	34420.11
709.277	34342.15
709.621	34425.31
709.966	34107.8
710.31	34215.15
710.654	33937.41
710.998	33971.99
711.342	33943.97
711.687	33859
712.031	33737.64
712.375	33677.31
712.719	33550.08
713.063	33675.27
713.407	33708.94
713.75	33521.15
714.094	33487.93
714.438	33307.15
714.782	33302.4
715.125	33180.6
715.469	33244.1
715.812	33112.12
716.156	32995.29
716.499	32906.71
716.843	33031
717.186	32671.68
717.53	32946.7
717.873	32821.51
718.216	32762.08
718.559	32555.98
718.902	32510.56
719.246	32537
719.589	32376.1
719.932	32259.72
720.275	32391.92
720.617	32227.18
720.96	32131.81
721.303	32204.58
721.646	32145.6
721.989	31783.35
722.331	32084.81
722.674	31839.39
723.016	31900.18
723.359	31779.73
723.701	31958.26
724.044	31719.84
724.386	31666.51
724.729	31739.05
725.071	31624.03
725.413	31613.63
725.755	31542.9
726.097	31366.86
726.439	31305.62
726.782	31163.7
727.124	31487.76
727.465	31214.77
727.807	31225.17
728.149	31123.7
728.491	31088.22
728.833	31172.51
729.175	30977.72
729.516	30909.7
729.858	30937.27
730.199	30975.91
730.541	30865.18
730.882	30789.02
731.224	30881.22
731.565	30666.99
731.906	30681.68
732.248	30678.74
732.589	30566.2
732.93	30484.85
733.271	30427.9
733.612	30395.36
733.953	30489.14
734.294	30209.15
734.635	30245.08
734.976	30407.11
735.317	30190.17
735.658	30304.29
735.999	30205.99
736.339	29925.99
736.68	30137.29
737.021	29958.76
737.361	29774.58
737.702	29999.89
738.042	29821.59
738.383	29689.39
738.723	29802.61
739.063	29720.8
739.404	29775.49
739.744	29716.51
740.084	29526.23
740.424	29759.67
740.764	29477.87
741.104	29623.4
741.444	29528.72
741.784	29424.09
742.124	29490.3
742.464	29419.79
742.804	29322.84
743.143	29326.91
743.483	29226.58
743.823	29156.3
744.162	29137.76
744.502	29250.08
744.841	29032.68
745.181	29181.38
745.52	28950.65
745.86	29056.41
746.199	28871.11
746.538	28922.86
746.877	28939.8
747.216	28797.43
747.556	28823.2
747.895	28666.59
748.234	28589.76
748.573	28629.53
748.911	28544.11
749.25	28614.16
749.589	28411.91
749.928	28544.56
750.267	28507.5
750.605	28442.19
750.944	28278.13
751.283	28249.2
751.621	28359.03
751.96	28060.05
752.298	28119.49
752.636	28044.46
752.975	28011.01
753.313	27994.29
753.651	28025.48
753.989	27800.4
754.327	27696.22
754.666	27677.69
755.004	27884.01
755.342	27627.75
755.679	27652.61
756.017	27470.46
756.355	27585.04
756.693	27442.67
757.031	27453.29
757.368	27250.58
