Data from hue_130_FLMS001491_00050.txt Node
Date: Tue Feb 07 16:57:40 GMT 2017
User: dcchb
Spectrometer: FLMS00149
Trigger mode: 0
Integration Time (sec): 2.000000E-2
Scans to average: 10
Electric dark correction enabled: true
Nonlinearity correction enabled: false
Boxcar width: 0
XAxis mode: Wavelengths
Number of Pixels in Spectrum: 2048
>>>>>Begin Spectral Data<<<<<
341.393	-22.25
341.776	-22.25
342.16	-22.25
342.543	-56.82
342.927	-75.8
343.31	-62.47
343.693	-88.68
344.077	-68.57
344.46	-69.7
344.843	-50.49
345.226	-33.09
345.61	-34.67
345.993	-5.52
346.376	-15.92
346.759	3.74
347.142	39.9
347.525	21.14
347.908	60.24
348.291	88.03
348.674	101.82
349.057	114.25
349.44	121.93
349.823	162.16
350.206	157.86
350.588	202.16
350.971	199.22
351.354	202.61
351.737	230.86
352.119	257.07
352.502	264.53
352.884	274.47
353.267	260.69
353.65	304.53
354.032	282.38
354.414	280.12
354.797	325.09
355.179	315.15
355.562	327.12
355.944	320.57
356.326	341.81
356.709	351.53
357.091	350.17
357.473	344.75
357.855	339.55
358.238	357.86
358.62	340.23
359.002	351.53
359.384	324.19
359.766	341.36
360.148	343.39
360.53	328.71
360.912	322.83
361.294	323.51
361.676	341.81
362.057	338.42
362.439	344.3
362.821	314.24
363.203	342.04
363.584	323.51
363.966	342.27
364.348	318.76
364.729	315.15
365.111	334.58
365.493	327.12
365.874	320.34
366.256	302.72
366.637	316.05
367.019	317.86
367.4	323.96
367.781	304.07
368.163	300.46
368.544	317.41
368.925	315.15
369.306	324.19
369.688	328.71
370.069	314.24
370.45	283.28
370.831	320.57
371.212	322.38
371.593	317.86
371.974	322.83
372.355	321.02
372.736	333.9
373.117	300.46
373.498	301.59
373.879	306.33
374.26	321.25
374.641	306.33
375.021	321.25
375.402	324.41
375.783	326.9
376.163	328.48
376.544	302.27
376.925	323.51
377.305	318.54
377.686	321.25
378.066	308.37
378.447	326.9
378.827	331.64
379.208	349.5
379.588	321.02
379.968	318.08
380.349	320.12
380.729	343.17
381.109	327.12
381.489	323.51
381.87	317.86
382.25	340.91
382.63	337.75
383.01	346.11
383.39	316.5
383.77	365.32
384.15	327.12
384.53	329.16
384.91	364.41
385.29	374.58
385.67	333.23
386.049	334.13
386.429	358.76
386.809	348.82
387.189	352.66
387.568	352.21
387.948	337.29
388.328	357.18
388.707	347.24
389.087	340.91
389.466	363.06
389.846	345.2
390.225	354.92
390.605	372.77
390.984	361.47
391.363	368.25
391.743	367.58
392.122	372.55
392.501	363.51
392.881	376.16
393.26	356.28
393.639	378.42
394.018	363.96
394.397	372.09
394.776	389.72
395.155	374.58
395.534	376.16
395.913	371.87
396.292	381.81
396.671	376.61
397.05	384.3
397.429	405.54
397.808	395.6
398.186	387.69
398.565	402.38
398.944	392.66
399.323	395.6
399.701	402.6
400.08	374.13
400.458	415.71
400.837	394.47
401.215	399.21
401.594	398.76
401.972	418.2
402.351	411.87
402.729	410.06
403.107	411.87
403.486	419.78
403.864	406.44
404.242	424.75
404.62	427.69
404.999	406.44
405.377	431.53
405.755	411.19
406.133	433.56
406.511	436.95
406.889	424.52
407.267	422.94
407.645	451.41
408.023	457.74
408.401	457.97
408.779	452.32
409.156	450.74
409.534	452.32
409.912	454.13
410.29	461.81
410.667	438.99
411.045	459.32
411.422	434.92
411.8	455.93
412.178	455.71
412.555	490.28
412.933	469.49
413.31	471.08
413.687	481.47
414.065	488.93
414.442	490.96
414.819	501.36
415.197	498.42
415.574	499.77
415.951	509.94
416.328	514.69
416.705	501.58
417.082	500.45
417.46	527.8
417.837	521.92
418.214	519.44
418.591	535.48
418.967	518.76
419.344	538.64
419.721	525.09
420.098	528.25
420.475	530.28
420.852	571.64
421.228	535.71
421.605	559.66
421.982	554.46
422.358	583.16
422.735	570.96
423.111	558.3
423.488	557.85
423.864	565.76
424.241	576.84
424.617	584.97
424.994	573.67
425.37	556.95
425.746	580
426.123	580
426.499	603.5
426.875	588.59
427.251	591.3
427.627	626.78
428.003	622.48
428.379	594.91
428.756	620.45
429.132	625.2
429.507	628.13
429.883	636.04
430.259	649.15
430.635	664.97
431.011	664.52
431.387	648.47
431.763	658.64
432.138	652.09
432.514	670.39
432.89	685.76
433.265	679.21
433.641	672.2
434.016	692.99
434.392	709.26
434.767	719.2
435.143	691.63
435.518	730.05
435.894	721.69
436.269	725.08
436.644	735.48
437.02	723.27
437.395	738.19
437.77	761.46
438.145	747.9
438.52	771.63
438.895	766.89
439.271	775.25
439.646	783.16
440.021	805.08
440.395	784.97
440.77	798.07
441.145	802.82
441.52	799.65
441.895	794.23
442.27	833.55
442.645	812.08
443.019	818.64
443.394	833.1
443.769	817.28
444.143	832.42
444.518	850.27
444.892	854.79
445.267	891.63
445.641	871.06
446.016	894.34
446.39	880.78
446.764	884.62
447.139	879.65
447.513	879.43
447.887	895.24
448.262	906.09
448.636	922.81
449.01	902.25
449.384	912.65
449.758	915.58
450.132	938.63
450.506	936.6
450.88	935.92
451.254	971.4
451.628	986.77
452.002	969.82
452.376	977.05
452.75	962.36
453.123	992.19
453.497	993.55
453.871	1002.59
454.244	997.84
454.618	1036.48
454.992	1007.56
455.365	1061.57
455.739	1075.81
456.112	1062.02
456.486	1085.52
456.859	1082.58
457.232	1102.25
457.606	1112.64
457.979	1111.96
458.352	1157.84
458.725	1184.28
459.099	1171.62
459.472	1200.32
459.845	1175.24
460.218	1226.31
460.591	1222.02
460.964	1237.16
461.337	1249.13
461.71	1257.72
462.083	1283.26
462.456	1267.21
462.829	1299.98
463.201	1313.09
463.574	1353.31
463.947	1353.76
464.32	1363.93
464.692	1405.29
465.065	1413.42
465.438	1440.09
465.81	1436.93
466.183	1485.74
466.555	1497.49
466.928	1500.88
467.3	1528.22
467.672	1538.62
468.045	1601.44
468.417	1614.55
468.789	1611.38
469.161	1641.67
469.534	1700.65
469.906	1719.86
470.278	1712.17
470.65	1732.51
471.022	1819.97
471.394	1804.83
471.766	1824.49
472.138	1860.42
472.51	1919.4
472.882	1982.45
473.253	2015.44
473.625	2037.81
473.997	2089.56
474.369	2129.79
474.74	2139.73
475.112	2214.08
475.484	2262.21
475.855	2342.66
476.227	2362.32
476.598	2457.46
476.97	2476.45
477.341	2590.79
477.713	2600.06
478.084	2669.89
478.455	2740.39
478.827	2795.76
479.198	2906.94
479.569	2923.89
479.94	3009.54
480.311	3101.74
480.682	3180.38
481.053	3294.73
481.424	3429.19
481.795	3487.49
482.166	3550.77
482.537	3633.93
482.908	3756.64
483.279	3837.09
483.65	3947.14
484.021	4034.37
484.391	4170.41
484.762	4237.3
485.133	4337.64
485.503	4432.78
485.874	4569.72
486.244	4639.55
486.615	4794.58
486.985	4959.09
487.356	5100.33
487.726	5248.35
488.097	5351.4
488.467	5413.77
488.837	5582.13
489.207	5757.26
489.578	5873.64
489.948	5973.53
490.318	6139.4
490.688	6247.65
491.058	6410.58
491.428	6544.81
491.798	6654.42
492.168	6802.43
492.538	6897.35
492.908	7080.17
493.278	7210.33
493.648	7336.66
494.017	7473.15
494.387	7580.04
494.757	7764.67
495.126	7887.15
495.496	7998.33
495.866	8121.95
496.235	8271.55
496.605	8348.16
496.974	8471.54
497.344	8629.05
497.713	8687.58
498.082	8843.28
498.452	8994.01
498.821	9116.05
499.19	9190.85
499.559	9314.23
499.928	9418.64
500.298	9576.37
500.667	9653.21
501.036	9666.31
501.405	9786.31
501.774	9907.66
502.143	9998.28
502.512	10075.34
502.88	10241.21
503.249	10230.37
503.618	10344.49
503.987	10509
504.356	10522.11
504.724	10643.46
505.093	10649.11
505.462	10725.72
505.83	10883.91
506.199	11003.91
506.567	11115.99
506.936	11212.04
507.304	11326.83
507.672	11334.74
508.041	11286.38
508.409	11527.96
508.777	11533.38
509.145	11640.05
509.514	11624
509.882	11692.93
510.25	11706.26
510.618	11793.49
510.986	11927.5
511.354	11930.89
511.722	11981.06
512.09	12173.59
512.458	12184.44
512.826	12202.97
513.193	12295.4
513.561	12302.85
513.929	12410.2
514.297	12530.42
514.664	12559.57
515.032	12530.87
515.4	12621.04
515.767	12707.59
516.135	12675.73
516.502	12646.57
516.869	12781.03
517.237	12874.14
517.604	12813.58
517.972	12925.89
518.339	12942.84
518.706	12987.36
519.073	13016.73
519.44	13078.65
519.808	13122.04
520.175	13129.05
520.542	13316.39
520.909	13276.61
521.276	13240.23
521.643	13320
522.009	13362.26
522.376	13409.04
522.743	13439.32
523.11	13531.97
523.477	13660.56
523.843	13505.99
524.21	13733.33
524.577	13759.54
524.943	13763.16
525.31	13721.35
525.676	13820.55
526.043	13834.57
526.409	13891.29
526.776	14032.98
527.142	13966.31
527.508	13947.56
527.874	13995.69
528.241	14046.99
528.607	14011.96
528.973	14061.68
529.339	14034.11
529.705	14168.34
530.071	14210.6
530.437	14211.96
530.803	14164.73
531.169	14174.9
531.535	14070.94
531.901	14145.07
532.267	14137.38
532.632	14165.18
532.998	14121.34
533.364	14230.04
533.73	14097.38
534.095	14183.71
534.461	14103.26
534.826	14178.74
535.192	14114.78
535.557	14174.44
535.923	14091.73
536.288	14110.26
536.653	14078.18
537.019	13969.48
537.384	14043.37
537.749	13963.15
538.114	13937.61
538.479	13963.83
538.845	14059.87
539.21	13906.65
539.575	13868.69
539.94	13966.99
540.305	13917.5
540.67	13835.92
541.034	13876.6
541.399	13838.41
541.764	13862.36
542.129	13776.94
542.494	13764.96
542.858	13726.77
543.223	13642.93
543.587	13750.05
543.952	13646.55
544.316	13665.3
544.681	13558.64
545.045	13646.55
545.41	13664.85
545.774	13548.47
546.138	13482.94
546.503	13504.4
546.867	13469.6
547.231	13488.81
547.595	13373.11
547.959	13423.73
548.324	13361.13
548.688	13307.12
549.052	13274.81
549.416	13254.02
549.779	13207.69
550.143	13243.85
550.507	13229.84
550.871	13256.28
551.235	13141.25
551.599	13193
551.962	13221.7
552.326	13165.66
552.689	13193.23
553.053	13028.94
553.417	12990.97
553.78	13048.15
554.143	12986.9
554.507	12979.67
554.87	12954.14
555.234	13105.32
555.597	12942.39
555.96	12927.47
556.323	12937.41
556.686	12968.83
557.05	12988.03
557.413	12941.26
557.776	12965.21
558.139	12977.64
558.502	12964.53
558.865	12866.91
559.228	12975.61
559.59	12948.26
559.953	12933.35
560.316	13007.69
560.679	13021.03
561.041	13042.27
561.404	12927.02
561.767	13073.68
562.129	12877.98
562.492	13036.62
562.854	13013.57
563.217	12828.72
563.579	12908.94
563.941	13011.76
564.304	13102.38
564.666	13082.49
565.028	13051.54
565.39	13091.53
565.753	13138.76
566.115	13093.12
566.477	13108.26
566.839	13139.44
567.201	13213.11
567.563	13169.05
567.925	13282.94
568.287	13177.18
568.648	13210.18
569.01	13258.54
569.372	13282.72
569.734	13210.4
570.095	13311.64
570.457	13290.4
570.819	13317.29
571.18	13260.34
571.542	13391.64
571.903	13375.14
572.265	13350.96
572.626	13364.75
572.987	13322.26
573.349	13425.76
573.71	13405.65
574.071	13343.51
574.432	13403.62
574.794	13506.89
575.155	13418.31
575.516	13438.19
575.877	13534.46
576.238	13467.12
576.599	13522.48
576.96	13454.24
577.32	13476.61
577.681	13569.71
578.042	13514.12
578.403	13528.36
578.763	13544.4
579.124	13561.58
579.485	13598.87
579.845	13578.98
580.206	13526.78
580.566	13542.6
580.927	13547.79
581.287	13596.38
581.648	13535.36
582.008	13607.9
582.368	13553.67
582.728	13589.37
583.089	13556.61
583.449	13524.07
583.809	13541.01
584.169	13557.28
584.529	13441.36
584.889	13614.91
585.249	13529.26
585.609	13468.93
585.969	13473.9
586.329	13522.26
586.688	13446.1
587.048	13457.85
587.408	13425.76
587.768	13465.76
588.127	13402.26
588.487	13425.99
588.846	13488.13
589.206	13371.53
589.565	13370.62
589.925	13381.92
590.284	13324.75
590.643	13383.5
591.003	13365.43
591.362	13362.26
591.721	13430.28
592.08	13435.03
592.44	13325.88
592.799	13361.81
593.158	13298.76
593.517	13331.3
593.876	13305.54
594.235	13291.76
594.593	13314.35
594.952	13292.21
595.311	13293.11
595.67	13308.48
596.029	13344.86
596.387	13327.46
596.746	13317.07
597.104	13264.41
597.463	13269.16
597.822	13306.9
598.18	13188.25
598.538	13251.08
598.897	13335.6
599.255	13176.28
599.613	13390.74
599.972	13253.11
600.33	13350.06
600.688	13249.27
601.046	13307.12
601.404	13373.33
601.762	13388.02
602.12	13309.83
602.478	13283.62
602.836	13357.29
603.194	13242.72
603.552	13274.81
603.91	13247.46
604.268	13286.11
604.625	13248.14
604.983	13303.73
605.341	13177.18
605.698	13271.87
606.056	13273.22
606.413	13259.44
606.771	13284.07
607.128	13405.2
607.485	13376.05
607.843	13264.19
608.2	13353.22
608.557	13374.24
608.914	13335.14
609.272	13406.1
609.629	13374.24
609.986	13510.73
610.343	13421.02
610.7	13529.71
611.057	13572.88
611.414	13396.16
611.771	13396.84
612.127	13578.08
612.484	13563.16
612.841	13469.38
613.198	13483.61
613.554	13511.41
613.911	13639.32
614.267	13585.76
614.624	13493.11
614.98	13504.4
615.337	13606.55
615.693	13574.46
616.05	13541.92
616.406	13605.65
616.762	13552.31
617.118	13561.8
617.475	13642.71
617.831	13694
618.187	13639.99
618.543	13694.23
618.899	13737.84
619.255	13672.54
619.611	13579.88
619.967	13675.02
620.323	13768.13
620.678	13671.86
621.034	13626.89
621.39	13705.3
621.746	13627.34
622.101	13749.82
622.457	13605.87
622.812	13714.79
623.168	13686.55
623.523	13743.49
623.879	13820.33
624.234	13696.94
624.589	13740.33
624.945	13701.46
625.3	13813.1
625.655	13639.77
626.01	13724.96
626.365	13667.56
626.72	13641.35
627.075	13702.37
627.43	13627.34
627.785	13690.61
628.14	13703.04
628.495	13635.25
628.85	13644.29
629.205	13560
629.559	13694.91
629.914	13619.66
630.269	13598.41
630.623	13681.8
630.978	13603.39
631.332	13614.46
631.687	13591.86
632.041	13677.96
632.396	13708.24
632.75	13548.25
633.104	13464.18
633.459	13457.17
633.813	13464.63
634.167	13560.9
634.521	13520.9
634.875	13539.21
635.229	13440.68
635.583	13462.37
635.937	13448.59
636.291	13381.24
636.645	13355.48
636.999	13356.84
637.352	13417.18
637.706	13373.56
638.06	13423.5
638.413	13400.9
638.767	13316.39
639.121	13339.66
639.474	13211.98
639.828	13264.86
640.181	13319.32
640.534	13236.16
640.888	13176.73
641.241	13197.75
641.594	13214.69
641.947	13259.89
642.301	13174.47
642.654	13083.62
643.007	13160.46
643.36	13150.29
643.713	13247.46
644.066	13160.23
644.419	13132.66
644.771	13014.47
645.124	12903.06
645.477	12847.25
645.83	12831.2
646.182	12682.73
646.535	12704.2
646.888	12771.09
647.24	12676.86
647.593	12743.75
647.945	12660.13
648.298	12635.95
648.65	12670.53
649.002	12563.86
649.355	12739
649.707	12651.09
650.059	12707.82
650.411	12873.01
650.763	12815.61
651.115	13026.9
651.467	12918.43
651.819	12969.96
652.171	13013.12
652.523	12913.91
652.875	12951.65
653.227	12933.8
653.578	12948.26
653.93	12925.66
654.282	12962.27
654.633	12928.6
654.985	12926.34
655.337	12895.38
655.688	12893.57
656.039	12984.87
656.391	12872.56
656.742	12956.17
657.094	12939.45
657.445	12988.71
657.796	12945.55
658.147	12896.29
658.498	12901.03
658.849	13022.16
659.2	13029.16
659.551	12893.57
659.902	13063.51
660.253	13012.21
660.604	12991.2
660.955	12917.53
661.306	13026.68
661.656	12976.28
662.007	13040.24
662.358	13030.07
662.708	13044.53
663.059	13048.37
663.409	12908.94
663.76	13036.85
664.11	13051.31
664.461	12984.42
664.811	13021.93
665.161	13039.33
665.511	12950.52
665.862	13011.54
666.212	12956.62
666.562	13058.99
666.912	12957.53
667.262	13004.76
667.612	12982.61
667.962	13029.16
668.312	12981.03
668.662	13046.11
669.011	13041.59
669.361	12883.86
669.711	12955.49
670.06	12988.49
670.41	12967.92
670.76	12863.97
671.109	13047.92
671.459	12915.95
671.808	12922.05
672.157	12967.47
672.507	12877.98
672.856	12881.82
673.205	12850.41
673.554	12944.42
673.904	12846.34
674.253	12890.64
674.602	12840.24
674.951	12649.51
675.3	12603.64
675.649	12802.28
675.998	12823.52
676.346	12861.03
676.695	12819.45
677.044	12725.22
677.393	12759.79
677.741	12797.76
678.09	12727.93
678.438	12710.98
678.787	12788.27
679.135	12711.66
679.484	12593.92
679.832	12664.65
680.181	12567.48
680.529	12634.37
680.877	12608.16
681.225	12537.2
681.573	12672.11
681.922	12555.28
682.27	12520.25
682.618	12534.26
682.966	12476.18
683.314	12458.1
683.661	12449.97
684.009	12394.15
684.357	12339.24
684.705	12334.04
685.053	12289.52
685.4	12337.88
685.748	12239.35
686.095	12219.47
686.443	12172.46
686.79	12210.43
687.138	12200.48
687.485	12181.73
687.832	12152.12
688.18	12106.25
688.527	12079.36
688.874	12082.52
689.221	12022.18
689.568	11940.15
689.915	11946.25
690.262	11901.28
690.609	11913.49
690.956	11908.74
691.303	11831.91
691.65	11774.51
691.997	11763.89
692.344	11639.82
692.69	11634.4
693.037	11677.11
693.383	11510.11
693.73	11553.72
694.077	11505.36
694.423	11400.96
694.769	11434.4
695.116	11392.14
695.462	11350.79
695.808	11347.4
696.155	11354.18
696.501	11254.07
696.847	11192.15
697.193	11112.6
697.539	11169.78
697.885	11065.37
698.231	11045.71
698.577	10977.92
698.923	11011.59
699.269	10943.79
699.614	10893.63
699.96	10826.96
700.306	10885.26
700.651	10753.29
700.997	10759.17
701.342	10836.23
701.688	10664.25
702.033	10633.75
702.379	10678.72
702.724	10592.62
703.069	10701.31
703.415	10473.3
703.76	10511.94
704.105	10493.86
704.45	10495.9
704.795	10389.68
705.14	10336.35
705.485	10439.85
705.83	10361.89
706.175	10328.22
706.52	10312.62
706.865	10241.89
707.209	10154.21
707.554	10183.59
707.899	10218.84
708.243	10041.67
708.588	10094.78
708.932	10015.46
709.277	10036.02
709.621	10047.09
709.966	9941.79
710.31	9991.5
710.654	9841
710.998	9887.1
711.342	9887.1
711.687	9822.69
712.031	9884.16
712.375	9786.31
712.719	9764.62
713.063	9713.32
713.407	9708.12
713.75	9758.06
714.094	9717.61
714.438	9661.57
714.782	9660.44
715.125	9578.86
715.469	9699.76
715.812	9602.59
716.156	9487.56
716.499	9600.33
716.843	9653.43
717.186	9543.6
717.53	9613.89
717.873	9606.43
718.216	9517.17
718.559	9505.41
718.902	9492.76
719.246	9478.97
719.589	9386.32
719.932	9372.08
720.275	9407.56
720.617	9409.15
720.96	9405.98
721.303	9364.63
721.646	9387.68
721.989	9308.36
722.331	9309.71
722.674	9264.06
723.016	9323.05
723.359	9293.89
723.701	9238.75
724.044	9231.97
724.386	9164.86
724.729	9294.35
725.071	9285.31
725.413	9233.78
725.755	9183.84
726.097	9198.08
726.439	9133.22
726.782	9159.43
727.124	9171.64
727.465	9116.27
727.807	9160.56
728.149	9092.54
728.491	9107.23
728.833	9156.04
729.175	9086.22
729.516	9117.18
729.858	9125.08
730.199	9065.43
730.541	9072.2
730.882	9133.9
731.224	9201.24
731.565	9039.21
731.906	9049.15
732.248	9067.91
732.589	9062.49
732.93	9039.21
733.271	9092.09
733.612	9060.23
733.953	9091.64
734.294	9036.27
734.635	9064.07
734.976	9064.52
735.317	9051.41
735.658	9095.93
735.999	9026.78
736.339	9037.63
736.68	9095.48
737.021	9098.64
737.361	9047.8
737.702	9087.35
738.042	9125.08
738.383	9078.08
738.723	9102.94
739.063	9057.97
739.404	9069.95
739.744	9130.28
740.084	9119.21
740.424	9100.45
740.764	9135.93
741.104	9146.55
741.444	9116.27
741.784	9132.32
742.124	9183.84
742.464	9179.55
742.804	9136.84
743.143	9195.14
743.483	9197.85
743.823	9294.12
744.162	9255.03
744.502	9310.62
744.841	9254.8
745.181	9360.78
745.52	9376.83
745.86	9446.21
746.199	9379.09
746.538	9481.69
746.877	9489.6
747.216	9596.03
747.556	9626.77
747.895	9655.69
748.234	9691.4
748.573	9737.5
748.911	9784.73
749.25	9840.32
749.589	9927.32
749.928	9951.05
750.267	10088.9
750.605	10135.45
750.944	10173.19
751.283	10226.75
751.621	10362.57
751.96	10335
752.298	10530.47
752.636	10533.64
752.975	10609.34
753.313	10702.44
753.651	10792.84
753.989	10945.38
754.327	11028.99
754.666	11181.3
755.004	11235.54
755.342	11405.7
755.679	11427.62
756.017	11637.79
756.355	11747.39
756.693	11873.94
757.031	12026.03
757.368	12009.3
757.706	12284.1
758.044	12373.81
758.381	12583.07
