Data from hue_350_FLMS001491_100.txt Node
Date: Mon Feb 06 15:38:48 GMT 2017
User: dcchb
Spectrometer: FLMS00149
Trigger mode: 0
Integration Time (sec): 2.000000E-2
Scans to average: 10
Electric dark correction enabled: true
Nonlinearity correction enabled: false
Boxcar width: 0
XAxis mode: Wavelengths
Number of Pixels in Spectrum: 2048
>>>>>Begin Spectral Data<<<<<
341.393	-11.23
341.776	-11.23
342.16	-11.23
342.543	-63.2
342.927	-53.94
343.31	-68.85
343.693	-68.4
344.077	-66.14
344.46	-39.48
344.843	-61.85
345.226	-56.43
345.61	-38.8
345.993	-14.39
346.376	-12.81
346.759	14.31
347.142	29.9
347.525	46.4
347.908	59.28
348.291	68.32
348.674	108.99
349.057	99.95
349.44	118.26
349.823	142.21
350.206	186.28
350.588	180.18
350.971	215.43
351.354	207.3
351.737	246.62
352.119	245.49
352.502	258.82
352.884	274.19
353.267	301.08
353.65	299.27
354.032	292.49
354.414	287.75
354.797	301.53
355.179	304.7
355.562	329.78
355.944	327.07
356.326	328.65
356.709	342.89
357.091	331.81
357.473	350.57
357.855	347.63
358.238	343.11
358.62	352.38
359.002	343.79
359.384	327.97
359.766	344.92
360.148	353.73
360.53	349.44
360.912	353.73
361.294	335.66
361.676	354.64
362.057	354.86
362.439	336.33
362.821	306.96
363.203	320.74
363.584	344.24
363.966	323
364.348	328.2
364.729	333.4
365.111	320.74
365.493	319.16
365.874	333.62
366.256	308.31
366.637	310.34
367.019	306.73
367.4	311.02
367.781	303.34
368.163	326.84
368.544	326.62
368.925	321.87
369.306	343.56
369.688	307.63
370.069	309.22
370.45	296.11
370.831	304.24
371.212	304.7
371.593	306.5
371.974	288.42
372.355	320.06
372.736	314.64
373.117	319.38
373.498	307.18
373.879	325.71
374.26	328.2
374.641	311.02
375.021	309.22
375.402	314.19
375.783	323
376.163	311.02
376.544	328.65
376.925	330.01
377.305	337.46
377.686	314.41
378.066	319.84
378.447	327.97
378.827	346.05
379.208	311.93
379.588	322.1
379.968	334.3
380.349	337.46
380.729	334.75
381.109	332.49
381.489	320.06
381.87	339.04
382.25	342.66
382.63	338.59
383.01	336.78
383.39	340.4
383.77	346.5
384.15	323.68
384.53	338.82
384.91	349.21
385.29	344.47
385.67	338.59
386.049	369.33
386.429	335.88
386.809	357.35
387.189	354.64
387.568	350.34
387.948	351.47
388.328	358.71
388.707	344.02
389.087	341.53
389.466	340.17
389.846	370.68
390.225	354.41
390.605	353.06
390.984	351.02
391.363	379.95
391.743	346.95
392.122	359.38
392.501	353.28
392.881	359.38
393.26	372.72
393.639	382.66
394.018	357.12
394.397	403.68
394.776	351.93
395.155	360.29
395.534	383.79
395.913	379.04
396.292	381.76
396.671	374.52
397.05	387.18
397.429	388.99
397.808	387.63
398.186	380.4
398.565	382.89
398.944	369.33
399.323	386.95
399.701	404.13
400.08	391.47
400.458	394.64
400.837	381.3
401.215	370.68
401.594	382.89
401.972	383.11
402.351	371.36
402.729	399.16
403.107	398.93
403.486	379.04
403.864	399.38
404.242	403.45
404.62	419.49
404.999	403.22
405.377	419.72
405.755	386.73
406.133	432.83
406.511	420.62
406.889	431.7
407.267	428.53
407.645	439.38
408.023	421.53
408.401	423.79
408.779	430.12
409.156	441.19
409.534	448.65
409.912	413.39
410.29	446.39
410.667	458.82
411.045	441.41
411.422	454.52
411.8	456.33
412.178	445.26
412.555	442.32
412.933	439.38
413.31	467.4
413.687	465.37
414.065	476.44
414.442	461.98
414.819	470.34
415.197	480.51
415.574	486.39
415.951	494.97
416.328	474.63
416.705	494.52
417.082	484.58
417.46	504.92
417.837	497.01
418.214	505.59
418.591	519.83
418.967	506.72
419.344	503.79
419.721	488.87
420.098	514.41
420.475	496.33
420.852	517.35
421.228	527.97
421.605	542.2
421.982	525.03
422.358	537.68
422.735	577.46
423.111	528.19
423.488	550.34
423.864	538.59
424.241	567.29
424.617	572.03
424.994	572.48
425.37	556.21
425.746	562.09
426.123	581.3
426.499	578.59
426.875	589.66
427.251	565.03
427.627	576.55
428.003	594.41
428.379	590.56
428.756	604.35
429.132	592.82
429.507	613.61
429.883	613.39
430.259	614.07
430.635	630.56
431.011	623.11
431.387	632.6
431.763	646.61
432.138	643.9
432.514	647.74
432.89	664.69
433.265	648.87
433.641	700.62
434.016	675.53
434.392	657.23
434.767	664.46
435.143	684.57
435.518	708.53
435.894	683.44
436.269	713.27
436.644	706.94
437.02	708.3
437.395	721.86
437.77	723.44
438.145	732.93
438.52	723.89
438.895	762.08
439.271	741.75
439.646	754.63
440.021	738.58
440.395	779.03
440.77	739.94
441.145	776.77
441.52	765.93
441.895	792.59
442.27	779.03
442.645	776.1
443.019	795.76
443.394	790.33
443.769	767.06
444.143	800.28
444.518	807.73
444.892	814.51
445.267	794.85
445.641	789.43
446.016	804.12
446.39	807.28
446.764	837.11
447.139	811.8
447.513	811.35
447.887	832.82
448.262	813.83
448.636	837.56
449.01	851.57
449.384	857.45
449.758	843.21
450.132	832.59
450.506	857.68
450.88	885.47
451.254	869.43
451.628	865.36
452.002	891.57
452.376	895.64
452.75	896.32
453.123	897.9
453.497	908.75
453.871	908.97
454.244	933.61
454.618	914.4
454.992	946.49
455.365	942.64
455.739	955.3
456.112	967.28
456.486	968.63
456.859	989.65
457.232	977.67
457.606	979.03
457.979	985.81
458.352	1011.34
458.725	1006.15
459.099	1033.26
459.472	1042.76
459.845	1045.69
460.218	1092.92
460.591	1078.69
460.964	1073.94
461.337	1089.53
461.71	1081.85
462.083	1111.23
462.456	1118.46
462.829	1105.13
463.201	1123.88
463.574	1131.11
463.947	1171.57
464.32	1173.15
464.692	1194.62
465.065	1190.32
465.438	1210.21
465.81	1195.29
466.183	1223.54
466.555	1226.71
466.928	1246.37
467.3	1287.49
467.672	1285.91
468.045	1313.48
468.417	1282.97
468.789	1310.32
469.161	1324.78
469.534	1325.69
469.906	1323.2
470.278	1386.25
470.65	1392.8
471.022	1435.51
471.394	1428.96
471.766	1472.35
472.138	1463.76
472.51	1532.01
472.882	1533.14
473.253	1534.04
473.625	1540.6
473.997	1570.2
474.369	1589.18
474.74	1618.56
475.112	1641.38
475.484	1647.94
475.855	1692.91
476.227	1685
476.598	1785.56
476.97	1766.58
477.341	1797.31
477.713	1856.29
478.084	1845.45
478.455	1905.78
478.827	1916.4
479.198	1959.34
479.569	1957.08
479.94	2034.14
480.311	2018.1
480.682	2037.76
481.053	2087.7
481.424	2150.52
481.795	2170.18
482.166	2218.54
482.537	2233.91
482.908	2249.5
483.279	2291.99
483.65	2334.25
484.021	2394.58
484.391	2400.46
484.762	2459.21
485.133	2477.97
485.503	2468.71
485.874	2564.07
486.244	2568.59
486.615	2625.31
486.985	2632.54
487.356	2716.61
487.726	2734.46
488.097	2792.77
488.467	2787.57
488.837	2876.38
489.207	2875.02
489.578	2909.15
489.948	2974.68
490.318	3007.9
490.688	2967.68
491.058	3063.04
491.428	3087.9
491.798	3157.28
492.168	3202.92
492.538	3230.95
492.908	3252.41
493.278	3267.78
493.648	3325.86
494.017	3328.12
494.387	3348.23
494.757	3388.91
495.126	3414.67
495.496	3439.53
495.866	3489.7
496.235	3495.57
496.605	3557.27
496.974	3578.96
497.344	3607.43
497.713	3649.92
498.082	3658.73
498.452	3666.19
498.821	3698.96
499.19	3733.76
499.559	3746.19
499.928	3762.23
500.298	3811.5
500.667	3815.56
501.036	3791.16
501.405	3854.43
501.774	3847.88
502.143	3846.3
502.512	3911.15
502.88	3948.44
503.249	3936.24
503.618	3975.79
503.987	3960.42
504.356	4037.25
504.724	4026.63
505.093	4103.47
505.462	4056.46
505.83	4078.38
506.199	4154.54
506.567	4147.53
506.936	4196.57
507.304	4242.9
507.672	4236.12
508.041	4227.08
508.409	4269.56
508.777	4249.9
509.145	4289
509.514	4297.13
509.882	4337.58
510.25	4326.96
510.618	4373.29
510.986	4389.56
511.354	4379.84
511.722	4464.81
512.09	4488.09
512.458	4449.67
512.826	4505.71
513.193	4460.07
513.561	4514.3
513.929	4521.99
514.297	4568.31
514.664	4580.74
515.032	4611.02
515.4	4660.29
515.767	4663.68
516.135	4617.35
516.502	4651.93
516.869	4691.47
517.237	4707.07
517.604	4689.89
517.972	4713.84
518.339	4741.41
518.706	4764.69
519.073	4767.63
519.44	4746.39
519.808	4815.76
520.175	4826.38
520.542	4862.77
520.909	4918.36
521.276	4888.3
521.643	4918.13
522.009	4947.51
522.376	4963.56
522.743	5023.89
523.11	5013.5
523.477	5071.12
523.843	5086.49
524.21	5080.39
524.577	5101.41
524.943	5151.12
525.31	5157.9
525.676	5152.25
526.043	5189.09
526.409	5253.94
526.776	5316.54
527.142	5327.61
527.508	5339.82
527.874	5371.45
528.241	5439.25
528.607	5409.19
528.973	5431.57
529.339	5424.33
529.705	5487.84
530.071	5514.5
530.437	5548.4
530.803	5572.58
531.169	5647.61
531.535	5628.62
531.901	5618.45
532.267	5642.63
532.632	5724.89
532.998	5699.58
533.364	5742.29
533.73	5743.65
534.095	5803.53
534.461	5819.13
534.826	5880.59
535.192	5888.28
535.557	5915.17
535.923	5926.24
536.288	5935.96
536.653	5924.89
537.019	5917.43
537.384	5996.07
537.749	6010.99
538.114	6073.13
538.479	6046.01
538.845	6117.42
539.21	6085.33
539.575	6178.89
539.94	6141.38
540.305	6223.86
540.67	6204.88
541.034	6231.77
541.399	6230.87
541.764	6304.54
542.129	6287.59
542.494	6333.24
542.858	6359
543.223	6349.28
543.587	6375.5
543.952	6401.48
544.316	6501.14
544.681	6500.69
545.045	6482.16
545.41	6529.84
545.774	6523.74
546.138	6569.39
546.503	6604.64
546.867	6547.7
547.231	6570.52
547.595	6654.58
547.959	6705.66
548.324	6743.85
548.688	6718.54
549.052	6766.22
549.416	6718.54
549.779	6795.37
550.143	6774.13
550.507	6855.94
550.871	6908.82
551.235	6884.86
551.599	6973.9
551.962	6887.35
552.326	6975.48
552.689	6969.15
553.053	6944.52
553.417	6923.73
553.78	7063.61
554.143	7041.92
554.507	7084.63
554.87	7075.82
555.234	7163.27
555.597	7110.39
555.96	7142.03
556.323	7210.28
556.686	7171.41
557.05	7258.86
557.413	7275.13
557.776	7237.17
558.139	7311.52
558.502	7374.57
558.865	7385.87
559.228	7366.88
559.59	7444.62
559.953	7440.78
560.316	7490.95
560.679	7528.01
561.041	7575.01
561.404	7502.25
561.767	7601.9
562.129	7572.3
562.492	7655.24
562.854	7696.82
563.217	7664.95
563.579	7729.36
563.941	7737.27
564.304	7767.78
564.666	7806.19
565.028	7877.83
565.39	7848.9
565.753	7871.95
566.115	7892.74
566.477	7911.95
566.839	8022.68
567.201	8056.36
567.563	8039.41
567.925	8045.96
568.287	8099.29
568.648	8091.16
569.01	8131.61
569.372	8242.79
569.734	8206.86
570.095	8187.65
570.457	8334.77
570.819	8268.1
571.18	8236.92
571.542	8340.87
571.903	8402.11
572.265	8465.38
572.626	8540.64
572.987	8510.36
573.349	8576.12
573.71	8605.49
574.071	8656.79
574.432	8667.87
574.794	8760.52
575.155	8790.12
575.516	8777.47
575.877	8906.05
576.238	8997.57
576.599	9036.22
576.96	9137.01
577.32	9187.63
577.681	9294.52
578.042	9367.73
578.403	9429.43
578.763	9469.2
579.124	9588.29
579.485	9714.62
579.845	9804.56
580.206	9863.77
580.566	9964.33
580.927	10078
581.287	10187.15
581.648	10250.65
582.008	10458.78
582.368	10505.78
582.728	10649.51
583.089	10800.46
583.449	10909.61
583.809	11122.72
584.169	11276.84
584.529	11375.59
584.889	11638.86
585.249	11717.28
585.609	11924.28
585.969	12149.81
586.329	12315
586.688	12502.79
587.048	12740.3
587.408	12873.63
587.768	13093.29
588.127	13262.09
588.487	13457.34
588.846	13810.55
589.206	13945.47
589.565	14152.01
589.925	14509.52
590.284	14648.05
590.643	14928.49
591.003	15236.51
591.362	15431.53
591.721	15750.39
592.08	15947.45
592.44	16316.7
592.799	16473.54
593.158	16762.57
593.517	17006.4
593.876	17375.88
594.235	17580.63
594.593	17929.77
594.952	18216.09
595.311	18349.19
595.67	18754.38
596.029	19114.14
596.387	19381.71
596.746	19712.32
597.104	19873.22
597.463	20146.66
597.822	20475.92
598.18	20663.03
598.538	20930.82
598.897	21425.5
599.255	21495.55
599.613	22078.59
599.972	22155.19
600.33	22551.79
600.688	22721.51
601.046	22949.52
601.404	23492.56
601.762	23651.88
602.12	23943.62
602.478	24215.71
602.836	24520.78
603.194	24721.68
603.552	24996.93
603.91	25102.91
604.268	25504.94
604.625	25754.42
604.983	25987.18
605.341	26115.54
605.698	26503.33
606.056	26844.11
606.413	26984.45
606.771	27295.85
607.128	27621.72
607.485	27630.08
607.843	27997.07
608.2	28285.65
608.557	28529.04
608.914	28701.24
609.272	29052.87
609.629	29138.74
609.986	29548.22
610.343	29652.85
610.7	30040.41
611.057	30086.06
611.414	30350.91
611.771	30398.59
612.127	30726.72
612.484	30982.98
612.841	31054.17
613.198	31232.47
613.554	31513.14
613.911	31801.49
614.267	31828.84
614.624	32087.81
614.98	32311.54
615.337	32490.97
615.693	32631.53
616.05	32562.15
616.406	32959.43
616.762	33043.5
617.118	33151.29
617.475	33348.12
617.831	33506.76
618.187	33782.23
618.543	33782.91
618.899	34054.09
619.255	34189.45
619.611	34303.35
619.967	34524.36
620.323	34634.19
620.678	34574.98
621.034	34694.98
621.39	34726.16
621.746	34754.86
622.101	35320.27
622.457	35068.98
622.812	35327.05
623.168	35510.78
623.523	35604.33
623.879	35717.1
624.234	35549.87
624.589	35827.83
624.945	35916.87
625.3	35946.02
625.655	36168.39
626.01	36040.03
626.365	36397.53
626.72	36134.49
627.075	36338.78
627.43	36406.8
627.785	36296.97
628.14	36495.16
628.495	36588.71
628.85	36607.02
629.205	36575.38
629.559	36784.87
629.914	36776.5
630.269	36843.85
630.623	36750.06
630.978	36656.28
631.332	36867.8
631.687	36973.79
632.041	36755.71
632.396	36802.72
632.75	36848.59
633.104	37040
633.459	36796.84
633.813	36838.88
634.167	36958.42
634.521	37007.23
634.875	36962.49
635.229	36910.74
635.583	36843.85
635.937	36913.22
636.291	36814.02
636.645	37010.85
636.999	36865.99
637.352	37048.81
637.706	36811.98
638.06	37141.92
638.413	36912.32
638.767	36990.06
639.121	36983.73
639.474	36849.05
639.828	36920.91
640.181	37057.4
640.534	36953
640.888	36918.2
641.241	36712.1
641.594	36823.96
641.947	36987.12
642.301	36932.43
642.654	36908.93
643.007	36991.19
643.36	36945.99
643.713	36799.33
644.066	37034.8
644.419	36702.38
644.771	36601.59
645.124	36166.8
645.477	36270.08
645.83	36054.26
646.182	35870.09
646.535	35892.23
646.888	35810.43
647.24	35645.46
647.593	35807.72
647.945	35870.54
648.298	35595.29
648.65	35659.47
649.002	35541.51
649.355	35602.75
649.707	35673.71
650.059	35778.11
650.411	36173.81
650.763	36324.77
651.115	36645.66
651.467	36484.99
651.819	36601.14
652.171	36390.3
652.523	36416.74
652.875	36367.48
653.227	36380.58
653.578	36636.17
653.93	36533.8
654.282	36367.25
654.633	36348.49
654.985	36303.52
655.337	36290.87
655.688	36224.88
656.039	36373.58
656.391	36189.18
656.742	36242.96
657.094	36228.72
657.445	36305.1
657.796	36259
658.147	36164.09
658.498	36190.76
658.849	36274.37
659.2	36165
659.551	36128.84
659.902	36242.51
660.253	36152.57
660.604	36250.64
660.955	36027.6
661.306	36192.11
661.656	36132.68
662.007	35987.82
662.358	36097.2
662.708	36059.24
663.059	36175.62
663.409	35874.38
663.76	36046.35
664.11	36168.39
664.461	36135.84
664.811	36029.41
665.161	36047.94
665.511	35997.77
665.862	35849.3
666.212	36149.85
666.562	36147.14
666.912	36082.51
667.262	35921.16
667.612	36009.52
667.962	36047.03
668.312	36075.96
668.662	36191.66
669.011	36065.56
669.361	36044.55
669.711	36000.25
670.06	35966.81
670.41	35898.34
670.76	35854.04
671.109	36081.16
671.459	35858.56
671.808	35766.59
672.157	35910.09
672.507	35608.63
672.856	35715.74
673.205	35773.59
673.554	35849.52
673.904	35675.52
674.253	35878.9
674.602	35840.26
674.951	35179.48
675.3	35001.64
675.649	35560.27
675.998	35550.77
676.346	35616.99
676.695	35687.95
677.044	35489.31
677.393	35534.96
677.741	35613.6
678.09	35518.23
678.438	35385.35
678.787	35460.16
679.135	35450.66
679.484	35358.24
679.832	35450.44
680.181	35230.1
680.529	35405.24
680.877	35177.22
681.225	35138.36
681.573	35363.43
681.922	35093.16
682.27	35044.12
682.618	35042.31
682.966	34978.36
683.314	34949.21
683.661	34920.73
684.009	34859.27
684.357	34668.09
684.705	34592.38
685.053	34823.56
685.4	34538.37
685.748	34457.7
686.095	34541.76
686.443	34258.6
686.79	34268.55
687.138	34426.96
687.485	34412.27
687.832	34214.54
688.18	34186.97
688.527	34039.85
688.874	34081.21
689.221	34005.5
689.568	33911.27
689.915	33920.08
690.262	33874.43
690.609	33737.71
690.956	33606.64
691.303	33679.41
691.65	33536.36
691.997	33554.67
692.344	33180.22
692.69	33322.36
693.037	33303.83
693.383	32985.19
693.73	33095.7
694.077	32872.2
694.423	33036.94
694.769	32826.1
695.116	32728.48
695.462	32727.35
695.808	32654.35
696.155	32626.33
696.501	32399.9
696.847	32258.66
697.193	32134.37
697.539	32378.43
697.885	31909.97
698.231	31774.38
698.577	31852.79
698.923	31889.4
699.269	31757.43
699.614	31752.23
699.96	31650.76
700.306	31676.98
700.651	31448.96
700.997	31361.05
701.342	31377.32
701.688	31286.71
702.033	31190.66
702.379	31098.46
702.724	31009.2
703.069	31004.23
703.415	30756.55
703.76	30768.3
704.105	30647.85
704.45	30637.91
704.795	30423.23
705.14	30508.65
705.485	30486.5
705.83	30219.39
706.175	30320.86
706.52	30173.29
706.865	30240.63
707.209	29976.68
707.554	29899.17
707.899	30046.06
708.243	29904.6
708.588	29888.32
708.932	29672.74
709.277	29710.7
709.621	29694.88
709.966	29475.23
710.31	29603.59
710.654	29288.79
710.998	29306.42
711.342	29326.08
711.687	29273.43
712.031	29076.82
712.375	29087.67
712.719	29081.11
713.063	29008.8
713.407	29051.74
713.75	29002.25
714.094	29044.96
714.438	28781.91
714.782	28880.67
715.125	28640.67
715.469	28743.72
715.812	28460.34
716.156	28375.6
716.499	28407.23
716.843	28504.41
717.186	28303.73
717.53	28534.69
717.873	28411.75
718.216	28295.82
718.559	28065.77
718.902	27951.2
719.246	28068.26
719.589	27910.07
719.932	27863.29
720.275	27837.98
720.617	27841.6
720.96	27737.19
721.303	27769.74
721.646	27794.37
721.989	27583.75
722.331	27666.01
722.674	27748.95
723.016	27617.88
723.359	27599.12
723.701	27636.41
724.044	27357.54
724.386	27248.62
724.729	27379.92
725.071	27327.49
725.413	27359.58
725.755	27273.03
726.097	27126.14
726.439	26936.09
726.782	26943.09
727.124	27032.13
727.465	26931.79
727.807	26924.11
728.149	26890.66
728.491	26877.33
728.833	26802.3
729.175	26835.52
729.516	26752.81
729.858	26597.34
730.199	26652.93
730.541	26636.66
730.882	26520.73
731.224	26586.26
731.565	26462.43
731.906	26542.65
732.248	26487.06
732.589	26301.75
732.93	26185.6
733.271	26252.49
733.612	26196.44
733.953	26239.61
734.294	26100.85
734.635	26102.66
734.976	26128.2
735.317	25946.73
735.658	26000.52
735.999	26111.02
736.339	25955.09
736.68	25993.74
737.021	25960.52
737.361	25800.07
737.702	25998.26
738.042	25807.53
738.383	25698.83
738.723	25886.85
739.063	25632.84
739.404	25813.18
739.744	25544.26
740.084	25504.48
740.424	25572.05
740.764	25487.54
741.104	25569.79
741.444	25454.77
741.784	25391.04
742.124	25420.87
742.464	25468.33
742.804	25247.99
743.143	25175.23
743.483	25301.33
743.823	25122.57
744.162	25139.97
744.502	25228.11
744.841	25052.75
745.181	25195.11
745.52	24971.17
745.86	24995.35
746.199	24967.55
746.538	24977.94
746.877	24966.87
747.216	24904.5
747.556	24913.99
747.895	24860.43
748.234	24856.82
748.573	24734.34
748.911	24610.04
749.25	24670.61
749.589	24567.11
749.928	24597.16
750.267	24583.38
750.605	24521.01
750.944	24424.29
751.283	24469.48
751.621	24424.06
751.96	24328.24
752.298	24291.41
752.636	24288.47
752.975	24083.05
753.313	24093.22
753.651	24212.77
753.989	24110.4
754.327	23999.21
754.666	23918.54
755.004	23927.13
755.342	23967.8
755.679	23831.76
756.017	23740.46
756.355	23761.93
756.693	23665.21
757.031	23631.77
757.368	23589.51
757.706	23542.73
758.044	23513.8
758.381	23372.56
758.719	23413.92
759.056	23339.57
759.394	23456.18
759.731	23150.87
760.068	23078.11
760.405	23157.88
760.743	23026.81
