Data from hue_350_FLMS001491_76.txt Node
Date: Mon Feb 06 15:38:30 GMT 2017
User: dcchb
Spectrometer: FLMS00149
Trigger mode: 0
Integration Time (sec): 2.000000E-2
Scans to average: 10
Electric dark correction enabled: true
Nonlinearity correction enabled: false
Boxcar width: 0
XAxis mode: Wavelengths
Number of Pixels in Spectrum: 2048
>>>>>Begin Spectral Data<<<<<
341.393	-8.84
341.776	-8.84
342.16	-8.84
342.543	-83.42
342.927	-77.77
343.31	-69.63
343.693	-72.79
344.077	-70.08
344.46	-51.78
344.843	-55.39
345.226	-29.86
345.61	-38.45
345.993	-16.3
346.376	-1.84
346.759	-0.48
347.142	22.34
347.525	53.76
347.908	55.34
348.291	68.67
348.674	92.17
349.057	114.32
349.44	106.41
349.823	146.41
350.206	160.19
350.588	192.51
350.971	199.97
351.354	212.85
351.737	257.37
352.119	244.94
352.502	251.04
352.884	281.55
353.267	256.24
353.65	273.18
354.032	300.98
354.414	297.82
354.797	316.12
355.179	321.55
355.562	326.74
355.944	317.93
356.326	321.77
356.709	318.16
357.091	337.36
357.473	354.76
357.855	336.69
358.238	347.76
358.62	310.02
359.002	326.74
359.384	361.09
359.766	350.25
360.148	328.55
360.53	335.78
360.912	315.44
361.294	338.49
361.676	333.3
362.057	342.79
362.439	325.16
362.821	319.74
363.203	337.36
363.584	327.19
363.966	327.42
364.348	302.56
364.729	306.86
365.111	303.01
365.493	328.32
365.874	327.42
366.256	296.24
366.637	303.47
367.019	313.41
367.4	339.17
367.781	332.62
368.163	312.51
368.544	307.53
368.925	333.3
369.306	322
369.688	293.07
370.069	321.77
370.45	324.93
370.831	320.42
371.212	314.77
371.593	305.27
371.974	300.53
372.355	311.15
372.736	320.19
373.117	303.47
373.498	320.19
373.879	320.64
374.26	305.5
374.641	310.25
375.021	319.74
375.402	311.15
375.783	315.67
376.163	304.14
376.544	322.45
376.925	321.09
377.305	334.88
377.686	317.03
378.066	337.36
378.447	324.03
378.827	315.9
379.208	298.72
379.588	311.38
379.968	322.68
380.349	333.75
380.729	331.04
381.109	321.09
381.489	325.84
381.87	329.68
382.25	327.42
382.63	321.32
383.01	326.06
383.39	339.17
383.77	355.22
384.15	350.92
384.53	347.08
384.91	335.56
385.29	329.23
385.67	330.13
386.049	345.05
386.429	327.87
386.809	339.17
387.189	348.89
387.568	341.21
387.948	353.63
388.328	326.06
388.707	367.87
389.087	356.57
389.466	347.99
389.846	326.29
390.225	369.45
390.605	344.6
390.984	359.96
391.363	347.31
391.743	363.13
392.122	338.27
392.501	348.66
392.881	368.78
393.26	368.78
393.639	371.71
394.018	373.3
394.397	365.39
394.776	370.81
395.155	362.22
395.534	348.44
395.913	359.28
396.292	366.74
396.671	364.26
397.05	361.32
397.429	355.22
397.808	369.23
398.186	382.56
398.565	385.05
398.944	391.37
399.323	362.9
399.701	369
400.08	378.04
400.458	382.56
400.837	399.74
401.215	404.48
401.594	389.11
401.972	390.24
402.351	400.64
402.729	377.36
403.107	376.23
403.486	394.99
403.864	385.5
404.242	391.37
404.62	396.57
404.999	381.66
405.377	406.29
405.755	408.55
406.133	391.15
406.511	404.25
406.889	419.17
407.267	411.94
407.645	434.76
408.023	412.62
408.401	419.4
408.779	424.82
409.156	437.7
409.534	419.4
409.912	414.88
410.29	432.28
410.667	441.99
411.045	445.84
411.422	436.34
411.8	445.16
412.178	442.67
412.555	458.72
412.933	462.78
413.31	461.43
413.687	452.16
414.065	451.94
414.442	473.41
414.819	460.52
415.197	469.56
415.574	466.17
415.951	479.96
416.328	475.89
416.705	486.29
417.082	468.43
417.46	489.9
417.837	479.73
418.214	491.03
418.591	506.85
418.967	483.35
419.344	503.46
419.721	509.11
420.098	490.58
420.475	503.24
420.852	504.82
421.228	513.63
421.605	514.31
421.982	518.83
422.358	539.39
422.735	532.39
423.111	522.9
423.488	525.83
423.864	539.84
424.241	555.21
424.617	541.2
424.994	519.28
425.37	533.29
425.746	546.62
426.123	548.66
426.499	554.31
426.875	565.83
427.251	548.43
427.627	578.94
428.003	557.47
428.379	602.67
428.756	573.52
429.132	591.14
429.507	598.15
429.883	591.14
430.259	612.61
430.635	600.86
431.011	588.66
431.387	624.36
431.763	632.95
432.138	642.67
432.514	617.36
432.89	649.67
433.265	647.64
433.641	631.82
434.016	663.68
434.392	671.37
434.767	646.28
435.143	655.32
435.518	669.78
435.894	679.73
436.269	681.08
436.644	674.53
437.02	659.16
437.395	672.95
437.77	669.11
438.145	699.39
438.52	712.27
438.895	710.69
439.271	730.8
439.646	721.99
440.021	711.59
440.395	737.58
440.77	729.9
441.145	741.42
441.52	745.94
441.895	754.53
442.27	743.68
442.645	772.83
443.019	770.8
443.394	770.12
443.769	766.96
444.143	779.39
444.518	745.49
444.892	768.77
445.267	763.34
445.641	772.61
446.016	770.35
446.39	760.86
446.764	783.45
447.139	776.67
447.513	798.14
447.887	808.99
448.262	802.89
448.636	803.79
449.01	815.77
449.384	824.58
449.758	805.37
450.132	808.54
450.506	849.89
450.88	847.41
451.254	831.81
451.628	835.66
452.002	849.89
452.376	881.98
452.75	855.99
453.123	855.77
453.497	898.93
453.871	870.23
454.244	886.28
454.618	897.12
454.992	895.09
455.365	896.45
455.739	918.37
456.112	891.25
456.486	931.7
456.859	917.91
457.232	936.67
457.606	972.38
457.979	932.83
458.352	991.36
458.725	951.13
459.099	989.55
459.472	1007.85
459.845	1016.44
460.218	1013.28
460.591	1045.59
460.964	990.91
461.337	1043.33
461.71	1025.93
462.083	1039.94
462.456	1043.11
462.829	1071.81
463.201	1055.54
463.574	1091.02
463.947	1078.59
464.32	1121.3
464.692	1109.77
465.065	1144.57
465.438	1124.01
465.81	1147.74
466.183	1174.86
466.555	1168.53
466.928	1190.67
467.3	1194.06
467.672	1226.61
468.045	1215.76
468.417	1246.49
468.789	1265.02
469.161	1254.63
469.534	1305.25
469.906	1303.44
470.278	1321.97
470.65	1349.09
471.022	1356.77
471.394	1361.29
471.766	1412.14
472.138	1396.32
472.51	1410.56
472.882	1457.56
473.253	1457.79
473.625	1473.15
473.997	1503.89
474.369	1511.57
474.74	1519.48
475.112	1562.64
475.484	1546.6
475.855	1624.79
476.227	1611.68
476.598	1650.32
476.97	1681.51
477.341	1692.36
477.713	1733.03
478.084	1751.11
478.455	1775.52
478.827	1794.95
479.198	1848.74
479.569	1822.97
479.94	1892.35
480.311	1931.67
480.682	1968.96
481.053	2019.81
481.424	2005.12
481.795	2064.1
482.166	2116.53
482.537	2095.51
482.908	2149.07
483.279	2177.32
483.65	2208.28
484.021	2238.33
484.391	2281.95
484.762	2295.96
485.133	2352
485.503	2334.37
485.874	2442.62
486.244	2388.84
486.615	2481.94
486.985	2511.77
487.356	2549.28
487.726	2561.49
488.097	2626.34
488.467	2620.92
488.837	2660.92
489.207	2726.91
489.578	2741.14
489.948	2793.57
490.318	2824.53
490.688	2824.98
491.058	2883.74
491.428	2929.61
491.798	2930.97
492.168	2972.1
492.538	2996.05
492.908	3035.6
493.278	3102.26
493.648	3102.49
494.017	3121.25
494.387	3165.09
494.757	3203.5
495.126	3217.29
495.496	3197.4
495.866	3193.79
496.235	3283.5
496.605	3280.79
496.974	3339.32
497.344	3387.45
497.713	3343.84
498.082	3434.91
498.452	3439.66
498.821	3447.11
499.19	3459.32
499.559	3529.37
499.928	3509.48
500.298	3548.8
500.667	3561.69
501.036	3579.09
501.405	3572.53
501.774	3608.01
502.143	3645.07
502.512	3692.3
502.88	3665.86
503.249	3698.86
503.618	3674.45
503.987	3728.24
504.356	3736.82
504.724	3761.23
505.093	3778.63
505.462	3786.31
505.83	3796.48
506.199	3851.17
506.567	3839.87
506.936	3871.06
507.304	3892.52
507.672	3915.8
508.041	3920.55
508.409	3966.2
508.777	3946.08
509.145	3977.49
509.514	4016.14
509.882	4016.59
510.25	4030.83
510.618	4019.08
510.986	4047.55
511.354	4099.07
511.722	4118.28
512.09	4122.58
512.458	4163.25
512.826	4202.12
513.193	4182.01
513.561	4220.43
513.929	4234.66
514.297	4262.01
514.664	4285.51
515.032	4226.08
515.4	4308.11
515.767	4288.9
516.135	4297.26
516.502	4305.62
516.869	4358.05
517.237	4363.92
517.604	4356.02
517.972	4357.6
518.339	4399.63
518.706	4384.94
519.073	4446.41
519.44	4429.46
519.808	4437.82
520.175	4415.9
520.542	4478.27
520.909	4512.85
521.276	4483.02
521.643	4512.85
522.009	4527.99
522.376	4569.12
522.743	4625.61
523.11	4638.72
523.477	4609.34
523.843	4668.32
524.21	4692.73
524.577	4728.89
524.943	4765.72
525.31	4768.21
525.676	4795.78
526.043	4813.63
526.409	4890.01
526.776	4831.71
527.142	4837.81
527.508	4902.67
527.874	4909
528.241	4962.1
528.607	4970.46
528.973	5026.05
529.339	4993.29
529.705	5056.56
530.071	5084.13
530.437	5121.64
530.803	5156.9
531.169	5110.57
531.535	5152.15
531.901	5204.35
532.267	5212.49
532.632	5195.32
532.998	5171.36
533.364	5278.25
533.73	5247.97
534.095	5332.03
534.461	5306.5
534.826	5378.81
535.192	5400.06
535.557	5453.16
535.923	5429.21
536.288	5474.4
536.653	5490.22
537.019	5459.94
537.384	5506.95
537.749	5576.32
538.114	5567.73
538.479	5555.31
538.845	5591.46
539.21	5603.89
539.575	5647.73
539.94	5664.23
540.305	5729.54
540.67	5692.93
541.034	5693.16
541.399	5767.96
541.764	5803.21
542.129	5809.99
542.494	5817.67
542.858	5813.6
543.223	5856.99
543.587	5887.73
543.952	5892.7
544.316	5938.35
544.681	5887.5
545.045	5933.15
545.41	5938.12
545.774	6012.02
546.138	5994.39
546.503	6050.66
546.867	6068.06
547.231	6085.91
547.595	6111.9
547.959	6085.91
548.324	6117.1
548.688	6195.29
549.052	6193.93
549.416	6183.99
549.779	6217.89
550.143	6236.19
550.507	6296.08
550.871	6265.34
551.235	6301.05
551.599	6299.24
551.962	6287.49
552.326	6408.62
552.689	6416.07
553.053	6431.44
553.417	6397.54
553.78	6435.51
554.143	6450.88
554.507	6482.74
554.87	6535.62
555.234	6581.49
555.597	6564.32
555.96	6556.64
556.323	6577.2
556.686	6621.72
557.05	6669.4
557.413	6638.22
557.776	6683.41
558.139	6740.59
558.502	6693.36
558.865	6739.91
559.228	6770.87
559.59	6784.2
559.953	6808.61
560.316	6860.58
560.679	6847.7
561.041	6903.75
561.404	6941.26
561.767	6937.87
562.129	6946.91
562.492	7009.05
562.854	6981.03
563.217	7009.28
563.579	7004.08
563.941	7038.43
564.304	7006.79
564.666	7178.77
565.028	7124.3
565.39	7176.51
565.753	7210.18
566.115	7238.2
566.477	7251.08
566.839	7262.83
567.201	7368.14
567.563	7275.49
567.925	7365.88
568.287	7396.84
568.648	7367.01
569.01	7416.27
569.372	7502.15
569.734	7423.51
570.095	7539.21
570.457	7562.03
570.819	7605.2
571.18	7625.76
571.542	7632.54
571.903	7665.08
572.265	7777.85
572.626	7792.31
572.987	7747.34
573.349	7838.41
573.71	7911.18
574.071	7889.26
574.432	7966.54
574.794	8058.06
575.155	8098.29
575.516	8088.12
575.877	8229.59
576.238	8225.29
576.599	8351.84
576.96	8366.31
577.32	8451.5
577.681	8518.39
578.042	8527.43
578.403	8617.15
578.763	8671.16
579.124	8792.06
579.485	8880.87
579.845	8991.83
580.206	9090.35
580.566	9118.83
580.927	9277.69
581.287	9383.91
581.648	9455.32
582.008	9651.02
582.368	9714.07
582.728	9891.92
583.089	9922.42
583.449	10160.83
583.809	10224.34
584.169	10420.26
584.529	10534.84
584.889	10767.15
585.249	10821.38
585.609	11032
585.969	11262.5
586.329	11416.62
586.688	11616.16
587.048	11760.11
587.408	12003.27
587.768	12187.22
588.127	12453.66
588.487	12623.37
588.846	12818.62
589.206	13094.77
589.565	13326.18
589.925	13524.36
590.284	13851.81
590.643	14017.46
591.003	14335.41
591.362	14561.85
591.721	14731.79
592.08	15088.84
592.44	15379.91
592.799	15574.93
593.158	15832.78
593.517	16085.65
593.876	16357.28
594.235	16505.07
594.593	16996.59
594.952	17350.25
595.311	17453.75
595.67	17674.08
596.029	18245.82
596.387	18448.07
596.746	18795.64
597.104	18930.55
597.463	19186.13
597.822	19622.51
598.18	19702.73
598.538	20066.79
598.897	20473.56
599.255	20548.36
599.613	21075.12
599.972	21229.02
600.33	21440.99
600.688	21650.48
601.046	21991.94
601.404	22432.83
601.762	22610.22
602.12	23007.73
602.478	23237.33
602.836	23546.7
603.194	23623.53
603.552	24037.53
603.91	24134.48
604.268	24681.58
604.625	24746.89
604.983	25173.77
605.341	25154.34
605.698	25628.22
606.056	25782.34
606.413	26021.43
606.771	26307.75
607.128	26627.29
607.485	26685.6
607.843	27004.91
608.2	27273.6
608.557	27543.43
608.914	27724.21
609.272	28075.62
609.629	28281.26
609.986	28653.68
610.343	28689.16
610.7	29126.66
611.057	29132.77
611.414	29446.88
611.771	29596.48
612.127	29936.13
612.484	29915.12
612.841	30286.18
613.198	30349.23
613.554	30573.41
613.911	30840.29
614.267	30969.55
614.624	31194.18
614.98	31449.54
615.337	31584.68
615.693	31802.53
616.05	31837.55
616.406	32172.91
616.762	32207.03
617.118	32281.16
617.475	32444.32
617.831	32603.86
618.187	32813.57
618.543	33023.74
618.899	33345.76
619.255	33254.24
619.611	33348.25
619.967	33564.29
620.323	33711.85
620.678	33763.38
621.034	33706.43
621.39	33994.11
621.746	34096.02
622.101	34464.15
622.457	34313.19
622.812	34479.74
623.168	34773.52
623.523	34660.08
623.879	34955.89
624.234	34767.87
624.589	34966.96
624.945	35105.04
625.3	35267.29
625.655	35306.84
626.01	35383.22
626.365	35538.25
626.72	35381.19
627.075	35491.24
627.43	35589.32
627.785	35623.44
628.14	35814.62
628.495	35840.39
628.85	35883.32
629.205	35806.94
629.559	36081.96
629.914	35947.95
630.269	36019.59
630.623	35924.22
630.978	35951.57
631.332	36175.29
631.687	36353.37
632.041	36347.04
632.396	36324.21
632.75	36198.57
633.104	36264.1
633.459	36163.31
633.813	36188.85
634.167	36146.37
634.521	36248.96
634.875	36386.13
635.229	36387.04
635.583	36236.53
635.937	36293.25
636.291	36409.41
636.645	36369.41
636.999	36177.78
637.352	36481.27
637.706	36207.61
638.06	36473.59
638.413	36387.49
638.767	36274.5
639.121	36427.04
639.474	36145.46
639.828	36222.52
640.181	36375.96
640.534	36339.81
640.888	36220.49
641.241	36323.76
641.594	36208.74
641.947	36306.36
642.301	36272.92
642.654	36306.81
643.007	36315.4
643.36	36269.75
643.713	36210.09
644.066	36303.2
644.419	36141.17
644.771	36009.42
645.124	35656.66
645.477	35572.6
645.83	35298.48
646.182	35254.64
646.535	35251.25
646.888	35240.4
647.24	35013.29
647.593	35353.39
647.945	35187.07
648.298	35126.51
648.65	35076.11
649.002	34966.74
649.355	35146.39
649.707	35055.1
650.059	35185.94
650.411	35667.96
650.763	35619.15
651.115	36022.75
651.467	35878.58
651.819	35983.43
652.171	35809.2
652.523	35704.12
652.875	35923.09
653.227	35677
653.578	35902.98
653.93	35794.74
654.282	35685.14
654.633	35736.89
654.985	35789.99
655.337	35728.52
655.688	35787.73
656.039	35916.77
656.391	35500.51
656.742	35686.72
657.094	35681.52
657.445	35896.43
657.796	35669.32
658.147	35578.47
658.498	35579.83
658.849	35581.41
659.2	35571.69
659.551	35592.48
659.902	35569.21
660.253	35549.55
660.604	35639.26
660.955	35450.34
661.306	35571.24
661.656	35267.97
662.007	35426.61
662.358	35509.55
662.708	35464.8
663.059	35429.77
663.409	35391.13
663.76	35500.96
664.11	35535.31
664.461	35524.91
664.811	35479.72
665.161	35413.5
665.511	35532.14
665.862	35441.53
666.212	35499.6
666.562	35612.14
666.912	35395.43
667.262	35429.32
667.612	35381.41
667.962	35598.81
668.312	35451.69
668.662	35576.66
669.011	35477.23
669.361	35379.38
669.711	35287.18
670.06	35385.71
670.41	35291.25
670.76	35349.32
671.109	35460.51
671.459	35407.63
671.808	35354.07
672.157	35392.26
672.507	35227.29
672.856	35192.27
673.205	35206.5
673.554	35363.56
673.904	35122.66
674.253	35487.63
674.602	35239.5
674.951	34774.65
675.3	34627.76
675.649	35164.02
675.998	35071.59
676.346	35128.77
676.695	35353.39
677.044	35060.52
677.393	35047.19
677.741	35070.24
678.09	34964.7
678.438	34921.54
678.787	34960.41
679.135	34914.31
679.484	34812.62
679.832	34933.97
680.181	34681.77
680.529	34851.71
680.877	34629.34
681.225	34774.65
681.573	34998.15
681.922	34580.53
682.27	34611.04
682.618	34652.85
682.966	34455.11
683.314	34571.94
683.661	34515.45
684.009	34267.55
684.357	34173.31
684.705	34134.67
685.053	34320.88
685.4	34282.01
685.748	34062.58
686.095	33940.55
686.443	33799.99
686.79	33806.54
687.138	34024.16
687.485	34031.17
687.832	33849.48
688.18	33736.49
688.527	33597.51
688.874	33644.74
689.221	33599.77
689.568	33531.52
689.915	33309.6
690.262	33464.63
690.609	33308.93
690.956	33119.1
691.303	33142.38
691.65	33084.53
691.997	33108.03
692.344	32870.97
692.69	32802.95
693.037	32959.56
693.383	32544.65
693.73	32647.7
694.077	32479.12
694.423	32602.5
694.769	32383.98
695.116	32428.05
695.462	32276.41
695.808	32135.62
696.155	32226.02
696.501	32007.94
696.847	32073.25
697.193	31758.46
697.539	31952.13
697.885	31622.87
698.231	31611.34
698.577	31621.74
698.923	31520.72
699.269	31440.05
699.614	31260.62
699.96	31273.73
700.306	31111.7
700.651	31177.91
700.997	31056.56
701.342	30945.6
701.688	30996.9
702.033	30818.82
702.379	30711.93
702.724	30685.94
703.069	30767.98
703.415	30320.98
703.76	30375.44
704.105	30377.25
704.45	30357.37
704.795	30134.77
705.14	30058.84
705.485	30128.9
705.83	29999.18
706.175	30045.96
706.52	29881.45
706.865	29701.56
707.209	29765.29
707.554	29554
707.899	29614.56
708.243	29455.69
708.588	29446.88
708.932	29347
709.277	29210.05
709.621	29281.69
709.966	29245.98
710.31	29156.04
710.654	28948.82
710.998	29044.86
711.342	28949.04
711.687	29004.41
712.031	28817.75
712.375	28766.22
712.719	28715.15
713.063	28615.26
713.407	28835.15
713.75	28534.36
714.094	28539.79
714.438	28536.62
714.782	28474.93
715.125	28335.5
715.469	28395.16
715.812	28175.73
716.156	28022.51
716.499	28185.67
716.843	28166.91
717.186	27978.9
717.53	27977.99
717.873	28010.08
718.216	27893.48
718.559	27900.03
718.902	27657.32
719.246	27760.82
719.589	27612.81
719.932	27521.96
720.275	27550.21
720.617	27418.69
720.96	27532.81
721.303	27339.59
721.646	27377.56
721.989	27265.7
722.331	27388.18
722.674	27225.24
723.016	27307.95
723.359	27125.36
723.701	27152.25
724.044	27071.8
724.386	26923.11
724.729	27108.86
725.071	27045.14
725.413	27004.69
725.755	26957.23
726.097	26868.87
726.439	26659.61
726.782	26643.34
727.124	26790.23
727.465	26603.11
727.807	26614.19
728.149	26616.22
728.491	26528.31
728.833	26525.15
729.175	26444.25
729.516	26359.73
729.858	26313.4
730.199	26371.03
730.541	26362.67
730.882	26285.83
731.224	26326.96
731.565	26193.18
731.906	26124.93
732.248	26129.23
732.589	26074.09
732.93	25979.4
733.271	25985.73
733.612	25963.81
733.953	25901.66
734.294	25854.21
734.635	25816.92
734.976	25898.73
735.317	25738.05
735.658	25712.06
735.999	25691.5
736.339	25649.24
736.68	25638.17
737.021	25524.5
737.361	25517.49
737.702	25610.82
738.042	25582.12
738.383	25381.23
738.723	25507.55
739.063	25374.45
739.404	25499.64
739.744	25331.28
740.084	25352.53
740.424	25246.54
740.764	25199.31
741.104	25287.22
741.444	25165.19
741.784	25108.24
742.124	25114.57
742.464	25089.93
742.804	25052.65
743.143	24953.67
743.483	24891.97
743.823	24850.84
744.162	24814.69
744.502	24848.13
744.841	24750.96
745.181	24862.59
745.52	24799.77
745.86	24727.91
746.199	24667.35
746.538	24557.52
746.877	24649.04
747.216	24730.85
747.556	24560.68
747.895	24532.43
748.234	24461.02
748.573	24400.23
748.911	24365.66
749.25	24407.92
749.589	24287.92
749.928	24336.51
750.267	24339.44
750.605	24150.07
750.944	24208.37
751.283	24126.34
751.621	24168.38
751.96	23949.4
752.298	23969.29
752.636	24045.22
752.975	23834.6
753.313	23878.89
753.651	23774.94
753.989	23775.39
754.327	23864.2
754.666	23649.97
755.004	23659.24
755.342	23743.3
755.679	23624.44
756.017	23430.99
756.355	23567.04
756.693	23428.06
757.031	23458.34
757.368	23220.15
757.706	23289.3
758.044	23221.28
758.381	23141.96
758.719	23025.81
759.056	23133.83
759.394	23088.86
759.731	22854.96
760.068	22947.16
760.405	22830.33
760.743	22760.28
