Data from hue_120_FLMS001491_00076.txt Node
Date: Tue Feb 07 16:59:58 GMT 2017
User: dcchb
Spectrometer: FLMS00149
Trigger mode: 0
Integration Time (sec): 2.000000E-2
Scans to average: 10
Electric dark correction enabled: true
Nonlinearity correction enabled: false
Boxcar width: 0
XAxis mode: Wavelengths
Number of Pixels in Spectrum: 2048
>>>>>Begin Spectral Data<<<<<
341.393	-31.36
341.776	-31.36
342.16	-31.36
342.543	-41.52
342.927	-73.61
343.31	-49.89
343.693	-83.11
344.077	-67.74
344.46	-65.7
344.843	-61.86
345.226	-57.34
345.61	-11.47
345.993	-30.9
346.376	17.23
346.759	21.07
347.142	21.3
347.525	43.22
347.908	59.94
348.291	81.64
348.674	86.38
349.057	97.23
349.44	136.78
349.823	125.48
350.206	161.41
350.588	193.95
350.971	199.83
351.354	219.71
351.737	244.12
352.119	257.45
352.502	274.17
352.884	270.11
353.267	292.25
353.65	296.77
354.032	299.94
354.414	308.3
354.797	287.28
355.179	315.3
355.562	327.73
355.944	334.51
356.326	346.49
356.709	327.28
357.091	333.16
357.473	334.06
357.855	352.36
358.238	337.22
358.62	352.36
359.002	359.82
359.384	325.47
359.766	335.64
360.148	349.2
360.53	344
360.912	332.25
361.294	341.74
361.676	335.64
362.057	319.37
362.439	333.83
362.821	337.67
363.203	314.85
363.584	331.57
363.966	310.33
364.348	318.24
364.729	313.49
365.111	319.82
365.493	312.59
365.874	330.9
366.256	322.76
366.637	316.21
367.019	339.93
367.4	323.21
367.781	328.86
368.163	326.6
368.544	318.24
368.925	311.23
369.306	325.47
369.688	318.69
370.069	325.02
370.45	328.18
370.831	323.66
371.212	325.92
371.593	319.37
371.974	323.89
372.355	339.93
372.736	312.82
373.117	317.56
373.498	316.66
373.879	316.88
374.26	327.28
374.641	309.65
375.021	300.39
375.402	326.15
375.783	322.08
376.163	323.89
376.544	347.62
376.925	350.1
377.305	313.95
377.686	335.41
378.066	327.51
378.447	335.87
378.827	329.77
379.208	340.16
379.588	344.23
379.968	332.25
380.349	323.66
380.729	343.78
381.109	331.8
381.489	355.98
381.87	344.45
382.25	330.67
382.63	346.71
383.01	346.71
383.39	366.15
383.77	342.19
384.15	375.19
384.53	348.75
384.91	365.24
385.29	363.21
385.67	348.75
386.049	360.05
386.429	360.05
386.809	358.47
387.189	366.15
387.568	350.1
387.948	370.67
388.328	364.34
388.707	361.18
389.087	356.88
389.466	380.39
389.846	373.38
390.225	359.37
390.605	377.9
390.984	377.45
391.363	377.67
391.743	386.94
392.122	399.37
392.501	391.68
392.881	379.71
393.26	400.27
393.639	397.33
394.018	384
394.397	382.87
394.776	383.55
395.155	372.93
395.534	391.91
395.913	401.63
396.292	384
396.671	394.85
397.05	397.79
397.429	407.73
397.808	403.21
398.186	399.37
398.565	412.7
398.944	414.96
399.323	441.85
399.701	400.5
400.08	412.48
400.458	413.6
400.837	402.98
401.215	414.73
401.594	412.48
401.972	421.74
402.351	397.33
402.729	425.81
403.107	419.03
403.486	435.3
403.864	431.01
404.242	434.62
404.62	458.35
404.999	437.11
405.377	424
405.755	443.89
406.133	455.19
406.511	443.89
406.889	444.11
407.267	457.22
407.645	458.58
408.023	480.72
408.401	467.39
408.779	463.77
409.156	453.38
409.534	476.2
409.912	491.34
410.29	477.78
410.667	462.42
411.045	493.15
411.422	499.7
411.8	485.24
412.178	486.82
412.555	500.83
412.933	507.84
413.31	510.78
413.687	508.07
414.065	518.23
414.442	506.94
414.819	529.53
415.197	537.44
415.574	536.54
415.951	531.12
416.328	533.15
416.705	547.39
417.082	518.01
417.46	525.69
417.837	532.92
418.214	560.72
418.591	564.34
418.967	556.88
419.344	559.82
419.721	560.95
420.098	561.4
420.475	551.23
420.852	569.08
421.228	576.99
421.605	572.92
421.982	576.54
422.358	594.17
422.735	595.3
423.111	583.09
423.488	599.81
423.864	607.05
424.241	611.11
424.617	606.59
424.994	623.09
425.37	626.25
425.746	635.97
426.123	637.55
426.499	635.97
426.875	628.74
427.251	659.25
427.627	663.32
428.003	662.64
428.379	667.84
428.756	686.82
429.132	666.48
429.507	674.84
429.883	672.36
430.259	684.78
430.635	709.42
431.011	685.69
431.387	707.38
431.763	708.29
432.138	732.47
432.514	717.55
432.89	727.04
433.265	759.36
433.641	754.84
434.016	761.84
434.392	764.56
434.767	796.42
435.143	783.09
435.518	785.35
435.894	780.15
436.269	821.5
436.644	814.27
437.02	800.26
437.395	790.09
437.77	818.11
438.145	834.16
438.52	838.9
438.895	863.76
439.271	838.9
439.646	897.89
440.021	870.54
440.395	871.45
440.77	892.69
441.145	888.62
441.52	883.2
441.895	899.92
442.27	912.8
442.645	891.78
443.019	906.93
443.394	916.42
443.769	913.7
444.143	906.47
444.518	920.94
444.892	929.52
445.267	933.37
445.641	957.32
446.016	955.06
446.39	969.3
446.764	965.68
447.139	977.88
447.513	1006.13
447.887	994.38
448.262	994.61
448.636	995.51
449.01	989.86
449.384	1028.05
449.758	1012.23
450.132	1026.7
450.506	1058.11
450.88	1061.95
451.254	1055.85
451.628	1061.95
452.002	1080.71
452.376	1064.66
452.75	1083.19
453.123	1091.33
453.497	1095.62
453.871	1115.51
454.244	1136.75
454.618	1160.25
454.992	1176.52
455.365	1143.08
455.739	1202.74
456.112	1214.94
456.486	1221.04
456.859	1233.47
457.232	1240.48
457.606	1219.23
457.979	1274.37
458.352	1287.71
458.725	1301.27
459.099	1307.37
459.472	1327.48
459.845	1359.12
460.218	1360.02
460.591	1349.17
460.964	1398.66
461.337	1425.56
461.71	1436.85
462.083	1462.16
462.456	1484.76
462.829	1461.94
463.201	1492.22
463.574	1531.99
463.947	1559.11
464.32	1540.13
464.692	1578.32
465.065	1588.49
465.438	1638.88
465.81	1640.47
466.183	1664.65
466.555	1681.37
466.928	1682.27
467.3	1717.3
467.672	1751.2
468.045	1793.23
468.417	1821.93
468.789	1844.75
469.161	1850.4
469.534	1875.94
469.906	1950.51
470.278	2001.81
470.65	2005.65
471.022	2033.9
471.394	2086.33
471.766	2104.41
472.138	2149.83
472.51	2205.42
472.882	2249.49
473.253	2297.62
473.625	2350.73
473.997	2400.9
474.369	2420.33
474.74	2452.2
475.112	2518.41
475.484	2603.83
475.855	2647.22
476.227	2694.67
476.598	2743.49
476.97	2822.36
477.341	2880.43
477.713	2988
478.084	3050.6
478.455	3113.87
478.827	3197.49
479.198	3286.75
479.569	3340.76
479.94	3467.54
480.311	3533.97
480.682	3654.65
481.053	3755.66
481.424	3793.63
481.795	3895.1
482.166	4011.93
482.537	4120.63
482.908	4263.45
483.279	4359.04
483.65	4479.26
484.021	4599.71
484.391	4731.01
484.762	4816.88
485.133	4856.43
485.503	5066.36
485.874	5188.85
486.244	5257.55
486.615	5447.14
486.985	5569.18
487.356	5695.27
487.726	5830.64
488.097	5992.67
488.467	6091.87
488.837	6259.33
489.207	6427.91
489.578	6522.82
489.948	6746.77
490.318	6837.16
490.688	6948.12
491.058	7131.85
491.428	7291.39
491.798	7388.34
492.168	7662
492.538	7637.6
492.908	7864.03
493.278	8077.81
493.648	8152.84
494.017	8288.88
494.387	8426.95
494.757	8618.13
495.126	8664.24
495.496	8863.1
495.866	8912.82
496.235	9157.1
496.605	9236.42
496.974	9420.37
497.344	9510.99
497.713	9626.47
498.082	9763.42
498.452	9950.98
498.821	10029.4
499.19	10160.02
499.559	10249.96
499.928	10341.25
500.298	10436.17
500.667	10524.3
501.036	10682.71
501.405	10809.49
501.774	10894.01
502.143	11035.02
502.512	11093.1
502.88	11200.21
503.249	11297.39
503.618	11364.5
503.987	11439.53
504.356	11583.03
504.724	11635.68
505.093	11697.6
505.462	11812.85
505.83	11934.43
506.199	12062.34
506.567	12216.68
506.936	12159.74
507.304	12323.8
507.672	12364.03
508.041	12495.77
508.409	12572.61
508.777	12668.42
509.145	12792.04
509.514	12746.61
509.882	12877.23
510.25	12938.47
510.618	12933.95
510.986	12930.79
511.354	13110.22
511.722	13199.26
512.09	13349.31
512.458	13316.54
512.826	13403.32
513.193	13425.92
513.561	13503.88
513.929	13569.64
514.297	13681.73
514.664	13824.78
515.032	13775.51
515.4	13841.05
515.767	13947.49
516.135	13988.39
516.502	13883.99
516.869	14082.85
517.237	14206.24
517.604	14114.71
517.972	14185.67
518.339	14251.66
518.706	14251.89
519.073	14232.9
519.44	14330.3
519.808	14466.79
520.175	14396.29
520.542	14505.44
520.909	14581.37
521.276	14584.08
521.643	14622.95
522.009	14718.99
522.376	14788.14
522.743	14806.67
523.11	14933.9
523.477	15026.1
523.843	15035.14
524.21	15075.59
524.577	15162.82
524.943	15199.66
525.31	15216.61
525.676	15301.8
526.043	15236.72
526.409	15293.67
526.776	15438.75
527.142	15404.4
527.508	15486.43
527.874	15469.03
528.241	15496.6
528.607	15480.33
528.973	15513.77
529.339	15532.76
529.705	15542.47
530.071	15599.65
530.437	15710.83
530.803	15710.83
531.169	15731.17
531.535	15611.4
531.901	15681
532.267	15722.13
532.632	15747.89
532.998	15804.16
533.364	15773.88
533.73	15746.54
534.095	15717.84
534.461	15700.89
534.826	15702.02
535.192	15655.01
535.557	15710.38
535.923	15679.42
536.288	15609.82
536.653	15714.45
537.019	15528.91
537.384	15648.23
537.749	15648.91
538.114	15564.62
538.479	15518.52
538.845	15610.04
539.21	15522.13
539.575	15448.01
539.94	15508.12
540.305	15528.01
540.67	15406.88
541.034	15384.96
541.399	15444.62
541.764	15432.65
542.129	15425.87
542.494	15344.29
542.858	15312.65
543.223	15396.04
543.587	15313.33
543.952	15250.05
544.316	15295.7
544.681	15176.38
545.045	15273.55
545.41	15196.27
545.774	15229.71
546.138	15163.27
546.503	15116.27
546.867	15069.26
547.231	15132.99
547.595	15096.38
547.959	15019.32
548.324	14982.49
548.688	14959.89
549.052	15004.86
549.416	14900
549.779	14880.34
550.143	14937.52
550.507	14893.45
550.871	14917.18
551.235	14834.69
551.599	14820.91
551.962	14801.93
552.326	14786.79
552.689	14790.4
553.053	14641.71
553.417	14723.51
553.78	14716.28
554.143	14703.62
554.507	14673.79
554.87	14690.52
555.234	14711.76
555.597	14672.44
555.96	14657.3
556.323	14654.81
556.686	14615.94
557.05	14636.28
557.413	14678.09
557.776	14619.56
558.139	14658.43
558.502	14668.15
558.865	14610.29
559.228	14620.69
559.59	14699.33
559.953	14637.64
560.316	14737.07
560.679	14716.05
561.041	14730.06
561.404	14724.87
561.767	14723.51
562.129	14713.12
562.492	14860.91
562.854	14703.62
563.217	14618.2
563.579	14750.18
563.941	14787.46
564.304	14855.03
564.666	14784.07
565.028	14887.35
565.39	14819.55
565.753	14864.52
566.115	14905.2
566.477	14888.03
566.839	14943.84
567.201	15018.42
567.563	14963.96
567.925	15061.81
568.287	15016.16
568.648	14983.39
569.01	15042.82
569.372	15028.14
569.734	14999.89
570.095	15142.26
570.457	15227
570.819	15158.3
571.18	15155.59
571.542	15190.84
571.903	15201.01
572.265	15144.29
572.626	15318.3
572.987	15212.54
573.349	15258.86
573.71	15264.97
574.071	15222.26
574.432	15258.86
574.794	15400.78
575.155	15380.44
575.516	15301.58
575.877	15383.83
576.238	15442.59
576.599	15434.9
576.96	15411.85
577.32	15389.03
577.681	15400.78
578.042	15434
578.403	15471.51
578.763	15465.41
579.124	15462.25
579.485	15485.07
579.845	15463.6
580.206	15452.08
580.566	15433.1
580.927	15475.36
581.287	15523.26
581.648	15462.47
582.008	15470.84
582.368	15483.27
582.728	15513.77
583.089	15450.72
583.449	15409.82
583.809	15464.96
584.169	15488.91
584.529	15462.02
584.889	15511.29
585.249	15504.28
585.609	15372.76
585.969	15509.48
586.329	15416.6
586.688	15338.18
587.048	15346.55
587.408	15255.93
587.768	15346.32
588.127	15276.49
588.487	15314.68
588.846	15443.04
589.206	15326.21
589.565	15279.88
589.925	15452.08
590.284	15293.21
590.643	15306.77
591.003	15300.45
591.362	15362.36
591.721	15292.54
592.08	15310.39
592.44	15320.33
592.799	15306.77
593.158	15262.71
593.517	15369.14
593.876	15363.49
594.235	15279.88
594.593	15281.91
594.952	15293.67
595.311	15194.69
595.67	15245.53
596.029	15356.26
596.387	15311.97
596.746	15345.87
597.104	15271.75
597.463	15285.76
597.822	15333.21
598.18	15233.33
598.538	15285.08
598.897	15329.37
599.255	15142.03
599.613	15380.44
599.972	15203.5
600.33	15259.99
600.688	15201.92
601.046	15233.55
601.404	15312.42
601.762	15290.5
602.12	15312.42
602.478	15330.95
602.836	15323.04
603.194	15207.34
603.552	15252.99
603.91	15248.47
604.268	15246.66
604.625	15213.44
604.983	15142.48
605.341	15183.16
605.698	15266.77
606.056	15403.27
606.413	15285.08
606.771	15343.83
607.128	15447.56
607.485	15306.55
607.843	15383.61
608.2	15365.3
608.557	15499.54
608.914	15396.26
609.272	15473.32
609.629	15553.32
609.986	15483.49
610.343	15432.65
610.7	15565.07
611.057	15459.54
611.414	15494.34
611.771	15515.81
612.127	15573.21
612.484	15500.21
612.841	15513.32
613.198	15473.55
613.554	15566.43
613.911	15591.74
614.267	15524.17
614.624	15568.91
614.98	15515.35
615.337	15651.17
615.693	15603.04
616.05	15631.96
616.406	15784.27
616.762	15610.27
617.118	15662.7
617.475	15617.95
617.831	15764.39
618.187	15727.78
618.543	15767.1
618.899	15900.88
619.255	15789.92
619.611	15720.55
619.967	15805.74
620.323	15843.93
620.678	15770.04
621.034	15793.54
621.39	15729.36
621.746	15635.35
622.101	15942.01
622.457	15760.55
622.812	15755.8
623.168	15797.83
623.523	15765.52
623.879	15827.21
624.234	15721.23
624.589	15727.33
624.945	15785.18
625.3	15830.83
625.655	15814.56
626.01	15721.9
626.365	15739.98
626.72	15845.29
627.075	15792.18
627.43	15755.8
627.785	15676.93
628.14	15758.74
628.495	15853.65
628.85	15775.69
629.205	15731.17
629.559	15815.01
629.914	15753.77
630.269	15671.28
630.623	15701.34
630.978	15589.03
631.332	15717.38
631.687	15708.34
632.041	15701.34
632.396	15728
632.75	15505.41
633.104	15630.83
633.459	15593.09
633.813	15548.35
634.167	15602.13
634.521	15490.04
634.875	15535.02
635.229	15564.62
635.583	15434.68
635.937	15472.42
636.291	15394
636.645	15519.2
636.999	15365.3
637.352	15378.64
637.706	15295.47
638.06	15423.38
638.413	15415.24
638.767	15325.76
639.121	15276.72
639.474	15252.08
639.828	15177.06
640.181	15239.43
640.534	15262.71
640.888	15261.8
641.241	15179.77
641.594	15223.39
641.947	15219.09
642.301	15197.17
642.654	15142.26
643.007	15200.33
643.36	15138.64
643.713	15112.88
644.066	15229.03
644.419	15083.73
644.771	14927.35
645.124	14855.94
645.477	14850.51
645.83	14769.39
646.182	14737.97
646.535	14656.62
646.888	14659.11
647.24	14581.14
647.593	14630.86
647.945	14632.44
648.298	14565.1
648.65	14558.32
649.002	14564.42
649.355	14519.22
649.707	14594.02
650.059	14626.56
650.411	14881.47
650.763	14880.12
651.115	14991.3
651.467	14872.66
651.819	14996.72
652.171	14960.57
652.523	14973.67
652.875	14870.63
653.227	14878.54
653.578	14951.08
653.93	14931.42
654.282	14819.33
654.633	14783.62
654.985	14800.35
655.337	14906.56
655.688	14889.83
656.039	14901.81
656.391	14822.27
656.742	14816.84
657.094	14906.78
657.445	14970.28
657.796	14882.38
658.147	14802.38
658.498	14872.21
658.849	14940.91
659.2	14926.67
659.551	14775.94
659.902	14867.69
660.253	14812.32
660.604	14954.01
660.955	14865.2
661.306	14921.02
661.656	14881.02
662.007	14924.64
662.358	14920.34
662.708	14863.17
663.059	14856.39
663.409	14827.01
663.76	14902.72
664.11	14853.45
664.461	14972.32
664.811	14865.88
665.161	14878.31
665.511	14880.34
665.862	14953.56
666.212	15031.75
666.562	14903.62
666.912	14918.31
667.262	14907.01
667.612	14896.61
667.962	15009.61
668.312	14911.53
668.662	15069.04
669.011	14951.08
669.361	14845.77
669.711	14863.39
670.06	14820.91
670.41	14855.26
670.76	14826.56
671.109	14855.71
671.459	14944.3
671.808	14829.05
672.157	14819.1
672.507	14736.39
672.856	14818.42
673.205	14819.1
673.554	14792.21
673.904	14642.38
674.253	14829.5
674.602	14764.19
674.951	14587.47
675.3	14501.82
675.649	14653
675.998	14747.47
676.346	14669.05
676.695	14702.95
677.044	14505.89
677.393	14681.03
677.741	14632.67
678.09	14640.8
678.438	14565.55
678.787	14570.29
679.135	14602.38
679.484	14462.05
679.832	14583.4
680.181	14486.68
680.529	14479.22
680.877	14408.04
681.225	14429.51
681.573	14570.52
681.922	14383.18
682.27	14414.82
682.618	14334.14
682.966	14416.17
683.314	14366.46
683.661	14308.15
684.009	14228.61
684.357	14301.15
684.705	14263.64
685.053	14274.48
685.4	14286.69
685.748	14035.85
686.095	14170.98
686.443	13991.33
686.79	13980.93
687.138	14046.92
687.485	13952.46
687.832	14019.8
688.18	13939.8
688.527	13784.78
688.874	13785.91
689.221	13830.88
689.568	13817.77
689.915	13704.1
690.262	13708.4
690.609	13682.63
690.956	13605.35
691.303	13642.64
691.65	13512.24
691.997	13558.12
692.344	13468.18
692.69	13410.33
693.037	13458.01
693.383	13272.25
693.73	13373.49
694.077	13222.31
694.423	13184.34
694.769	13171.69
695.116	13160.61
695.462	13088.75
695.808	13027.74
696.155	12928.76
696.501	12932.6
696.847	12964.46
697.193	12787.29
697.539	12810.79
697.885	12691.47
698.231	12651.7
698.577	12710.23
698.923	12668.65
699.269	12648.09
699.614	12573.74
699.96	12487.64
700.306	12489.22
700.651	12458.94
700.997	12442.22
701.342	12372.61
701.688	12341.88
702.033	12335.1
702.379	12335.1
702.724	12226.63
703.069	12160.64
703.415	12038.61
703.76	12117.03
704.105	11984.37
704.45	12015.79
704.795	11979.18
705.14	11888.56
705.485	11852.63
705.83	11795.23
706.175	11817.6
706.52	11844.26
706.865	11771.72
707.209	11745.51
707.554	11620.09
707.899	11635
708.243	11576.02
708.588	11541.9
708.932	11493.77
709.277	11508.68
709.621	11460.32
709.966	11441.79
710.31	11443.6
710.654	11336.93
710.998	11355.01
711.342	11369.25
711.687	11303.04
712.031	11267.56
712.375	11220.78
712.719	11183.72
713.063	11262.36
713.407	11257.84
713.75	11141.68
714.094	11159.09
714.438	11151.18
714.782	11136.94
715.125	11063.95
715.469	11098.52
715.812	11082.48
716.156	10958.19
716.499	10998.64
716.843	10991.18
717.186	10858.08
717.53	10979.88
717.873	10987.11
718.216	10921.13
718.559	10852.88
718.902	10838.64
719.246	10858.75
719.589	10801.58
719.932	10842.26
720.275	10822.14
720.617	10817.85
720.96	10783.73
721.303	10856.95
721.646	10690.4
721.989	10743.95
722.331	10755.93
722.674	10742.37
723.016	10712.54
723.359	10723.84
723.701	10722.26
724.044	10563.17
724.386	10559.1
724.729	10706.22
725.071	10702.15
725.413	10609.27
725.755	10562.49
726.097	10532.89
726.439	10440.91
726.782	10523.85
727.124	10478.88
727.465	10535.6
727.807	10564.07
728.149	10456.05
728.491	10534.02
728.833	10495.37
729.175	10523.4
729.516	10474.58
729.858	10421.93
730.199	10463.28
730.541	10456.73
730.882	10443.85
731.224	10458.99
731.565	10431.42
731.906	10496.05
732.248	10354.13
732.589	10429.16
732.93	10334.47
733.271	10404.53
733.612	10333.8
733.953	10421.03
734.294	10391.2
734.635	10359.56
734.976	10370.41
735.317	10360.69
735.658	10389.84
735.999	10318.43
736.339	10326.79
736.68	10343.06
737.021	10349.61
737.361	10341.93
737.702	10416.73
738.042	10329.73
738.383	10293.12
738.723	10435.49
739.063	10374.7
739.404	10383.06
739.744	10433
740.084	10427.58
740.424	10412.89
740.764	10409.27
741.104	10488.59
741.444	10463.96
741.784	10421.93
742.124	10407.69
742.464	10442.95
742.804	10528.59
743.143	10448.37
743.483	10503.51
743.823	10480.01
744.162	10557.97
744.502	10520.68
744.841	10598.2
745.181	10641.81
745.52	10571.76
745.86	10675.26
746.199	10740.11
746.538	10723.84
746.877	10863.73
747.216	10846.32
747.556	10919.32
747.895	10894.01
748.234	10961.58
748.573	11029.6
748.911	11081.12
749.25	11130.39
749.589	11125.87
749.928	11310.49
750.267	11351.4
750.605	11355.46
750.944	11523.6
751.283	11557.27
751.621	11592.07
751.96	11641.11
752.298	11776.92
752.636	11838.84
752.975	11958.39
753.313	11992.51
753.651	12209.9
753.989	12222.56
754.327	12328.55
754.666	12421.65
755.004	12610.35
755.342	12759.27
755.679	12872.71
756.017	12921.07
756.355	13166.49
