Data from hue_26_FLMS001491_00017.txt Node
Date: Tue Feb 07 17:13:38 GMT 2017
User: dcchb
Spectrometer: FLMS00149
Trigger mode: 0
Integration Time (sec): 2.000000E-2
Scans to average: 10
Electric dark correction enabled: true
Nonlinearity correction enabled: false
Boxcar width: 0
XAxis mode: Wavelengths
Number of Pixels in Spectrum: 2048
>>>>>Begin Spectral Data<<<<<
341.393	21.92
341.776	21.92
342.16	21.92
342.543	-51.3
342.927	-47.68
343.31	-70.96
343.693	-70.05
344.077	-64.41
344.46	-42.48
344.843	-54.01
345.226	-33.9
345.61	-32.54
345.993	-29.38
346.376	-7.23
346.759	-1.13
347.142	18.08
347.525	31.41
347.908	47.46
348.291	97.62
348.674	91.07
349.057	120.45
349.44	133.1
349.823	139.21
350.206	178.3
350.588	207.68
350.971	236.83
351.354	220.33
351.737	234.57
352.119	266.89
352.502	278.41
352.884	275.25
353.267	279.09
353.65	305.3
354.032	292.42
354.414	298.07
354.797	324.06
355.179	317.51
355.562	332.65
355.944	347.79
356.326	307.11
356.709	338.97
357.091	350.27
357.473	341.46
357.855	347.34
358.238	362.7
358.62	343.49
359.002	339.88
359.384	346.66
359.766	344.4
360.148	368.58
360.53	348.24
360.912	336.94
361.294	350.73
361.676	329.48
362.057	335.58
362.439	343.95
362.821	331.74
363.203	332.42
363.584	314.79
363.966	331.52
364.348	331.52
364.729	344.85
365.111	340.33
365.493	320.22
365.874	333.55
366.256	328.35
366.637	334.68
367.019	324.29
367.4	349.6
367.781	328.8
368.163	345.3
368.544	327
368.925	324.74
369.306	309.82
369.688	325.64
370.069	319.31
370.45	304.17
370.831	334.45
371.212	322.25
371.593	297.39
371.974	336.49
372.355	330.16
372.736	331.74
373.117	329.71
373.498	331.97
373.879	311.86
374.26	313.66
374.641	327.45
375.021	343.95
375.402	328.8
375.783	328.58
376.163	313.66
376.544	333.78
376.925	321.35
377.305	304.62
377.686	329.71
378.066	339.43
378.447	321.8
378.827	352.31
379.208	337.39
379.588	348.69
379.968	352.53
380.349	345.53
380.729	336.49
381.109	345.3
381.489	341.69
381.87	364.28
382.25	336.71
382.63	350.05
383.01	329.48
383.39	346.66
383.77	348.24
384.15	340.56
384.53	363.38
384.91	372.42
385.29	353.89
385.67	349.82
386.049	362.48
386.429	362.02
386.809	362.48
387.189	357.96
387.568	344.17
387.948	385.3
388.328	377.62
388.707	362.48
389.087	400.44
389.466	394.11
389.846	349.14
390.225	376.71
390.605	375.58
390.984	379.88
391.363	375.58
391.743	382.81
392.122	379.2
392.501	376.71
392.881	371.06
393.26	415.13
393.639	388.92
394.018	375.13
394.397	394.11
394.776	373.78
395.155	382.36
395.534	402.7
395.913	389.37
396.292	406.09
396.671	401.57
397.05	391.63
397.429	397.96
397.808	409.71
398.186	422.36
398.565	411.97
398.944	396.37
399.323	385.98
399.701	413.77
400.08	404.51
400.458	414.68
400.837	403.83
401.215	440.67
401.594	392.53
401.972	418.97
402.351	416.26
402.729	411.97
403.107	402.02
403.486	424.4
403.864	413.55
404.242	428.24
404.62	441.34
404.999	428.69
405.377	428.01
405.755	433.43
406.133	450.16
406.511	449.71
406.889	440.21
407.267	443.6
407.645	444.06
408.023	457.84
408.401	449.25
408.779	472.08
409.156	466.88
409.534	445.64
409.912	462.81
410.29	472.98
410.667	470.04
411.045	466.43
411.422	465.75
411.8	494.45
412.178	458.97
412.555	494.45
412.933	492.87
413.31	502.36
413.687	500.55
414.065	512.75
414.442	504.62
414.819	508.01
415.197	505.3
415.574	505.07
415.951	491.06
416.328	504.39
416.705	504.17
417.082	512.98
417.46	515.69
417.837	519.76
418.214	517.73
418.591	552.53
418.967	532.87
419.344	542.36
419.721	550.95
420.098	539.65
420.475	525.86
420.852	557.95
421.228	548.46
421.605	538.74
421.982	533.09
422.358	578.97
422.735	562.7
423.111	574.22
423.488	566.09
423.864	553.66
424.241	606.76
424.617	541
424.994	580.32
425.37	587.33
425.746	609.25
426.123	592.75
426.499	602.24
426.875	605.86
427.251	616.48
427.627	623.49
428.003	615.8
428.379	631.4
428.756	628.46
429.132	628.91
429.507	644.73
429.883	609.02
430.259	636.82
430.635	631.62
431.011	630.04
431.387	653.99
431.763	662.81
432.138	669.81
432.514	672.52
432.89	668.68
433.265	692.41
433.641	694.22
434.016	699.64
434.392	703.48
434.767	710.04
435.143	711.17
435.518	728.34
435.894	744.84
436.269	751.17
436.644	750.26
437.02	745.29
437.395	765.18
437.77	773.99
438.145	757.49
438.52	757.27
438.895	774.22
439.271	778.06
439.646	760.66
440.021	780.09
440.395	785.52
440.77	780.54
441.145	798.17
441.52	793.2
441.895	810.37
442.27	811.96
442.645	807.44
443.019	837.04
443.394	795.69
443.769	826.64
444.143	816.7
444.518	830.94
444.892	835.46
445.267	849.24
445.641	816.7
446.016	845.85
446.39	843.82
446.764	836.81
447.139	849.47
447.513	861.22
447.887	872.97
448.262	873.2
448.636	849.47
449.01	891.73
449.384	879.98
449.758	900.32
450.132	924.27
450.506	913.2
450.88	933.99
451.254	934.66
451.628	931.95
452.002	945.29
452.376	941.44
452.75	945.06
453.123	942.12
453.497	976.7
453.871	964.27
454.244	986.19
454.618	980.77
454.992	987.32
455.365	993.87
455.739	1020.76
456.112	1042.68
456.486	1027.54
456.859	1035.9
457.232	1070.03
457.606	1070.71
457.979	1088.56
458.352	1091.5
458.725	1086.3
459.099	1116.58
459.472	1118.61
459.845	1152.29
460.218	1162
460.591	1144.38
460.964	1167.88
461.337	1197.71
461.71	1159.29
462.083	1217.37
462.456	1201.1
462.829	1218.95
463.201	1222.11
463.574	1249.23
463.947	1255.33
464.32	1269.35
464.692	1281.55
465.065	1292.4
465.438	1305.5
465.81	1296.46
466.183	1326.29
466.555	1385.05
466.928	1391.38
467.3	1365.39
467.672	1403.35
468.045	1437.25
468.417	1430.7
468.789	1410.13
469.161	1442
469.534	1477.02
469.906	1518.15
470.278	1517.47
470.65	1563.12
471.022	1555.21
471.394	1589.79
471.766	1610.13
472.138	1597.02
472.51	1655.78
472.882	1723.57
473.253	1708.43
473.625	1720.18
473.997	1770.35
474.369	1791.59
474.74	1797.01
475.112	1854.41
475.484	1874.08
475.855	1899.39
476.227	1944.58
476.598	1975.77
476.97	1990
477.341	2054.41
477.713	2084.69
478.084	2087.63
478.455	2160.85
478.827	2160.62
479.198	2253.5
479.569	2258.47
479.94	2308.64
480.311	2326.04
480.682	2389.54
481.053	2449.2
481.424	2474.29
481.795	2546.15
482.166	2538.46
482.537	2613.26
482.908	2638.57
483.279	2733.94
483.65	2732.81
484.021	2790.21
484.391	2830.43
484.762	2882.64
485.133	2915.86
485.503	2940.49
485.874	3043.54
486.244	3106.81
486.615	3122.4
486.985	3192.68
487.356	3275.39
487.726	3304.32
488.097	3367.37
488.467	3390.42
488.837	3467.03
489.207	3512.22
489.578	3531.21
489.948	3624.09
490.318	3678.77
490.688	3682.39
491.058	3751.99
491.428	3832.89
491.798	3884.87
492.168	3942.27
492.538	3966.22
492.908	3970.74
493.278	4064.07
493.648	4093.23
494.017	4174.35
494.387	4219.78
494.757	4267.68
495.126	4331.64
495.496	4335.25
495.866	4376.61
496.235	4457.06
496.605	4431.3
496.974	4494.8
497.344	4570.05
497.713	4621.57
498.082	4621.12
498.452	4663.15
498.821	4706.09
499.19	4742.02
499.559	4735.69
499.928	4753.32
500.298	4801.23
500.667	4907.44
501.036	4891.17
501.405	4936.14
501.774	4910.61
502.143	5015.69
502.512	5025.63
502.88	5089.58
503.249	5096.36
503.618	5104.72
503.987	5167.77
504.356	5170.26
504.724	5208.22
505.093	5242.12
505.462	5278.96
505.83	5309.24
506.199	5353.76
506.567	5402.34
506.936	5363.02
507.304	5511.04
507.672	5472.17
508.041	5505.17
508.409	5514.88
508.777	5564.6
509.145	5621.1
509.514	5651.15
509.882	5667.2
510.25	5718.04
510.618	5733.63
510.986	5674.88
511.354	5741.54
511.722	5796.46
512.09	5852.5
512.458	5858.15
512.826	5928.88
513.193	5924.14
513.561	5927.75
513.929	5973.4
514.297	6028.77
514.664	6088.43
515.032	6024.7
515.4	6108.77
515.767	6132.49
516.135	6150.12
516.502	6155.09
516.869	6213.4
517.237	6204.36
517.604	6212.49
517.972	6270.12
518.339	6274.86
518.706	6355.31
519.073	6367.74
519.44	6375.88
519.808	6427.4
520.175	6374.97
520.542	6464.46
520.909	6525.93
521.276	6479.6
521.643	6591.01
522.009	6623.33
522.376	6596.21
522.743	6649.99
523.11	6748.52
523.477	6761.4
523.843	6793.72
524.21	6890.89
524.577	6926.6
524.943	6975.18
525.31	6942.19
525.676	7044.33
526.043	7036.43
526.409	7018.12
526.776	7153.26
527.142	7069.19
527.508	7202.75
527.874	7263.31
528.241	7322.29
528.607	7270.32
528.973	7330.43
529.339	7352.35
529.705	7439.35
530.071	7442.74
530.437	7498.11
530.803	7497.88
531.169	7614.26
531.535	7596.41
531.901	7618.33
532.267	7659.91
532.632	7679.12
532.998	7724.32
533.364	7758.21
533.73	7831.43
534.095	7868.49
534.461	7863.75
534.826	7903.52
535.192	7951.2
535.557	7970.19
535.923	8025.33
536.288	8036.85
536.653	8101.26
537.019	8034.82
537.384	8108.04
537.749	8135.38
538.114	8160.46
538.479	8185.77
538.845	8311.87
539.21	8206.56
539.575	8280.69
539.94	8308.26
540.305	8378.99
540.67	8380.34
541.034	8428.93
541.399	8457.4
541.764	8467.12
542.129	8567.46
542.494	8525.65
542.858	8583.96
543.223	8595.03
543.587	8736.27
543.952	8665.31
544.316	8789.15
544.681	8721.58
545.045	8820.11
545.41	8884.96
545.774	8852.42
546.138	8863.95
546.503	8902.36
546.867	8984.85
547.231	8998.18
547.595	9032.08
547.959	9020.78
548.324	9097.39
548.688	9117.73
549.052	9111.17
549.416	9192.3
549.779	9177.16
550.143	9217.16
550.507	9286.54
550.871	9296.7
551.235	9272.07
551.599	9317.27
551.962	9367.89
552.326	9466.19
552.689	9476.59
553.053	9428.23
553.417	9476.81
553.78	9586.41
554.143	9555.45
554.507	9556.58
554.87	9658.05
555.234	9734.89
555.597	9686.52
555.96	9783.47
556.323	9786.64
556.686	9693.08
557.05	9828.89
557.413	9827.54
557.776	9858.05
558.139	9929.91
558.502	9981.88
558.865	9968.33
559.228	9967.42
559.59	10083.35
559.953	10106.17
560.316	10201.99
560.679	10130.58
561.041	10234.99
561.404	10287.87
561.767	10284.02
562.129	10282.44
562.492	10360.63
562.854	10379.61
563.217	10388.88
563.579	10477.24
563.941	10499.38
564.304	10511.59
564.666	10571.25
565.028	10580.74
565.39	10611.92
565.753	10728.31
566.115	10669.32
566.477	10765.59
566.839	10752.26
567.201	10874.29
567.563	10805.37
567.925	10984.12
568.287	10995.87
568.648	10975.3
569.01	11083.55
569.372	11068.18
569.734	11119.48
570.095	11190.67
570.457	11282.42
570.819	11255.98
571.18	11263.21
571.542	11398.12
571.903	11424.33
572.265	11476.08
572.626	11492.58
572.987	11485.8
573.349	11630.43
573.71	11599.47
574.071	11762.4
574.432	11789.52
574.794	11842.85
575.155	11938.44
575.516	11912.91
575.877	12007.82
576.238	12081.04
576.599	12209.4
576.96	12237.42
577.32	12343.18
577.681	12451.2
578.042	12601.7
578.403	12609.39
578.763	12708.82
579.124	12751.08
579.485	13010.28
579.845	13102.25
580.206	13193.33
580.566	13211.86
580.927	13360.1
581.287	13567.33
581.648	13612.07
582.008	13852.29
582.368	13896.58
582.728	14070.82
583.089	14235.78
583.449	14411.37
583.809	14551.03
584.169	14675.09
584.529	14865.15
584.889	15147.17
585.249	15218.13
585.609	15408.41
585.969	15674.62
586.329	15821.05
586.688	16019.47
587.048	16230.76
587.408	16447.48
587.768	16589.17
588.127	16826.9
588.487	17115.48
588.846	17404.51
589.206	17519.31
589.565	17772.41
589.925	18155.45
590.284	18411.04
590.643	18606.97
591.003	18954.76
591.362	19191.36
591.721	19460.96
592.08	19695.75
592.44	20140.04
592.799	20282.86
593.158	20654.15
593.517	20787.25
593.876	21245.09
594.235	21424.52
594.593	21842.59
594.952	22113.54
595.311	22318.96
595.67	22605.28
596.029	23076.91
596.387	23405.49
596.746	23671.69
597.104	23908.52
597.463	24229.19
597.822	24618.34
598.18	24766.81
598.538	25011.55
598.897	25518.65
599.255	25647.01
599.613	26143.27
599.972	26346.2
600.33	26642.92
600.688	26871.38
601.046	27180.53
601.404	27638.14
601.762	27837.91
602.12	28322.65
602.478	28511.79
602.836	28794.5
603.194	28886.92
603.552	29264.99
603.91	29411.43
604.268	29873.11
604.625	29932.55
604.983	30407.34
605.341	30462.7
605.698	30860.43
606.056	31239.4
606.413	31445.95
606.771	31719.39
607.128	31974.98
607.485	32093.62
607.843	32344.01
608.2	32662.42
608.557	33084.78
608.914	33223.99
609.272	33479.35
609.629	33814.48
609.986	34140.57
610.343	34108.48
610.7	34550.73
611.057	34719.77
611.414	34768.13
611.771	35095.12
612.127	35455.34
612.484	35552.06
612.841	35811.26
613.198	35732.62
613.554	36115.21
613.911	36386.84
614.267	36571.02
614.624	36717
614.98	36841.29
615.337	37341.84
615.693	37277.66
616.05	37426.81
616.406	37832.68
616.762	37707.94
617.118	37898.44
617.475	37971.2
617.831	38248.94
618.187	38400.8
618.543	38494.81
618.899	38840.79
619.255	38925.3
619.611	38950.61
619.967	39205.07
620.323	39322.13
620.678	39431.96
621.034	39431.05
621.39	39581.33
621.746	39676.47
622.101	40156.23
622.457	39925.05
622.812	40196.23
623.168	40252.73
623.523	40315.1
623.879	40506.73
624.234	40343.8
624.589	40594.64
624.945	40735.88
625.3	40766.16
625.655	40789.89
626.01	40899.49
626.365	40957.34
626.72	40969.09
627.075	41042.76
627.43	41116.88
627.785	40949.88
628.14	41202.08
628.495	41295.19
628.85	41335.86
629.205	41268.29
629.559	41551
629.914	41631.22
630.269	41509.64
630.623	41469.64
630.978	41502.86
631.332	41782.4
631.687	41750.77
632.041	41814.72
632.396	41686.81
632.75	41716.87
633.104	41737.43
633.459	41578.57
633.813	41760.71
634.167	41862.4
634.521	41764.1
634.875	41879.58
635.229	41844.78
635.583	41680.49
635.937	41627.15
636.291	41595.52
636.645	41853.81
636.999	41469.42
637.352	41750.31
637.706	41679.13
638.06	41863.31
638.413	41614.27
638.767	41654.5
639.121	41715.29
639.474	41710.54
639.828	41620.6
640.181	41695.85
640.534	41687.49
640.888	41649.53
641.241	41427.84
641.594	41590.32
641.947	41715.74
642.301	41581.96
642.654	41695.17
643.007	41667.6
643.36	41617.89
643.713	41414.73
644.066	41708.51
644.419	41409.76
644.771	41130.22
645.124	40816.33
645.477	40896.33
645.83	40650.91
646.182	40535.88
646.535	40297.92
646.888	40357.58
647.24	40351.93
647.593	40542.66
647.945	40433.29
648.298	40164.37
648.65	40243.01
649.002	40171.15
649.355	40277.36
649.707	40306.96
650.059	40459.05
650.411	40847.74
650.763	40735.43
651.115	41316.65
651.467	41162.08
651.819	41199.59
652.171	41168.41
652.523	41145.81
652.875	41146.04
653.227	40961.63
653.578	41228.52
653.93	41046.38
654.282	40920.51
654.633	40919.6
654.985	40942.65
655.337	40858.81
655.688	41061.75
656.039	41091.35
656.391	40735.2
656.742	40796.67
657.094	40900.17
657.445	40959.15
657.796	40857.23
658.147	40822.43
658.498	40780.85
658.849	40966.38
659.2	40745.82
659.551	40760.06
659.902	40862.65
660.253	40775.88
660.604	40783.79
660.955	40569.55
661.306	40730.23
661.656	40759.38
662.007	40715.77
662.358	40801.41
662.708	40706.95
663.059	40751.24
663.409	40561.42
663.76	40839.15
664.11	40895.42
664.461	40871.92
664.811	40777.68
665.161	40669.44
665.511	40678.7
665.862	40754.63
666.212	40753.96
666.562	40673.51
666.912	40722.32
667.262	40622.66
667.612	40751.7
667.962	40626.95
668.312	40570.01
668.662	40833.95
669.011	40640.29
669.361	40526.39
669.711	40662.66
670.06	40523.45
670.41	40354.19
670.76	40452.95
671.109	40640.29
671.459	40539.27
671.808	40394.42
672.157	40457.24
672.507	40217.7
672.856	40306.74
673.205	40316.91
673.554	40548.54
673.904	40305.38
674.253	40491.82
674.602	40425.83
674.951	39817.48
675.3	39785.17
675.649	40273.74
675.998	40194.88
676.346	40292.73
676.695	40362.55
677.044	40189
677.393	40312.16
677.741	40284.36
678.09	40199.62
678.438	40038.72
678.787	40068.78
679.135	40029.46
679.484	39912.4
679.832	39909.91
680.181	39827.88
680.529	39936.13
680.877	39755.56
681.225	39776.13
681.573	39951.04
681.922	39700.65
682.27	39529.58
682.618	39596.02
682.966	39436.93
683.314	39599.64
683.661	39408.68
684.009	39319.19
684.357	39211.4
684.705	39229.25
685.053	39177.27
685.4	39352.64
685.748	39070.39
686.095	39004.17
686.443	38802.6
686.79	38765.76
687.138	38968.69
687.485	38859.77
687.832	38681.92
688.18	38809.15
688.527	38562.38
688.874	38522.6
689.221	38511.08
689.568	38475.15
689.915	38397.41
690.262	38241.03
690.609	38174.14
690.956	38063.18
691.303	38068.83
691.65	37941.38
691.997	37895.05
692.344	37667.71
692.69	37550.65
693.037	37699.57
693.383	37356.53
693.73	37296.19
694.077	37237.89
694.423	37233.82
694.769	37100.72
695.116	37074.51
695.462	36878.8
695.808	36922.42
696.155	36883.1
696.501	36629.77
696.847	36543.9
697.193	36413.51
697.539	36597.91
697.885	36319.27
698.231	36166.28
698.577	36371.25
698.923	36027.53
699.269	36013.06
699.614	35846.74
699.96	35702.79
700.306	35740.76
700.651	35614.2
700.997	35546.86
701.342	35553.42
701.688	35458.73
702.033	35210.6
702.379	35282.91
702.724	35112.52
703.069	35217.83
703.415	34838.18
703.76	34945.75
704.105	34777.39
704.45	34803.38
704.795	34473.67
705.14	34411.52
705.485	34532.43
705.83	34330.4
706.175	34330.17
706.52	34234.35
706.865	34075.94
707.209	34182.83
707.554	33861.93
707.899	34038.2
708.243	33815.83
708.588	33822.39
708.932	33622.84
709.277	33603.18
709.621	33694.48
709.966	33350.31
710.31	33501.94
710.654	33195.51
710.998	33242.52
711.342	33188.73
711.687	33160.94
712.031	33052.69
712.375	32926.82
712.719	32996.87
713.063	32873.03
713.407	32852.92
713.75	32693.38
714.094	32735.18
714.438	32587.62
714.782	32600.72
715.125	32507.62
715.469	32587.84
715.812	32341.3
716.156	32258.81
716.499	32193.96
716.843	32194.63
717.186	32166.84
717.53	32248.19
717.873	32222.88
718.216	32014.07
718.559	31906.28
718.902	31745.61
719.246	31839.84
719.589	31713.06
719.932	31524.82
720.275	31653.86
720.617	31625.61
720.96	31506.29
721.303	31377.03
721.646	31510.58
721.989	31269.69
722.331	31372.28
722.674	31221.1
723.016	31234.66
723.359	31374.99
723.701	31325.5
724.044	31099.07
724.386	30945.4
724.729	30981.56
725.071	30954.21
725.413	31010.94
725.755	31052.74
726.097	30682.81
726.439	30663.15
726.782	30611.4
727.124	30744.28
727.465	30693.2
727.807	30577.95
728.149	30516.49
728.491	30441.23
728.833	30440.1
729.175	30385.87
729.516	30287.34
729.858	30266.1
730.199	30331.18
730.541	30192.88
730.882	30065.65
731.224	30194.46
731.565	29992.43
731.906	29897.74
732.248	29977.97
732.589	29882.83
732.93	29803.96
733.271	29731.42
733.612	29784.75
733.953	29814.13
734.294	29627.92
734.635	29575.72
734.976	29636.51
735.317	29518.77
735.658	29551.77
735.999	29584.53
736.339	29465.89
736.68	29538.66
737.021	29457.98
737.361	29235.84
737.702	29474.48
738.042	29328.04
738.383	29446.23
738.723	29426.34
739.063	29267.25
739.404	29351.77
739.744	29131.89
740.084	29138.44
740.424	29185.45
740.764	29026.36
741.104	29042.85
741.444	28919.24
741.784	28900.03
742.124	28935.96
742.464	28794.72
742.804	28857.32
743.143	28722.86
743.483	28732.8
743.823	28628.85
744.162	28578.23
744.502	28501.4
744.841	28438.12
745.181	28562.41
745.52	28416.65
745.86	28530.1
746.199	28408.97
746.538	28370.1
746.877	28444.45
747.216	28321.74
747.556	28222.53
747.895	28395.19
748.234	28229.54
748.573	28088.98
748.911	28187.73
749.25	28058.7
749.589	28067.74
749.928	28070.45
750.267	27905.48
750.605	27987.74
750.944	28011.01
751.283	27783
751.621	27759.72
751.96	27729.44
752.298	27623.23
752.636	27659.84
752.975	27565.15
753.313	27423.69
753.651	27570.12
753.989	27404.93
754.327	27397.92
754.666	27240.41
755.004	27276.34
755.342	27247.65
755.679	27196.12
756.017	27083.36
756.355	27145.95
756.693	26877.03
757.031	27118.83
757.368	26884.94
757.706	26840.42
758.044	26821.89
758.381	26845.62
758.719	26778.5
759.056	26716.81
759.394	26588.68
