Data from hue_300_FLMS001491_00052.txt Node
Date: Tue Feb 07 15:50:54 GMT 2017
User: dcchb
Spectrometer: FLMS00149
Trigger mode: 0
Integration Time (sec): 2.000000E-2
Scans to average: 10
Electric dark correction enabled: true
Nonlinearity correction enabled: false
Boxcar width: 0
XAxis mode: Wavelengths
Number of Pixels in Spectrum: 2048
>>>>>Begin Spectral Data<<<<<
341.393	-8.47
341.776	-8.47
342.16	-8.47
342.543	-50.51
342.927	-78.75
343.31	-69.49
343.693	-74.69
344.077	-69.04
344.46	-46.67
344.843	-35.82
345.226	-65.87
345.61	-11.64
345.993	-18.19
346.376	-11.86
346.759	4.86
347.142	30.85
347.525	45.76
347.908	70.85
348.291	78.53
348.674	86.44
349.057	85.99
349.44	113.33
349.823	143.84
350.206	159.66
350.588	185.64
350.971	172.54
351.354	220.9
351.737	241.69
352.119	222.03
352.502	242.82
352.884	263.61
353.267	275.59
353.65	276.49
354.032	289.37
354.414	301.8
354.797	325.53
355.179	292.08
355.562	311.07
355.944	311.52
356.326	328.92
356.709	322.82
357.091	326.66
357.473	330.05
357.855	336.6
358.238	318.07
358.62	332.08
359.002	338.86
359.384	343.61
359.766	356.26
360.148	320.33
360.53	332.31
360.912	301.12
361.294	327.79
361.676	324.62
362.057	332.76
362.439	315.36
362.821	327.11
363.203	319.2
363.584	314.91
363.966	304.74
364.348	342.93
364.729	316.49
365.111	322.14
365.493	296.6
365.874	326.88
366.256	325.08
366.637	319.43
367.019	318.75
367.4	301.8
367.781	315.58
368.163	307.9
368.544	300.9
368.925	300.9
369.306	299.09
369.688	299.77
370.069	293.66
370.45	323.04
370.831	299.77
371.212	291.18
371.593	330.27
371.974	315.36
372.355	293.89
372.736	284.85
373.117	308.35
373.498	304.74
373.879	311.97
374.26	320.78
374.641	299.77
375.021	325.98
375.402	330.73
375.783	313.33
376.163	312.42
376.544	304.06
376.925	311.29
377.305	316.94
377.686	321.91
378.066	311.52
378.447	324.4
378.827	323.95
379.208	328.47
379.588	327.79
379.968	339.31
380.349	323.27
380.729	319.88
381.109	336.38
381.489	330.05
381.87	342.02
382.25	341.57
382.63	310.16
383.01	332.99
383.39	323.95
383.77	338.41
384.15	346.09
384.53	343.38
384.91	345.19
385.29	338.18
385.67	333.89
386.049	339.54
386.429	342.25
386.809	346.77
387.189	333.21
387.568	346.32
387.948	351.29
388.328	337.96
388.707	350.84
389.087	359.43
389.466	344.06
389.846	378.63
390.225	348.35
390.605	379.76
390.984	344.28
391.363	373.21
391.743	367.79
392.122	350.39
392.501	367.33
392.881	372.76
393.26	369.14
393.639	372.08
394.018	366.88
394.397	384.74
394.776	371.4
395.155	364.85
395.534	378.18
395.913	405.75
396.292	381.35
396.671	389.71
397.05	385.87
397.429	393.1
397.808	395.58
398.186	389.71
398.565	384.28
398.944	401.68
399.323	384.06
399.701	390.39
400.08	420.89
400.458	390.61
400.837	389.48
401.215	394
401.594	400.55
401.972	444.4
402.351	419.31
402.729	426.77
403.107	419.99
403.486	406.88
403.864	419.99
404.242	428.35
404.62	437.16
404.999	420.89
405.377	431.51
405.755	431.51
406.133	438.75
406.511	460.21
406.889	466.09
407.267	464.28
407.645	474.68
408.023	476.94
408.401	479.65
408.779	506.31
409.156	490.72
409.534	488.24
409.912	496.6
410.29	507.22
410.667	514.68
411.045	504.73
411.422	513.32
411.8	539.31
412.178	539.53
412.555	530.27
412.933	561.68
413.31	580.66
413.687	570.27
414.065	593.09
414.442	561.45
414.819	594.9
415.197	583.15
415.574	608.01
415.951	614.56
416.328	614.56
416.705	631.28
417.082	650.27
417.46	647.33
417.837	661.11
418.214	679.42
418.591	664.95
418.967	667.67
419.344	693.65
419.721	692.07
420.098	698.85
420.475	701.34
420.852	725.52
421.228	709.25
421.605	730.72
421.982	739.08
422.358	733.65
422.735	749.47
423.111	745.86
423.488	773.65
423.864	775.46
424.241	806.42
424.617	804.16
424.994	824.05
425.37	811.17
425.746	814.55
426.123	840.54
426.499	853.42
426.875	855.91
427.251	854.33
427.627	898.17
428.003	863.14
428.379	888.45
428.756	906.08
429.132	938.17
429.507	954.89
429.883	940.88
430.259	954.44
430.635	965.74
431.011	952.86
431.387	979.3
431.763	991.73
432.138	999.86
432.514	1033.53
432.89	1008.45
433.265	1039.18
433.641	1063.14
434.016	1057.03
434.392	1056.36
434.767	1089.35
435.143	1057.26
435.518	1113.76
435.894	1127.54
436.269	1114.89
436.644	1148.56
437.02	1144.49
437.395	1158.27
437.77	1187.2
438.145	1207.99
438.52	1188.56
438.895	1218.84
439.271	1191.95
439.646	1219.29
440.021	1247.99
440.395	1245.96
440.77	1237.82
441.145	1246.86
441.52	1283.02
441.895	1266.52
442.27	1267.42
442.645	1290.7
443.019	1261.77
443.394	1285.95
443.769	1294.32
444.143	1282.34
444.518	1296.35
444.892	1287.54
445.267	1296.35
445.641	1324.6
446.016	1333.41
446.39	1390.36
446.764	1326.41
447.139	1322.34
447.513	1341.09
447.887	1342.22
448.262	1347.42
448.636	1344.26
449.01	1375.22
449.384	1393.07
449.758	1358.95
450.132	1405.73
450.506	1389.45
450.88	1406.4
451.254	1361.89
451.628	1421.77
452.002	1428.55
452.376	1442.79
452.75	1434.88
453.123	1429.45
453.497	1436.23
453.871	1447.31
454.244	1511.49
454.618	1472.39
454.992	1504.48
455.365	1493.41
455.739	1522.56
456.112	1540.19
456.486	1530.02
456.859	1514.88
457.232	1558.26
457.606	1551.94
457.979	1563.46
458.352	1558.94
458.725	1590.35
459.099	1618.38
459.472	1611.14
459.845	1640.3
460.218	1649.56
460.591	1643.23
460.964	1647.75
461.337	1678.94
461.71	1692.27
462.083	1711.71
462.456	1702.22
462.829	1667.19
463.201	1716.68
463.574	1722.78
463.947	1719.16
464.32	1780.18
464.692	1787.41
465.065	1796.45
465.438	1813.62
465.81	1798.48
466.183	1810.23
466.555	1840.97
466.928	1867.86
467.3	1860.86
467.672	1847.3
468.045	1934.98
468.417	1922.1
468.789	1910.35
469.161	1942.21
469.534	1932.49
469.906	1983.79
470.278	2004.58
470.65	2021.75
471.022	2033.05
471.394	2050.91
471.766	2073.73
472.138	2057.23
472.51	2123.9
472.882	2160.28
473.253	2170.23
473.625	2135.88
473.997	2198.93
474.369	2198.47
474.74	2198.02
475.112	2214.29
475.484	2267.85
475.855	2285.02
476.227	2303.33
476.598	2337.23
476.97	2334.97
477.341	2371.8
477.713	2379.03
478.084	2386.04
478.455	2454.96
478.827	2449.31
479.198	2493.38
479.569	2477.79
479.94	2544.45
480.311	2583.1
480.682	2616.09
481.053	2616.54
481.424	2659.25
481.795	2666.71
482.166	2688.4
482.537	2692.02
482.908	2755.29
483.279	2778.12
483.65	2773.37
484.021	2843.43
484.391	2874.39
484.762	2886.82
485.133	2894.5
485.503	2889.08
485.874	2993.93
486.244	2978.34
486.615	3012.24
486.985	3046.36
487.356	3029.64
487.726	3103.31
488.097	3174.27
488.467	3129.52
488.837	3202.06
489.207	3215.85
489.578	3228.05
489.948	3253.13
490.318	3277.54
490.688	3297.65
491.058	3342.62
491.428	3364.09
491.798	3363.41
492.168	3416.75
492.538	3440.25
492.908	3444.77
493.278	3483.64
493.648	3486.12
494.017	3520.7
494.387	3521.38
494.757	3562.51
495.126	3610.64
495.496	3557.08
495.866	3599.57
496.235	3638.66
496.605	3670.75
496.974	3665.55
497.344	3653.58
497.713	3701.03
498.082	3715.95
498.452	3719.79
498.821	3720.02
499.19	3707.36
499.559	3780.8
499.928	3778.54
500.298	3772.9
500.667	3835.04
501.036	3814.02
501.405	3824.42
501.774	3856.28
502.143	3877.3
502.512	3877.53
502.88	3866
503.249	3912.55
503.618	3903.06
503.987	3955.49
504.356	3934.25
504.724	3963.85
505.093	3924.76
505.462	4000.23
505.83	4000.69
506.199	3982.38
506.567	4046.56
506.936	4006.11
507.304	4023.74
507.672	4077.07
508.041	4070.51
508.409	4098.76
508.777	4067.58
509.145	4150.51
509.514	4125.43
509.882	4126.33
510.25	4153
510.618	4187.12
510.986	4161.81
511.354	4209.04
511.722	4218.76
512.09	4249.72
512.458	4201.81
512.826	4249.04
513.193	4214.47
513.561	4270.51
513.929	4276.61
514.297	4305.54
514.664	4288.36
515.032	4352.77
515.4	4307.34
515.767	4320.9
516.135	4321.36
516.502	4311.64
516.869	4379.43
517.237	4330.17
517.604	4321.13
517.972	4411.97
518.339	4362.03
518.706	4368.36
519.073	4359.77
519.44	4399.32
519.808	4421.92
520.175	4428.02
520.542	4504.18
520.909	4466.21
521.276	4484.74
521.643	4474.8
522.009	4486.1
522.376	4571.29
522.743	4549.6
523.11	4607
523.477	4647.45
523.843	4661.46
524.21	4644.06
524.577	4669.82
524.943	4647.67
525.31	4701.91
525.676	4727.9
526.043	4699.88
526.409	4748.46
526.776	4838.86
527.142	4828.91
527.508	4804.51
527.874	4860.55
528.241	4849.03
528.607	4864.84
528.973	4921.79
529.339	4940.55
529.705	4927.22
530.071	5009.47
530.437	5018.74
530.803	5071.62
531.169	5062.58
531.535	5087.44
531.901	5079.3
532.267	5026.2
532.632	5113.65
532.998	5155.68
533.364	5157.72
533.73	5185.97
534.095	5183.25
534.461	5251.73
534.826	5263.25
535.192	5281.78
535.557	5307.32
535.923	5251.73
536.288	5289.01
536.653	5366.75
537.019	5390.25
537.384	5369.92
537.749	5396.81
538.114	5366.07
538.479	5400.87
538.845	5478.39
539.21	5425.96
539.575	5464.15
539.94	5521.55
540.305	5580.53
540.67	5566.75
541.034	5561.32
541.399	5547.31
541.764	5611.49
542.129	5673.86
542.494	5672.05
542.858	5691.94
543.223	5685.61
543.587	5756.12
543.952	5755.44
544.316	5795.44
544.681	5778.04
545.045	5840.41
545.41	5827.53
545.774	5877.47
546.138	5850.35
546.503	5893.74
546.867	5931.71
547.231	6020.75
547.595	5929.22
547.959	5949.79
548.324	6038.15
548.688	6074.76
549.052	6029.11
549.416	6059.16
549.779	6076.11
550.143	6147.07
550.507	6147.52
550.871	6171.02
551.235	6133.06
551.599	6161.08
551.962	6201.98
552.326	6268.2
552.689	6330.79
553.053	6253.28
553.417	6265.03
553.78	6348.19
554.143	6333.28
554.507	6327.18
554.87	6293.05
555.234	6334.64
555.597	6371.92
555.96	6424.12
556.323	6412.6
556.686	6384.35
557.05	6466.38
557.413	6456.89
557.776	6485.14
558.139	6517.23
558.502	6512.48
558.865	6543.44
559.228	6549.32
559.59	6599.94
559.953	6602.88
560.316	6695.76
560.679	6706.38
561.041	6648.07
561.404	6688.98
561.767	6758.35
562.129	6765.36
562.492	6778.24
562.854	6740.05
563.217	6777.56
563.579	6820.95
563.941	6848.07
564.304	6822.53
564.666	6877.22
565.028	6926.03
565.39	6929.42
565.753	6961.06
566.115	6981.17
566.477	6983.66
566.839	6973.71
567.201	7112.92
567.563	7059.36
567.925	7065.69
568.287	7110.66
568.648	7076.09
569.01	7141.39
569.372	7206.93
569.734	7181.17
570.095	7274.95
570.457	7338.23
570.819	7377.09
571.18	7393.59
571.542	7379.35
571.903	7396.3
572.265	7521.27
572.626	7596.75
572.987	7566.47
573.349	7659.12
573.71	7614.83
574.071	7661.15
574.432	7776.86
574.794	7854.6
575.155	7839
575.516	7870.64
575.877	7932.11
576.238	8051.2
576.599	8109.5
576.96	8148.6
577.32	8283.06
577.681	8357.86
578.042	8445.54
578.403	8490.74
578.763	8597.4
579.124	8640.79
579.485	8822.71
579.845	8907.45
580.206	8954.45
580.566	9130.04
580.927	9224.28
581.287	9355.12
581.648	9516.47
582.008	9675.34
582.368	9833.07
582.728	10011.6
583.089	10067.19
583.449	10304.47
583.809	10454.98
584.169	10620.4
584.529	10842.31
584.889	11075.75
585.249	11234.85
585.609	11337.67
585.969	11628.06
586.329	11854.26
586.688	12110.3
587.048	12252.67
587.408	12515.94
587.768	12790.96
588.127	12978.98
588.487	13235.7
588.846	13546.65
589.206	13696.02
589.565	13931.27
589.925	14312.73
590.284	14600.41
590.643	14848.08
591.003	15166.95
591.362	15430.44
591.721	15655.07
592.08	15939.81
592.44	16308.16
592.799	16688.04
593.158	16874.25
593.517	17224.74
593.876	17555.58
594.235	17773.2
594.593	18119.41
594.952	18444.6
595.311	18605.5
595.67	19052.49
596.029	19467.85
596.387	19749.2
596.746	20058.57
597.104	20325.45
597.463	20566.13
597.822	20963.4
598.18	21131.53
598.538	21456.72
598.897	21927.45
599.255	22056.03
599.613	22569.46
599.972	22671.83
600.33	23145.95
600.688	23293.06
601.046	23623.45
601.404	23987.5
601.762	24154.51
602.12	24600.82
602.478	24890.31
602.836	25091.2
603.194	25251.88
603.552	25661.81
603.91	25877.17
604.268	26078.52
604.625	26373.43
604.983	26748.34
605.341	26694.55
605.698	27185.16
606.056	27533.4
606.413	27708.31
606.771	27837.8
607.128	28282.31
607.485	28316.43
607.843	28565.01
608.2	28876.19
608.557	29175.62
608.914	29339
609.272	29693.57
609.629	29956.61
609.986	30144.86
610.343	30209.04
610.7	30586.43
611.057	30840.43
611.414	31024.16
611.771	31095.57
612.127	31410.13
612.484	31557.25
612.841	31790.92
613.198	31889.67
613.554	32152.71
613.911	32382.76
614.267	32647.16
614.624	32634.06
614.98	32924.67
615.337	33255.74
615.693	33234.72
616.05	33372.12
616.406	33710.19
616.762	33628.16
617.118	33900.69
617.475	33980.01
617.831	34263.84
618.187	34410.06
618.543	34532.99
618.899	34728.01
619.255	34737.28
619.611	34930.27
619.967	34977.72
620.323	35111.05
620.678	35219.07
621.034	35322.8
621.39	35449.12
621.746	35421.1
622.101	36017.47
622.457	35828.55
622.812	36047.3
623.168	36264.02
623.523	36252.04
623.879	36434.64
624.234	36169.11
624.589	36553.73
624.945	36608.42
625.3	36654.74
625.655	36797.34
626.01	36764.12
626.365	37028.29
626.72	36800.28
627.075	37023.09
627.43	36969.76
627.785	36974.06
628.14	37234.16
628.495	37124.33
628.85	37208.17
629.205	37089.08
629.559	37453.37
629.914	37286.59
630.269	37331.11
630.623	37391.22
630.978	37318
631.332	37614.27
631.687	37569.97
632.041	37581.72
632.396	37530.88
632.75	37440.48
633.104	37651.55
633.459	37421.73
633.813	37536.75
634.167	37471.67
634.521	37578.33
634.875	37540.59
635.229	37619.01
635.583	37443.2
635.937	37553.7
636.291	37481.39
636.645	37673.02
636.999	37566.81
637.352	37712.79
637.706	37462.63
638.06	37657.43
638.413	37703.08
638.767	37643.87
639.121	37650.65
639.474	37410.2
639.828	37476.64
640.181	37560.71
640.534	37680.93
640.888	37503.31
641.241	37372.24
641.594	37522.06
641.947	37606.13
642.301	37482.97
642.654	37626.24
643.007	37639.12
643.36	37551.44
643.713	37451.56
644.066	37548.05
644.419	37440.94
644.771	37270.77
645.124	36782.65
645.477	36843.44
645.83	36519.38
646.182	36589.43
646.535	36548.98
646.888	36480.28
647.24	36266.05
647.593	36666.95
647.945	36519.15
648.298	36462.21
648.65	36261.98
649.002	36290.01
649.355	36407.29
649.707	36504.92
650.059	36497.01
650.411	36889.99
650.763	36930.44
651.115	37367.27
651.467	37193.26
651.819	37328.4
652.171	37219.47
652.523	37116.65
652.875	37076.2
653.227	37080.04
653.578	37211.34
653.93	37169.31
654.282	37050.44
654.633	36808.18
654.985	37110.1
655.337	37021.74
655.688	37069.65
656.039	37142.87
656.391	36853.61
656.742	36966.6
657.094	36987.62
657.445	37128.18
657.796	37033.49
658.147	36967.5
658.498	37036.43
658.849	37071.68
659.2	36879.37
659.551	36883.66
659.902	37039.82
660.253	36974.51
660.604	37082.75
660.955	36857.9
661.306	36952.36
661.656	36765.02
662.007	36875.08
662.358	36884.34
662.708	36990.1
663.059	36882.31
663.409	36664.46
663.76	37021.51
664.11	36924.11
664.461	36997.78
664.811	36952.81
665.161	36869.2
665.511	36960.72
665.862	36727.28
666.212	36784.46
666.562	37052.25
666.912	36944
667.262	36746.94
667.612	36937.9
667.962	36718.7
668.312	36717.79
668.662	36955.98
669.011	36817
669.361	36820.61
669.711	36772.71
670.06	36665.36
670.41	36638.02
670.76	36533.62
671.109	36740.39
671.459	36667.17
671.808	36687.96
672.157	36729.09
672.507	36484.8
672.856	36392.38
673.205	36581.07
673.554	36616.78
673.904	36554.18
674.253	36664.01
674.602	36522.99
674.951	36008.43
675.3	35780.19
675.649	36418.59
675.998	36467.85
676.346	36482.09
676.695	36599.83
677.044	36385.14
677.393	36437.12
677.741	36406.84
678.09	36332.04
678.438	36268.76
678.787	36306.73
679.135	36375.65
679.484	36150.57
679.832	36264.24
680.181	36083.23
680.529	36196.45
680.877	36099.05
681.225	36019.73
681.573	36353.73
681.922	35915.55
682.27	35865.38
682.618	35976.12
682.966	35739.74
683.314	35953.74
683.661	35837.36
684.009	35582.23
684.357	35607.99
684.705	35586.75
685.053	35580.65
685.4	35482.34
685.748	35390.37
686.095	35272.86
686.443	35094.78
686.79	35056.37
687.138	35290.48
687.485	35151.05
687.832	35147.89
688.18	35073.09
688.527	34927.56
688.874	34858.86
689.221	34844.17
689.568	34690.05
689.915	34561.92
690.262	34603.5
690.609	34483.95
690.956	34456.16
691.303	34318.53
691.65	34315.59
691.997	34298.65
692.344	33986.56
692.69	34020.91
693.037	34107.01
693.383	33807.59
693.73	33908.6
694.077	33771.88
694.423	33727.81
694.769	33739.11
695.116	33458.67
695.462	33378.22
695.808	33493.24
696.155	33455.05
696.501	33222.29
696.847	33200.14
697.193	33079.02
697.539	33185
697.885	32923.09
698.231	32783.66
698.577	32715.41
698.923	32656.43
699.269	32571.46
699.614	32443.55
699.96	32287.17
700.306	32414.85
700.651	32169.89
700.997	32159.04
701.342	32151.58
701.688	31982.55
702.033	31981.64
702.379	31864.81
702.724	31803.8
703.069	31789.11
703.415	31439.51
703.76	31694.42
704.105	31505.05
704.45	31439.74
704.795	31270.03
705.14	31199.74
705.485	31188.22
705.83	31036.59
706.175	31193.64
706.52	30940.09
706.865	30918.62
707.209	30984.61
707.554	30896.25
707.899	30805.18
708.243	30652.87
708.588	30572.87
708.932	30377.17
709.277	30354.12
709.621	30438.18
709.966	30254.68
710.31	30322.48
710.654	30030.74
710.998	29991.41
711.342	30079.55
711.687	29925.65
712.031	29970.4
712.375	29853.11
712.719	29842.49
713.063	29794.13
713.407	29766.56
713.75	29649.05
714.094	29531.77
714.438	29508.26
714.782	29550.97
715.125	29248.38
715.469	29484.76
715.812	29189.18
716.156	29115.28
716.499	29186.46
716.843	29153.02
717.186	28917.54
717.53	29168.84
717.873	29065.34
718.216	29029.86
718.559	28855.85
718.902	28648.85
719.246	28847.72
719.589	28711.67
719.932	28656.76
720.275	28616.54
720.617	28566.82
720.96	28467.16
721.303	28487.27
721.646	28511
721.989	28324.34
722.331	28366.6
722.674	28410.89
723.016	28203.89
723.359	28112.82
723.701	28353.27
724.044	28088.64
724.386	27953.95
724.729	28051.8
725.071	27983.33
725.413	27858.14
725.755	27958.7
726.097	27832.15
726.439	27720.06
726.782	27748.76
727.124	27832.38
727.465	27639.16
727.807	27694.75
728.149	27568.65
728.491	27589.9
728.833	27635.32
729.175	27510.35
729.516	27389.45
729.858	27530.01
730.199	27482.33
730.541	27253.18
730.882	27222
731.224	27367.98
731.565	27134.09
731.906	27215.22
732.248	27208.66
732.589	27065.39
732.93	27021.1
733.271	27096.58
733.612	27030.81
733.953	27027.65
734.294	26900.65
734.635	26761.9
734.976	26951.95
735.317	26756.47
735.658	26847.32
735.999	26748.56
736.339	26737.94
736.68	26634.21
737.021	26696.36
737.361	26657.27
737.702	26690.71
738.042	26604.61
738.383	26559.41
738.723	26787.88
739.063	26545.4
739.404	26622.46
739.744	26421.11
740.084	26261.34
740.424	26376.37
740.764	26418.63
741.104	26452.75
741.444	26201.01
741.784	26051.41
742.124	26227.9
742.464	26190.16
742.804	26142.93
743.143	25986.1
743.483	26105.42
743.823	25938.19
744.162	25874.69
744.502	25914.46
744.841	25713.79
745.181	25863.16
745.52	25900.67
745.86	25944.74
746.199	25856.38
746.538	25755.59
746.877	25876.49
747.216	25736.39
747.556	25714.24
747.895	25649.61
748.234	25513.57
748.573	25431.76
748.911	25652.09
749.25	25505.88
749.589	25459.78
749.928	25511.53
750.267	25461.59
750.605	25485.77
750.944	25304.31
751.283	25214.14
751.621	25357.19
751.96	25165.1
752.298	25130.75
752.636	25119.9
752.975	25073.8
753.313	25027.93
753.651	25203.29
753.989	24986.35
754.327	24952
754.666	24825.67
755.004	24913.81
755.342	24884.66
755.679	24691.67
756.017	24753.13
756.355	24755.17
756.693	24643.31
757.031	24777.99
757.368	24525.34
757.706	24535.29
758.044	24437.44
758.381	24521.5
758.719	24354.27
759.056	24397.21
759.394	24287.16
