Data from hue_70_FLMS001491_85.txt Node
Date: Mon Feb 06 15:21:33 GMT 2017
User: dcchb
Spectrometer: FLMS00149
Trigger mode: 0
Integration Time (sec): 2.000000E-2
Scans to average: 10
Electric dark correction enabled: true
Nonlinearity correction enabled: false
Boxcar width: 0
XAxis mode: Wavelengths
Number of Pixels in Spectrum: 2048
>>>>>Begin Spectral Data<<<<<
341.393	-17.82
341.776	-17.82
342.16	-17.82
342.543	-61.67
342.927	-78.84
343.31	-81.33
343.693	-59.86
344.077	-71.16
344.46	-66.18
344.843	-49.69
345.226	-47.88
345.61	-33.87
345.993	-20.31
346.376	11.55
346.759	16.98
347.142	7.03
347.525	45.9
347.908	68.5
348.291	65.34
348.674	100.59
349.057	114.38
349.44	135.17
349.823	146.69
350.206	146.24
350.588	169.06
350.971	209.29
351.354	233.92
351.737	238.67
352.119	246.35
352.502	249.51
352.884	259.68
353.267	286.35
353.65	297.2
354.032	281.38
354.414	287.48
354.797	309.4
355.179	324.31
355.562	326.12
355.944	311.88
356.326	322.73
356.709	321.83
357.091	337.65
357.473	349.62
357.855	345.56
358.238	315.05
358.62	341.94
359.002	308.72
359.384	332.9
359.766	318.21
360.148	339.91
360.53	328.16
360.912	338.32
361.294	341.94
361.676	331.54
362.057	348.27
362.439	324.54
362.821	334.71
363.203	317.76
363.584	321.83
363.966	330.19
364.348	321.15
364.729	331.54
365.111	303.98
365.493	342.62
365.874	332
366.256	305.78
366.637	309.62
367.019	313.69
367.4	337.87
367.781	318.89
368.163	317.99
368.544	310.98
368.925	308.95
369.306	321.6
369.688	315.27
370.069	330.64
370.45	304.65
370.831	323.86
371.212	292.9
371.593	305.78
371.974	326.35
372.355	316.4
372.736	319.79
373.117	317.08
373.498	302.39
373.879	307.59
374.26	305.56
374.641	305.1
375.021	333.13
375.402	314.37
375.783	323.18
376.163	318.44
376.544	317.53
376.925	315.27
377.305	313.24
377.686	330.42
378.066	313.92
378.447	306.91
378.827	326.12
379.208	321.83
379.588	330.19
379.968	335.61
380.349	338.78
380.729	353.92
381.109	346.23
381.489	331.09
381.87	314.6
382.25	316.4
382.63	328.38
383.01	329.06
383.39	339.68
383.77	318.44
384.15	337.65
384.53	327.48
384.91	314.6
385.29	335.16
385.67	352.34
386.049	336.06
386.429	323.18
386.809	362.96
387.189	346.46
387.568	331.54
387.948	362.28
388.328	340.81
388.707	331.09
389.087	356.4
389.466	349.62
389.846	357.98
390.225	351.66
390.605	351.66
390.984	352.56
391.363	370.64
391.743	368.15
392.122	362.96
392.501	353.47
392.881	365.22
393.26	377.19
393.639	357.76
394.018	360.7
394.397	351.43
394.776	366.8
395.155	379.91
395.534	378.78
395.913	354.6
396.292	375.84
396.671	388.04
397.05	388.27
397.429	358.89
397.808	354.6
398.186	374.93
398.565	357.31
398.944	391.66
399.323	383.3
399.701	376.06
400.08	390.75
400.458	385.1
400.837	388.27
401.215	385.33
401.594	374.03
401.972	367.25
402.351	409.96
402.729	403.18
403.107	406.8
403.486	401.6
403.864	405.67
404.242	392.33
404.62	387.36
404.999	403.86
405.377	417.87
405.755	416.06
406.133	406.35
406.511	415.61
406.889	403.86
407.267	412.67
407.645	424.65
408.023	421.94
408.401	421.71
408.779	408.61
409.156	419.45
409.534	432.11
409.912	422.84
410.29	444.08
410.667	431.43
411.045	429.17
411.422	441.82
411.8	443.18
412.178	425.55
412.555	442.5
412.933	438.66
413.31	455.16
413.687	465.78
414.065	456.74
414.442	466.68
414.819	466.91
415.197	454.25
415.574	465.1
415.951	472.78
416.328	476.4
416.705	471.43
417.082	489.73
417.46	465.33
417.837	478.21
418.214	487.47
418.591	484.76
418.967	487.02
419.344	507.59
419.721	504.42
420.098	506.23
420.475	512.56
420.852	489.28
421.228	519.34
421.605	515.95
421.982	511.43
422.358	513.46
422.735	526.79
423.111	539.45
423.488	524.53
423.864	532.67
424.241	516.17
424.617	530.18
424.994	515.72
425.37	526.34
425.746	534.48
426.123	549.62
426.499	558.21
426.875	550.97
427.251	547.13
427.627	542.61
428.003	575.61
428.379	574.7
428.756	569.96
429.132	577.41
429.507	585.32
429.883	608.6
430.259	590.3
430.635	597.98
431.011	602.95
431.387	583.52
431.763	615.83
432.138	601.59
432.514	631.65
432.89	646.56
433.265	621.71
433.641	614.02
434.016	636.62
434.392	664.87
434.767	652.44
435.143	653.34
435.518	653.34
435.894	669.62
436.269	657.86
436.644	665.32
437.02	666.9
437.395	691.08
437.77	674.13
438.145	696.28
438.52	698.99
438.895	687.47
439.271	707.13
439.646	701.93
440.021	726.56
440.395	701.93
440.77	716.62
441.145	698.31
441.52	725.66
441.895	743.96
442.27	735.83
442.645	746.45
443.019	746.22
443.394	758.88
443.769	746
444.143	726.34
444.518	770.63
444.892	748.71
445.267	755.71
445.641	756.84
446.016	760.01
446.39	773.34
446.764	783.06
447.139	791.65
447.513	799.56
447.887	785.32
448.262	824.64
448.636	791.65
449.01	836.39
449.384	795.71
449.758	791.65
450.132	814.7
450.506	849.72
450.88	839.33
451.254	835.71
451.628	861.02
452.002	853.34
452.376	853.34
452.75	854.24
453.123	866.9
453.497	871.87
453.871	915.03
454.244	904.41
454.618	889.95
454.992	902.6
455.365	908.93
455.739	936.5
456.112	942.83
456.486	927.91
456.859	959.33
457.232	971.3
457.606	998.87
457.979	981.7
458.352	1001.58
458.725	1006.33
459.099	1014.01
459.472	1037.06
459.845	1038.65
460.218	1074.35
460.591	1080.23
460.964	1093.78
461.337	1084.75
461.71	1110.96
462.083	1128.36
462.456	1130.39
462.829	1144.86
463.201	1147.34
463.574	1178.3
463.947	1160.22
464.32	1184.63
464.692	1212.2
465.065	1226.44
465.438	1259.66
465.81	1260.56
466.183	1282.93
466.555	1294.46
466.928	1319.99
467.3	1311.86
467.672	1351.63
468.045	1392.76
468.417	1366.09
468.789	1394.12
469.161	1434.11
469.534	1466.66
469.906	1481.12
470.278	1502.14
470.65	1523.6
471.022	1559.31
471.394	1583.72
471.766	1618.97
472.138	1628.46
472.51	1686.54
472.882	1733.77
473.253	1747.55
473.625	1799.75
473.997	1831.84
474.369	1839.08
474.74	1892.41
475.112	1941.9
475.484	1969.24
475.855	2051.73
476.227	2092.18
476.598	2164.49
476.97	2198.84
477.341	2262.79
477.713	2294.43
478.084	2330.14
478.455	2445.84
478.827	2471.38
479.198	2580.3
479.569	2609
479.94	2716.34
480.311	2728.09
480.682	2856.22
481.053	2906.62
481.424	3053.73
481.795	3090.34
482.166	3184.13
482.537	3278.36
482.908	3405.59
483.279	3481.74
483.65	3575.98
484.021	3709.99
484.391	3758.8
484.762	3909.53
485.133	3996.53
485.503	4078.34
485.874	4193.59
486.244	4340.93
486.615	4488.95
486.985	4573.69
487.356	4719.68
487.726	4804.87
488.097	5023.17
488.467	5051.65
488.837	5165.54
489.207	5352.2
489.578	5557.17
489.948	5618.41
490.318	5788.35
490.688	5892.3
491.058	6093.2
491.428	6217.04
491.798	6348.11
492.168	6558.73
492.538	6634.43
492.908	6770.02
493.278	6936.8
493.648	7068.77
494.017	7231.25
494.387	7379.72
494.757	7531.81
495.126	7644.12
495.496	7808.64
495.866	7952.81
496.235	8122.98
496.605	8353.48
496.974	8433.7
497.344	8558
497.713	8691.55
498.082	8886.12
498.452	9043.86
498.821	9138.09
499.19	9240.69
499.559	9415.6
499.928	9501.47
500.298	9710.06
500.667	9874.8
501.036	9910.5
501.405	10094
501.774	10239.76
502.143	10295.58
502.512	10498.74
502.88	10638.62
503.249	10704.15
503.618	10828.22
503.987	11003.81
504.356	11108.66
504.724	11204.48
505.093	11294.65
505.462	11416.45
505.83	11558.59
506.199	11706.39
506.567	11922.88
506.936	11925.59
507.304	12149.99
507.672	12245.36
508.041	12277.67
508.409	12471.34
508.777	12653.71
509.145	12700.71
509.514	12825.23
509.882	12940.93
510.25	13059.57
510.618	13177.76
510.986	13246.46
511.354	13439.67
511.722	13528.26
512.09	13695.04
512.458	13649.39
512.826	13842.15
513.193	13866.56
513.561	14067
513.929	14137.74
514.297	14244.63
514.664	14425.64
515.032	14475.13
515.4	14602.36
515.767	14671.51
516.135	14767.55
516.502	14706.08
516.869	15064.72
517.237	15020.65
517.604	15049.58
517.972	15218.84
518.339	15346.07
518.706	15419.28
519.073	15525.5
519.44	15546.29
519.808	15760.29
520.175	15677.58
520.542	15907.86
520.909	16061.3
521.276	16099.27
521.643	16203.44
522.009	16306.49
522.376	16438.69
522.743	16386.26
523.11	16613.15
523.477	16781.73
523.843	16867.83
524.21	17054.04
524.577	17119.8
524.943	17213.13
525.31	17288.16
525.676	17431.89
526.043	17498.78
526.409	17579.23
526.776	17718.88
527.142	17762.05
527.508	17853.57
527.874	17978.54
528.241	18069.84
528.607	18134.69
528.973	18216.5
529.339	18245.88
529.705	18444.29
530.071	18456.27
530.437	18582.59
530.803	18660.1
531.169	18755.47
531.535	18636.83
531.901	18697.62
532.267	18863.49
532.632	18813.09
532.998	19007.89
533.364	19023.71
533.73	18995.01
534.095	19142.12
534.461	19204.95
534.826	19224.83
535.192	19288.79
535.557	19486.07
535.923	19388.22
536.288	19484.26
536.653	19521.32
537.019	19360.65
537.384	19507.99
537.749	19489.23
538.114	19540.08
538.479	19573.75
538.845	19644.48
539.21	19609
539.575	19677.7
539.94	19669.12
540.305	19878.83
540.67	19722
541.034	19815.33
541.399	19934.65
541.764	19879.05
542.129	19925.83
542.494	19961.54
542.858	20033.63
543.223	19951.37
543.587	20059.61
543.952	20035.43
544.316	20091.48
544.681	20067.75
545.045	20102.1
545.41	20090.57
545.774	20167.63
546.138	20162.21
546.503	20233.39
546.867	20208.08
547.231	20396.55
547.595	20169.44
547.959	20316.56
548.324	20318.14
548.688	20302.32
549.052	20404.24
549.416	20339.61
549.779	20413.28
550.143	20370.34
550.507	20454.86
550.871	20511.58
551.235	20527.62
551.599	20663.44
551.962	20535.08
552.326	20609.66
552.689	20637.68
553.053	20532.6
553.417	20590.22
553.78	20774.17
554.143	20793.61
554.507	20751.12
554.87	20887.84
555.234	20987.72
555.597	20931.23
555.96	20919.25
556.323	21055.07
556.686	20943.21
557.05	21081.06
557.413	21079.93
557.776	21145.46
558.139	21314.27
558.502	21161.05
558.865	21282.41
559.228	21453.48
559.59	21395.85
559.953	21429.07
560.316	21541.83
560.679	21581.83
561.041	21770.98
561.404	21664.09
561.767	21882.39
562.129	21718.1
562.492	21960.58
562.854	21955.84
563.217	21944.08
563.579	22062.5
563.941	22157.86
564.304	22083.06
564.666	22258.65
565.028	22366.45
565.39	22302.27
565.753	22345.43
566.115	22426.11
566.477	22509.04
566.839	22513.33
567.201	22607.8
567.563	22707.45
567.925	22805.08
568.287	22774.8
568.648	22909.48
569.01	23038.29
569.372	23137.72
569.734	22948.13
570.095	23128.46
570.457	23299.75
570.819	23207.33
571.18	23154.67
571.542	23282.35
571.903	23334.1
572.265	23543.59
572.626	23476.93
572.987	23436.02
573.349	23666.3
573.71	23542.91
574.071	23678.05
574.432	23808.89
574.794	23879.4
575.155	23876.91
575.516	23780.19
575.877	23930.47
576.238	23867.65
576.599	23947.87
576.96	23936.12
577.32	24106.97
577.681	24033.52
578.042	24089.11
578.403	24172.73
578.763	24080.98
579.124	24194.65
579.485	24110.81
579.845	24207.08
580.206	24167.3
580.566	24239.62
580.927	24334.98
581.287	24290.24
581.648	24196
582.008	24339.5
582.368	24351.25
582.728	24254.53
583.089	24267.86
583.449	24312.84
583.809	24293.63
584.169	24278.03
584.529	24176.57
584.889	24377.47
585.249	24287.07
585.609	24158.72
585.969	24381.08
586.329	24382.89
586.688	24320.29
587.048	24347.18
587.408	24401.65
587.768	24287.75
588.127	24287.07
588.487	24251.14
588.846	24369.56
589.206	24281.88
589.565	24213.4
589.925	24476.22
590.284	24347.86
590.643	24306.96
591.003	24374.75
591.362	24445.49
591.721	24389.67
592.08	24487.29
592.44	24363
592.799	24478.25
593.158	24255.21
593.517	24356.68
593.876	24373.62
594.235	24358.71
594.593	24344.92
594.952	24439.61
595.311	24295.66
595.67	24461.76
596.029	24542.21
596.387	24538.14
596.746	24531.81
597.104	24432.61
597.463	24314.64
597.822	24474.86
598.18	24414.75
598.538	24409.33
598.897	24462.44
599.255	24269.67
599.613	24630.79
599.972	24488.88
600.33	24619.27
600.688	24468.54
601.046	24490.91
601.404	24646.61
601.762	24569.1
602.12	24809.32
602.478	24692.71
602.836	24804.35
603.194	24614.75
603.552	24724.58
603.91	24597.8
604.268	24781.07
604.625	24718.47
604.983	24793.27
605.341	24704.24
605.698	24796.66
606.056	24788.75
606.413	24820.84
606.771	24858.81
607.128	24947.17
607.485	24745.59
607.843	24832.6
608.2	24998.02
608.557	25071.01
608.914	24905.81
609.272	25059.03
609.629	25073.04
609.986	25164.79
610.343	25076.88
610.7	25269.19
611.057	25183.77
611.414	25175.19
611.771	25105.81
612.127	25350.32
612.484	25359.59
612.841	25463.09
613.198	25362.53
613.554	25314.62
613.911	25504.89
614.267	25571.33
614.624	25455.86
614.98	25509.19
615.337	25566.59
615.693	25546.93
616.05	25499.7
616.406	25711.44
616.762	25559.58
617.118	25675.74
617.475	25725.68
617.831	25788.28
618.187	25708.05
618.543	25889.07
618.899	25889.52
619.255	25971.55
619.611	25922.28
619.967	25897.88
620.323	25983.98
620.678	25887.03
621.034	25931.1
621.39	25865.79
621.746	25836.86
622.101	26242.95
622.457	25941.27
622.812	25992.79
623.168	26077.76
623.523	26103.97
623.879	26046.8
624.234	25941.72
624.589	26007.93
624.945	26159.11
625.3	26292.44
625.655	26059.46
626.01	26115.73
626.365	26125.22
626.72	26128.61
627.075	26178.32
627.43	26160.02
627.785	26094.03
628.14	26137.42
628.495	26200.02
628.85	26125.67
629.205	26043.86
629.559	26172.9
629.914	26102.39
630.269	26136.29
630.623	26041.38
630.978	26047.03
631.332	26139.45
631.687	26249.96
632.041	26099.68
632.396	26082.73
632.75	26092.22
633.104	26077.53
633.459	25864.66
633.813	25927.48
634.167	26003.86
634.521	25826.24
634.875	26019.91
635.229	25836.19
635.583	25710.31
635.937	25821.04
636.291	25774.49
636.645	25827.15
636.999	25750.76
637.352	25783.31
637.706	25612.24
638.06	25727.94
638.413	25711.44
638.767	25652.91
639.121	25584.89
639.474	25497.89
639.828	25499.24
640.181	25559.81
640.534	25577.21
640.888	25452.92
641.241	25322.07
641.594	25390.77
641.947	25422.18
642.301	25354.39
642.654	25377.67
643.007	25399.59
643.36	25330.66
643.713	25291.57
644.066	25399.81
644.419	25173.83
644.771	25102.87
645.124	24882.76
645.477	24847.51
645.83	24662.66
646.182	24547.63
646.535	24500.63
646.888	24528.42
647.24	24538.82
647.593	24586.05
647.945	24596.22
648.298	24420.86
648.65	24377.47
649.002	24324.36
649.355	24422.66
649.707	24391.25
650.059	24601.64
650.411	24850
650.763	24901.97
651.115	25131.8
651.467	25023.78
651.819	25071.69
652.171	24904.23
652.523	24894.06
652.875	24946.26
653.227	24787.63
653.578	25071.01
653.93	24951.91
654.282	24789.66
654.633	24694.97
654.985	24857.91
655.337	24882.54
655.688	24925.93
656.039	25027.62
656.391	24776.1
656.742	24854.29
657.094	24850.9
657.445	24978.58
657.796	24862.43
658.147	24790.11
658.498	24816.1
658.849	24754.63
659.2	24930.67
659.551	24774.29
659.902	24903.55
660.253	24823.78
660.604	24860.62
660.955	24681.87
661.306	24900.84
661.656	24841.18
662.007	24832.6
662.358	24987.85
662.708	24929.09
663.059	24843.44
663.409	24723.45
663.76	24952.82
664.11	24845.7
664.461	24871.01
664.811	24900.62
665.161	24934.06
665.511	24718.93
665.862	24806.38
666.212	24948.75
666.562	24850.22
666.912	24948.98
667.262	24978.58
667.612	24708.76
667.962	24894.51
668.312	24818.81
668.662	24897.68
669.011	24818.58
669.361	24831.01
669.711	24767.96
670.06	24776.1
670.41	24642.32
670.76	24737
671.109	24812.94
671.459	24806.38
671.808	24607.29
672.157	24747.17
672.507	24628.31
672.856	24600.29
673.205	24588.53
673.554	24593.05
673.904	24620.17
674.253	24744.91
674.602	24622.88
674.951	24263.8
675.3	24097.93
675.649	24561.42
675.998	24549.67
676.346	24587.86
676.695	24626.73
677.044	24402.55
677.393	24452.72
677.741	24581.98
678.09	24376.11
678.438	24326.39
678.787	24402.78
679.135	24412.49
679.484	24236.23
679.832	24252.72
680.181	24229.9
680.529	24250.01
680.877	24173.4
681.225	24097.93
681.573	24168.43
681.922	24110.13
682.27	24087.98
682.618	23948.1
682.966	23926.86
683.314	24007.98
683.661	24005.05
684.009	23789.23
684.357	23793.07
684.705	23700.42
685.053	23694.32
685.4	23720.08
685.748	23634.89
686.095	23668.33
686.443	23506.53
686.79	23402.12
687.138	23533.65
687.485	23521.22
687.832	23419.53
688.18	23431.95
688.527	23300.43
688.874	23301.56
689.221	23096.14
689.568	23153.32
689.915	23017.73
690.262	23064.96
690.609	23039.2
690.956	22918.75
691.303	22854.57
691.65	22719.2
691.997	22839.43
692.344	22667.91
692.69	22574.35
693.037	22444.86
693.383	22384.98
693.73	22414.58
694.077	22329.16
694.423	22234.02
694.769	22197.86
695.116	22147.02
695.462	22100.01
695.808	22050.97
696.155	22106.34
696.501	21911.32
696.847	21896.4
697.193	21793.13
697.539	21841.26
697.885	21558.33
698.231	21517.43
698.577	21481.05
698.923	21374.16
699.269	21450.76
699.614	21320.37
699.96	21335.06
700.306	21295.97
700.651	21176.87
700.997	21113.15
701.342	20949.76
701.688	20974.39
702.033	20942.3
702.379	20928.97
702.724	20812.14
703.069	20827.73
703.415	20589.77
703.76	20617.34
704.105	20567.4
704.45	20492.14
704.795	20313.17
705.14	20277.91
705.485	20362.43
705.83	20168.99
706.175	20167.18
706.52	20125.37
706.865	20101.42
707.209	19912.95
707.554	19989.33
707.899	20069.78
708.243	19851.48
708.588	19840.41
708.932	19776.68
709.277	19803.35
709.621	19720.19
709.966	19566.97
710.31	19740.53
710.654	19375.11
710.998	19545.05
711.342	19553.86
711.687	19441.32
712.031	19279.52
712.375	19283.14
712.719	19222.8
713.063	19260.09
713.407	19280.43
713.75	19211.27
714.094	19085.4
714.438	19090.37
714.782	19028.91
715.125	18974.44
715.469	18972.18
715.812	18880.89
716.156	18845.41
716.499	18799.31
716.843	18824.17
717.186	18647.67
717.53	18851.06
717.873	18739.42
718.216	18700.33
718.559	18604.06
718.902	18569.94
719.246	18592.76
719.589	18441.8
719.932	18484.51
720.275	18413.78
720.617	18443.84
720.96	18359.32
721.303	18352.31
721.646	18423.27
721.989	18209.04
722.331	18372.2
722.674	18287.68
723.016	18320.68
723.359	18231.19
723.701	18241.13
724.044	18088.37
724.386	18059.89
724.729	18088.37
725.071	17999.33
725.413	18087.01
725.755	18080.23
726.097	17947.8
726.439	17901.03
726.782	17927.24
727.124	17966.56
727.465	17933.12
727.807	17944.87
728.149	17861.93
728.491	17937.18
728.833	17909.16
729.175	17810.41
729.516	17869.61
729.858	17751.43
730.199	17815.15
730.541	17763.63
730.882	17759.11
731.224	17819.67
731.565	17675.04
731.906	17688.6
732.248	17704.42
732.589	17588.72
732.93	17569.28
733.271	17608.6
733.612	17606.8
733.953	17646.8
734.294	17525.67
734.635	17549.17
734.976	17560.24
735.317	17559.79
735.658	17640.92
735.999	17538.55
736.339	17494.71
736.68	17615.38
737.021	17446.58
737.361	17395.73
737.702	17626.46
738.042	17533.35
738.383	17430.53
738.723	17439.12
739.063	17411.1
739.404	17543.52
739.744	17462.62
740.084	17467.14
740.424	17453.58
740.764	17399.34
741.104	17551.66
741.444	17453.81
741.784	17376.07
742.124	17531.09
742.464	17444.32
742.804	17505.78
743.143	17452.68
743.483	17376.29
743.823	17451.77
744.162	17433.47
744.502	17526.57
744.841	17459
745.181	17515.73
745.52	17619.9
745.86	17562.5
746.199	17540.58
746.538	17569.06
746.877	17659.68
747.216	17581.94
747.556	17720.24
747.895	17750.97
748.234	17711.65
748.573	17682.73
748.911	17739.9
749.25	17843.85
749.589	17853.8
749.928	17869.39
750.267	17948.48
750.605	18007.01
750.944	18029.16
751.283	17975.83
751.621	18120
751.96	18082.04
752.298	18212.43
752.636	18190.74
752.975	18157.97
753.313	18257.18
753.651	18445.19
753.989	18477.06
754.327	18414.91
754.666	18488.36
755.004	18533.1
755.342	18636.83
755.679	18795.47
756.017	18711.85
756.355	18791.17
756.693	18879.76
