Data from hue_180_FLMS001491_00035.txt Node
Date: Tue Feb 07 16:46:54 GMT 2017
User: dcchb
Spectrometer: FLMS00149
Trigger mode: 0
Integration Time (sec): 2.000000E-2
Scans to average: 10
Electric dark correction enabled: true
Nonlinearity correction enabled: false
Boxcar width: 0
XAxis mode: Wavelengths
Number of Pixels in Spectrum: 2048
>>>>>Begin Spectral Data<<<<<
341.393	2.54
341.776	2.54
342.16	2.54
342.543	-46.5
342.927	-55.08
343.31	-51.47
343.693	-84.69
344.077	-62.31
344.46	-55.08
344.843	-56.21
345.226	-46.72
345.61	-22.77
345.993	0.28
346.376	-4.69
346.759	16.78
347.142	30.34
347.525	34.41
347.908	60.39
348.291	65.82
348.674	76.21
349.057	99.71
349.44	133.39
349.823	146.95
350.206	161.86
350.588	198.02
350.971	211.8
351.354	226.94
351.737	233.5
352.119	262.42
352.502	245.93
352.884	253.16
353.267	289.77
353.65	313.49
354.032	284.57
354.414	292.93
354.797	320.05
355.179	321.18
355.562	307.17
355.944	339.71
356.326	325.7
356.709	336.54
357.091	341.97
357.473	336.32
357.855	332.03
358.238	333.38
358.62	348.3
359.002	341.29
359.384	329.31
359.766	339.48
360.148	330.67
360.53	328.18
360.912	336.32
361.294	338.8
361.676	328.86
362.057	335.64
362.439	321.18
362.821	310.56
363.203	333.83
363.584	329.54
363.966	340.16
364.348	327.51
364.729	329.99
365.111	301.97
365.493	322.31
365.874	327.05
366.256	329.09
366.637	301.52
367.019	317.56
367.4	327.05
367.781	306.94
368.163	305.81
368.544	315.3
368.925	294.06
369.306	305.13
369.688	322.31
370.069	334.74
370.45	301.74
370.831	325.92
371.212	322.53
371.593	342.65
371.974	305.36
372.355	304.91
372.736	324.57
373.117	320.95
373.498	319.37
373.879	313.49
374.26	304.46
374.641	309.65
375.021	312.82
375.402	311.91
375.783	318.01
376.163	315.53
376.544	336.32
376.925	324.57
377.305	305.36
377.686	333.83
378.066	335.19
378.447	322.31
378.827	325.7
379.208	347.17
379.588	329.09
379.968	317.56
380.349	322.99
380.729	320.95
381.109	347.17
381.489	346.04
381.87	350.78
382.25	337.9
382.63	315.75
383.01	327.05
383.39	348.3
383.77	347.39
384.15	349.2
384.53	352.14
384.91	367.5
385.29	360.5
385.67	345.58
386.049	360.05
386.429	351.01
386.809	354.62
387.189	357.11
387.568	365.92
387.948	339.03
388.328	366.15
388.707	354.17
389.087	363.89
389.466	388.52
389.846	355.3
390.225	383.32
390.605	358.69
390.984	391.01
391.363	381.74
391.743	365.24
392.122	368.41
392.501	357.11
392.881	388.07
393.26	374.51
393.639	367.96
394.018	378.58
394.397	388.52
394.776	382.87
395.155	369.31
395.534	379.48
395.913	405.47
396.292	404.34
396.671	399.14
397.05	370.22
397.429	418.58
397.808	396.2
398.186	389.42
398.565	408.63
398.944	393.27
399.323	407.28
399.701	414.28
400.08	409.76
400.458	410.89
400.837	441.85
401.215	408.41
401.594	413.38
401.972	396.88
402.351	412.7
402.729	424.9
403.107	424.9
403.486	432.36
403.864	448.86
404.242	441.17
404.62	440.95
404.999	471.23
405.377	452.93
405.755	454.51
406.133	448.63
406.511	444.56
406.889	461.06
407.267	468.97
407.645	464.9
408.023	493.83
408.401	483.43
408.779	489.08
409.156	506.71
409.534	507.61
409.912	503.77
410.29	506.94
410.667	525.92
411.045	509.2
411.422	530.66
411.8	518.23
412.178	551.91
412.555	550.55
412.933	557.33
413.31	550.32
413.687	576.76
414.065	597.1
414.442	584
414.819	618.57
415.197	598.23
415.574	619.25
415.951	619.7
416.328	611.79
416.705	628.29
417.082	619.02
417.46	642.07
417.837	623.99
418.214	644.79
418.591	690.89
418.967	669.64
419.344	684.33
419.721	680.94
420.098	680.26
420.475	680.94
420.852	685.69
421.228	699.93
421.605	733.82
421.982	758.45
422.358	735.86
422.735	771.34
423.111	769.08
423.488	785.8
423.864	780.6
424.241	810.66
424.617	792.8
424.994	812.69
425.37	831
425.746	826.7
426.123	831.45
426.499	866.02
426.875	852.92
427.251	881.84
427.627	898.79
428.003	890.43
428.379	888.39
428.756	912.8
429.132	934.5
429.507	946.25
429.883	965
430.259	962.29
430.635	953.03
431.011	983.99
431.387	988.28
431.763	1011.78
432.138	1026.7
432.514	1052.23
432.89	1049.75
433.265	1076.64
433.641	1046.36
434.016	1050.42
434.392	1118.45
434.767	1116.19
435.143	1143.53
435.518	1157.31
435.894	1191.66
436.269	1213.13
436.644	1212.45
437.02	1248.39
437.395	1232.34
437.77	1266.92
438.145	1280.25
438.52	1289.29
438.895	1314.82
439.271	1340.59
439.646	1358.44
440.021	1380.36
440.395	1374.71
440.77	1365.22
441.145	1394.37
441.52	1439.79
441.895	1454.48
442.27	1480.02
442.645	1456.97
443.019	1473.24
443.394	1475.72
443.769	1518.66
444.143	1520.92
444.518	1526.8
444.892	1533.58
445.267	1556.85
445.641	1567.25
446.016	1606.57
446.39	1584.42
446.764	1613.57
447.139	1601.82
447.513	1643.63
447.887	1603.18
448.262	1652.89
448.636	1653.12
449.01	1680.46
449.384	1714.36
449.758	1736.96
450.132	1753.91
450.506	1722.27
450.88	1748.71
451.254	1778.31
451.628	1782.38
452.002	1776.51
452.376	1829.84
452.75	1859.44
453.123	1869.39
453.497	1885.88
453.871	1888.14
454.244	1955.03
454.618	1960.68
454.992	2006.56
455.365	2016.95
455.739	2058.76
456.112	2046.56
456.486	2083.17
456.859	2093.56
457.232	2128.36
457.606	2110.28
457.979	2143.95
458.352	2191.41
458.725	2226.66
459.099	2260.34
459.472	2287.91
459.845	2352.99
460.218	2312.09
460.591	2391.86
460.964	2381.24
461.337	2445.87
461.71	2482.25
462.083	2518.18
462.456	2534
462.829	2523.15
463.201	2604.73
463.574	2595.69
463.947	2647.67
464.32	2665.52
464.692	2748.23
465.065	2734.45
465.438	2793.2
465.81	2823.94
466.183	2841.34
466.555	2929.02
466.928	2964.27
467.3	2972.86
467.672	3015.8
468.045	3089.47
468.417	3106.64
468.789	3151.16
469.161	3160.43
469.534	3235.23
469.906	3322.46
470.278	3361.78
470.65	3390.25
471.022	3451.49
471.394	3499.85
471.766	3570.36
472.138	3632.73
472.51	3717.25
472.882	3751.6
473.253	3809.67
473.625	3868.2
473.997	3933.29
474.369	4005.6
474.74	4047.18
475.112	4095.99
475.484	4205.14
475.855	4236.33
476.227	4308.19
476.598	4487.62
476.97	4514.51
477.341	4596.55
477.713	4651.01
478.084	4774.17
478.455	4915.86
478.827	4940.94
479.198	5097.55
479.569	5132.8
479.94	5253.48
480.311	5314.72
480.682	5453.92
481.053	5543.41
481.424	5672.9
481.795	5717.42
482.166	5849.39
482.537	5947.7
482.908	6097.52
483.279	6146.79
483.65	6264.07
484.021	6427.23
484.391	6556.49
484.762	6669.71
485.133	6638.75
485.503	6800.33
485.874	6895.02
486.244	7022.02
486.615	7153.99
486.985	7238.51
487.356	7336.59
487.726	7443.48
488.097	7652.06
488.467	7689.12
488.837	7817.93
489.207	7922.33
489.578	8087.3
489.948	8218.6
490.318	8294.98
490.688	8316.22
491.058	8517.35
491.428	8625.37
491.798	8687.29
492.168	8856.09
492.538	8933.38
492.908	9044.56
493.278	9169.08
493.648	9163.43
494.017	9278.68
494.387	9434.84
494.757	9458.11
495.126	9562.29
495.496	9554.16
495.866	9683.64
496.235	9784.66
496.605	9890.42
496.974	9915.95
497.344	9999.79
497.713	10120.47
498.082	10172.22
498.452	10282.5
498.821	10262.61
499.19	10286.79
499.559	10376.28
499.928	10432.78
500.298	10523.4
500.667	10593.9
501.036	10565.43
501.405	10669.83
501.774	10645.2
502.143	10774.91
502.512	10801.58
502.88	10919.09
503.249	10872.31
503.618	10966.1
503.987	11056.04
504.356	11058.75
504.724	11188.46
505.093	11125.64
505.462	11211.06
505.83	11183.04
506.199	11301
506.567	11381.68
506.936	11341.91
507.304	11416.03
507.672	11397.5
508.041	11544.39
508.409	11505.97
508.777	11599.98
509.145	11739.18
509.514	11616.02
509.882	11668.68
510.25	11720.2
510.618	11735.12
510.986	11797.71
511.354	11863.02
511.722	11870.03
512.09	12002.9
512.458	11911.38
512.826	11962.68
513.193	12013.3
513.561	12029.12
513.929	12126.29
514.297	12073.41
514.664	12148.21
515.032	12158.15
515.4	12231.37
515.767	12279.96
516.135	12330.13
516.502	12202.67
516.869	12322.44
517.237	12268.66
517.604	12325.38
517.972	12327.42
518.339	12400.18
518.706	12296.91
519.073	12408.09
519.44	12431.37
519.808	12413.52
520.175	12441.76
520.542	12518.15
520.909	12505.04
521.276	12458.49
521.643	12597.47
522.009	12608.54
522.376	12587.75
522.743	12658.48
523.11	12708.65
523.477	12771.02
523.843	12790.45
524.21	12759.72
524.577	12881.75
524.943	12798.36
525.31	12883.33
525.676	12839.27
526.043	13004.01
526.409	12918.59
526.776	12970.56
527.142	12870.9
527.508	12984.12
527.874	12949.32
528.241	12941.86
528.607	12911.81
528.973	12991.13
529.339	12885.14
529.705	12994.29
530.071	12990
530.437	12968.76
530.803	13036.1
531.169	13041.3
531.535	12893.05
531.901	12859.83
532.267	12866.16
532.632	12887.4
532.998	12889.44
533.364	12881.3
533.73	12712.04
534.095	12952.48
534.461	12768.99
534.826	12858.7
535.192	12870
535.557	12859.83
535.923	12672.72
536.288	12687.63
536.653	12707.97
537.019	12617.35
537.384	12710.91
537.749	12618.26
538.114	12587.07
538.479	12492.38
538.845	12515.21
539.21	12414.42
539.575	12409.9
539.94	12392.05
540.305	12400.41
540.67	12386.85
541.034	12352.05
541.399	12274.76
541.764	12241.09
542.129	12178.95
542.494	12169
542.858	12119.29
543.223	12116.57
543.587	12058.04
543.952	11974.66
544.316	11972.4
544.681	11882.23
545.045	11828.67
545.41	11917.71
545.774	11796.58
546.138	11820.76
546.503	11698.96
546.867	11706.42
547.231	11785.06
547.595	11595.01
547.959	11609.92
548.324	11652.18
548.688	11558.17
549.052	11454.44
549.416	11473.65
549.779	11416.03
550.143	11397.72
550.507	11439.76
550.871	11327.44
551.235	11217.39
551.599	11279.08
551.962	11226.88
552.326	11169.03
552.689	11199.76
553.053	11080.44
553.417	11086.32
553.78	11183.72
554.143	11029.15
554.507	11044.29
554.87	11013.78
555.234	11094.91
555.597	10990.95
555.96	10990.73
556.323	10902.82
556.686	10941.46
557.05	10936.27
557.413	10880.22
557.776	10823.05
558.139	10836.61
558.502	10885.19
558.865	10852.65
559.228	10879.32
559.59	10900.33
559.953	10797.74
560.316	10850.39
560.679	10803.61
561.041	10891.97
561.404	10858.08
561.767	10782.37
562.129	10730.4
562.492	10844.07
562.854	10798.42
563.217	10740.79
563.579	10761.81
563.941	10797.96
564.304	10786.21
564.666	10769.26
565.028	10753.45
565.39	10807.91
565.753	10813.78
566.115	10850.17
566.477	10890.62
566.839	10808.13
567.201	10839.32
567.563	10831.64
567.925	10888.58
568.287	10846.78
568.648	10811.07
569.01	10854.23
569.372	10924.97
569.734	10851.3
570.095	10924.29
570.457	10943.5
570.819	10902.14
571.18	10927.23
571.542	10939.43
571.903	10914.12
572.265	10942.82
572.626	10930.16
572.987	10956.83
573.349	11024.4
573.71	10928.81
574.071	11011.74
574.432	11002.25
574.794	10947.34
575.155	10970.16
575.516	10883.16
575.877	10957.96
576.238	10999.77
576.599	10995.25
576.96	10999.99
577.32	11042.03
577.681	10980.56
578.042	11047
578.403	10935.81
578.763	10973.55
579.124	10953.67
579.485	10975.14
579.845	11035.47
580.206	11013.33
580.566	10950.95
580.927	10955.47
581.287	10980.33
581.648	10938.98
582.008	10991.18
582.368	11012.65
582.728	11026.66
583.089	10902.82
583.449	10977.62
583.809	10929.71
584.169	10900.33
584.529	10906.89
584.889	10982.37
585.249	10914.35
585.609	10892.2
585.969	10907.79
586.329	10863.05
586.688	10861.01
587.048	10864.18
587.408	10832.77
587.768	10787.57
588.127	10793.45
588.487	10746.21
588.846	10874.35
589.206	10787.57
589.565	10755.25
589.925	10814.69
590.284	10748.02
590.643	10739.66
591.003	10810.85
591.362	10770.17
591.721	10821.24
592.08	10749.38
592.44	10703.73
592.799	10830.28
593.158	10761.81
593.517	10754.8
593.876	10693.11
594.235	10733.56
594.593	10750.96
594.952	10752.99
595.311	10698.08
595.67	10691.98
596.029	10666.22
596.387	10700.11
596.746	10762.71
597.104	10700.34
597.463	10627.12
597.822	10696.27
598.18	10663.96
598.538	10645.88
598.897	10774.69
599.255	10638.42
599.613	10725.42
599.972	10645.2
600.33	10680.91
600.688	10635.26
601.046	10631.42
601.404	10670.06
601.762	10734.92
602.12	10677.52
602.478	10660.79
602.836	10739.89
603.194	10695.59
603.552	10633.22
603.91	10580.12
604.268	10703.28
604.625	10658.99
604.983	10717.74
605.341	10629.61
605.698	10624.41
606.056	10677.97
606.413	10638.19
606.771	10714.58
607.128	10608.37
607.485	10633.9
607.843	10680.23
608.2	10643.39
608.557	10742.6
608.914	10648.14
609.272	10766.33
609.629	10745.76
609.986	10825.08
610.343	10660.79
610.7	10760.45
611.057	10850.39
611.414	10786.67
611.771	10667.12
612.127	10811.07
612.484	10781.69
612.841	10801.81
613.198	10736.5
613.554	10749.38
613.911	10781.24
614.267	10773.56
614.624	10792.32
614.98	10864.4
615.337	10905.76
615.693	10833.22
616.05	10825.31
616.406	10843.39
616.762	10858.53
617.118	10782.6
617.475	10780.79
617.831	10859.21
618.187	10884.52
618.543	10892.65
618.899	10940.33
619.255	10882.26
619.611	10903.95
619.967	10882.93
620.323	10930.84
620.678	10836.83
621.034	10888.36
621.39	10830.28
621.746	10849.26
622.101	10985.98
622.457	10856.72
622.812	10856.27
623.168	10917.06
623.523	10926.1
623.879	10862.82
624.234	10790.28
624.589	10908.24
624.945	10955.02
625.3	10884.97
625.655	10862.82
626.01	10930.16
626.365	10928.36
626.72	10831.64
627.075	10870.73
627.43	10872.54
627.785	10853.56
628.14	10923.39
628.495	10893.1
628.85	10794.35
629.205	10817.63
629.559	10837.96
629.914	10796.16
630.269	10808.59
630.623	10734.01
630.978	10761.13
631.332	10725.42
631.687	10789.6
632.041	10776.04
632.396	10835.7
632.75	10751.86
633.104	10728.14
633.459	10752.54
633.813	10653.34
634.167	10645.2
634.521	10616.73
634.875	10734.92
635.229	10673.45
635.583	10591.19
635.937	10557.74
636.291	10542.38
636.645	10589.16
636.999	10551.19
637.352	10611.75
637.706	10555.26
638.06	10489.72
638.413	10460.35
638.767	10507.12
639.121	10524.98
639.474	10516.84
639.828	10416.51
640.181	10456.28
640.534	10520.23
640.888	10425.09
641.241	10471.19
641.594	10475.26
641.947	10491.76
642.301	10369.73
642.654	10400.91
643.007	10381.03
643.36	10421.7
643.713	10397.98
644.066	10404.3
644.419	10272.1
644.771	10313.23
645.124	10174.48
645.477	10147.13
645.83	10150.75
646.182	10056.74
646.535	10075.95
646.888	10089.73
647.24	9977.2
647.593	10057.87
647.945	9928.38
648.298	9930.87
648.65	9989.4
649.002	9971.32
649.355	9981.94
649.707	9968.83
650.059	10014.48
650.411	10163.63
650.763	10127.7
651.115	10328.82
651.467	10207.92
651.819	10228.26
652.171	10183.74
652.523	10196.17
652.875	10138.32
653.227	10144.65
653.578	10208.38
653.93	10096.74
654.282	10202.05
654.633	10174.25
654.985	10174.7
655.337	10260.13
655.688	10202.27
656.039	10221.48
656.391	10132.9
656.742	10199.11
657.094	10226.68
657.445	10252.67
657.796	10174.03
658.147	10198.66
658.498	10157.76
658.849	10175.38
659.2	10261.48
659.551	10174.03
659.902	10288.15
660.253	10200.47
660.604	10204.08
660.955	10188.94
661.306	10300.35
661.656	10204.08
662.007	10256.51
662.358	10253.57
662.708	10240.01
663.059	10180.35
663.409	10169.28
663.76	10324.98
664.11	10296.96
664.461	10264.19
664.811	10264.87
665.161	10267.36
665.511	10184.42
665.862	10234.82
666.212	10275.94
666.562	10290.86
666.912	10227.13
667.262	10188.26
667.612	10206.57
667.962	10236.62
668.312	10221.93
668.662	10239.11
669.011	10259.67
669.361	10137.19
669.711	10210.64
670.06	10209.73
670.41	10100.36
670.76	10235.95
671.109	10212.44
671.459	10223.97
671.808	10138.1
672.157	10224.42
672.507	10113.69
672.856	10196.17
673.205	10167.25
673.554	10171.77
673.904	10183.74
674.253	10174.03
674.602	10124.99
674.951	9990.3
675.3	9971.09
675.649	10155.72
675.998	10046.12
676.346	10020.58
676.695	10047.25
677.044	10048.38
677.393	10079.79
677.741	10050.19
678.09	9989.62
678.438	10018.78
678.787	10014.26
679.135	9921.38
679.484	9894.71
679.832	9974.26
680.181	9870.08
680.529	9904.65
680.877	9917.31
681.225	9834.15
681.573	9963.86
681.922	9881.83
682.27	9767.71
682.618	9821.72
682.966	9835.28
683.314	9845.67
683.661	9771.78
684.009	9754.15
684.357	9752.12
684.705	9686.13
685.053	9735.39
685.4	9669.63
685.748	9630.54
686.095	9639.58
686.443	9608.62
686.79	9541.5
687.138	9593.25
687.485	9587.38
687.832	9546.7
688.18	9546.47
688.527	9433.93
688.874	9382.63
689.221	9412.24
689.568	9416.08
689.915	9378.34
690.262	9430.54
690.609	9359.36
690.956	9263.77
691.303	9302.18
691.65	9244.33
691.997	9238.68
692.344	9204.56
692.69	9144.9
693.037	9087.05
693.383	9029.42
693.73	9165.01
694.077	9048.41
694.423	9023.1
694.769	8993.94
695.116	8939.03
695.462	8908.52
695.808	8937.45
696.155	8898.13
696.501	8796.66
696.847	8896.09
697.193	8743.1
697.539	8797.34
697.885	8708.75
698.231	8664.91
698.577	8694.29
698.923	8598.25
699.269	8641.41
699.614	8565.48
699.96	8492.49
700.306	8568.42
700.651	8418.59
700.997	8379.27
701.342	8393.28
701.688	8317.8
702.033	8373.17
702.379	8363.9
702.724	8319.39
703.069	8268.54
703.415	8223.57
703.76	8228.77
704.105	8207.98
704.45	8173.17
704.795	8083.91
705.14	8097.7
705.485	8090.92
705.83	8058.15
706.175	8028.32
706.52	8011.82
706.865	8014.31
707.209	7977.25
707.554	7963.24
707.899	7944.93
708.243	7902.22
708.588	7943.12
708.932	7793.07
709.277	7772.06
709.621	7800.3
709.966	7748.1
710.31	7714.43
710.654	7747.42
710.998	7670.59
711.342	7670.14
711.687	7655.9
712.031	7675.11
712.375	7659.29
712.719	7663.58
713.063	7616.58
713.407	7633.75
713.75	7610.93
714.094	7570.93
714.438	7505.4
714.782	7553.3
715.125	7474.44
715.469	7511.5
715.812	7396.92
716.156	7422.01
716.499	7482.8
716.843	7447.09
717.186	7362.12
717.53	7436.02
717.873	7394.44
718.216	7404.16
718.559	7356.93
718.902	7363.48
719.246	7383.59
719.589	7341.78
719.932	7291.16
720.275	7337.72
720.617	7304.95
720.96	7288.68
721.303	7332.97
721.646	7325.97
721.989	7241.45
722.331	7271.96
722.674	7247.1
723.016	7278.28
723.359	7248.23
723.701	7286.19
724.044	7178.4
724.386	7163.26
724.729	7211.84
725.071	7172.07
725.413	7206.42
725.755	7219.75
726.097	7189.47
726.439	7151.28
726.782	7134.56
727.124	7191.96
727.465	7119.42
727.807	7126.87
728.149	7131.85
728.491	7100.21
728.833	7131.39
729.175	7122.36
729.516	7102.92
729.858	7190.38
730.199	7153.54
730.541	7094.79
730.882	7083.03
731.224	7120.1
731.565	7119.42
731.906	7097.72
732.248	7147.21
732.589	7047.55
732.93	7046.88
733.271	7039.65
733.612	7097.95
733.953	7076.03
734.294	7066.76
734.635	7072.64
734.976	7076.71
735.317	7079.64
735.658	7033.09
735.999	7036.93
736.339	7074.67
736.68	7128.46
737.021	7075.12
737.361	7054.11
737.702	7099.98
738.042	7091.85
738.383	7107.44
738.723	7118.97
739.063	7088.91
739.404	7137.27
739.744	7121.68
740.084	7126.65
740.424	7215.46
740.764	7171.39
741.104	7257.49
741.444	7178.4
741.784	7241.45
742.124	7261.79
742.464	7229.47
742.804	7247.1
743.143	7269.7
743.483	7252.75
743.823	7308.34
744.162	7257.72
744.502	7291.39
744.841	7340.2
745.181	7416.81
745.52	7439.41
745.86	7473.31
746.199	7503.14
746.538	7544.49
746.877	7576.81
747.216	7667.65
747.556	7633.98
747.895	7650.93
748.234	7739.51
748.573	7751.49
748.911	7783.35
749.25	7858.83
749.589	7854.54
749.928	7984.03
750.267	8099.05
750.605	8121.2
750.944	8156
751.283	8208.43
751.621	8307.86
751.96	8354.41
752.298	8443.9
752.636	8490.23
752.975	8633.28
753.313	8636.44
753.651	8813.38
753.989	8872.82
754.327	9006.37
754.666	9030.33
755.004	9110.78
755.342	9296.54
755.679	9394.16
756.017	9532.91
756.355	9710.08
756.693	9725.45
757.031	9962.73
757.368	10012.45
757.706	10204.31
758.044	10351.87
758.381	10454.24
758.719	10627.57
759.056	10774.91
759.394	10908.7
759.731	11028.02
