Data from hue_70_FLMS001491_58.txt Node
Date: Mon Feb 06 15:21:08 GMT 2017
User: dcchb
Spectrometer: FLMS00149
Trigger mode: 0
Integration Time (sec): 2.000000E-2
Scans to average: 10
Electric dark correction enabled: true
Nonlinearity correction enabled: false
Boxcar width: 0
XAxis mode: Wavelengths
Number of Pixels in Spectrum: 2048
>>>>>Begin Spectral Data<<<<<
341.393	-7.01
341.776	-7.01
342.16	-7.01
342.543	-73.67
342.927	-73.22
343.31	-58.98
343.693	-56.27
344.077	-65.99
344.46	-69.15
344.843	-36.61
345.226	-40
345.61	-40
345.993	-14.24
346.376	-14.01
346.759	6.1
347.142	31.86
347.525	25.31
347.908	59.89
348.291	67.34
348.674	90.39
349.057	114.35
349.44	121.35
349.823	148.24
350.206	174.91
350.588	198.64
350.971	200.9
351.354	221.01
351.737	221.01
352.119	255.13
352.502	252.65
352.884	274.12
353.267	281.8
353.65	290.84
354.032	296.26
354.414	320.22
354.797	304.4
355.179	322.25
355.562	341.69
355.944	346.66
356.326	316.38
356.709	335.13
357.091	329.93
357.473	359.54
357.855	348.69
358.238	331.29
358.62	329.03
359.002	343.95
359.384	338.75
359.766	327.67
360.148	327.9
360.53	344.4
360.912	335.36
361.294	351.86
361.676	336.26
362.057	332.42
362.439	337.17
362.821	327.67
363.203	327.22
363.584	327.9
363.966	331.52
364.348	320.67
364.729	342.14
365.111	308.47
365.493	317.73
365.874	323.83
366.256	326.77
366.637	312.31
367.019	298.98
367.4	314.79
367.781	327.9
368.163	297.85
368.544	325.64
368.925	298.52
369.306	318.18
369.688	311.86
370.069	320.44
370.45	324.29
370.831	329.71
371.212	298.75
371.593	315.7
371.974	314.34
372.355	296.26
372.736	314.34
373.117	316.6
373.498	302.36
373.879	314.79
374.26	305.3
374.641	303.04
375.021	313.21
375.402	337.62
375.783	318.41
376.163	325.64
376.544	317.96
376.925	327.22
377.305	323.16
377.686	294.23
378.066	330.16
378.447	310.73
378.827	341.91
379.208	326.09
379.588	316.38
379.968	327.67
380.349	318.64
380.729	310.73
381.109	335.36
381.489	333.1
381.87	339.2
382.25	319.54
382.63	325.42
383.01	338.3
383.39	329.26
383.77	345.08
384.15	334.45
384.53	340.56
384.91	339.2
385.29	361.35
385.67	324.29
386.049	332.87
386.429	356.83
386.809	340.56
387.189	357.28
387.568	325.87
387.948	327.9
388.328	337.84
388.707	344.62
389.087	343.72
389.466	332.19
389.846	338.52
390.225	344.85
390.605	347.56
390.984	356.15
391.363	341.69
391.743	360.89
392.122	373.1
392.501	360.89
392.881	359.31
393.26	378.75
393.639	361.35
394.018	349.82
394.397	343.95
394.776	360.67
395.155	371.06
395.534	367
395.913	349.6
396.292	357.5
396.671	375.58
397.05	356.83
397.429	375.13
397.808	359.99
398.186	372.65
398.565	355.02
398.944	371.97
399.323	372.87
399.701	392.31
400.08	377.62
400.458	387.11
400.837	376.71
401.215	392.08
401.594	376.26
401.972	385.53
402.351	370.16
402.729	370.61
403.107	383.04
403.486	390.95
403.864	388.69
404.242	390.27
404.62	407.67
404.999	393.21
405.377	406.32
405.755	410.84
406.133	395.24
406.511	404.06
406.889	400.22
407.267	393.44
407.645	415.58
408.023	392.53
408.401	425.98
408.779	389.82
409.156	409.25
409.534	435.69
409.912	414.45
410.29	419.65
410.667	424.62
411.045	425.98
411.422	448.12
411.8	434.34
412.178	441.12
412.555	455.13
412.933	435.69
413.31	449.71
413.687	454.45
414.065	442.02
414.442	449.48
414.819	449.71
415.197	456.71
415.574	457.84
415.951	446.77
416.328	451.06
416.705	475.92
417.082	459.2
417.46	470.04
417.837	481.57
418.214	462.13
418.591	478.63
418.967	491.51
419.344	458.97
419.721	483.6
420.098	485.64
420.475	492.87
420.852	479.31
421.228	478.18
421.605	513.43
421.982	501.91
422.358	492.19
422.735	495.13
423.111	467.11
423.488	495.58
423.864	502.81
424.241	524.96
424.617	524.05
424.994	537.39
425.37	519.08
425.746	523.38
426.123	539.87
426.499	529.93
426.875	512.53
427.251	549.14
427.627	532.87
428.003	535.13
428.379	547.33
428.756	555.47
429.132	565.18
429.507	529.48
429.883	569.25
430.259	573.54
430.635	572.64
431.011	557.05
431.387	570.83
431.763	585.97
432.138	591.17
432.514	583.49
432.89	579.42
433.265	610.83
433.641	588.91
434.016	601.79
434.392	612.64
434.767	625.52
435.143	610.61
435.518	630.72
435.894	636.59
436.269	637.27
436.644	634.56
437.02	644.05
437.395	638.4
437.77	646.99
438.145	647.44
438.52	645.63
438.895	668.68
439.271	661.68
439.646	663.94
440.021	654.67
440.395	690.38
440.77	669.36
441.145	681.79
441.52	676.37
441.895	687.44
442.27	696.7
442.645	697.83
443.019	705.52
443.394	726.99
443.769	722.24
444.143	691.73
444.518	710.94
444.892	741.9
445.267	706.2
445.641	715.69
446.016	730.6
446.39	748.68
446.764	744.39
447.139	733.54
447.513	753.2
447.887	713.88
448.262	759.75
448.636	748.68
449.01	764.27
449.384	758.4
449.758	788.23
450.132	783.71
450.506	780.09
450.88	794.33
451.254	768.79
451.628	809.92
452.002	791.39
452.376	799.75
452.75	816.02
453.123	807.89
453.497	819.87
453.871	842.69
454.244	852.41
454.618	850.15
454.992	856.25
455.365	858.51
455.739	872.75
456.112	891.5
456.486	882.69
456.859	916.13
457.232	918.62
457.606	909.35
457.979	908.22
458.352	919.75
458.725	906.64
459.099	946.19
459.472	948.68
459.845	975.34
460.218	962.01
460.591	970.14
460.964	1001.33
461.337	1019.41
461.71	1016.7
462.083	1029.13
462.456	1032.52
462.829	1048.56
463.201	1059.86
463.574	1085.4
463.947	1082.01
464.32	1086.07
464.692	1119.29
465.065	1116.35
465.438	1163.36
465.81	1172.4
466.183	1162.68
466.555	1191.16
466.928	1212.62
467.3	1218.05
467.672	1227.09
468.045	1258.72
468.417	1240.65
468.789	1300.08
469.161	1290.14
469.534	1352.28
469.906	1350.47
470.278	1372.39
470.65	1389.79
471.022	1420.3
471.394	1432.28
471.766	1487.87
472.138	1500.53
472.51	1535.78
472.882	1544.82
473.253	1572.39
473.625	1626.62
473.997	1650.8
474.369	1672.5
474.74	1692.38
475.112	1781.2
475.484	1790.01
475.855	1872.72
476.227	1896
476.598	1944.81
476.97	1966.73
477.341	2039.04
477.713	2077.69
478.084	2134.41
478.455	2213.28
478.827	2233.16
479.198	2353.61
479.569	2364.46
479.94	2461.4
480.311	2500.5
480.682	2578.92
481.053	2699.14
481.424	2772.81
481.795	2810.77
482.166	2878.79
482.537	2930.77
482.908	3054.16
483.279	3148.62
483.65	3220.71
484.021	3349.52
484.391	3421.38
484.762	3497.54
485.133	3574.14
485.503	3648.04
485.874	3800.58
486.244	3931.65
486.615	4015.49
486.985	4098.42
487.356	4243.96
487.726	4310.62
488.097	4488.47
488.467	4582.48
488.837	4768.01
489.207	4813.43
489.578	4995.35
489.948	5112.18
490.318	5235.79
490.688	5337.49
491.058	5469.91
491.428	5601.21
491.798	5764.14
492.168	5975.66
492.538	6014.08
492.908	6178.59
493.278	6281.87
493.648	6466.04
494.017	6557.34
494.387	6736.09
494.757	6837.79
495.126	6990.55
495.496	7069.64
495.866	7202.07
496.235	7352.12
496.605	7535.62
496.974	7631.44
497.344	7735.39
497.713	7877.98
498.082	8028.49
498.452	8234.59
498.821	8354.58
499.19	8416.73
499.559	8523.84
499.928	8648.81
500.298	8808.81
500.667	9007.45
501.036	9040.21
501.405	9210.83
501.774	9261.68
502.143	9343.03
502.512	9527.89
502.88	9721.1
503.249	9763.13
503.618	9898.95
503.987	9927.42
504.356	10087.42
504.724	10190.47
505.093	10362.21
505.462	10450.35
505.83	10529.21
506.199	10606.5
506.567	10843.33
506.936	10864.57
507.304	11105.24
507.672	11179.82
508.041	11266.14
508.409	11394.28
508.777	11497.55
509.145	11627.26
509.514	11674.5
509.882	11760.37
510.25	11886.24
510.618	12017.09
510.986	12084.43
511.354	12241.71
511.722	12321.48
512.09	12510.63
512.458	12422.05
512.826	12604.87
513.193	12649.61
513.561	12718.76
513.929	12911.07
514.297	13070.62
514.664	13151.07
515.032	13218.18
515.4	13362.13
515.767	13333.66
516.135	13455.69
516.502	13352.19
516.869	13703.14
517.237	13654.33
517.604	13757.38
517.972	13844.38
518.339	13968.45
518.706	13983.81
519.073	14171.83
519.44	14157.14
519.808	14370.92
520.175	14382.9
520.542	14553.29
520.909	14607.53
521.276	14648.88
521.643	14720.74
522.009	14829.21
522.376	14972.04
522.743	15044.8
523.11	15202.09
523.477	15254.74
523.843	15304.91
524.21	15550.55
524.577	15580.61
524.943	15711.9
525.31	15765.69
525.676	15851.11
526.043	15943.31
526.409	15987.83
526.776	16155.96
527.142	16157.54
527.508	16256.07
527.874	16460.81
528.241	16452.9
528.607	16499.68
528.973	16607.25
529.339	16519.57
529.705	16679.11
530.071	16774.47
530.437	16813.57
530.803	16957.29
531.169	16958.2
531.535	17006.33
531.901	16975.15
532.267	17063.05
532.632	17191.86
532.998	17179.44
533.364	17320.67
533.73	17276.61
534.095	17443.61
534.461	17465.08
534.826	17531.06
535.192	17514.57
535.557	17595.7
535.923	17612.42
536.288	17661.23
536.653	17749.14
537.019	17665.07
537.384	17794.11
537.749	17835.46
538.114	17764.96
538.479	17795.92
538.845	17823.94
539.21	17788.23
539.575	17892.64
539.94	17885.86
540.305	18007.21
540.67	17879.53
541.034	17950.71
541.399	18098.06
541.764	18124.95
542.129	18107.32
542.494	18097.38
542.858	18167.66
543.223	18156.36
543.587	18254.89
543.952	18273.87
544.316	18206.75
544.681	18179.18
545.045	18367.65
545.41	18302.8
545.774	18347.54
546.138	18208.79
546.503	18266.19
546.867	18323.81
547.231	18479.74
547.595	18338.5
547.959	18449.23
548.324	18400.19
548.688	18457.37
549.052	18571.49
549.416	18445.16
549.779	18516.12
550.143	18439.52
550.507	18722.45
550.871	18615.78
551.235	18627.98
551.599	18664.59
551.962	18731.26
552.326	18662.79
552.689	18821.88
553.053	18674.09
553.417	18783.01
553.78	18953.4
554.143	18834.98
554.507	18886.74
554.87	18928.54
555.234	19072.72
555.597	18946.39
555.96	18968.31
556.323	19065.26
556.686	18968.99
557.05	19199.72
557.413	19152.72
557.776	19199.95
558.139	19332.37
558.502	19321.3
558.865	19281.07
559.228	19463.9
559.59	19425.93
559.953	19503.44
560.316	19578.69
560.679	19597.68
561.041	19665.7
561.404	19751.8
561.767	19864.34
562.129	19765.81
562.492	19936.88
562.854	19905.47
563.217	19818.24
563.579	19966.48
563.941	20101.17
564.304	20142.07
564.666	20206.02
565.028	20253.48
565.39	20219.36
565.753	20383.19
566.115	20448.5
566.477	20529.63
566.839	20521.72
567.201	20622.28
567.563	20626.58
567.925	20728.04
568.287	20769.62
568.648	20779.57
569.01	20921.94
569.372	20937.75
569.734	20736.63
570.095	21004.42
570.457	20997.19
570.819	21174.58
571.18	21046.68
571.542	21218.2
571.903	21230.63
572.265	21369.16
572.626	21283.06
572.987	21311.08
573.349	21454.8
573.71	21516.27
574.071	21485.76
574.432	21558.98
574.794	21731.18
575.155	21688.7
575.516	21586.1
575.877	21722.14
576.238	21641.01
576.599	21811.63
576.96	21815.02
577.32	21818.18
577.681	21841.69
578.042	21905.19
578.403	21865.41
578.763	21906.32
579.124	21956.71
579.485	22004.85
579.845	22146.31
580.206	22041.23
580.566	21914.68
580.927	22078.97
581.287	22144.73
581.648	21992.64
582.008	22152.86
582.368	22024.05
582.728	22144.28
583.089	22186.99
583.449	22068.57
583.809	22149.47
584.169	22214.33
584.529	22074.45
584.889	22220.21
585.249	22219.98
585.609	22033.09
585.969	22174.56
586.329	22159.64
586.688	22111.51
587.048	22217.72
587.408	22185.86
587.768	22121
588.127	22055.92
588.487	22087.33
588.846	22229.92
589.206	22115.12
589.565	22098.18
589.925	22137.5
590.284	22128.68
590.643	22088.68
591.003	22135.24
591.362	22280.32
591.721	22178.63
592.08	22139.3
592.44	22203.71
592.799	22242.8
593.158	22232.86
593.517	22198.06
593.876	22246.65
594.235	22213.43
594.593	22200.32
594.952	22267.66
595.311	22114.22
595.67	22261.56
596.029	22347.44
596.387	22380.43
596.746	22280.09
597.104	22221.34
597.463	22268.79
597.822	22297.94
598.18	22102.47
598.538	22128.23
598.897	22346.98
599.255	22161.45
599.613	22503.82
599.972	22380.88
600.33	22416.36
600.688	22213.65
601.046	22423.82
601.404	22415.91
601.762	22417.72
602.12	22412.52
602.478	22485.28
602.836	22434.44
603.194	22413.2
603.552	22530.71
603.91	22423.14
604.268	22588.78
604.625	22350.6
604.983	22650.7
605.341	22436.92
605.698	22487.77
606.056	22624.94
606.413	22548.11
606.771	22695.67
607.128	22613.42
607.485	22597.37
607.843	22652.96
608.2	22696.35
608.557	22765.5
608.914	22774.09
609.272	22863.13
609.629	22971.37
609.986	23040.75
610.343	22824.94
610.7	23012.73
611.057	22988.55
611.414	22885.05
611.771	23030.81
612.127	23017.02
612.484	23108.32
612.841	23115.1
613.198	23089.11
613.554	23141.31
613.911	23227.41
614.267	23225.15
614.624	23265.38
614.98	23247.98
615.337	23413.62
615.693	23379.05
616.05	23307.18
616.406	23491.81
616.762	23412.27
617.118	23306.51
617.475	23511.47
617.831	23447.52
618.187	23473.06
618.543	23561.19
618.899	23702.2
619.255	23638.7
619.611	23601.64
619.967	23652.71
620.323	23673.5
620.678	23725.7
621.034	23525.48
621.39	23781.52
621.746	23501.53
622.101	23847.06
622.457	23690.9
622.812	23720.28
623.168	23777.91
623.523	23625.82
623.879	23862.42
624.234	23740.39
624.589	23887.51
624.945	23899.71
625.3	23826.94
625.655	23839.37
626.01	23787.62
626.365	23860.62
626.72	23849.09
627.075	23746.04
627.43	23770
627.785	23785.36
628.14	23802.31
628.495	23830.11
628.85	23703.11
629.205	23696.1
629.559	23864.23
629.914	23768.19
630.269	23747.4
630.623	23597.12
630.978	23711.01
631.332	23728.19
631.687	23806.61
632.041	23742.65
632.396	23800.96
632.75	23661.98
633.104	23810.22
633.459	23621.3
633.813	23541.53
634.167	23697.23
634.521	23571.13
634.875	23626.5
635.229	23519.16
635.583	23479.16
635.937	23473.51
636.291	23530.23
636.645	23535.65
636.999	23342.21
637.352	23483.45
637.706	23385.6
638.06	23461.76
638.413	23424.47
638.767	23346.96
639.121	23345.6
639.474	23219.95
639.828	23170.92
640.181	23231.93
640.534	23268.54
640.888	23145.38
641.241	23001.66
641.594	23106.96
641.947	23269.44
642.301	23108.54
642.654	23148.32
643.007	23255.89
643.36	23045.95
643.713	23046.4
644.066	23248.88
644.419	23117.58
644.771	22830.36
645.124	22689.8
645.477	22624.49
645.83	22443.48
646.182	22494.55
646.535	22396.02
646.888	22354.21
647.24	22264.5
647.593	22522.12
647.945	22336.81
648.298	22175.91
648.65	22228.79
649.002	22151.06
649.355	22203.48
649.707	22258.17
650.059	22287.55
650.411	22573.64
650.763	22630.82
651.115	22882.34
651.467	22822.22
651.819	22817.25
652.171	22764.83
652.523	22752.4
652.875	22733.87
653.227	22670.59
653.578	22758.72
653.93	22734.77
654.282	22602.57
654.633	22574.55
654.985	22659.74
655.337	22600.54
655.688	22732.74
656.039	22764.6
656.391	22521.44
656.742	22548.56
657.094	22568.45
657.445	22639.86
657.796	22619.52
658.147	22576.58
658.498	22583.59
658.849	22654.32
659.2	22582.46
659.551	22628.33
659.902	22653.87
660.253	22678.05
660.604	22642.34
660.955	22559.18
661.306	22691.38
661.656	22550.37
662.007	22629.24
662.358	22575.9
662.708	22588.78
663.059	22606.64
663.409	22389.47
663.76	22602.34
664.11	22600.54
664.461	22720.98
664.811	22679.18
665.161	22550.37
665.511	22563.02
665.862	22596.02
666.212	22661.78
666.562	22589.24
666.912	22521.89
667.262	22483.93
667.612	22651.61
667.962	22665.84
668.312	22592.85
668.662	22660.42
669.011	22580.88
669.361	22484.61
669.711	22554.44
670.06	22503.14
670.41	22531.84
670.76	22454.55
671.109	22624.26
671.459	22513.76
671.808	22402.35
672.157	22640.53
672.507	22472.18
672.856	22421.11
673.205	22482.8
673.554	22408.45
673.904	22357.6
674.253	22468.11
674.602	22415.23
674.951	22117.16
675.3	22049.14
675.649	22339.98
675.998	22288.23
676.346	22205.74
676.695	22483.93
677.044	22201.22
677.393	22224.73
677.741	22259.75
678.09	22216.14
678.438	22170.26
678.787	22289.13
679.135	22217.27
679.484	22132.07
679.832	22126.88
680.181	22066.76
680.529	21984.73
680.877	21976.37
681.225	22076.71
681.573	22047.56
681.922	21853.21
682.27	21909.03
682.618	21787.45
682.966	21829.93
683.314	21811.18
683.661	21799.43
684.009	21711.75
684.357	21672.42
684.705	21554.01
685.053	21689.37
685.4	21553.78
685.748	21403.73
686.095	21392.21
686.443	21302.04
686.79	21331.19
687.138	21344.3
687.485	21419.1
687.832	21231.08
688.18	21296.16
688.527	21154.25
688.874	21102.72
689.221	21021.82
689.568	20989.96
689.915	21000.58
690.262	20940.24
690.609	20877.87
690.956	20783.86
691.303	20861.6
691.65	20691.21
691.997	20629.06
692.344	20615.05
692.69	20588.16
693.037	20525.79
693.383	20412.8
693.73	20502.74
694.077	20318.11
694.423	20273.59
694.769	20190.66
695.116	20166.7
695.462	20126.25
695.808	20001.06
696.155	20109.3
696.501	19903.66
696.847	19910.89
697.193	19734.85
697.539	19820.04
697.885	19689.2
698.231	19632.48
698.577	19531.92
698.923	19532.59
699.269	19433.16
699.614	19268.87
699.96	19315.88
700.306	19364.91
700.651	19276.56
700.997	19117.01
701.342	19102.32
701.688	19095.77
702.033	18979.39
702.379	19107.52
702.724	18929.22
703.069	18857.36
703.415	18644.26
703.76	18686.97
704.105	18656.46
704.45	18743.69
704.795	18616.23
705.14	18439.29
705.485	18460.76
705.83	18491.49
706.175	18449.46
706.52	18284.04
706.865	18348.9
707.209	18246.3
707.554	18166.98
707.899	18218.28
708.243	18047.44
708.588	18020.32
708.932	17868.46
709.277	17916.37
709.621	17937.83
709.966	17823.49
710.31	17850.15
710.654	17675.47
710.998	17756.82
711.342	17706.65
711.687	17580.78
712.031	17520.9
712.375	17478.64
712.719	17554.11
713.063	17448.13
713.407	17450.84
713.75	17477.73
714.094	17458.07
714.438	17314.12
714.782	17323.61
715.125	17162.03
715.469	17375.81
715.812	17213.56
716.156	17117.97
716.499	17176.05
716.843	17144.86
717.186	16968.82
717.53	17092.21
717.873	17111.19
718.216	17067.8
718.559	16976.5
718.902	16840.91
719.246	16997.75
719.589	16834.81
719.932	16727.47
720.275	16884.98
720.617	16724.08
720.96	16778.54
721.303	16723.63
721.646	16746.23
721.989	16689.96
722.331	16722.72
722.674	16612.44
723.016	16599.11
723.359	16619.45
723.701	16642.5
724.044	16451.09
724.386	16422.62
724.729	16531.09
725.071	16465.33
725.413	16471.21
725.755	16362.51
726.097	16389.63
726.439	16345.33
726.782	16284.77
727.124	16371.32
727.465	16287.03
727.807	16283.19
728.149	16301.94
728.491	16314.6
728.833	16256.75
729.175	16210.65
729.516	16194.38
729.858	16213.81
730.199	16298.78
730.541	16167.71
730.882	16214.49
731.224	16312.11
731.565	16106.92
731.906	16119.58
732.248	16133.14
732.589	16075.28
732.93	15974.5
733.271	16086.36
733.612	15983.08
733.953	16107.37
734.294	16051.56
734.635	15913.48
734.976	16070.54
735.317	15952.35
735.658	15962.29
735.999	15990.09
736.339	15858.34
736.68	15967.04
737.021	15875.74
737.361	15806.59
737.702	15983.31
738.042	15827.38
738.383	15855.63
738.723	15931.11
739.063	15805.91
739.404	15933.14
739.744	15897.89
740.084	15869.41
740.424	15848.62
740.764	15913.48
741.104	15864.44
741.444	15747.83
741.784	15801.62
742.124	15852.24
742.464	15861.05
742.804	15909.86
743.143	15847.27
743.483	15837.32
743.823	15827.83
744.162	15812.69
744.502	15920.03
744.841	15794.16
745.181	15867.61
745.52	15855.4
745.86	15965.46
746.199	15956.42
746.538	15900.82
746.877	16051.78
747.216	15992.57
747.556	16043.19
747.895	16127.94
748.234	16027.83
748.573	16176.3
748.911	16150.99
749.25	16066.7
749.589	16127.49
749.928	16266.92
750.267	16279.12
750.605	16206.58
750.944	16342.85
751.283	16319.8
751.621	16485.67
751.96	16441.6
752.298	16507.36
752.636	16457.65
752.975	16596.63
753.313	16543.29
753.651	16766.79
753.989	16751.88
754.327	16764.3
754.666	16837.07
755.004	16887.24
755.342	17010.85
755.679	16983.96
756.017	17021.25
756.355	17209.94
756.693	17182.37
