Data from hue_20_FLMS001491_71.txt Node
Date: Mon Feb 06 15:34:37 GMT 2017
User: dcchb
Spectrometer: FLMS00149
Trigger mode: 0
Integration Time (sec): 2.000000E-2
Scans to average: 10
Electric dark correction enabled: true
Nonlinearity correction enabled: false
Boxcar width: 0
XAxis mode: Wavelengths
Number of Pixels in Spectrum: 2048
>>>>>Begin Spectral Data<<<<<
341.393	-16.28
341.776	-16.28
342.16	-16.28
342.543	-79.56
342.927	-80.69
343.31	-89.28
343.693	-74.59
344.077	-68.71
344.46	-47.7
344.843	-40.92
345.226	-44.76
345.61	-38.43
345.993	-9.96
346.376	-11.99
346.759	-2.5
347.142	28.23
347.525	52.41
347.908	51.28
348.291	91.51
348.674	98.06
349.057	107.33
349.44	112.75
349.823	156.14
350.206	167.21
350.588	181.45
350.971	213.09
351.354	257.38
351.737	244.73
352.119	239.75
352.502	250.37
352.884	274.1
353.267	297.38
353.65	277.27
354.032	301.45
354.414	300.54
354.797	308.23
355.179	320.88
355.562	330.37
355.944	308.23
356.326	338.73
356.709	339.19
357.091	333.76
357.473	337.38
357.855	327.43
358.238	351.62
358.62	361.56
359.002	326.98
359.384	342.35
359.766	320.88
360.148	338.73
360.53	339.64
360.912	328.56
361.294	320.66
361.676	347.1
362.057	348
362.439	322.69
362.821	329.24
363.203	348.9
363.584	328.34
363.966	317.04
364.348	314.78
364.729	338.96
365.111	328.11
365.493	326.3
365.874	318.85
366.256	314.78
366.637	312.29
367.019	325.4
367.4	304.84
367.781	328.11
368.163	311.16
368.544	323.82
368.925	337.38
369.306	341.45
369.688	301.67
370.069	329.47
370.45	338.28
370.831	333.99
371.212	310.03
371.593	322.92
371.974	317.72
372.355	329.24
372.736	325.85
373.117	333.99
373.498	314.1
373.879	328.11
374.26	307.32
374.641	298.74
375.021	303.93
375.402	337.6
375.783	309.36
376.163	346.42
376.544	330.37
376.925	320.2
377.305	337.6
377.686	354.1
378.066	325.18
378.447	346.19
378.827	326.98
379.208	357.49
379.588	326.53
379.968	336.93
380.349	350.49
380.729	324.95
381.109	342.12
381.489	343.71
381.87	343.93
382.25	363.59
382.63	336.93
383.01	359.52
383.39	368.34
383.77	355.91
384.15	367.89
384.53	333.31
384.91	359.07
385.29	348.23
385.67	340.32
386.049	342.12
386.429	345.51
386.809	364.5
387.189	352.74
387.568	351.62
387.948	373.76
388.328	366.76
388.707	371.95
389.087	368.34
389.466	368.34
389.846	383.03
390.225	384.38
390.605	387.32
390.984	365.4
391.363	364.27
391.743	369.24
392.122	381.67
392.501	380.09
392.881	392.29
393.26	396.59
393.639	393.2
394.018	412.63
394.397	376.93
394.776	398.85
395.155	383.7
395.534	405.4
395.913	400.88
396.292	397.72
396.671	379.41
397.05	406.98
397.429	402.46
397.808	394.55
398.186	399.98
398.565	415.79
398.944	402.01
399.323	416.47
399.701	414.89
400.08	418.73
400.458	415.57
400.837	427.32
401.215	429.58
401.594	400.65
401.972	414.21
402.351	409.24
402.729	425.29
403.107	421.22
403.486	409.24
403.864	444.95
404.242	428.9
404.62	435.45
404.999	428.45
405.377	432.97
405.755	464.15
406.133	448.34
406.511	455.12
406.889	432.52
407.267	445.17
407.645	426.64
408.023	437.26
408.401	469.35
408.779	477.94
409.156	431.61
409.534	463.93
409.912	486.07
410.29	481.1
410.667	467.54
411.045	492.18
411.422	462.35
411.8	458.05
412.178	486.3
412.555	496.47
412.933	495.57
413.31	492.18
413.687	492.85
414.065	504.38
414.442	505.96
414.819	513.19
415.197	512.74
415.574	536.24
415.951	531.72
416.328	521.1
416.705	523.36
417.082	523.36
417.46	512.97
417.837	530.82
418.214	532.18
418.591	531.05
418.967	533.08
419.344	547.32
419.721	535.57
420.098	543.93
420.475	554.77
420.852	550.03
421.228	561.55
421.605	546.19
421.982	566.07
422.358	578.05
422.735	575.79
423.111	580.08
423.488	588.9
423.864	570.59
424.241	581.44
424.617	587.09
424.994	605.62
425.37	595.68
425.746	615.34
426.123	622.79
426.499	615.56
426.875	617.14
427.251	614.88
427.627	630.03
428.003	630.25
428.379	631.16
428.756	636.35
429.132	623.92
429.507	650.59
429.883	637.03
430.259	674.32
430.635	635.45
431.011	668.44
431.387	666.86
431.763	679.52
432.138	681.55
432.514	687.65
432.89	678.16
433.265	704.6
433.641	724.03
434.016	723.13
434.392	714.77
434.767	729.68
435.143	716.13
435.518	739.85
435.894	748.67
436.269	739.18
436.644	771.72
437.02	749.12
437.395	783.92
437.77	776.24
438.145	770.14
438.52	760.64
438.895	789.57
439.271	770.59
439.646	791.83
440.021	803.58
440.395	803.81
440.77	806.07
441.145	829.12
441.52	838.16
441.895	842
442.27	837.93
442.645	846.97
443.019	866.86
443.394	825.73
443.769	859.62
444.143	825.95
444.518	877.02
444.892	868.66
445.267	869.34
445.641	872.05
446.016	878.38
446.39	905.27
446.764	868.66
447.139	873.18
447.513	897.36
447.887	932.16
448.262	905.5
448.636	919.74
449.01	924.26
449.384	940.98
449.758	928.1
450.132	940.98
450.506	957.25
450.88	946.85
451.254	938.94
451.628	954.31
452.002	955.21
452.376	979.4
452.75	988.89
453.123	971.94
453.497	996.8
453.871	992.73
454.244	1031.82
454.618	1030.02
454.992	1038.6
455.365	1039.05
455.739	1058.49
456.112	1078.38
456.486	1071.6
456.859	1081.99
457.232	1108.66
457.606	1092.84
457.979	1107.75
458.352	1142.78
458.725	1142.78
459.099	1137.58
459.472	1148.43
459.845	1213.51
460.218	1176.45
460.591	1215.32
460.964	1215.77
461.337	1233.63
461.71	1233.85
462.083	1248.31
462.456	1264.13
462.829	1285.83
463.201	1288.99
463.574	1305.94
463.947	1301.42
464.32	1314.53
464.692	1354.3
465.065	1339.84
465.438	1369.22
465.81	1372.83
466.183	1421.64
466.555	1418.25
466.928	1434.07
467.3	1428.42
467.672	1464.81
468.045	1487.4
468.417	1443.34
468.789	1511.58
469.161	1532.83
469.534	1550.23
469.906	1597.91
470.278	1568.53
470.65	1589.1
471.022	1653.05
471.394	1674.29
471.766	1697.57
472.138	1711.58
472.51	1725.59
472.882	1758.81
473.253	1780.96
473.625	1831.58
473.997	1830.67
474.369	1843.33
474.74	1867.51
475.112	1909.54
475.484	1917
475.855	1982.08
476.227	1985.24
476.598	2057.56
476.97	2083.09
477.341	2092.13
477.713	2152.25
478.084	2149.31
478.455	2232.47
478.827	2257.78
479.198	2298
479.569	2322.41
479.94	2361.28
480.311	2414.84
480.682	2480.37
481.053	2547.72
481.424	2563.08
481.795	2577.09
482.166	2648.73
482.537	2683.98
482.908	2762.4
483.279	2752.46
483.65	2788.39
484.021	2864.54
484.391	2941.83
484.762	2908.61
485.133	2991.55
485.503	3045.78
485.874	3103.63
486.244	3158.32
486.615	3201.71
486.985	3228.83
487.356	3333.01
487.726	3376.39
488.097	3417.52
488.467	3419.11
488.837	3522.15
489.207	3564.19
489.578	3632.21
489.948	3655.71
490.318	3742.71
490.688	3754.01
491.058	3805.31
491.428	3856.61
491.798	3902.48
492.168	4007.34
492.538	3998.75
492.908	4058.86
493.278	4108.58
493.648	4113.1
494.017	4198.75
494.387	4268.12
494.757	4306.99
495.126	4344.96
495.496	4333.88
495.866	4418.4
496.235	4457.72
496.605	4505.63
496.974	4534.56
497.344	4571.17
497.713	4595.12
498.082	4625.85
498.452	4676.7
498.821	4681.9
499.19	4714.66
499.559	4776.58
499.928	4786.75
500.298	4850.71
500.667	4863.59
501.036	4898.16
501.405	4961.89
501.774	4934.77
502.143	4993.75
502.512	5040.98
502.88	5041.89
503.249	5040.76
503.618	5109.46
503.987	5123.92
504.356	5144.26
504.724	5205.95
505.093	5219.96
505.462	5189.68
505.83	5264.71
506.199	5347.42
506.567	5364.82
506.936	5387.64
507.304	5430.35
507.672	5509.22
508.041	5469.45
508.409	5475.32
508.777	5570.91
509.145	5572.72
509.514	5575.66
509.882	5650.46
510.25	5629.22
510.618	5682.32
510.986	5649.33
511.354	5765.48
511.722	5763.9
512.09	5827.18
512.458	5759.16
512.826	5866.05
513.193	5866.5
513.561	5906.27
513.929	5948.98
514.297	5944.46
514.664	6039.15
515.032	6113.5
515.4	6099.26
515.767	6088.87
516.135	6189.43
516.502	6125.02
516.869	6171.58
517.237	6232.14
517.604	6211.57
517.972	6199.82
518.339	6256.77
518.706	6297
519.073	6272.36
519.44	6329.76
519.808	6405.69
520.175	6363.66
520.542	6443.43
520.909	6509.42
521.276	6511.23
521.643	6577.89
522.009	6586.48
522.376	6612.69
522.743	6672.13
523.11	6715.52
523.477	6770.43
523.843	6713.26
524.21	6856.53
524.577	6921.16
524.943	6859.24
525.31	6918.22
525.676	7046.13
526.043	7046.13
526.409	7057.88
526.776	7148.05
527.142	7145.56
527.508	7173.58
527.874	7265.33
528.241	7299.91
528.607	7327.7
528.973	7355.72
529.339	7368.83
529.705	7474.14
530.071	7525.66
530.437	7458.77
530.803	7480.02
531.169	7543.74
531.535	7567.92
531.901	7616.28
532.267	7684.53
532.632	7706
532.998	7732.89
533.364	7731.76
533.73	7838.88
534.095	7837.07
534.461	7933.11
534.826	7962.26
535.192	7950.74
535.557	8047.01
535.923	8061.24
536.288	8101.92
536.653	8120.68
537.019	8058.31
537.384	8153.9
537.749	8145.08
538.114	8228.7
538.479	8224.18
538.845	8254.91
539.21	8283.84
539.575	8350.5
539.94	8340.56
540.305	8422.36
540.67	8421.01
541.034	8458.29
541.399	8484.73
541.764	8536.03
542.129	8623.49
542.494	8519.08
542.858	8655.35
543.223	8667.78
543.587	8747.55
543.952	8704.16
544.316	8755.91
544.681	8763.37
545.045	8841.79
545.41	8899.86
545.774	8849.24
546.138	8886.31
546.503	8921.33
546.867	8925.17
547.231	9021.44
547.595	9030.71
547.959	9067.77
548.324	9127.88
548.688	9089.24
549.052	9177.6
549.416	9218.5
549.779	9215.56
550.143	9265.28
550.507	9341.89
550.871	9326.52
551.235	9277.71
551.599	9421.21
551.962	9439.51
552.326	9539.85
552.689	9519.06
553.053	9444.71
553.417	9461.88
553.78	9592.73
554.143	9614.2
554.507	9625.04
554.87	9704.82
555.234	9798.82
555.597	9776.23
555.96	9770.12
556.323	9818.48
556.686	9800.86
557.05	9861.2
557.413	9805.83
557.776	9894.41
558.139	9918.14
558.502	10006.28
558.865	10047.18
559.228	10116.33
559.59	10212.6
559.953	10118.36
560.316	10308.64
560.679	10260.51
561.041	10299.83
561.404	10362.65
561.767	10384.12
562.129	10343.44
562.492	10498.01
562.854	10488.52
563.217	10495.53
563.579	10512.7
563.941	10630.21
564.304	10601.29
564.666	10740.49
565.028	10772.13
565.39	10798.57
565.753	10752.02
566.115	10823.43
566.477	10916.31
566.839	10935.07
567.201	10946.14
567.563	10956.99
567.925	11122.41
568.287	11061.39
568.648	11086.47
569.01	11121.95
569.372	11214.61
569.734	11205.11
570.095	11314.04
570.457	11310.87
570.819	11403.75
571.18	11389.06
571.542	11467.25
571.903	11554.48
572.265	11589.06
572.626	11552.9
572.987	11705.21
573.349	11685.55
573.71	11845.1
574.071	11930.07
574.432	11934.59
574.794	12074.47
575.155	12088.26
575.516	12082.15
575.877	12160.12
576.238	12305.43
576.599	12282.6
576.96	12389.04
577.32	12441.92
577.681	12589.03
578.042	12698.18
578.403	12730.72
578.763	12786.54
579.124	12918.74
579.485	13010.49
579.845	13141.79
580.206	13227.21
580.566	13394.44
580.927	13431.05
581.287	13735.67
581.648	13629.01
582.008	13861.77
582.368	14007.98
582.728	14156.9
583.089	14252.04
583.449	14351.25
583.809	14593.95
584.169	14751.69
584.529	14873.27
584.889	15236.2
585.249	15232.35
585.609	15407.72
585.969	15754.83
586.329	15895.84
586.688	16237.98
587.048	16468.93
587.408	16603.17
587.768	16755.03
588.127	17058.97
588.487	17276.82
588.846	17694.66
589.206	17806.3
589.565	18058.04
589.925	18416.45
590.284	18730.34
590.643	19007.17
591.003	19298.01
591.362	19640.15
591.721	19809.86
592.08	20245.78
592.44	20625.21
592.799	20862.49
593.158	21039.43
593.517	21460.21
593.876	21839.86
594.235	21992.85
594.593	22377.02
594.952	22835.77
595.311	23062.66
595.67	23332.03
596.029	23859.25
596.387	24135.4
596.746	24573.13
597.104	24873
597.463	25131.08
597.822	25526.32
598.18	25758.86
598.538	26147.32
598.897	26631.15
599.255	26703.69
599.613	27507.74
599.972	27618.92
600.33	27969.87
600.688	28281.05
601.046	28736.63
601.404	29003.97
601.762	29334.81
602.12	29758.3
602.478	30120.32
602.836	30498.17
603.194	30724.38
603.552	31087.3
603.91	31339.73
604.268	31780.39
604.625	31936.1
604.983	32416.99
605.341	32584.67
605.698	33019.46
606.056	33247.25
606.413	33546.67
606.771	34035.25
607.128	34283.38
607.485	34365.41
607.843	34670.71
608.2	35123.58
608.557	35324.48
608.914	35525.61
609.272	36047.17
609.629	36371.01
609.986	36683.32
610.343	36639.25
610.7	37160.36
611.057	37402.39
611.414	37536.63
611.771	37837.41
612.127	38182.94
612.484	38326.89
612.841	38561.68
613.198	38814.33
613.554	38923.48
613.911	39334.77
614.267	39466.52
614.624	39758.04
614.98	39898.6
615.337	40369.09
615.693	40293.39
616.05	40474.63
616.406	40867.84
616.762	40885.69
617.118	41028.51
617.475	41167.72
617.831	41560.48
618.187	41679.12
618.543	41901.26
618.899	42079.56
619.255	42351.41
619.611	42299.21
619.967	42625.98
620.323	42730.16
620.678	42783.04
621.034	42758.41
621.39	43015.58
621.746	42920.89
622.101	43658.72
622.457	43371.95
622.812	43555.45
623.168	43706.63
623.523	43963.58
623.879	44017.81
624.234	43879.96
624.589	44176.9
624.945	44248.31
625.3	44346.39
625.655	44333.06
626.01	44495.54
626.365	44463.22
626.72	44628.42
627.075	44771.24
627.43	44944.79
627.785	44721.75
628.14	44849.65
628.495	45123.32
628.85	45085.58
629.205	45104.34
629.559	45359.47
629.914	45180.94
630.269	45167.61
630.623	45217.1
630.978	45194.05
631.332	45554.27
631.687	45436.76
632.041	45416.19
632.396	45488.28
632.75	45398.79
633.104	45526.7
633.459	45508.85
633.813	45472.91
634.167	45355.18
634.521	45512.91
634.875	45538
635.229	45534.61
635.583	45488.06
635.937	45498
636.291	45461.62
636.645	45578.22
636.999	45366.93
637.352	45564.44
637.706	45471.56
638.06	45678.56
638.413	45495.96
638.767	45548.84
639.121	45540.48
639.474	45291.22
639.828	45394.5
640.181	45428.17
640.534	45545.23
640.888	45463.2
641.241	45220.49
641.594	45371.22
641.947	45499.35
642.301	45294.39
642.654	45307.5
643.007	45318.79
643.36	45361.28
643.713	45343.88
644.066	45395.4
644.419	45178.91
644.771	44959.93
645.124	44679.94
645.477	44635.42
645.83	44385.26
646.182	44270.01
646.535	44089
646.888	44296.22
647.24	44040.18
647.593	44158.37
647.945	43976.68
648.298	44042.44
648.65	43859.85
649.002	43892.17
649.355	43916.8
649.707	43951.15
650.059	44112.72
650.411	44451.02
650.763	44546.61
651.115	44934.17
651.467	44978.69
651.819	44889.65
652.171	44938.47
652.523	44873.38
652.875	44745.7
653.227	44565.14
653.578	44963.32
653.93	44738.02
654.282	44582.99
654.633	44568.53
654.985	44579.6
655.337	44603.11
655.688	44616.89
656.039	44732.59
656.391	44472.04
656.742	44643.11
657.094	44584.8
657.445	44700.05
657.796	44529.66
658.147	44539.15
658.498	44480.17
658.849	44638.36
659.2	44593.62
659.551	44336.67
659.902	44628.87
660.253	44460.51
660.604	44469.33
660.955	44301.42
661.306	44555.42
661.656	44515.2
662.007	44477.46
662.358	44411.47
662.708	44336
663.059	44389.33
663.409	44056
663.76	44543
664.11	44419.38
664.461	44395.88
664.811	44376.45
665.161	44467.07
665.511	44239.5
665.862	44347.97
666.212	44446.27
666.562	44512.26
666.912	44308.43
667.262	44250.57
667.612	44317.24
667.962	44320.63
668.312	44223
668.662	44400.63
669.011	44255.77
669.361	44156.11
669.711	44211.25
670.06	44056.23
670.41	44147.53
670.76	44117.02
671.109	44249.22
671.459	44272.04
671.808	44046.29
672.157	44154.08
672.507	43764.26
672.856	43992.95
673.205	44013.52
673.554	44056
673.904	43976.91
674.253	44110.01
674.602	44061.65
674.951	43422.8
675.3	43238.17
675.649	43773.07
675.998	43761.32
676.346	43749.34
676.695	44055.32
677.044	43695.33
677.393	43816.46
677.741	43837.48
678.09	43758.16
678.438	43682.45
678.787	43726.97
679.135	43789.57
679.484	43454.66
679.832	43573.98
680.181	43417.6
680.529	43506.41
680.877	43447.66
681.225	43418.51
681.573	43681.55
681.922	43325.85
682.27	43202.92
682.618	43208.57
682.966	43108.68
683.314	43136.03
683.661	43006.99
684.009	42905.3
684.357	42845.86
684.705	42797.28
685.053	42668.69
685.4	42671.18
685.748	42504.86
686.095	42593.67
686.443	42335.14
686.79	42281.81
687.138	42471.41
687.485	42437.74
687.832	42258.99
688.18	42172.44
688.527	42121.82
688.874	42076.39
689.221	41910.3
689.568	41936.06
689.915	41816.97
690.262	41828.04
690.609	41630.53
690.956	41530.87
691.303	41447.71
691.65	41301.72
691.997	41282.74
692.344	41020.15
692.69	40953.03
693.037	41007.72
693.383	40667.17
693.73	40960.04
694.077	40652.48
694.423	40691.35
694.769	40502.88
695.116	40456.1
695.462	40436.89
695.808	40242.54
696.155	40315.54
696.501	40059.27
696.847	40000.97
697.193	39769.56
697.539	39923.68
697.885	39657.93
698.231	39389.01
698.577	39485.73
698.923	39352.17
699.269	39255.9
699.614	39158.96
699.96	39094.33
700.306	39231.04
700.651	38815.24
700.997	38825.86
701.342	38638.97
701.688	38640.1
702.033	38554
702.379	38632.19
702.724	38296.38
703.069	38356.72
703.415	37947.69
703.76	37994.24
704.105	38023.84
704.45	37987.69
704.795	37827.01
705.14	37713.12
705.485	37680.58
705.83	37579.79
706.175	37600.58
706.52	37358.55
706.865	37404.65
707.209	37263.41
707.554	37170.08
707.899	37334.82
708.243	37159.23
708.588	37101.16
708.932	36575.52
709.277	36799.02
709.621	36751.56
709.966	36481.06
710.31	36591.57
710.654	36339.37
710.998	36315.87
711.342	36376.88
711.687	36326.71
712.031	36058.7
712.375	35943.67
712.719	36040.17
713.063	35797.01
713.407	36066.16
713.75	35878.14
714.094	35845.82
714.438	35678.6
714.782	35761.08
715.125	35504.82
715.469	35612.16
715.812	35411.48
716.156	35190.92
716.499	35177.59
716.843	35244.48
717.186	35077.48
717.53	35343.46
717.873	35163.13
718.216	35023.47
718.559	34912.06
718.902	34656.02
719.246	34765.4
719.589	34688.57
719.932	34593.43
720.275	34672.75
720.617	34402.47
720.96	34461.68
721.303	34401.79
721.646	34434.56
721.989	34172.19
722.331	34436.37
722.674	34134.23
723.016	34202.7
723.359	34070.05
723.701	34087.23
724.044	33909.15
724.386	33806.1
724.729	33938.3
725.071	33852.43
725.413	33761.13
725.755	33761.36
726.097	33544.41
726.439	33423.97
726.782	33373.8
727.124	33656.95
727.465	33373.12
727.807	33376.06
728.149	33265.33
728.491	33195.95
728.833	33346
729.175	33247.25
729.516	33063.52
729.858	33163.86
730.199	33044.54
730.541	32981.27
730.882	32915.28
731.224	32898.33
731.565	32753.02
731.906	32712.12
732.248	32816.3
732.589	32625.12
732.93	32565.91
733.271	32512.13
733.612	32491.79
733.953	32527.27
734.294	32461.96
734.635	32265.13
734.976	32503.09
735.317	32242.08
735.658	32123.89
735.999	32137.22
736.339	32071.46
736.68	32232.58
737.021	32181.06
737.361	32026.49
737.702	32238.23
738.042	31967.73
738.383	31900.84
738.723	32132.47
739.063	31923.44
739.404	31961.18
739.744	31770.9
740.084	31621.53
740.424	31635.31
740.764	31596.22
741.104	31723.22
741.444	31524.13
741.784	31396.45
742.124	31545.82
742.464	31388.54
742.804	31437.8
743.143	31305.83
743.483	31263.34
743.823	31197.81
744.162	31135.89
744.502	31090.47
744.841	30995.33
745.181	31114.2
745.52	31031.26
745.86	30992.84
746.199	30896.57
746.538	30924.14
746.877	30932.51
747.216	30883.92
747.556	30826.97
747.895	30798.05
748.234	30604.38
748.573	30670.14
748.911	30609.12
749.25	30595.57
749.589	30438.06
749.928	30398.96
750.267	30479.18
750.605	30346.08
750.944	30210.04
751.283	30212.3
751.621	30412.97
751.96	30078.29
752.298	30119.65
752.636	30116.93
752.975	29944.74
753.313	29822.93
753.651	29987.45
753.989	29868.81
754.327	29710.84
754.666	29565.99
755.004	29734.12
755.342	29543.16
755.679	29483.05
756.017	29429.49
756.355	29556.5
756.693	29201.03
757.031	29348.37
757.368	29140.24
757.706	29138.2
758.044	29065.44
758.381	29166.45
758.719	28891.88
759.056	29025.44
759.394	28910.86
759.731	28677.42
