Data from hue_36_FLMS001491_00082.txt Node
Date: Tue Feb 07 17:30:24 GMT 2017
User: dcchb
Spectrometer: FLMS00149
Trigger mode: 0
Integration Time (sec): 2.000000E-2
Scans to average: 10
Electric dark correction enabled: true
Nonlinearity correction enabled: false
Boxcar width: 0
XAxis mode: Wavelengths
Number of Pixels in Spectrum: 2048
>>>>>Begin Spectral Data<<<<<
341.393	-4.89
341.776	-4.89
342.16	-4.89
342.543	-61.83
342.927	-48.05
343.31	-73.36
343.693	-64.32
344.077	-75.85
344.46	-79.24
344.843	-56.86
345.226	-31.1
345.61	-32.46
345.993	-13.47
346.376	-5.79
346.759	-3.53
347.142	26.07
347.525	69.01
347.908	58.16
348.291	72.85
348.674	84.15
349.057	125.73
349.44	127.99
349.823	131.83
350.206	173.41
350.588	188.1
350.971	205.28
351.354	218.84
351.737	225.62
352.119	261.55
352.502	271.49
352.884	283.47
353.267	275.56
353.65	301.55
354.032	294.54
354.414	311.94
354.797	325.95
355.179	315.56
355.562	329.34
355.944	328.89
356.326	337.48
356.709	341.09
357.091	346.97
357.473	334.31
357.855	353.97
358.238	338.38
358.62	326.18
359.002	335.9
359.384	353.3
359.766	365.05
360.148	358.04
360.53	343.35
360.912	327.99
361.294	329.57
361.676	311.94
362.057	349.23
362.439	341.09
362.821	316.23
363.203	325.5
363.584	329.34
363.966	322.11
364.348	339.28
364.729	324.82
365.111	294.77
365.493	324.14
365.874	314.2
366.256	315.33
366.637	319.62
367.019	304.26
367.4	308.78
367.781	319.17
368.163	312.84
368.544	283.47
368.925	302.45
369.306	324.6
369.688	313.75
370.069	306.74
370.45	337.25
370.831	303.58
371.212	324.82
371.593	305.39
371.974	316.01
372.355	310.59
372.736	333.41
373.117	321.43
373.498	331.6
373.879	331.6
374.26	334.31
374.641	336.12
375.021	305.16
375.402	306.07
375.783	338.38
376.163	319.62
376.544	346.74
376.925	316.91
377.305	323.69
377.686	331.83
378.066	318.72
378.447	311.26
378.827	334.09
379.208	329.79
379.588	313.3
379.968	327.08
380.349	320.75
380.729	301.77
381.109	326.86
381.489	325.05
381.87	320.75
382.25	346.29
382.63	329.34
383.01	333.18
383.39	342.45
383.77	333.86
384.15	366.18
384.53	340.87
384.91	342.67
385.29	341.54
385.67	339.51
386.049	338.61
386.429	360.75
386.809	354.65
387.189	343.13
387.568	355.56
387.948	336.12
388.328	360.08
388.707	341.77
389.087	355.1
389.466	346.52
389.846	329.34
390.225	358.95
390.605	361.66
390.984	370.92
391.363	386.29
391.743	376.35
392.122	367.53
392.501	344.03
392.881	361.43
393.26	361.43
393.639	379.96
394.018	334.54
394.397	373.86
394.776	355.1
395.155	384.48
395.534	373.86
395.913	379.96
396.292	384.26
396.671	390.81
397.05	377.25
397.429	381.54
397.808	366.63
398.186	369.57
398.565	389.45
398.944	363.24
399.323	389.68
399.701	373.18
400.08	376.8
400.458	407.53
400.837	406.18
401.215	405.5
401.594	390.36
401.972	389.91
402.351	383.58
402.729	397.59
403.107	390.13
403.486	391.71
403.864	397.36
404.242	414.99
404.62	398.04
404.999	393.52
405.377	415.89
405.755	411.37
406.133	394.88
406.511	410.92
406.889	402.56
407.267	422.9
407.645	429.23
408.023	431.71
408.401	405.95
408.779	438.72
409.156	434.42
409.534	436.46
409.912	438.49
410.29	457.93
410.667	437.81
411.045	419.96
411.422	427.87
411.8	434.88
412.178	452.28
412.555	457.93
412.933	462.9
413.31	467.64
413.687	463.35
414.065	471.71
414.442	459.28
414.819	453.41
415.197	465.84
415.574	444.82
415.951	468.1
416.328	452.73
416.705	492.05
417.082	465.61
417.46	489.11
417.837	476.68
418.214	491.15
418.591	495.44
418.967	480.52
419.344	481.88
419.721	499.28
420.098	499.73
420.475	511.03
420.852	519.62
421.228	494.08
421.605	517.59
421.982	503.12
422.358	521.88
422.735	518.26
423.111	519.85
423.488	520.3
423.864	518.94
424.241	532.73
424.617	532.5
424.994	539.05
425.37	502.9
425.746	529.56
426.123	528.88
426.499	552.16
426.875	552.39
427.251	539.51
427.627	583.8
428.003	563.01
428.379	570.69
428.756	558.94
429.132	583.57
429.507	565.72
429.883	559.84
430.259	584.25
430.635	604.14
431.011	578.37
431.387	608.88
431.763	607.3
432.138	616.34
432.514	613.63
432.89	611.59
433.265	616.34
433.641	631.48
434.016	623.57
434.392	639.39
434.767	636
435.143	619.5
435.518	643.46
435.894	652.27
436.269	674.64
436.644	665.38
437.02	660.86
437.395	646.17
437.77	664.47
438.145	669.45
438.52	658.82
438.895	679.84
439.271	658.6
439.646	694.98
440.021	682.55
440.395	682.55
440.77	691.37
441.145	720.29
441.52	697.92
441.895	704.02
442.27	714.42
442.645	705.15
443.019	716
443.394	709.22
443.769	720.52
444.143	719.61
444.518	717.81
444.892	725.26
445.267	738.14
445.641	753.96
446.016	729.56
446.39	746.73
446.764	758.93
447.139	758.48
447.513	742.21
447.887	767.52
448.262	779.27
448.636	771.14
449.01	775.21
449.384	767.3
449.758	801.42
450.132	784.24
450.506	804.13
450.88	805.04
451.254	790.35
451.628	823.34
452.002	819.95
452.376	822.21
452.75	843.45
453.123	800.74
453.497	851.59
453.871	839.38
454.244	865.37
454.618	863.34
454.992	885.94
455.365	861.53
455.739	904.47
456.112	880.06
456.486	906.73
456.859	904.02
457.232	948.31
457.606	932.26
457.979	931.59
458.352	923.9
458.725	953.96
459.099	939.72
459.472	975.2
459.845	969.32
460.218	970.91
460.591	991.47
460.964	1015.88
461.337	1019.04
461.71	1026.95
462.083	1048.64
462.456	1026.05
462.829	1057.68
463.201	1058.59
463.574	1063.79
463.947	1098.36
464.32	1123.67
464.692	1101.07
465.065	1107.4
465.438	1130
465.81	1140.17
466.183	1161.18
466.555	1218.13
466.928	1188.3
467.3	1192.37
467.672	1203.44
468.045	1194.63
468.417	1221.75
468.789	1264.23
469.161	1289.99
469.534	1318.69
469.906	1347.17
470.278	1347.17
470.65	1369.31
471.022	1393.04
471.394	1399.37
471.766	1433.95
472.138	1445.92
472.51	1470.33
472.882	1520.72
473.253	1538.58
473.625	1547.16
473.997	1614.28
474.369	1624.9
474.74	1654.28
475.112	1709.64
475.484	1707.16
475.855	1761.62
476.227	1766.82
476.598	1869.41
476.97	1874.61
477.341	1947.6
477.713	1956.87
478.084	2007.94
478.455	2043.65
478.827	2086.36
479.198	2149.86
479.569	2197.32
479.94	2292.45
480.311	2274.83
480.682	2346.24
481.053	2460.13
481.424	2480.92
481.795	2526.57
482.166	2610.64
482.537	2700.13
482.908	2717.75
483.279	2800.92
483.65	2871.42
484.021	2949.39
484.391	3022.6
484.762	3087.01
485.133	3151.64
485.503	3235.25
485.874	3277.51
486.244	3367.68
486.615	3510.27
486.985	3563.61
487.356	3672.3
487.726	3701.23
488.097	3830.49
488.467	3900.32
488.837	4049.47
489.207	4108
489.578	4235.45
489.948	4235.45
490.318	4397.26
490.688	4463.24
491.058	4538.27
491.428	4643.58
491.798	4705.05
492.168	4863.46
492.538	4924.48
492.908	5012.38
493.278	5143.23
493.648	5217.8
494.017	5296.89
494.387	5395.2
494.757	5429.77
495.126	5575.08
495.496	5608.52
495.866	5680.61
496.235	5802.64
496.605	5856.43
496.974	5975.29
497.344	6068.63
497.713	6115.4
498.082	6207.61
498.452	6307.72
498.821	6412.12
499.19	6443.31
499.559	6521.04
499.928	6629.51
500.298	6707.93
500.667	6753.58
501.036	6836.06
501.405	6927.81
501.774	6915.16
502.143	7028.37
502.512	7043.29
502.88	7166
503.249	7244.87
503.618	7266.79
503.987	7409.16
504.356	7457.74
504.724	7546.78
505.093	7541.13
505.462	7562.15
505.83	7647.34
506.199	7838.07
506.567	7915.36
506.936	7910.16
507.304	8010.04
507.672	8092.98
508.041	8119.19
508.409	8172.75
508.777	8274.9
509.145	8310.83
509.514	8396.93
509.882	8446.19
510.25	8510.82
510.618	8532.97
510.986	8603.25
511.354	8715.34
511.722	8707.43
512.09	8877.14
512.458	8855.9
512.826	8913.07
513.193	8898.83
513.561	8999.17
513.929	9108.77
514.297	9165.04
514.664	9271.03
515.032	9221.76
515.4	9378.6
515.767	9381.53
516.135	9456.33
516.502	9377.01
516.869	9539.49
517.237	9613.84
517.604	9574.52
517.972	9696.55
518.339	9798.92
518.706	9778.36
519.073	9801.63
519.44	9867.62
519.808	10040.05
520.175	9988.97
520.542	10194.62
520.909	10195.52
521.276	10278.23
521.643	10402.98
522.009	10336.08
522.376	10440.04
522.743	10404.1
523.11	10555.29
523.477	10600.26
523.843	10640.03
524.21	10783.08
524.577	10899.91
524.943	10926.58
525.31	10914.37
525.676	11046.12
526.043	11129.51
526.409	11140.36
526.776	11194.82
527.142	11296.74
527.508	11336.74
527.874	11485.88
528.241	11486.11
528.607	11585.99
528.973	11691.08
529.339	11620.12
529.705	11789.15
530.071	11828.47
530.437	11908.47
530.803	11975.59
531.169	12027.79
531.535	12006.77
531.901	12070.73
532.267	12103.72
532.632	12246.99
532.998	12238.86
533.364	12371.51
533.73	12364.28
534.095	12506.87
534.461	12529.47
534.826	12551.17
535.192	12624.39
535.557	12793.65
535.923	12816.02
536.288	12793.42
536.653	12774.66
537.019	12875.23
537.384	12877.71
537.749	12965.85
538.114	13049.69
538.479	13050.59
538.845	13158.38
539.21	13179.4
539.575	13257.36
539.94	13215.78
540.305	13359.73
540.67	13397.02
541.034	13390.47
541.399	13454.87
541.764	13552.5
542.129	13511.14
542.494	13580.52
542.858	13607.64
543.223	13639.05
543.587	13663.23
543.952	13746.16
544.316	13822.55
544.681	13827.07
545.045	13983.45
545.41	14117.91
545.774	14140.28
546.138	14120.84
546.503	14158.58
546.867	14216.21
547.231	14332.82
547.595	14388.18
547.959	14364.9
548.324	14425.92
548.688	14394.73
549.052	14576.2
549.416	14513.83
549.779	14515.41
550.143	14600.38
550.507	14779.36
550.871	14776.19
551.235	14756.76
551.599	14887.38
551.962	15054.83
552.326	14924.89
552.689	14978.9
553.053	15025.23
553.417	15060.25
553.78	15281.49
554.143	15141.38
554.507	15245.79
554.87	15285.56
555.234	15499.79
555.597	15430.64
555.96	15433.35
556.323	15507.02
556.686	15586.34
557.05	15650.07
557.413	15658.66
557.776	15723.06
558.139	15871.53
558.502	15823.62
558.865	15921.47
559.228	16095.48
559.59	15978.42
559.953	16077.63
560.316	16245.08
560.679	16181.13
561.041	16344.29
561.404	16376.83
561.767	16436.04
562.129	16365.76
562.492	16634.45
562.854	16568.69
563.217	16495.92
563.579	16664.96
563.941	16733.66
564.304	16867.44
564.666	16992.86
565.028	16964.84
565.39	17058.85
565.753	17135.23
566.115	17201.89
566.477	17265.17
566.839	17281.89
567.201	17377.93
567.563	17421.32
567.925	17437.59
568.287	17501.09
568.648	17588.1
569.01	17686.85
569.372	17796.45
569.734	17791.71
570.095	17926.17
570.457	18039.38
570.819	17988.99
571.18	18160.51
571.542	18114.18
571.903	18249.55
572.265	18276.67
572.626	18425.59
572.987	18468.07
573.349	18530.44
573.71	18546.04
574.071	18618.13
574.432	18735.64
574.794	19004.56
575.155	18943.54
575.516	19034.39
575.877	19118.45
576.238	19199.81
576.599	19292.23
576.96	19420.82
577.32	19383.3
577.681	19562.73
578.042	19768.83
578.403	19847.02
578.763	20035.49
579.124	19997.53
579.485	20397.51
579.845	20459.43
580.206	20550.05
580.566	20702.37
580.927	20830.05
581.287	20990.04
581.648	21089.47
582.008	21339.18
582.368	21420.99
582.728	21567.65
583.089	21668.22
583.449	21908.21
583.809	22099.84
584.169	22194.3
584.529	22359.04
584.889	22755.64
585.249	22702.76
585.609	22855.3
585.969	23268.63
586.329	23399.24
586.688	23606.24
587.048	23804.66
587.408	23938.44
587.768	24098.43
588.127	24273.12
588.487	24537.97
588.846	24853.22
589.206	24862.93
589.565	25170.72
589.925	25448.68
590.284	25654.33
590.643	25838.5
591.003	26068.1
591.362	26351.93
591.721	26450.24
592.08	26815.65
592.44	27030.11
592.799	27180.84
593.158	27372.47
593.517	27597.55
593.876	27788.73
594.235	27984.89
594.593	28285.22
594.952	28516.85
595.311	28700.35
595.67	28879.33
596.029	29341.91
596.387	29520.89
596.746	29693.77
597.104	29823.48
597.463	29867.32
597.822	30260.31
598.18	30237.93
598.538	30528.77
598.897	30889.44
599.255	30828.43
599.613	31449.88
599.972	31393.61
600.33	31723.32
600.688	31928.96
601.046	32064.78
601.404	32289.18
601.762	32291.67
602.12	32728.72
602.478	32914.25
602.836	32993.57
603.194	32971.87
603.552	33268.59
603.91	33281.24
604.268	33739.54
604.625	33685.98
604.983	34073.09
605.341	33873.32
605.698	34265.17
606.056	34448.9
606.413	34498.84
606.771	34852.05
607.128	34988.77
607.485	34932.05
607.843	35043.01
608.2	35294.52
608.557	35426.5
608.914	35473.5
609.272	35986.48
609.629	35960.04
609.986	36203.43
610.343	36217.44
610.7	36461.95
611.057	36508.5
611.414	36681.61
611.771	36841.38
612.127	36988.26
612.484	37051.09
612.841	37256.96
613.198	37263.74
613.554	37245.89
613.911	37730.39
614.267	37753.22
614.624	37713.22
614.98	37931.97
615.337	38083.83
615.693	38125.41
616.05	38167.44
616.406	38488.11
616.762	38449.92
617.118	38502.12
617.475	38590.48
617.831	38827.54
618.187	38806.3
618.543	38884.26
618.899	39203.12
619.255	39102.79
619.611	39099.85
619.967	39319.95
620.323	39394.08
620.678	39434.3
621.034	39259.84
621.39	39431.36
621.746	39357.47
622.101	39839.94
622.457	39544.81
622.812	39753.16
623.168	39879.04
623.523	39961.97
623.879	39987.28
624.234	39945.48
624.589	40045.59
624.945	40166.94
625.3	40149.31
625.655	40366.26
626.01	40169.42
626.365	40360.15
626.72	40185.24
627.075	40331.68
627.43	40357.89
627.785	40263.66
628.14	40382.07
628.495	40340.72
628.85	40727.6
629.205	40372.13
629.559	40714.49
629.914	40514.05
630.269	40564.89
630.623	40542.52
630.978	40399.7
631.332	40612.35
631.687	40782.74
632.041	40538.23
632.396	40695.06
632.75	40498.68
633.104	40588.85
633.459	40544.33
633.813	40392.92
634.167	40477.44
634.521	40639.24
634.875	40627.27
635.229	40596.08
635.583	40476.53
635.937	40512.69
636.291	40506.59
636.645	40529.87
636.999	40438.34
637.352	40573.48
637.706	40306.6
638.06	40646.47
638.413	40451.22
638.767	40282.42
639.121	40535.97
639.474	40170.1
639.828	40118.13
640.181	40335.75
640.534	40259.14
640.888	40177.56
641.241	40034.96
641.594	40248.52
641.947	40265.92
642.301	40134.17
642.654	40240.61
643.007	40309.76
643.36	40115.64
643.713	39991.58
644.066	40220.95
644.419	39981.41
644.771	39776.89
645.124	39308.43
645.477	39213.06
645.83	39112.95
646.182	39032.05
646.535	38870.7
646.888	39096.23
647.24	38817.6
647.593	39071.83
647.945	38938.72
648.298	38804.94
648.65	38737.82
649.002	38729.24
649.355	38791.61
649.707	38808.33
650.059	38868.44
650.411	39328.54
650.763	39401.53
651.115	39870.67
651.467	39653.73
651.819	39744.35
652.171	39524.47
652.523	39401.08
652.875	39571.02
653.227	39310.24
653.578	39511.81
653.93	39460.97
654.282	39266.17
654.633	39277.7
654.985	39311.82
655.337	39406.51
655.688	39352.04
656.039	39373.51
656.391	39293.97
656.742	39268.43
657.094	39263.46
657.445	39339.16
657.796	39339.62
658.147	39181.88
658.498	39209.68
658.849	39323.57
659.2	39271.14
659.551	39094.88
659.902	39309.79
660.253	39167.42
660.604	39354.76
660.955	39057.14
661.306	39257.81
661.656	39245.83
662.007	39239.5
662.358	39034.54
662.708	39208.09
663.059	39200.18
663.409	38980.98
663.76	39143.69
664.11	39222.1
664.461	39186.85
664.811	39184.37
665.161	39226.62
665.511	39072.73
665.862	39080.41
666.212	39078.15
666.562	39191.6
666.912	38985.95
667.262	39138.94
667.612	38983.24
667.962	39204.7
668.312	38973.07
668.662	39299.84
669.011	39021.88
669.361	38949.12
669.711	38872.96
670.06	38849.68
670.41	38934.43
670.76	38879.51
671.109	38994.99
671.459	38817.37
671.808	38932.17
672.157	38986.86
672.507	38641.78
672.856	38734.89
673.205	38786.18
673.554	38889.91
673.904	38744.15
674.253	39062.56
674.602	38717.26
674.951	38313.88
675.3	38076.37
675.649	38775.11
675.998	38730.82
676.346	38852.17
676.695	38709.35
677.044	38444.72
677.393	38606.75
677.741	38569.92
678.09	38540.77
678.438	38482.91
678.787	38617.15
679.135	38483.59
679.484	38251.96
679.832	38548.68
680.181	38271.85
680.529	38462.12
680.877	38291.06
681.225	38229.59
681.573	38359.98
681.922	38087.44
682.27	38088.57
682.618	38019.88
682.966	37938.07
683.314	37952.53
683.661	37783.27
684.009	37649.04
684.357	37649.94
684.705	37750.5
685.053	37709.38
685.4	37582.6
685.748	37412.66
686.095	37552.54
686.443	37311.42
686.79	37292.44
687.138	37421.47
687.485	37398.2
687.832	37148.26
688.18	37299.89
688.527	37118.66
688.874	37032.11
689.221	36827.14
689.568	36870.75
689.915	36737.2
690.262	36766.35
690.609	36739.23
690.956	36627.37
691.303	36577.43
691.65	36433.7
691.997	36369.07
692.344	36205.01
692.69	36242.52
693.037	36160.49
693.383	35979.03
693.73	36003.66
694.077	35863.55
694.423	35630.33
694.769	35651.58
695.116	35562.99
695.462	35607.28
695.808	35449.1
696.155	35468.3
696.501	35233.51
696.847	35186.96
697.193	35040.75
697.539	35193.96
697.885	34913.29
698.231	34744.03
698.577	34700.19
698.923	34659.06
699.269	34625.16
699.614	34437.37
699.96	34424.04
700.306	34429.91
700.651	34193.76
700.997	34170.94
701.342	34118.28
701.688	33994.22
702.033	33838.52
702.379	33792.64
702.724	33822.02
703.069	33898.4
703.415	33420.67
703.76	33521.69
704.105	33531.41
704.45	33452.31
704.795	33222.26
705.14	33100.91
705.485	33133
705.83	33058.88
706.175	33031.76
706.52	32894.81
706.865	32902.27
707.209	32753.8
707.554	32724.65
707.899	32834.02
708.243	32559.68
708.588	32474.71
708.932	32369.63
709.277	32396.75
709.621	32468.16
709.966	32078.11
710.31	32101.84
710.654	31936.65
710.998	32057.09
711.342	32063.65
711.687	31893.03
712.031	31911.56
712.375	31565.13
712.719	31744.11
713.063	31581.85
713.407	31580.95
713.75	31555.41
714.094	31493.49
714.438	31349.09
714.782	31470.44
715.125	31142.99
715.469	31267.06
715.812	31104.58
716.156	31006.73
716.499	30921.98
716.843	31018.7
717.186	30830.69
717.53	30911.36
717.873	30943.23
718.216	30748.65
718.559	30604.7
718.902	30487.64
719.246	30559.96
719.589	30469.34
719.932	30406.06
720.275	30412.62
720.617	30310.02
720.96	30221.21
721.303	30257.59
721.646	30285.16
721.989	30138.5
722.331	30036.36
722.674	30013.53
723.016	30021.22
723.359	29962.91
723.701	30105.73
724.044	29825.52
724.386	29747.1
724.729	29926.76
725.071	29717.5
725.413	29724.5
725.755	29669.14
726.097	29554.34
726.439	29385.53
726.782	29352.76
727.124	29539.42
727.465	29358.63
727.807	29412.19
728.149	29277.73
728.491	29252.2
728.833	29314.12
729.175	29097.62
729.516	29014.92
729.858	29041.36
730.199	29108.92
730.541	28906.67
730.882	28906.22
731.224	29047
731.565	28828.71
731.906	28800.01
732.248	28914.58
732.589	28719.33
732.93	28656.05
733.271	28745.09
733.612	28647.47
733.953	28689.5
734.294	28576.96
734.635	28494.7
734.976	28556.85
735.317	28373.35
735.658	28350.98
735.999	28375.61
736.339	28374.03
736.68	28329.51
737.021	28184.2
737.361	28184.88
737.702	28283.18
738.042	28188.04
738.383	28155.73
738.723	28147.59
739.063	28051.55
739.404	28143.53
739.744	27979.46
740.084	27862.4
740.424	27871.22
740.764	27833.93
741.104	27916.64
741.444	27725.91
741.784	27602.52
742.124	27655.85
742.464	27827.83
742.804	27619.47
743.143	27670.32
743.483	27604.78
743.823	27422.87
744.162	27423.32
744.502	27419.7
744.841	27347.39
745.181	27398.01
745.52	27299.03
745.86	27323.89
746.199	27269.42
746.538	27210.22
746.877	27300.61
747.216	27263.55
747.556	27107.39
747.895	27170.22
748.234	27099.49
748.573	26905.14
748.911	26999.37
749.25	26939.49
749.589	26904.69
749.928	26828.08
750.267	26885.03
750.605	26723.45
750.944	26628.31
751.283	26641.19
751.621	26644.13
751.96	26469.22
752.298	26513.74
752.636	26477.58
752.975	26392.61
753.313	26265.61
753.651	26460.63
753.989	26270.81
754.327	26182.22
754.666	26069
755.004	26138.83
755.342	26240.98
755.679	26062.68
756.017	25856.81
756.355	26000.31
756.693	25859.74
757.031	25859.74
757.368	25691.16
