Data from hue_90_FLMS001491_64.txt Node
Date: Mon Feb 06 15:25:28 GMT 2017
User: dcchb
Spectrometer: FLMS00149
Trigger mode: 0
Integration Time (sec): 2.000000E-2
Scans to average: 10
Electric dark correction enabled: true
Nonlinearity correction enabled: false
Boxcar width: 0
XAxis mode: Wavelengths
Number of Pixels in Spectrum: 2048
>>>>>Begin Spectral Data<<<<<
341.393	-5.18
341.776	-5.18
342.16	-5.18
342.543	-74.79
342.927	-76.82
343.31	-68.01
343.693	-76.14
344.077	-59.87
344.46	-83.83
344.843	-48.12
345.226	-50.61
345.61	-26.65
345.993	-29.59
346.376	6.57
346.759	21.03
347.142	9.73
347.525	27.81
347.908	68.03
348.291	82.95
348.674	113.91
349.057	112.78
349.44	132.21
349.823	124.53
350.206	163.63
350.588	184.64
350.971	191.87
351.354	237.52
351.737	250.4
352.119	235.26
352.502	246.79
352.884	251.53
353.267	295.37
353.65	294.7
354.032	303.28
354.414	314.81
354.797	326.33
355.179	315.49
355.562	298.09
355.944	315.71
356.326	329.27
356.709	309.84
357.091	330.4
357.473	335.15
357.855	345.99
358.238	351.64
358.62	356.61
359.002	349.16
359.384	333.34
359.766	328.59
360.148	350.74
360.53	336.05
360.912	348.48
361.294	350.29
361.676	345.09
362.057	343.28
362.439	320.91
362.821	349.16
363.203	345.09
363.584	325.2
363.966	333.79
364.348	302.83
364.729	307.8
365.111	313.45
365.493	329.05
365.874	311.19
366.256	313.9
366.637	315.26
367.019	294.24
367.4	313
367.781	303.73
368.163	328.37
368.544	329.05
368.925	314.36
369.306	318.42
369.688	292.21
370.069	301.7
370.45	322.27
370.831	338.76
371.212	324.75
371.593	329.72
371.974	322.72
372.355	333.34
372.736	338.54
373.117	330.85
373.498	326.56
373.879	321.14
374.26	314.13
374.641	304.86
375.021	315.49
375.402	322.72
375.783	338.76
376.163	323.17
376.544	328.14
376.925	323.17
377.305	338.08
377.686	334.24
378.066	313.23
378.447	330.17
378.827	345.32
379.208	339.67
379.588	340.57
379.968	339.44
380.349	336.73
380.729	350.06
381.109	328.14
381.489	317.52
381.87	363.62
382.25	354.36
382.63	330.63
383.01	355.94
383.39	346.67
383.77	346.45
384.15	364.52
384.53	368.59
384.91	353.23
385.29	351.19
385.67	362.72
386.049	351.64
386.429	360.91
386.809	348.93
387.189	358.42
387.568	365.65
387.948	347.8
388.328	365.43
388.707	374.24
389.087	378.54
389.466	367.24
389.846	367.01
390.225	372.21
390.605	376.73
390.984	374.47
391.363	371.76
391.743	361.36
392.122	372.21
392.501	394.35
392.881	404.98
393.26	413.34
393.639	390.06
394.018	406.56
394.397	404.52
394.776	402.26
395.155	395.94
395.534	406.11
395.913	390.96
396.292	393.68
396.671	379.67
397.05	395.26
397.429	394.81
397.808	404.3
398.186	377.18
398.565	383.51
398.944	410.17
399.323	390.96
399.701	404.3
400.08	411.53
400.458	419.21
400.837	407.91
401.215	401.81
401.594	405.2
401.972	391.42
402.351	422.15
402.729	409.04
403.107	430.96
403.486	446.56
403.864	432.55
404.242	446.78
404.62	444.97
404.999	427.57
405.377	431.19
405.755	436.61
406.133	421.25
406.511	424.64
406.889	436.84
407.267	463.96
407.645	431.64
408.023	455.37
408.401	459.44
408.779	469.15
409.156	455.82
409.534	464.18
409.912	465.31
410.29	471.87
410.667	494.69
411.045	471.87
411.422	461.02
411.8	500.11
412.178	494.69
412.555	479.78
412.933	489.04
413.31	473.45
413.687	504.86
414.065	489.49
414.442	499.21
414.819	505.31
415.197	510.28
415.574	522.94
415.951	518.87
416.328	528.14
416.705	511.87
417.082	524.07
417.46	540.34
417.837	516.16
418.214	545.08
418.591	539.21
418.967	545.54
419.344	549.6
419.721	544.41
420.098	545.76
420.475	566.33
420.852	545.99
421.228	561.81
421.605	571.07
421.982	541.47
422.358	567.91
422.735	553.9
423.111	577.4
423.488	556.61
423.864	588.47
424.241	574.24
424.617	579.89
424.994	585.31
425.37	600.68
425.746	587.34
426.123	617.4
426.499	623.73
426.875	620.11
427.251	610.85
427.627	613.56
428.003	643.61
428.379	640.45
428.756	640.22
429.132	636.38
429.507	655.36
429.883	668.02
430.259	657.4
430.635	671.63
431.011	650.17
431.387	687.45
431.763	687.23
432.138	661.24
432.514	704.85
432.89	718.19
433.265	712.54
433.641	724.97
434.016	679.77
434.392	726.1
434.767	750.5
435.143	742.14
435.518	743.95
435.894	746.66
436.269	740.56
436.644	781.46
437.02	758.64
437.395	777.62
437.77	788.47
438.145	793.67
438.52	764.29
438.895	782.59
439.271	804.51
439.646	837.96
440.021	814
440.395	820.33
440.77	800.45
441.145	832.53
441.52	863.27
441.895	857.84
442.27	845.87
442.645	869.82
443.019	861.46
443.394	858.07
443.769	841.57
444.143	865.08
444.518	880.89
444.892	882.93
445.267	880.89
445.641	889.26
446.016	874.12
446.39	913.89
446.764	897.17
447.139	895.58
447.513	896.49
447.887	938.97
448.262	926.09
448.636	922.25
449.01	941.23
449.384	949.37
449.758	939.42
450.132	960.67
450.506	959.99
450.88	959.08
451.254	984.17
451.628	990.04
452.002	988.91
452.376	1012.64
452.75	1010.16
453.123	1016.03
453.497	1006.77
453.871	1039.08
454.244	1049.03
454.618	1059.2
454.992	1071.17
455.365	1054.45
455.739	1110.49
456.112	1110.95
456.486	1122.24
456.859	1145.97
457.232	1123.37
457.606	1144.84
457.979	1162.7
458.352	1197.04
458.725	1197.27
459.099	1207.21
459.472	1216.03
459.845	1239.3
460.218	1254.44
460.591	1257.61
460.964	1277.72
461.337	1318.17
461.71	1315.46
462.083	1331.28
462.456	1348.91
462.829	1338.51
463.201	1353.42
463.574	1382.8
463.947	1393.42
464.32	1419.41
464.692	1447.43
465.065	1435.46
465.438	1484.72
465.81	1517.49
466.183	1522.91
466.555	1568.56
466.928	1580.31
467.3	1565.62
467.672	1608.33
468.045	1631.38
468.417	1652.85
468.789	1709.57
469.161	1716.35
469.534	1741.66
469.906	1802.68
470.278	1816.01
470.65	1835.67
471.022	1914.77
471.394	1915.22
471.766	1923.81
472.138	1966.97
472.51	2011.49
472.882	2076.57
473.253	2094.65
473.625	2155.44
473.997	2198.6
474.369	2217.36
474.74	2284.7
475.112	2333.29
475.484	2376.9
475.855	2463
476.227	2447.18
476.598	2563.34
476.97	2604.92
477.341	2664.12
477.713	2741.18
478.084	2759.49
478.455	2879.03
478.827	2929.88
479.198	3065.02
479.569	3109.08
479.94	3196.09
480.311	3280.38
480.682	3349.76
481.053	3499.81
481.424	3608.96
481.795	3675.85
482.166	3754.27
482.537	3832.23
482.908	3964.43
483.279	4090.53
483.65	4202.16
484.021	4319.9
484.391	4390.63
484.762	4527.35
485.133	4603.96
485.503	4717.4
485.874	4835.14
486.244	4958.75
486.615	5113.55
486.985	5261.8
487.356	5412.53
487.726	5523.26
488.097	5706.3
488.467	5747.66
488.837	5943.81
489.207	6061.1
489.578	6220.19
489.948	6313.07
490.318	6506.28
490.688	6608.88
491.058	6769.1
491.428	6974.07
491.798	7060.17
492.168	7288.41
492.538	7391.23
492.908	7533.83
493.278	7718.23
493.648	7789.87
494.017	7949.41
494.387	8052.46
494.757	8245.67
495.126	8390.53
495.496	8495.38
495.866	8546.68
496.235	8800.23
496.605	8852.21
496.974	8989.16
497.344	9189.15
497.713	9261.24
498.082	9435.92
498.452	9580.55
498.821	9679.08
499.19	9741.9
499.559	9948.45
499.928	10072.07
500.298	10156.36
500.667	10310.03
501.036	10281.1
501.405	10492.17
501.774	10528.78
502.143	10604.93
502.512	10754.53
502.88	10933.06
503.249	10983.91
503.618	11116.78
503.987	11165.6
504.356	11231.81
504.724	11418.92
505.093	11460.73
505.462	11493.95
505.83	11634.28
506.199	11746.15
506.567	11898.68
506.936	11905.24
507.304	12041.05
507.672	12125.12
508.041	12221.16
508.409	12244.89
508.777	12323.53
509.145	12448.95
509.514	12413.93
509.882	12606.46
510.25	12651.43
510.618	12715.61
510.986	12773.92
511.354	12896.85
511.722	12874.25
512.09	13097.07
512.458	12991.31
512.826	13146.79
513.193	13164.19
513.561	13156.96
513.929	13279.21
514.297	13371.87
514.664	13435.14
515.032	13466.78
515.4	13562.14
515.767	13596.72
516.135	13556.95
516.502	13688.02
516.869	13779.76
517.237	13886.88
517.604	13761.23
517.972	13870.61
518.339	13994.9
518.706	13975.24
519.073	13935.01
519.44	13950.61
519.808	14111.96
520.175	14116.03
520.542	14143.15
520.909	14210.94
521.276	14226.08
521.643	14321.45
522.009	14416.13
522.376	14358.96
522.743	14384.72
523.11	14466.75
523.477	14638.95
523.843	14610.25
524.21	14743.13
524.577	14783.81
524.943	14823.81
525.31	14865.39
525.676	14925.5
526.043	14913.29
526.409	14941.77
526.776	14985.38
527.142	15008.89
527.508	14964.37
527.874	15070.35
528.241	15057.7
528.607	15060.18
528.973	15109.9
529.339	15079.84
529.705	15186.06
530.071	15212.04
530.437	15206.17
530.803	15210.69
531.169	15207.98
531.535	15189.22
531.901	15184.02
532.267	15228.54
532.632	15206.39
532.998	15237.58
533.364	15289.56
533.73	15191.48
534.095	15281.65
534.461	15180.86
534.826	15168.88
535.192	15206.85
535.557	15178.15
535.923	15091.82
536.288	15136.57
536.653	15163.68
537.019	15092.05
537.384	15115.32
537.749	15098.37
538.114	15030.81
538.479	15003.46
538.845	15035.55
539.21	14970.69
539.575	14957.81
539.94	14997.36
540.305	14871.49
540.67	14806.63
541.034	14880.07
541.399	14831.94
541.764	14812.96
542.129	14804.6
542.494	14782.45
542.858	14639.86
543.223	14708.33
543.587	14735.22
543.952	14591.72
544.316	14599.86
544.681	14595.11
545.045	14602.57
545.41	14548.56
545.774	14541.55
546.138	14405.06
546.503	14444.38
546.867	14414.32
547.231	14416.58
547.595	14289.13
547.959	14385.17
548.324	14288.9
548.688	14239.64
549.052	14236.48
549.416	14161.45
549.779	14120.55
550.143	14098.85
550.507	14150.15
550.871	14102.92
551.235	14083.03
551.599	14089.59
551.962	14076.03
552.326	14097.95
552.689	14056.82
553.053	13990.38
553.417	13915.13
553.78	13985.18
554.143	13942.02
554.507	13879.42
554.87	13853.21
555.234	13985.18
555.597	13770.05
555.96	13758.75
556.323	13785.87
556.686	13755.13
557.05	13737.73
557.413	13735.92
557.776	13708.13
558.139	13770.05
558.502	13763.04
558.865	13730.95
559.228	13792.87
559.59	13771.63
559.953	13793.55
560.316	13870.16
560.679	13789.03
561.041	13855.02
561.404	13757.84
561.767	13861.34
562.129	13720.11
562.492	13781.12
562.854	13796.49
563.217	13775.02
563.579	13789.26
563.941	13782.02
564.304	13842.59
564.666	13873.32
565.028	13849.14
565.39	13879.88
565.753	13923.04
566.115	13804.85
566.477	13904.06
566.839	13818.86
567.201	13965.3
567.563	13928.46
567.925	14027.22
568.287	13981.79
568.648	13960.78
569.01	13971.4
569.372	14081.45
569.734	13975.92
570.095	14047.1
570.457	14139.3
570.819	14054.79
571.18	14032.64
571.542	14050.49
571.903	14021.11
572.265	14127.55
572.626	14090.72
572.987	14168.23
573.349	14154.22
573.71	14153.54
574.071	14229.92
574.432	14081.9
574.794	14226.53
575.155	14190.6
575.516	14175.23
575.877	14259.75
576.238	14248.23
576.599	14203.93
576.96	14161.9
577.32	14120.77
577.681	14149.25
578.042	14296.14
578.403	14219.53
578.763	14192.64
579.124	14186.08
579.485	14326.87
579.845	14346.3
580.206	14222.69
580.566	14268.34
580.927	14292.97
581.287	14305.85
581.648	14237.61
582.008	14252.29
582.368	14184.73
582.728	14276.7
583.089	14276.02
583.449	14262.69
583.809	14220.21
584.169	14245.52
584.529	14113.99
584.889	14156.03
585.249	14142.24
585.609	14135.46
585.969	14125.07
586.329	14119.87
586.688	14227.66
587.048	14148.79
587.408	14048.46
587.768	14129.13
588.127	14099.76
588.487	14005.52
588.846	14222.69
589.206	14055.46
589.565	14010.72
589.925	14045.07
590.284	13976.37
590.643	14048.46
591.003	14053.88
591.362	14090.49
591.721	13937.5
592.08	14090.49
592.44	13981.79
592.799	13995.8
593.158	13885.75
593.517	13981.57
593.876	13975.69
594.235	13864.06
594.593	13941.57
594.952	13963.94
595.311	13966.88
595.67	13960.1
596.029	13992.87
596.387	13997.61
596.746	14020.21
597.104	13977.27
597.463	13930.5
597.822	13932.98
598.18	13898.18
598.538	13872.19
598.897	13973.43
599.255	13797.62
599.613	14015.92
599.972	13946.09
600.33	13943.15
600.688	13873.32
601.046	14002.58
601.404	13935.47
601.762	13906.99
602.12	13977.27
602.478	13916.03
602.836	13968.23
603.194	13769.6
603.552	13838.07
603.91	13808.69
604.268	13944.28
604.625	13884.17
604.983	13928.69
605.341	13775.92
605.698	13923.94
606.056	13910.38
606.413	13897.73
606.771	13944.05
607.128	13946.31
607.485	13883.26
607.843	13850.05
608.2	13975.92
608.557	13986.99
608.914	13891.85
609.272	13944.73
609.629	14000.55
609.986	14016.59
610.343	13879.65
610.7	14002.36
611.057	14036.71
611.414	14004.17
611.771	13991.74
612.127	14013.66
612.484	14072.64
612.841	14074.22
613.198	13935.92
613.554	14069.93
613.911	14148.79
614.267	14159.19
614.624	14141.56
614.98	14056.14
615.337	14209.13
615.693	14116.48
616.05	14185.86
616.406	14224.27
616.762	14125.74
617.118	14152.64
617.475	14236.25
617.831	14192.86
618.187	14276.02
618.543	14198.28
618.899	14330.48
619.255	14287.55
619.611	14309.69
619.967	14257.49
620.323	14282.12
620.678	14273.09
621.034	14250.71
621.39	14296.36
621.746	14220.43
622.101	14359.18
622.457	14172.75
622.812	14274.67
623.168	14354.44
623.523	14298.85
623.879	14326.64
624.234	14190.38
624.589	14347.66
624.945	14306.08
625.3	14253.65
625.655	14302.01
626.01	14296.81
626.365	14332.07
626.72	14269.02
627.075	14205.29
627.43	14315.12
627.785	14203.93
628.14	14275.57
628.495	14266.08
628.85	14269.24
629.205	14180.43
629.559	14350.82
629.914	14165.74
630.269	14174.1
630.623	14120.55
630.978	14132.52
631.332	14203.71
631.687	14213.65
632.041	14135.46
632.396	14157.16
632.75	14009.59
633.104	14113.77
633.459	14021.57
633.813	13991.51
634.167	14080.1
634.521	13953.32
634.875	14073.32
635.229	14008.23
635.583	13972.75
635.937	13925.52
636.291	13843.27
636.645	13879.42
636.999	13994.22
637.352	13929.14
637.706	13883.72
638.06	13904.06
638.413	13859.08
638.767	13804.85
639.121	13850.95
639.474	13728.69
639.828	13719.43
640.181	13787
640.534	13874.45
640.888	13805.07
641.241	13706.55
641.594	13744.51
641.947	13722.14
642.301	13674.46
642.654	13685.76
643.007	13674.91
643.36	13669.94
643.713	13599.88
644.066	13723.72
644.419	13580.22
644.771	13558.75
645.124	13371.64
645.477	13448.25
645.83	13320.79
646.182	13244.19
646.535	13163.06
646.888	13248.93
647.24	13187.46
647.593	13222.94
647.945	13249.38
648.298	13105.66
648.65	13134.58
649.002	13043.51
649.355	13170.29
649.707	13111.53
650.059	13227.01
650.411	13431.3
650.763	13410.28
651.115	13525.76
651.467	13453.45
651.819	13522.14
652.171	13436.05
652.523	13492.77
652.875	13448.02
653.227	13429.94
653.578	13588.36
653.93	13486.89
654.282	13454.8
654.633	13464.74
654.985	13453.22
655.337	13427.46
655.688	13424.97
656.039	13579.09
656.391	13402.15
656.742	13525.08
657.094	13435.37
657.445	13464.74
657.796	13505.87
658.147	13455.03
658.498	13470.62
658.849	13479.66
659.2	13436.72
659.551	13457.29
659.902	13506.1
660.253	13481.02
660.604	13537.06
660.955	13367.35
661.306	13454.12
661.656	13416.84
662.007	13525.31
662.358	13566.21
662.708	13505.2
663.059	13521.01
663.409	13365.76
663.76	13626.77
664.11	13509.94
664.461	13578.41
664.811	13560.56
665.161	13533.67
665.511	13536.38
665.862	13599.2
666.212	13644.18
666.562	13575.48
666.912	13525.53
667.262	13558.53
667.612	13616.38
667.962	13585.87
668.312	13521.47
668.662	13630.62
669.011	13521.92
669.361	13513.11
669.711	13449.15
670.06	13573.22
670.41	13435.14
670.76	13446.44
671.109	13609.15
671.459	13500
671.808	13452.77
672.157	13485.76
672.507	13427.46
672.856	13384.52
673.205	13408.7
673.554	13512.88
673.904	13450.96
674.253	13485.76
674.602	13427.23
674.951	13206.9
675.3	13169.84
675.649	13323.96
675.998	13301.13
676.346	13340.23
676.695	13398.98
677.044	13275.6
677.393	13337.97
677.741	13276.95
678.09	13322.6
678.438	13298.42
678.787	13242.6
679.135	13348.36
679.484	13150.18
679.832	13202.6
680.181	13143.17
680.529	13180.46
680.877	13116.05
681.225	13107.69
681.573	13223.4
681.922	13065.43
682.27	13017.98
682.618	12951.76
682.966	13013.23
683.314	13083.06
683.661	12989.96
684.009	12891.2
684.357	12846.91
684.705	12836.29
685.053	12787.25
685.4	12804.88
685.748	12733.92
686.095	12772.11
686.443	12737.53
686.79	12690.08
687.138	12686.91
687.485	12660.02
687.832	12643.98
688.18	12639.91
688.527	12563.75
688.874	12487.82
689.221	12413.02
689.568	12588.84
689.915	12347.71
690.262	12443.75
690.609	12339.58
690.956	12306.81
691.303	12251.44
691.65	12205.57
691.997	12245.57
692.344	12149.53
692.69	12107.04
693.037	12077.66
693.383	12017.78
693.73	12051.22
694.077	11913.6
694.423	11991.79
694.769	11909.31
695.116	11882.64
695.462	11881.96
695.808	11782.08
696.155	11831.34
696.501	11629.09
696.847	11695.75
697.193	11619.14
697.539	11687.16
697.885	11514.51
698.231	11478.13
698.577	11465.93
698.923	11411.24
699.269	11372.37
699.614	11307.29
699.96	11291.47
700.306	11323.78
700.651	11141.87
700.997	11185.26
701.342	11126.5
701.688	11108.2
702.033	11057.35
702.379	11112.26
702.724	11032.04
703.069	10999.72
703.415	10888.77
703.76	10777.58
704.105	10824.14
704.45	10838.37
704.795	10775.32
705.14	10779.84
705.485	10707.3
705.83	10628.66
706.175	10662.33
706.52	10723.8
706.865	10540.53
707.209	10481.77
707.554	10506.18
707.899	10481.09
708.243	10422.56
708.588	10508.44
708.932	10366.3
709.277	10346.41
709.621	10345.28
709.966	10267.31
710.31	10278.61
710.654	10197.26
710.998	10216.69
711.342	10217.37
711.687	10221.67
712.031	10135.79
712.375	10125.17
712.719	10151.39
713.063	10070.94
713.407	10117.26
713.75	10066.42
714.094	10066.64
714.438	9989.58
714.782	10044.95
715.125	9949.58
715.469	9957.72
715.812	9913.2
716.156	9856.7
716.499	9779.42
716.843	9840.66
717.186	9823.26
717.53	9783.03
717.873	9904.16
718.216	9823.48
718.559	9789.36
718.902	9685.18
719.246	9755.92
719.589	9768.12
719.932	9674.11
720.275	9587.56
720.617	9652.19
720.96	9647.67
721.303	9664.17
721.646	9638.18
721.989	9615.58
722.331	9661.68
722.674	9566.54
723.016	9624.62
723.359	9606.54
723.701	9638.63
724.044	9541.01
724.386	9495.81
724.729	9570.16
725.071	9477.51
725.413	9493.1
725.755	9521.12
726.097	9516.83
726.439	9451.52
726.782	9462.82
727.124	9449.48
727.465	9455.58
727.807	9490.39
728.149	9416.72
728.491	9411.74
728.833	9483.61
729.175	9379.43
729.516	9377.17
729.858	9440.67
730.199	9418.07
730.541	9422.37
730.882	9501.91
731.224	9456.49
731.565	9424.63
731.906	9384.4
732.248	9366.1
732.589	9388.69
732.93	9360.45
733.271	9355.25
733.612	9328.81
733.953	9353.21
734.294	9309.37
734.635	9341.92
734.976	9366.32
735.317	9345.53
735.658	9380.11
735.999	9386.66
736.339	9373.1
736.68	9399.54
737.021	9427.56
737.361	9308.47
737.702	9442.93
738.042	9472.08
738.383	9371.07
738.723	9470.27
739.063	9482.93
739.404	9428.24
739.744	9407
740.084	9497.17
740.424	9468.47
740.764	9446.32
741.104	9497.17
741.444	9552.98
741.784	9472.76
742.124	9533.1
742.464	9537.62
742.804	9539.42
743.143	9574.9
743.483	9605.86
743.823	9658.29
744.162	9641.12
744.502	9652.64
744.841	9630.72
745.181	9774.9
745.52	9775.58
745.86	9781.45
746.199	9931.5
746.538	9919.53
746.877	9995.23
747.216	10006.76
747.556	10066.64
747.895	10082.23
748.234	10134.21
748.573	10215.11
748.911	10213.76
749.25	10298.95
749.589	10281.78
749.928	10433.41
750.267	10494.2
750.605	10519.96
750.944	10568.1
751.283	10611.94
751.621	10794.76
751.96	10840.41
752.298	10964.92
752.636	11138.03
752.975	11103.23
753.313	11221.41
753.651	11388.64
753.989	11507.96
754.327	11609.43
754.666	11730.33
755.004	11926.48
755.342	11992.02
755.679	12196.08
756.017	12265
756.355	12448.73
756.693	12626.12
757.031	12736.85
757.368	12789.51
757.706	12976.17
