Data from hue_50_FLMS001491_85.txt Node
Date: Mon Feb 06 15:11:09 GMT 2017
User: dcchb
Spectrometer: FLMS00149
Trigger mode: 0
Integration Time (sec): 2.000000E-2
Scans to average: 10
Electric dark correction enabled: true
Nonlinearity correction enabled: false
Boxcar width: 0
XAxis mode: Wavelengths
Number of Pixels in Spectrum: 2048
>>>>>Begin Spectral Data<<<<<
341.393	-17.67
341.776	-17.67
342.16	-17.67
342.543	-59.48
342.927	-54.28
343.31	-67.84
343.693	-65.8
344.077	-59.93
344.46	-59.48
344.843	-55.63
345.226	-42.3
345.61	-32.81
345.993	-10.21
346.376	15.55
346.759	6.51
347.142	26.4
347.525	36.57
347.908	49.45
348.291	71.14
348.674	87.41
349.057	100.97
349.44	130.12
349.823	150.24
350.206	174.87
350.588	171.25
350.971	192.95
351.354	226.84
351.737	238.6
352.119	279.95
352.502	278.82
352.884	303.23
353.267	293.74
353.65	289.89
354.032	308.88
354.414	318.59
354.797	330.57
355.179	320.18
355.562	337.35
355.944	346.16
356.326	339.16
356.709	337.8
357.091	348.42
357.473	350.91
357.855	358.82
358.238	335.99
358.62	349.78
359.002	342.77
359.384	364.69
359.766	369.44
360.148	333.28
360.53	333.51
360.912	349.55
361.294	339.16
361.676	342.55
362.057	350.23
362.439	338.48
362.821	349.1
363.203	350.46
363.584	364.47
363.966	327.63
364.348	335.32
364.729	361.3
365.111	312.94
365.493	318.37
365.874	319.27
366.256	340.29
366.637	347.52
367.019	317.69
367.4	315.88
367.781	341.64
368.163	303.68
368.544	341.42
368.925	326.5
369.306	341.42
369.688	312.94
370.069	331.93
370.45	319.5
370.831	333.51
371.212	314.07
371.593	327.63
371.974	318.14
372.355	329.44
372.736	325.37
373.117	345.03
373.498	324.47
373.879	343.9
374.26	314.75
374.641	318.14
375.021	337.58
375.402	321.76
375.783	335.54
376.163	329.67
376.544	337.8
376.925	343.9
377.305	328.08
377.686	309.55
378.066	308.88
378.447	330.57
378.827	343.45
379.208	357.91
379.588	340.74
379.968	315.66
380.349	334.19
380.729	337.35
381.109	338.25
381.489	336.22
381.87	335.54
382.25	343.68
382.63	355.88
383.01	363.11
383.39	337.35
383.77	339.84
384.15	369.67
384.53	360.63
384.91	346.62
385.29	356.56
385.67	360.17
386.049	357.01
386.429	349.78
386.809	353.85
387.189	337.8
387.568	338.93
387.948	370.12
388.328	365.15
388.707	367.86
389.087	357.01
389.466	375.31
389.846	366.95
390.225	357.69
390.605	352.26
390.984	372.38
391.363	367.63
391.743	364.47
392.122	374.64
392.501	371.47
392.881	380.96
393.26	398.37
393.639	374.86
394.018	363.56
394.397	355.43
394.776	381.64
395.155	368.54
395.534	386.84
395.913	405.6
396.292	392.49
396.671	369.21
397.05	386.61
397.429	391.59
397.808	382.77
398.186	373.96
398.565	377.8
398.944	389.33
399.323	390.23
399.701	396.56
400.08	416.44
400.458	405.14
400.837	417.12
401.215	399.95
401.594	409.44
401.972	388.2
402.351	394.07
402.729	419.16
403.107	404.69
403.486	418.25
403.864	421.64
404.242	419.16
404.62	402.88
404.999	413.28
405.377	431.36
405.755	428.19
406.133	404.69
406.511	417.35
406.889	409.44
407.267	427.97
407.645	439.95
408.023	419.38
408.401	428.19
408.779	446.73
409.156	430.68
409.534	457.8
409.912	446.05
410.29	449.44
410.667	462.09
411.045	471.81
411.422	441.53
411.8	479.49
412.178	453.73
412.555	493.73
412.933	449.44
413.31	475.88
413.687	486.95
414.065	466.16
414.442	448.08
414.819	480.62
415.197	472.26
415.574	488.08
415.951	507.74
416.328	479.27
416.705	484.01
417.082	505.93
417.46	481.98
417.837	492.6
418.214	510.23
418.591	494.41
418.967	520.62
419.344	511.36
419.721	526.95
420.098	535.54
420.475	517.23
420.852	515.65
421.228	526.95
421.605	534.86
421.982	519.49
422.358	537.12
422.735	534.63
423.111	552.49
423.488	535.99
423.864	551.81
424.241	574.63
424.617	564.46
424.994	551.13
425.37	553.84
425.746	559.26
426.123	570.56
426.499	576.21
426.875	561.75
427.251	558.36
427.627	572.15
428.003	602.2
428.379	590.9
428.756	583.22
429.132	610.79
429.507	608.98
429.883	602.2
430.259	618.25
430.635	628.64
431.011	615.99
431.387	649.21
431.763	622.31
432.138	595.87
432.514	647.4
432.89	641.07
433.265	637.23
433.641	661.41
434.016	645.82
434.392	663.22
434.767	690.11
435.143	646.27
435.518	664.57
435.894	704.35
436.269	713.61
436.644	683.56
437.02	698.7
437.395	707.96
437.77	690.33
438.145	710.22
438.52	706.83
438.895	698.24
439.271	696.89
439.646	747.06
440.021	726.04
440.395	721.75
440.77	722.42
441.145	748.41
441.52	752.48
441.895	761.29
442.27	748.41
442.645	751.12
443.019	767.85
443.394	757.23
443.769	773.95
444.143	777.34
444.518	795.64
444.892	786.15
445.267	785.93
445.641	782.76
446.016	806.04
446.39	789.54
446.764	795.42
447.139	797.22
447.513	846.94
447.887	822.76
448.262	829.31
448.636	824.57
449.01	825.25
449.384	819.82
449.758	821.86
450.132	823.66
450.506	863.44
450.88	859.82
451.254	874.06
451.628	879.03
452.002	862.76
452.376	864.79
452.75	896.88
453.123	876.54
453.497	889.2
453.871	923.78
454.244	911.8
454.618	927.16
454.992	940.72
455.365	935.98
455.739	964.68
456.112	973.94
456.486	976.88
456.859	965.36
457.232	1003.77
457.606	1000.84
457.979	1005.35
458.352	1019.14
458.725	1015.98
459.099	1023.89
459.472	1032.7
459.845	1086.03
460.218	1066.14
460.591	1067.95
460.964	1078.35
461.337	1089.19
461.71	1126.03
462.083	1142.07
462.456	1133.71
462.829	1149.98
463.201	1195.86
463.574	1163.32
463.947	1203.32
464.32	1252.81
464.692	1236.54
465.065	1207.16
465.438	1244.44
465.81	1256.65
466.183	1268.62
466.555	1300.49
466.928	1341.84
467.3	1349.3
467.672	1346.14
468.045	1389.98
468.417	1399.69
468.789	1375.97
469.161	1405.8
469.534	1450.99
469.906	1491.44
470.278	1516.98
470.65	1541.61
471.022	1534.61
471.394	1574.38
471.766	1605.79
472.138	1622.29
472.51	1625
472.882	1722.17
473.253	1704.32
473.625	1747.26
473.997	1827.71
474.369	1856.86
474.74	1875.84
475.112	1919.91
475.484	1963.3
475.855	2010.98
476.227	2050.07
476.598	2091.65
476.97	2169.17
477.341	2231.99
477.713	2249.84
478.084	2290.52
478.455	2383.4
478.827	2430.63
479.198	2540
479.569	2534.81
479.94	2669.04
480.311	2722.37
480.682	2785.2
481.053	2907.45
481.424	2961.24
481.795	3026.77
482.166	3113.1
482.537	3200.78
482.908	3282.13
483.279	3349.7
483.65	3473.31
484.021	3623.59
484.391	3638.96
484.762	3750.59
485.133	3826.98
485.503	3964.6
485.874	4072.39
486.244	4173.41
486.615	4339.5
486.985	4389.67
487.356	4551.48
487.726	4667.18
488.097	4816.1
488.467	4905.14
488.837	5048.64
489.207	5187.62
489.578	5318.69
489.948	5405.92
490.318	5553.94
490.688	5596.42
491.058	5801.16
491.428	5982.63
491.798	6086.35
492.168	6295.39
492.538	6385.55
492.908	6515.94
493.278	6710.97
493.648	6766.33
494.017	6896.27
494.387	7087.68
494.757	7219.65
495.126	7375.36
495.496	7427.11
495.866	7495.58
496.235	7762.01
496.605	7891.73
496.974	8049.24
497.344	8106.64
497.713	8336.24
498.082	8396.57
498.452	8604.93
498.821	8702.55
499.19	8790.69
499.559	8924.47
499.928	9009.21
500.298	9230.9
500.667	9331.24
501.036	9400.84
501.405	9579.82
501.774	9673.83
502.143	9779.14
502.512	9973.48
502.88	9980.94
503.249	10209.63
503.618	10253.47
503.987	10405.11
504.356	10516.74
504.724	10586.12
505.093	10621.37
505.462	10768.94
505.83	10927.58
506.199	11090.29
506.567	11175.26
506.936	11281.47
507.304	11464.29
507.672	11514.01
508.041	11650.72
508.409	11763.49
508.777	11901.34
509.145	12086.87
509.514	12062.24
509.882	12271.05
510.25	12271.95
510.618	12473.98
510.986	12459.74
511.354	12731.37
511.722	12763.92
512.09	12891.82
512.458	12965.04
512.826	13105.38
513.193	13242.1
513.561	13278.48
513.929	13445.48
514.297	13540.84
514.664	13569.54
515.032	13741.29
515.4	13873.49
515.767	13881.63
516.135	14056.76
516.502	13986.26
516.869	14324.33
517.237	14383.99
517.604	14334.27
517.972	14500.14
518.339	14567.26
518.706	14714.37
519.073	14844.77
519.44	14936.06
519.808	14991.65
520.175	15149.16
520.542	15278.43
520.909	15365.43
521.276	15482.26
521.643	15583.28
522.009	15737.4
522.376	15830.28
522.743	15865.53
523.11	16085.86
523.477	16228.91
523.843	16308.68
524.21	16408.34
524.577	16573.53
524.943	16763.81
525.31	16865.28
525.676	16921.77
526.043	17030.24
526.409	17095.55
526.776	17262.55
527.142	17352.72
527.508	17559.95
527.874	17604.47
528.241	17686.27
528.607	17824.12
528.973	17940.95
529.339	17953.61
529.705	18188.41
530.071	18246.94
530.437	18361.73
530.803	18452.81
531.169	18541.62
531.535	18589.53
531.901	18641.28
532.267	18723.53
532.632	18989.29
532.998	18972.34
533.364	19100.25
533.73	19164.65
534.095	19381.14
534.461	19486.45
534.826	19496.17
535.192	19573.23
535.557	19756.27
535.923	19677.63
536.288	19751.98
536.653	19960.56
537.019	19794.24
537.384	20077.62
537.749	20141.12
538.114	20182.25
538.479	20268.58
538.845	20321.01
539.21	20307.45
539.575	20462.47
539.94	20473.77
540.305	20680.54
540.67	20549.47
541.034	20719.41
541.399	20704.95
541.764	20948.79
542.129	20960.31
542.494	21020.87
542.858	21191.26
543.223	21131.38
543.587	21233.98
543.952	21359.85
544.316	21466.51
544.681	21376.34
545.045	21492.05
545.41	21641.87
545.774	21679.39
546.138	21738.6
546.503	21773.4
546.867	21838.25
547.231	21999.15
547.595	22136.1
547.959	22126.16
548.324	22125.48
548.688	22249.77
549.052	22317.11
549.416	22372.93
549.779	22446.83
550.143	22406.83
550.507	22605.69
550.871	22801.62
551.235	22572.47
551.599	22865.35
551.962	22857.89
552.326	22939.02
552.689	23168.84
553.053	23103.98
553.417	23077.99
553.78	23366.12
554.143	23326.8
554.507	23434.6
554.87	23625.1
555.234	23780.58
555.597	23628.26
555.96	23726.11
556.323	23870.52
556.686	23896.28
557.05	23978.08
557.413	24177.85
557.776	24221.02
558.139	24336.94
558.502	24418.52
558.865	24385.53
559.228	24716.14
559.59	24735.58
559.953	24777.61
560.316	25026.87
560.679	25077.72
561.041	25172.63
561.404	25358.84
561.767	25392.28
562.129	25325.62
562.492	25572.39
562.854	25661.43
563.217	25704.37
563.579	25757.47
563.941	25840.18
564.304	25901.88
564.666	26280.17
565.028	26182.32
565.39	26192.49
565.753	26477.45
566.115	26539.6
566.477	26632.93
566.839	26668.86
567.201	26907.5
567.563	26870.21
567.925	27012.58
568.287	27183.88
568.648	27145.23
569.01	27335.06
569.372	27549.52
569.734	27332.8
570.095	27625.9
570.457	27829.73
570.819	27812.11
571.18	27826.8
571.542	28061.59
571.903	27940.47
572.265	28207.8
572.626	28324.18
572.987	28430.62
573.349	28435.14
573.71	28595.36
574.071	28672.65
574.432	28839.43
574.794	29045.97
575.155	29029.48
575.516	28993.77
575.877	29186.53
576.238	29210.04
576.599	29375.46
576.96	29550.82
577.32	29448.45
577.681	29670.82
578.042	29770.47
578.403	29784.26
578.763	30001.43
579.124	29970.7
579.485	30220.86
579.845	30378.14
580.206	30304.47
580.566	30474.41
580.927	30624.69
581.287	30802.09
581.648	30674.18
582.008	30975.87
582.368	31007.05
582.728	31119.37
583.089	31175.64
583.449	31378.57
583.809	31464.22
584.169	31531.78
584.529	31641.61
584.889	32042.73
585.249	31964.77
585.609	32035.27
585.969	32262.84
586.329	32167.47
586.688	32460.57
587.048	32405.21
587.408	32580.12
587.768	32813.56
588.127	32801.36
588.487	32789.38
588.846	33178.29
589.206	33145.53
589.565	33280.66
589.925	33449.25
590.284	33440.89
590.643	33724.49
591.003	33858.28
591.362	34078.38
591.721	34026.41
592.08	34060.3
592.44	34315.67
592.799	34434.53
593.158	34449
593.517	34487.86
593.876	34654.64
594.235	34817.57
594.593	34838.14
594.952	35077.23
595.311	35029.32
595.67	35190.22
596.029	35530.77
596.387	35560.38
596.746	35763.76
597.104	35748.62
597.463	35747.49
597.822	35929.41
598.18	36088.5
598.538	36086.01
598.897	36311.55
599.255	36123.3
599.613	36705.21
599.972	36583.63
600.33	36709.27
600.688	36771.19
601.046	36878.76
601.404	37081.69
601.762	37125.08
602.12	37126.67
602.478	37414.79
602.836	37184.29
603.194	37283.5
603.552	37500.67
603.91	37339.09
604.268	37690.94
604.625	37587.9
604.983	37853.2
605.341	37656.59
605.698	38012.52
606.056	38037.15
606.413	38039.86
606.771	38341.55
607.128	38319.18
607.485	38083.7
607.843	38353.53
608.2	38428.78
608.557	38779.28
608.914	38708.77
609.272	38860.18
609.629	38998.03
609.986	39143.34
610.343	38937.92
610.7	39363.67
611.057	39123.67
611.414	39379.49
611.771	39329.54
612.127	39595.3
612.484	39569.31
612.841	39969.08
613.198	39678.24
613.554	39855.18
613.911	39999.13
614.267	39976.99
614.624	40125.68
614.98	40095.4
615.337	40384.66
615.693	40293.59
616.05	40280.48
616.406	40593.92
616.762	40277.09
617.118	40532.68
617.475	40555.5
617.831	40612.68
618.187	40719.56
618.543	40855.61
618.899	41034.36
619.255	41023.74
619.611	41092.21
619.967	41144.64
620.323	41333.33
620.678	41057.18
621.034	40981.93
621.39	41249.95
621.746	41112.55
622.101	41578.75
622.457	41236.84
622.812	41303.5
623.168	41529.04
623.523	41524.74
623.879	41732.19
624.234	41513.22
624.589	41585.3
624.945	41710.27
625.3	41629.82
625.655	41724.51
626.01	41672.99
626.365	41843.6
626.72	41747.79
627.075	41787.56
627.43	41728.58
627.785	41741.91
628.14	41831.85
628.495	41809.48
628.85	41689.93
629.205	41761.12
629.559	41933.32
629.914	41759.31
630.269	41830.5
630.623	41900.78
630.978	41625.76
631.332	41907.78
631.687	41981.68
632.041	41724.28
632.396	41973.77
632.75	41642.7
633.104	41808.35
633.459	41727
633.813	41639.99
634.167	41734.68
634.521	41607.9
634.875	41771.51
635.229	41572.65
635.583	41508.7
635.937	41589.6
636.291	41446.78
636.645	41482.48
636.999	41386.44
637.352	41581.01
637.706	41255.37
638.06	41561.35
638.413	41471.64
638.767	41354.35
639.121	41480.22
639.474	41222.6
639.828	41332.43
640.181	41281.81
640.534	41252.43
640.888	41306.67
641.241	40930.18
641.594	41111.42
641.947	41200
642.301	41027.58
642.654	41064.41
643.007	41237.74
643.36	41063.28
643.713	40900.13
644.066	41097.18
644.419	41002.95
644.771	40702.16
645.124	40348.5
645.477	40272.35
645.83	40041.16
646.182	39903.77
646.535	39618.12
646.888	39820.83
647.24	39464.46
647.593	39846.59
647.945	39704
648.298	39475.3
648.65	39455.42
649.002	39365.93
649.355	39653.38
649.707	39493.83
650.059	39728.63
650.411	40249.07
650.763	40092.46
651.115	40576.29
651.467	40359.57
651.819	40488.61
652.171	40315.73
652.523	40260.82
652.875	40172.01
653.227	40133.59
653.578	40450.42
653.93	40192.12
654.282	39987.61
654.633	40052.24
654.985	40071.9
655.337	40115.96
655.688	40049.53
656.039	40146.02
656.391	39797.78
656.742	39885.24
657.094	39951.68
657.445	40095.85
657.796	39988.51
658.147	39886.59
658.498	39942.41
658.849	39919.36
659.2	39867.84
659.551	39724.56
659.902	39911.68
660.253	39736.77
660.604	39951
660.955	39703.55
661.306	39944.67
661.656	39793.26
662.007	39755.97
662.358	39804.33
662.708	39813.83
663.059	39699.48
663.409	39549.43
663.76	39816.99
664.11	39865.35
664.461	39935.18
664.811	39873.03
665.161	39874.16
665.511	39642.76
665.862	39761.4
666.212	39898.57
666.562	39817.89
666.912	39740.83
667.262	39763.21
667.612	39688.63
667.962	39863.09
668.312	39531.8
668.662	39823.09
669.011	39702.64
669.361	39586.94
669.711	39547.17
670.06	39395.98
670.41	39357.57
670.76	39436.43
671.109	39575.64
671.459	39544.91
671.808	39415.64
672.157	39483.67
672.507	39221.75
672.856	39202.09
673.205	39330.67
673.554	39360.5
673.904	39320.73
674.253	39516.21
674.602	39296.1
674.951	38774.08
675.3	38667.64
675.649	39119.83
675.998	39200.51
676.346	39132.49
676.695	39293.61
677.044	38975.88
677.393	39085.48
677.741	39094.97
678.09	39180.4
678.438	38946.96
678.787	39019.5
679.135	38910.57
679.484	38719.17
679.832	39022.21
680.181	38737.7
680.529	38865.38
680.877	38742.44
681.225	38606.17
681.573	38893.85
681.922	38610.92
682.27	38560.3
682.618	38587.42
682.966	38520.98
683.314	38499.96
683.661	38338.84
684.009	38245.73
684.357	38010.71
684.705	38077.37
685.053	38159.18
685.4	38061.33
685.748	37829.02
686.095	37831.73
686.443	37656.59
686.79	37775.91
687.138	38028.11
687.485	37783.6
687.832	37610.72
688.18	37652.3
688.527	37388.58
688.874	37389.03
689.221	37379.54
689.568	37269.26
689.915	37224.29
690.262	37240.79
690.609	37205.08
690.956	37056.16
691.303	36880.57
691.65	36696.62
691.997	36741.59
692.344	36497.08
692.69	36537.75
693.037	36532.56
693.383	36268.83
693.73	36450.07
694.077	36171.21
694.423	36133.24
694.769	36066.35
695.116	35926.47
695.462	35939.35
695.808	35896.87
696.155	35791.33
696.501	35546.14
696.847	35700.26
697.193	35407.61
697.539	35510.89
697.885	35335.75
698.231	35153.16
698.577	35209.2
698.923	35132.37
699.269	34928.98
699.614	34610.35
699.96	34698.25
700.306	34665.26
700.651	34617.35
700.997	34424.14
701.342	34367.64
701.688	34330.35
702.033	34259.62
702.379	34163.35
702.724	34070.02
703.069	34182.79
703.415	33806.3
703.76	33805.4
704.105	33792.29
704.45	33766.08
704.795	33452.41
705.14	33561.79
705.485	33430.94
705.83	33316.37
706.175	33328.8
706.52	33265.75
706.865	33152.76
707.209	33174.45
707.554	33109.6
707.899	33104.62
708.243	32889.94
708.588	32851.07
708.932	32674.8
709.277	32561.14
709.621	32703.5
709.966	32469.39
710.31	32444.98
710.654	32190.07
710.998	32268.71
711.342	32308.71
711.687	32083.86
712.031	31982.17
712.375	31891.77
712.719	31973.58
713.063	31983.75
713.407	32048.61
713.75	31791.66
714.094	31867.59
714.438	31640.03
714.782	31700.37
715.125	31426.02
715.469	31602.74
715.812	31336.08
716.156	31315.97
716.499	31243.2
716.843	31299.02
717.186	31064.9
717.53	31137.67
717.873	31197.1
718.216	31055.64
718.559	30928.18
718.902	30729.55
719.246	30802.09
719.589	30661.52
719.932	30529.78
720.275	30544.47
720.617	30677.12
720.96	30550.34
721.303	30513.96
721.646	30618.59
721.989	30299.05
722.331	30417.91
722.674	30269.22
723.016	30318.71
723.359	30211.82
723.701	30386.5
724.044	30089.11
724.386	29946.06
724.729	30145.61
725.071	29910.58
725.413	29979.73
725.755	29920.98
726.097	29799.4
726.439	29613.19
726.782	29720.08
727.124	29828.1
727.465	29597.15
727.807	29468.79
728.149	29472.63
728.491	29482.57
728.833	29523.25
729.175	29296.81
729.516	29241.45
729.858	29281.45
730.199	29247.32
730.541	29216.82
730.882	29135.69
731.224	29227.21
731.565	29015.01
731.906	28965.75
732.248	29051.17
732.589	28852.31
732.93	28753.55
733.271	28834.23
733.612	28763.27
733.953	28849.14
734.294	28647.34
734.635	28639.2
734.976	28682.14
735.317	28525.99
735.658	28586.78
735.999	28501.36
736.339	28429.49
736.68	28513.78
737.021	28510.85
737.361	28310.85
737.702	28419.1
738.042	28369.38
738.383	28232.89
738.723	28313.79
739.063	28084.64
739.404	28150.4
739.744	28039.45
740.084	27949.28
740.424	28062.95
740.764	27980.01
741.104	28000.35
741.444	27860.02
741.784	27794.48
742.124	27781.37
742.464	27840.13
742.804	27720.36
743.143	27643.3
743.483	27663.19
743.823	27550.87
744.162	27515.62
744.502	27517.2
744.841	27399.92
745.181	27557.2
745.52	27385.68
745.86	27644.88
746.199	27342.29
746.538	27360.82
746.877	27281.95
747.216	27290.77
747.556	27148.17
747.895	27207.83
748.234	27110.66
748.573	27081.51
748.911	26967.16
749.25	26921.28
749.589	26926.26
749.928	26945.01
750.267	26898.46
750.605	26869.76
750.944	26770.78
751.283	26711.8
751.621	26679.03
751.96	26561.29
752.298	26497.57
752.636	26590.22
752.975	26335.76
753.313	26235.43
753.651	26511.8
753.989	26279.72
754.327	26300.51
754.666	26121.08
755.004	26204.92
755.342	26123.79
755.679	26072.49
756.017	25847.87
756.355	26029.56
756.693	25866.17
