Data from hue_28_FLMS001491_00053.txt Node
Date: Tue Feb 07 17:17:27 GMT 2017
User: dcchb
Spectrometer: FLMS00149
Trigger mode: 0
Integration Time (sec): 2.000000E-2
Scans to average: 10
Electric dark correction enabled: true
Nonlinearity correction enabled: false
Boxcar width: 0
XAxis mode: Wavelengths
Number of Pixels in Spectrum: 2048
>>>>>Begin Spectral Data<<<<<
341.393	-9.05
341.776	-9.05
342.16	-9.05
342.543	-51.09
342.927	-31.43
343.31	-80.92
343.693	-62.84
344.077	-56.74
344.46	-61.71
344.843	-57.64
345.226	-41.14
345.61	-44.76
345.993	-18.32
346.376	6.77
346.759	12.41
347.142	38.63
347.525	16.48
347.908	51.06
348.291	90.83
348.674	93.09
349.057	114.79
349.44	117.04
349.823	142.36
350.206	185.07
350.588	224.39
350.971	221.22
351.354	226.87
351.737	245.18
352.119	256.93
352.502	282.24
352.884	287.44
353.267	306.87
353.65	288.79
354.032	310.03
354.414	312.52
354.797	303.48
355.179	329.02
355.562	323.82
355.944	343.03
356.326	340.77
356.709	335.34
357.091	360.65
357.473	359.98
357.855	359.07
358.238	362.69
358.62	370.15
359.002	339.41
359.384	357.49
359.766	354.78
360.148	351.39
360.53	352.74
360.912	353.87
361.294	341.22
361.676	347.55
362.057	359.75
362.439	340.09
362.821	348.9
363.203	335.8
363.584	326.98
363.966	338.28
364.348	352.07
364.729	340.54
365.111	333.08
365.493	336.47
365.874	322.24
366.256	328.11
366.637	327.66
367.019	338.96
367.4	349.81
367.781	354.78
368.163	315.68
368.544	318.17
368.925	330.82
369.306	330.6
369.688	331.28
370.069	311.84
370.45	327.89
370.831	313.2
371.212	328.79
371.593	329.69
371.974	323.82
372.355	328.11
372.736	325.18
373.117	345.06
373.498	316.36
373.879	336.7
374.26	348.45
374.641	340.54
375.021	321.79
375.402	338.28
375.783	336.02
376.163	357.26
376.544	348
376.925	339.19
377.305	344.61
377.686	346.87
378.066	330.15
378.447	335.12
378.827	344.16
379.208	327.89
379.588	346.19
379.968	347.32
380.349	332.63
380.729	326.76
381.109	348.23
381.489	360.88
381.87	352.74
382.25	354.78
382.63	338.96
383.01	374.21
383.39	342.35
383.77	350.26
384.15	369.92
384.53	356.13
384.91	349.81
385.29	356.36
385.67	367.66
386.049	375.57
386.429	372.63
386.809	365.4
387.189	345.51
387.568	359.52
387.948	366.98
388.328	366.76
388.707	356.13
389.087	363.59
389.466	353.2
389.846	371.05
390.225	376.02
390.605	354.33
390.984	373.31
391.363	387.77
391.743	376.02
392.122	401.11
392.501	390.48
392.881	371.05
393.26	379.41
393.639	362.69
394.018	375.57
394.397	397.04
394.776	397.94
395.155	389.35
395.534	385.51
395.913	392.97
396.292	383.7
396.671	394.33
397.05	387.32
397.429	391.84
397.808	388.9
398.186	383.93
398.565	393.2
398.944	399.98
399.323	401.56
399.701	404.72
400.08	395.23
400.458	424.38
400.837	404.27
401.215	412.4
401.594	408.79
401.972	435.68
402.351	414.21
402.729	412.86
403.107	405.17
403.486	438.39
403.864	412.18
404.242	433.65
404.62	426.19
404.999	408.11
405.377	428.45
405.755	417.38
406.133	455.34
406.511	441.56
406.889	425.06
407.267	440.65
407.645	442.69
408.023	421.22
408.401	441.56
408.779	432.52
409.156	449.01
409.534	429.13
409.912	453.31
410.29	456.47
410.667	458.5
411.045	463.48
411.422	449.69
411.8	457.83
412.178	484.49
412.555	451.27
412.933	459.86
413.31	477.04
413.687	467.77
414.065	493.53
414.442	478.17
414.819	475.23
415.197	470.26
415.574	493.53
415.951	508.9
416.328	492.63
416.705	479.75
417.082	511.16
417.46	491.72
417.837	489.46
418.214	499.18
418.591	515.68
418.967	500.09
419.344	535.11
419.721	499.18
420.098	522.01
420.475	537.37
420.852	506.64
421.228	527.43
421.605	517.03
421.982	539.18
422.358	541.89
422.735	541.89
423.111	541.89
423.488	544.15
423.864	543.93
424.241	554.1
424.617	550.03
424.994	566.3
425.37	563.36
425.746	564.26
426.123	563.59
426.499	577.6
426.875	562
427.251	552.74
427.627	578.5
428.003	589.35
428.379	590.25
428.756	605.85
429.132	593.42
429.507	608.11
429.883	598.61
430.259	601.33
430.635	627.99
431.011	618.05
431.387	614.43
431.763	637.03
432.138	640.87
432.514	633.87
432.89	634.77
433.265	655.79
433.641	641.32
434.016	658.05
434.392	647.88
434.767	662.12
435.143	666.86
435.518	658.27
435.894	684.04
436.269	689.69
436.644	699.4
437.02	697.82
437.395	694.43
437.77	708.67
438.145	695.33
438.52	712.74
438.895	717.93
439.271	701.66
439.646	732.85
440.021	738.27
440.395	734.88
440.77	722.45
441.145	720.19
441.52	755.9
441.895	766.97
442.27	728.1
442.645	750.7
443.019	756.8
443.394	776.46
443.769	781.21
444.143	789.12
444.518	790.02
444.892	785.73
445.267	787.76
445.641	771.49
446.016	783.24
446.39	778.27
446.764	778.72
447.139	789.57
447.513	765.39
447.887	769.68
448.262	809.68
448.636	816.24
449.01	820.53
449.384	831.83
449.758	821.21
450.132	847.42
450.506	837.48
450.88	834.77
451.254	827.53
451.628	852.62
452.002	867.31
452.376	853.75
452.75	853.97
453.123	876.12
453.497	892.39
453.871	904.14
454.244	901.66
454.618	867.53
454.992	905.95
455.365	924.48
455.739	955.44
456.112	933.07
456.486	960.86
456.859	968.1
457.232	978.94
457.606	970.58
457.979	957.47
458.352	997.47
458.725	985.72
459.099	990.92
459.472	1037.02
459.845	1030.47
460.218	1022.56
460.591	1054.2
460.964	1070.01
461.337	1077.92
461.71	1081.54
462.083	1103.91
462.456	1081.09
462.829	1077.7
463.201	1102.56
463.574	1160.18
463.947	1141.65
464.32	1159.5
464.692	1167.86
465.065	1165.83
465.438	1188.2
465.81	1203.57
466.183	1204.47
466.555	1229.56
466.928	1220.74
467.3	1245.38
467.672	1256.45
468.045	1301.42
468.417	1291.93
468.789	1317.69
469.161	1335.54
469.534	1378.48
469.906	1363.57
470.278	1383.68
470.65	1403.56
471.022	1416.45
471.394	1459.61
471.766	1460.96
472.138	1500.51
472.51	1498.93
472.882	1548.19
473.253	1566.95
473.625	1611.69
473.997	1611.02
474.369	1645.59
474.74	1663.22
475.112	1697.34
475.484	1709.32
475.855	1756.78
476.227	1782.09
476.598	1825.7
476.97	1817.34
477.341	1883.78
477.713	1932.14
478.084	1961.06
478.455	1989.09
478.827	1989.54
479.198	2104.11
479.569	2084.68
479.94	2160.16
480.311	2191.79
480.682	2240.15
481.053	2314.28
481.424	2373.03
481.795	2375.52
482.166	2433.14
482.537	2481.95
482.908	2526.7
483.279	2525.8
483.65	2617.09
484.021	2679.92
484.391	2767.37
484.762	2753.81
485.133	2745.45
485.503	2838.1
485.874	2916.07
486.244	2956.52
486.615	3064.99
486.985	3073.58
487.356	3151.99
487.726	3219.79
488.097	3249.62
488.467	3314.02
488.837	3398.54
489.207	3425.66
489.578	3545.43
489.948	3593.11
490.318	3601.93
490.688	3678.31
491.058	3675.82
491.428	3752.88
491.798	3791.3
492.168	3907.45
492.538	3931.63
492.908	4006.66
493.278	4083.27
493.648	4081.69
494.017	4133.44
494.387	4215.24
494.757	4233.32
495.126	4328.91
495.496	4380.44
495.866	4367.78
496.235	4462.24
496.605	4452.3
496.974	4511.05
497.344	4582.46
497.713	4603.93
498.082	4656.13
498.452	4689.81
498.821	4772.52
499.19	4809.58
499.559	4837.15
499.928	4865.62
500.298	4895.22
500.667	4952.17
501.036	4939.52
501.405	5046.41
501.774	5056.35
502.143	5064.26
502.512	5106.07
502.88	5111.26
503.249	5216.57
503.618	5216.12
503.987	5260.86
504.356	5261.54
504.724	5288.21
505.093	5351.48
505.462	5365.49
505.83	5431.26
506.199	5390.8
506.567	5506.73
506.936	5457.7
507.304	5565.04
507.672	5581.99
508.041	5606.39
508.409	5693.85
508.777	5704.69
509.145	5758.03
509.514	5683.9
509.882	5796.9
510.25	5764.58
510.618	5766.39
510.986	5761.19
511.354	5873.05
511.722	5874.63
512.09	5964.35
512.458	5984.01
512.826	5974.07
513.193	5994.86
513.561	6074.18
513.929	6067.17
514.297	6176.32
514.664	6113.27
515.032	6163.44
515.4	6236.66
515.767	6253.38
516.135	6205.7
516.502	6240.05
516.869	6293.61
517.237	6325.7
517.604	6301.52
517.972	6394.17
518.339	6398.91
518.706	6355.52
519.073	6436.2
519.44	6474.17
519.808	6487.95
520.175	6433.26
520.542	6556.65
520.909	6573.15
521.276	6569.3
521.643	6624.9
522.009	6657.66
522.376	6660.15
522.743	6704.44
523.11	6768.4
523.477	6892.91
523.843	6779.24
524.21	6913.25
524.577	6983.31
524.943	6974.04
525.31	6976.07
525.676	7046.35
526.043	7132.91
526.409	7055.39
526.776	7112.57
527.142	7174.71
527.508	7173.13
527.874	7226.24
528.241	7290.64
528.607	7297.87
528.973	7339.45
529.339	7346.46
529.705	7426.46
530.071	7483.4
530.437	7513.23
530.803	7484.31
531.169	7605.89
531.535	7622.16
531.901	7602.5
532.267	7609.73
532.632	7720.69
532.998	7794.81
533.364	7803.85
533.73	7785.54
534.095	7810.85
534.461	7887.69
534.826	7895.82
535.192	7940.57
535.557	8051.3
535.923	7999.78
536.288	8064.86
536.653	8018.98
537.019	8074.35
537.384	8116.83
537.749	8191.86
538.114	8182.37
538.479	8154.57
538.845	8289.26
539.21	8231.86
539.575	8335.81
539.94	8334.68
540.305	8334.68
540.67	8368.81
541.034	8419.65
541.399	8376.26
541.764	8546.2
542.129	8516.82
542.494	8592.75
542.858	8643.15
543.223	8605.18
543.587	8686.09
543.952	8661.68
544.316	8739.42
544.681	8748.23
545.045	8800.43
545.41	8898.51
545.774	8838.17
546.138	8927.43
546.503	8937.6
546.867	8985.51
547.231	8990.03
547.595	9058.96
547.959	9120.2
548.324	9096.7
548.688	9054.44
549.052	9165.17
549.416	9204.49
549.779	9264.38
550.143	9285.39
550.507	9320.19
550.871	9333.53
551.235	9359.74
551.599	9456.46
551.962	9426.86
552.326	9410.13
552.689	9545.5
553.053	9444.94
553.417	9481.09
553.78	9653.74
554.143	9544.37
554.507	9675.21
554.87	9661.88
555.234	9751.59
555.597	9660.75
555.96	9821.42
556.323	9767.64
556.686	9759.96
557.05	9793.63
557.413	9886.73
557.776	9872.27
558.139	9936.67
558.502	9936.67
558.865	9928.09
559.228	10065.26
559.59	9966.73
559.953	10091.47
560.316	10162.88
560.679	10165.82
561.041	10207.85
561.404	10250.79
561.767	10307.96
562.129	10258.93
562.492	10400.62
562.854	10380.5
563.217	10422.31
563.579	10425.25
563.941	10517.9
564.304	10523.1
564.666	10544.34
565.028	10685.81
565.39	10654.62
565.753	10674.51
566.115	10695.75
566.477	10806.93
566.839	10762.64
567.201	10797.44
567.563	10809.65
567.925	10975.97
568.287	10872.69
568.648	10930.32
569.01	11020.26
569.372	11076.3
569.734	11023.42
570.095	11122.63
570.457	11157.66
570.819	11273.36
571.18	11261.16
571.542	11317.2
571.903	11329.63
572.265	11426.8
572.626	11512.9
572.987	11490.31
573.349	11571.88
573.71	11687.14
574.071	11757.64
574.432	11904.98
574.794	11949.28
575.155	11887.36
575.516	12043.29
575.877	12099.33
576.238	12219.78
576.599	12258.87
576.96	12382.26
577.32	12425.87
577.681	12558.53
578.042	12756.71
578.403	12855.47
578.763	12848.69
579.124	12992.19
579.485	13190.37
579.845	13354.66
580.206	13408.45
580.566	13515.34
580.927	13694.54
581.287	13871.03
581.648	13983.35
582.008	14178.14
582.368	14346.95
582.728	14429.21
583.089	14726.6
583.449	14861.29
583.809	15086.37
584.169	15262.86
584.529	15405.46
584.889	15830.3
585.249	15899.45
585.609	16143.52
585.969	16411.76
586.329	16617.85
586.688	16911.86
587.048	17058.29
587.408	17395.91
587.768	17634.78
588.127	17978.04
588.487	18252.39
588.846	18593.17
589.206	18716.33
589.565	19030.45
589.925	19453.26
590.284	19619.58
590.643	20021.61
591.003	20253.92
591.362	20712.89
591.721	21011.18
592.08	21193.55
592.44	21669.7
592.799	21906.98
593.158	22253.41
593.517	22496.8
593.876	22972.94
594.235	23187.17
594.593	23596.43
594.952	24040.94
595.311	24104.66
595.67	24637.08
596.029	25057.63
596.387	25404.74
596.746	25754.79
597.104	25959.08
597.463	26360.87
597.822	26788.66
598.18	26919.05
598.538	27296.22
598.897	27680.61
599.255	27907.73
599.613	28616.63
599.972	28715.39
600.33	29014.59
600.688	29302.04
601.046	29751.29
601.404	30068.57
601.762	30335.91
602.12	30738.84
602.478	31020.41
602.836	31296.56
603.194	31457.01
603.552	31975.64
603.91	32044.79
604.268	32450.66
604.625	32619.47
604.983	33186.46
605.341	33233.46
605.698	33607.24
606.056	34035.93
606.413	34144.62
606.771	34442.92
607.128	34828
607.485	34838.84
607.843	35160.19
608.2	35631.37
608.557	35937.12
608.914	35932.37
609.272	36361.74
609.629	36768.74
609.986	36953.36
610.343	36859.81
610.7	37515.38
611.057	37587.02
611.414	37793.79
611.771	38079.44
612.127	38322.59
612.484	38352.42
612.841	38839.87
613.198	38792.86
613.554	39029.47
613.911	39417.25
614.267	39366.86
614.624	39618.15
614.98	39757.58
615.337	40144.69
615.693	40289.77
616.05	40303.56
616.406	40841.17
616.762	40711.68
617.118	40861.51
617.475	41047.27
617.831	41304.44
618.187	41452.23
618.543	41551.21
618.899	41847.25
619.255	41959.56
619.611	42012.67
619.967	42313.9
620.323	42432.99
620.678	42469.38
621.034	42595.02
621.39	42608.81
621.746	42673.67
622.101	43055.35
622.457	42929.93
622.812	43025.97
623.168	43346.42
623.523	43399.75
623.879	43610.36
624.234	43336.93
624.589	43618.73
624.945	43637.71
625.3	43808.33
625.655	43821.21
626.01	44001.31
626.365	44103.91
626.72	43987.3
627.075	44046.74
627.43	44108.43
627.785	44082.44
628.14	44334.64
628.495	44326.96
628.85	44268.88
629.205	44328.99
629.559	44578.02
629.914	44470.68
630.269	44477.91
630.623	44542.09
630.978	44419.38
631.332	44730.56
631.687	44831.12
632.041	44688.75
632.396	44864.79
632.75	44750.45
633.104	44700.05
633.459	44639.94
633.813	44709.32
634.167	44710.45
634.521	44832.25
634.875	44757.68
635.229	44728.08
635.583	44625.25
635.937	44648.98
636.291	44716.1
636.645	44836.77
636.999	44636.55
637.352	44742.76
637.706	44750.45
638.06	44794.29
638.413	44886.94
638.767	44711.13
639.121	44836.55
639.474	44561.98
639.828	44674.74
640.181	44729.43
640.534	44707.96
640.888	44630.9
641.241	44500.06
641.594	44520.17
641.947	44735.31
642.301	44597.68
642.654	44665.7
643.007	44654.86
643.36	44563.56
643.713	44675.87
644.066	44851.24
644.419	44552.71
644.771	44315.2
645.124	44000.86
645.477	43730.59
645.83	43558.84
646.182	43358.17
646.535	43399.75
646.888	43350.26
647.24	43227.1
647.593	43522.46
647.945	43432.74
648.298	43170.15
648.65	43329.24
649.002	43088.12
649.355	43324.5
649.707	43287.21
650.059	43404.27
650.411	43915.44
650.763	43905.5
651.115	44392.94
651.467	44147.53
651.819	44166.51
652.171	44135.55
652.523	43979.17
652.875	44081.54
653.227	43910.92
653.578	44308.43
653.93	44028.88
654.282	43967.87
654.633	43836.57
654.985	44012.16
655.337	43992.5
655.688	43973.07
656.039	44109.79
656.391	43802.68
656.742	43888.1
657.094	43752.06
657.445	44031.6
657.796	43943.24
658.147	43891.26
658.498	43819.17
658.849	43874.09
659.2	43842
659.551	43678.39
659.902	43895.33
660.253	43842.45
660.604	43917.25
660.955	43684.49
661.306	43765.61
661.656	43665.73
662.007	43791.15
662.358	43783.47
662.708	43881.09
663.059	43855.56
663.409	43535.34
663.76	43984.59
664.11	43844.48
664.461	43678.61
664.811	43792.73
665.161	43705.96
665.511	43744.15
665.862	43667.76
666.212	43800.19
666.562	43769.46
666.912	43721.1
667.262	43586.64
667.612	43605.39
667.962	43684.03
668.312	43702.79
668.662	43752.51
669.011	43653.75
669.361	43575.79
669.711	43585.05
670.06	43582.57
670.41	43504.38
670.76	43586.64
671.109	43563.81
671.459	43513.19
671.808	43431.61
672.157	43675.9
672.507	43368.79
672.856	43303.25
673.205	43409.24
673.554	43434.32
673.904	43365.63
674.253	43579.63
674.602	43477.03
674.951	42849.48
675.3	42676.15
675.649	43331.5
675.998	43220.77
676.346	43161.79
676.695	43424.61
677.044	43234.78
677.393	43235.01
677.741	43347.09
678.09	42989.36
678.438	43056.48
678.787	43185.74
679.135	43136.48
679.484	42845.19
679.832	42871.4
680.181	42738.3
680.529	42851.97
680.877	42720.44
681.225	42799.54
681.573	42887.67
681.922	42809.93
682.27	42693.1
682.618	42666.66
682.966	42542.37
683.314	42620.11
683.661	42431.86
684.009	42263.28
684.357	42211.08
684.705	42220.12
685.053	42318.65
685.4	42114.58
685.748	41959.79
686.095	42028.49
686.443	41802.05
686.79	41891.31
687.138	41891.31
687.485	41754.82
687.832	41579.68
688.18	41672.79
688.527	41513.24
688.874	41360.25
689.221	41502.4
689.568	41221.27
689.915	41245.46
690.262	41156.64
690.609	41057.21
690.956	40984.22
691.303	40947.16
691.65	40714.85
691.997	40791.46
692.344	40553.95
692.69	40388.98
693.037	40557.56
693.383	40266.27
693.73	40400.51
694.077	40172.04
694.423	40138.14
694.769	40053.62
695.116	39970.01
695.462	39813.18
695.808	39798.71
696.155	39842.1
696.501	39478.27
696.847	39607.76
697.193	39160.31
697.539	39407.09
697.885	39061.78
698.231	38970.49
698.577	38918.96
698.923	39007.77
699.269	38714
699.614	38556.71
699.96	38598.97
700.306	38575.92
700.651	38451.86
700.997	38301.35
701.342	38385.87
701.688	38327.34
702.033	38189.72
702.379	38048.25
702.724	38135.25
703.069	37968.93
703.415	37720.8
703.76	37597.87
704.105	37652.1
704.45	37685.32
704.795	37468.38
705.14	37268.16
705.485	37208.73
705.83	37092.12
706.175	37074.04
706.52	36963.08
706.865	36875.85
707.209	36807.61
707.554	36743.43
707.899	36793.59
708.243	36631.57
708.588	36580.27
708.932	36347.5
709.277	36390.44
709.621	36246.49
709.966	36066.16
710.31	36259.6
710.654	35943.9
710.998	35937.57
711.342	35933.28
711.687	35846.95
712.031	35780.29
712.375	35552.5
712.719	35686.73
713.063	35419.62
713.407	35641.08
713.75	35491.93
714.094	35394.76
714.438	35163.81
714.782	35352.73
715.125	35055.11
715.469	35240.42
715.812	34899.41
716.156	34866.19
716.499	34867.54
716.843	34884.04
717.186	34606.53
717.53	34739.41
717.873	34761.56
718.216	34590.26
718.559	34504.84
718.902	34251.06
719.246	34346.65
719.589	34255.58
719.932	34182.59
720.275	34208.8
720.617	34064.4
720.96	34134
721.303	34002.48
721.646	34108.69
721.989	33902.15
722.331	33988.47
722.674	33893.78
723.016	33920.9
723.359	33837.97
723.701	33834.8
724.044	33579.89
724.386	33453.34
724.729	33590.52
725.071	33539.89
725.413	33362.5
725.755	33331.31
726.097	33333.12
726.439	33148.49
726.782	33144.65
727.124	33298.09
727.465	33088.83
727.807	33120.24
728.149	32994.15
728.491	32973.13
728.833	33010.64
729.175	32830.08
729.516	32821.95
729.858	32732.46
730.199	32723.19
730.541	32675.28
730.882	32626.7
731.224	32669.86
731.565	32418.57
731.906	32426.48
732.248	32583.99
732.589	32256.76
732.93	32185.58
733.271	32257.22
733.612	32332.7
733.953	32329.98
734.294	32152.59
734.635	32138.35
734.976	32194.62
735.317	32000.73
735.658	31911.92
735.999	32036.88
736.339	31851.8
736.68	31983.1
737.021	31815.19
737.361	31688.19
737.702	31799.83
738.042	31664.24
738.383	31640.06
738.723	31704.69
739.063	31521.19
739.404	31592.6
739.744	31502.21
740.084	31395.09
740.424	31478.25
740.764	31377.01
741.104	31406.39
741.444	31193.74
741.784	31153.52
742.124	31222.89
742.464	31188.77
742.804	30966.63
743.143	31059.28
743.483	31110.81
743.823	30791.94
744.162	30853.86
744.502	30833.98
744.841	30771.83
745.181	30786.97
745.52	30718.5
745.86	30636.02
746.199	30690.25
746.538	30529.35
746.877	30620.42
747.216	30719.4
747.556	30535.45
747.895	30574.32
748.234	30395.34
748.573	30319.41
748.911	30293.88
749.25	30266.31
749.589	30320.32
749.928	30144.96
750.267	30278.06
750.605	30199.19
750.944	30111.74
751.283	30071.06
751.621	30056.6
751.96	29930.95
752.298	29810.73
752.636	29863.38
752.975	29747.9
753.313	29503.84
753.651	29758.98
753.989	29497.97
754.327	29663.39
754.666	29368.25
755.004	29486.22
755.342	29494.58
755.679	29429.95
756.017	29115.38
756.355	29268.82
756.693	29203.74
757.031	29135.72
757.368	29075.83
757.706	29017.75
758.044	28818.89
758.381	28966.46
758.719	28770.53
759.056	28918.1
759.394	28680.59
