Data from hue_80_FLMS001491_36.txt Node
Date: Mon Feb 06 15:22:55 GMT 2017
User: dcchb
Spectrometer: FLMS00149
Trigger mode: 0
Integration Time (sec): 2.000000E-2
Scans to average: 10
Electric dark correction enabled: true
Nonlinearity correction enabled: false
Boxcar width: 0
XAxis mode: Wavelengths
Number of Pixels in Spectrum: 2048
>>>>>Begin Spectral Data<<<<<
341.393	18.67
341.776	18.67
342.16	18.67
342.543	-57.71
342.927	-59.29
343.31	-64.04
343.693	-76.92
344.077	-54.32
344.46	-70.82
344.843	-45.51
345.226	-58.39
345.61	-63.59
345.993	-9.35
346.376	-4.6
346.759	14.15
347.142	32.68
347.525	56.64
347.908	67.03
348.291	64.09
348.674	102.29
349.057	110.65
349.44	141.61
349.823	156.75
350.206	170.98
350.588	189.97
350.971	204.2
351.354	214.37
351.737	240.13
352.119	234.71
352.502	276.52
352.884	272.45
353.267	291.21
353.65	296.86
354.032	289.17
354.414	287.82
354.797	323.97
355.179	319
355.562	293.69
355.944	302.05
356.326	310.42
356.709	346.35
357.091	333.92
357.473	352.67
357.855	364.43
358.238	325.1
358.62	333.24
359.002	330.3
359.384	351.54
359.766	352.45
360.148	340.7
360.53	321.49
360.912	322.84
361.294	310.64
361.676	329.85
362.057	324.88
362.439	309.96
362.821	321.94
363.203	325.78
363.584	333.47
363.966	328.04
364.348	347.7
364.729	316.29
365.111	320.58
365.493	307.48
365.874	339.57
366.256	328.04
366.637	317.42
367.019	323.52
367.4	304.31
367.781	298.44
368.163	326.46
368.544	316.74
368.925	320.13
369.306	327.82
369.688	316.52
370.069	303.86
370.45	310.19
370.831	313.35
371.212	313.81
371.593	304.09
371.974	324.43
372.355	312.45
372.736	319.23
373.117	330.3
373.498	315.16
373.879	307.7
374.26	297.99
374.641	316.97
375.021	309.06
375.402	316.97
375.783	320.58
376.163	324.43
376.544	323.3
376.925	342.28
377.305	330.3
377.686	318.1
378.066	317.42
378.447	327.59
378.827	331.66
379.208	313.58
379.588	318.1
379.968	334.6
380.349	318.32
380.729	335.27
381.109	346.8
381.489	334.82
381.87	337.08
382.25	315.16
382.63	337.76
383.01	336.63
383.39	353.8
383.77	356.52
384.15	335.73
384.53	345.22
384.91	347.02
385.29	344.76
385.67	353.8
386.049	359.45
386.429	332.56
386.809	345.67
387.189	351.54
387.568	353.13
387.948	345.67
388.328	356.29
388.707	352.67
389.087	346.57
389.466	345.67
389.846	356.74
390.225	351.09
390.605	389.06
390.984	371.2
391.363	356.52
391.743	368.04
392.122	363.52
392.501	374.59
392.881	364.2
393.26	376.4
393.639	370.53
394.018	394.48
394.397	382.96
394.776	389.51
395.155	376.85
395.534	395.16
395.913	369.85
396.292	374.14
396.671	373.01
397.05	391.32
397.429	376.4
397.808	382.96
398.186	375.05
398.565	391.77
398.944	378.66
399.323	378.66
399.701	380.47
400.08	390.64
400.458	397.64
400.837	383.63
401.215	402.39
401.594	399.68
401.972	395.39
402.351	393.58
402.729	424.99
403.107	414.37
403.486	408.04
403.864	402.16
404.242	407.81
404.62	389.06
404.999	402.16
405.377	434.93
405.755	432.45
406.133	407.59
406.511	406.68
406.889	429.73
407.267	432.67
407.645	415.27
408.023	433.8
408.401	438.1
408.779	436.97
409.156	441.03
409.534	442.39
409.912	423.63
410.29	454.14
410.667	450.75
411.045	452.33
411.422	418.89
411.8	470.86
412.178	457.53
412.555	449.85
412.933	464.08
413.31	453.24
413.687	463.18
414.065	473.58
414.442	502.05
414.819	474.71
415.197	474.48
415.574	460.69
415.951	452.78
416.328	466.8
416.705	487.13
417.082	475.83
417.46	485.78
417.837	490.07
418.214	476.51
418.591	477.64
418.967	503.18
419.344	514.03
419.721	516.96
420.098	515.38
420.475	491.43
420.852	510.41
421.228	504.31
421.605	508.6
421.982	528.04
422.358	541.82
422.735	504.76
423.111	516.74
423.488	543.18
423.864	535.27
424.241	547.47
424.617	525.55
424.994	521.26
425.37	539.56
425.746	546.79
426.123	531.2
426.499	544.31
426.875	557.19
427.251	566.23
427.627	576.62
428.003	579.79
428.379	574.82
428.756	563.97
429.132	590.41
429.507	605.78
429.883	584.76
430.259	589.28
430.635	596.06
431.011	613.91
431.387	619.11
431.763	626.79
432.138	633.8
432.514	644.42
432.89	638.99
433.265	638.54
433.641	641.48
434.016	643.51
434.392	654.81
434.767	670.86
435.143	641.71
435.518	663.17
435.894	662.27
436.269	671.08
436.644	687.81
437.02	680.58
437.395	696.17
437.77	698.88
438.145	704.98
438.52	695.26
438.895	701.14
439.271	717.86
439.646	748.82
440.021	726.22
440.395	740.23
440.77	732.1
441.145	736.62
441.52	746.34
441.895	751.76
442.27	755.15
442.645	757.86
443.019	779.56
443.394	784.98
443.769	772.1
444.143	796.73
444.518	783.17
444.892	772.55
445.267	808.71
445.641	797.41
446.016	807.8
446.39	799.89
446.764	811.19
447.139	804.87
447.513	801.48
447.887	810.97
448.262	813.68
448.636	810.06
449.01	828.37
449.384	816.16
449.758	847.58
450.132	885.54
450.506	843.28
450.88	829.05
451.254	858.88
451.628	871.76
452.002	887.8
452.376	881.7
452.75	901.59
453.123	899.33
453.497	895.94
453.871	905.88
454.244	931.87
454.618	953.34
454.992	959.66
455.365	948.82
455.739	947.01
456.112	950.62
456.486	979.55
456.859	991.08
457.232	1000.79
457.606	996.73
457.979	1018.65
458.352	1032.88
458.725	1032.66
459.099	1042.15
459.472	1074.24
459.845	1087.34
460.218	1081.92
460.591	1076.72
460.964	1089.6
461.337	1097.06
461.71	1152.65
462.083	1145.42
462.456	1151.98
462.829	1175.93
463.201	1184.97
463.574	1182.03
463.947	1203.5
464.32	1212.54
464.692	1251.41
465.065	1239.88
465.438	1279.43
465.81	1312.88
466.183	1307.45
466.555	1317.39
466.928	1345.64
467.3	1343.16
467.672	1374.57
468.045	1405.08
468.417	1413.21
468.789	1404.85
469.161	1448.92
469.534	1456.37
469.906	1539.31
470.278	1498.41
470.65	1545.86
471.022	1576.14
471.394	1660.21
471.766	1636.26
472.138	1659.53
472.51	1686.65
472.882	1706.31
473.253	1780.43
473.625	1793.77
473.997	1831.73
474.369	1855.01
474.74	1937.04
475.112	1921.45
475.484	1995.79
475.855	2013.65
476.227	2101.33
476.598	2139.52
476.97	2200.54
477.341	2246.64
477.713	2276.69
478.084	2295.22
478.455	2391.49
478.827	2437.37
479.198	2558.72
479.569	2569.79
479.94	2687.75
480.311	2713.74
480.682	2823.12
481.053	2920.97
481.424	2988.99
481.795	3065.15
482.166	3119.16
482.537	3225.14
482.908	3302.88
483.279	3375.87
483.65	3454.97
484.021	3564.79
484.391	3645.47
484.762	3749.87
485.133	3829.65
485.503	3979.25
485.874	4043.88
486.244	4155.96
486.615	4287.94
486.985	4357.99
487.356	4486.12
487.726	4555.5
488.097	4778.55
488.467	4819.22
488.837	4916.62
489.207	5087.24
489.578	5222.83
489.948	5311.19
490.318	5418.76
490.688	5556.61
491.058	5679.77
491.428	5820.33
491.798	5947.1
492.168	6083.15
492.538	6210.6
492.908	6354.32
493.278	6508.67
493.648	6538.27
494.017	6679.29
494.387	6833.63
494.757	7006.74
495.126	7136
495.496	7195.88
495.866	7366.5
496.235	7494.63
496.605	7644.91
496.974	7742.54
497.344	7920.61
497.713	7983.43
498.082	8130.32
498.452	8321.28
498.821	8347.04
499.19	8485.79
499.559	8554.04
499.928	8705.68
500.298	8846.01
500.667	8938.21
501.036	8971.43
501.405	9099.11
501.774	9224.08
502.143	9336.62
502.512	9406.67
502.88	9557.4
503.249	9648.25
503.618	9747.23
503.987	9776.38
504.356	9909.03
504.724	10102.47
505.093	10061.57
505.462	10207.78
505.83	10300.66
506.199	10486.42
506.567	10627.21
506.936	10534.1
507.304	10748.79
507.672	10846.18
508.041	10954.88
508.409	10965.5
508.777	11095.22
509.145	11241.65
509.514	11258.83
509.882	11382.44
510.25	11427.86
510.618	11500.86
510.986	11519.39
511.354	11675.77
511.722	11733.62
512.09	11875.08
512.458	11886.61
512.826	12003.67
513.193	12047.06
513.561	12078.24
513.929	12195.07
514.297	12299.7
514.664	12400.95
515.032	12377.67
515.4	12534.5
515.767	12616.76
516.135	12677.55
516.502	12616.76
516.869	12833.02
517.237	12881.16
517.604	12820.82
517.972	12976.98
518.339	13045
518.706	13046.58
519.073	13104.66
519.44	13176.29
519.808	13322.05
520.175	13182.39
520.542	13449.28
520.909	13383.74
521.276	13564.08
521.643	13617.64
522.009	13655.38
522.376	13702.61
522.743	13828.25
523.11	13902.37
523.477	14054.01
523.843	14024.63
524.21	14211.29
524.577	14298.75
524.943	14226.21
525.31	14256.49
525.676	14428.69
526.043	14501.45
526.409	14511.4
526.776	14661.9
527.142	14566.54
527.508	14684.5
527.874	14676.37
528.241	14700.09
528.607	14784.61
528.973	14823.71
529.339	14820.09
529.705	14924.04
530.071	15066.19
530.437	15097.15
530.803	15150.7
531.169	15129.23
531.535	15047.88
531.901	15110.25
532.267	15143.25
532.632	15244.49
532.998	15240.64
533.364	15281.32
533.73	15201.55
534.095	15332.39
534.461	15417.36
534.826	15345.05
535.192	15393.86
535.557	15466.63
535.923	15422.33
536.288	15358.83
536.653	15437.48
537.019	15403.35
537.384	15392.73
537.749	15404.03
538.114	15436.12
538.479	15488.77
538.845	15485.84
539.21	15479.06
539.575	15497.36
539.94	15545.04
540.305	15454.88
540.67	15438.61
541.034	15471.37
541.399	15415.78
541.764	15539.39
542.129	15545.72
542.494	15538.94
542.858	15440.64
543.223	15461.66
543.587	15496.91
543.952	15474.31
544.316	15459.17
544.681	15465.05
545.045	15504.59
545.41	15398.38
545.774	15545.27
546.138	15431.15
546.503	15489.45
546.867	15400.64
547.231	15507.76
547.595	15438.61
547.959	15478.38
548.324	15444.25
548.688	15491.49
549.052	15432.73
549.416	15500.3
549.779	15473.86
550.143	15343.92
550.507	15467.76
550.871	15544.14
551.235	15425.05
551.599	15470.69
551.962	15446.06
552.326	15465.05
552.689	15550.01
553.053	15439.06
553.417	15451.03
553.78	15577.13
554.143	15520.64
554.507	15517.47
554.87	15458.04
555.234	15626.4
555.597	15484.48
555.96	15458.49
556.323	15560.86
556.686	15524.03
557.05	15567.42
557.413	15602.67
557.776	15557.92
558.139	15642.22
558.502	15625.72
558.865	15592.5
559.228	15771.03
559.59	15675.21
559.953	15633.85
560.316	15792.27
560.679	15737.13
561.041	15818.48
561.404	15908.65
561.767	15942.55
562.129	15848.76
562.492	16029.32
562.854	15951.81
563.217	15867.52
563.579	15950.23
563.941	16039.27
564.304	16030.68
564.666	16103.22
565.028	16107.06
565.39	16127.63
565.753	16172.6
566.115	16225.25
566.477	16286.94
566.839	16267.28
567.201	16331.24
567.563	16287.62
567.925	16420.5
568.287	16349.77
568.648	16432.93
569.01	16491.46
569.372	16606.71
569.734	16511.35
570.095	16537.33
570.457	16591.12
570.819	16588.18
571.18	16660.49
571.542	16706.82
571.903	16716.09
572.265	16746.59
572.626	16754.95
572.987	16748.85
573.349	16808.29
573.71	16916.76
574.071	16881.51
574.432	16896.87
574.794	17021.16
575.155	16897.78
575.516	16767.61
575.877	16982.07
576.238	16991.56
576.599	17035.17
576.96	16970.32
577.32	17058.68
577.681	17031.11
578.042	17053.25
578.403	17102.06
578.763	17123.08
579.124	17103.42
579.485	17070.65
579.845	17217.09
580.206	17067.72
580.566	17143.19
580.927	17103.42
581.287	17178.45
581.648	17208.5
582.008	17286.92
582.368	17251.44
582.728	17222.51
583.089	17085.57
583.449	17108.17
583.809	17182.06
584.169	17246.24
584.529	17114.95
584.889	17311.1
585.249	17085.34
585.609	17084.66
585.969	17169.41
586.329	17060.26
586.688	17118.79
587.048	17133.93
587.408	17124.66
587.768	17110.43
588.127	17109.52
588.487	17013.93
588.846	17084.44
589.206	16997.43
589.565	17046.92
589.925	17099.13
590.284	17126.02
590.643	17131.22
591.003	17044.66
591.362	17119.47
591.721	17203.3
592.08	17079.01
592.44	17135.28
592.799	17148.16
593.158	17034.5
593.517	17014.61
593.876	17047.83
594.235	17041.05
594.593	17018.9
594.952	17060.94
595.311	16963.76
595.67	17046.92
596.029	17047.15
596.387	17170.54
596.746	17065.91
597.104	17085.12
597.463	17036.76
597.822	17047.83
598.18	16973.25
598.538	16917.66
598.897	16932.13
599.255	16872.47
599.613	17108.39
599.972	16953.59
600.33	17037.21
600.688	16902.07
601.046	17064.55
601.404	17149.75
601.762	17084.66
602.12	17184.77
602.478	17098.45
602.836	17128.96
603.194	17035.85
603.552	17084.21
603.91	17082.63
604.268	17137.77
604.625	17081.95
604.983	17114.04
605.341	17090.54
605.698	17079.69
606.056	17173.02
606.413	17180.25
606.771	17200.37
607.128	17181.84
607.485	17114.04
607.843	17118.34
608.2	17247.6
608.557	17302.29
608.914	17172.12
609.272	17295.28
609.629	17302.96
609.986	17355.39
610.343	17312.23
610.7	17396.97
611.057	17282.4
611.414	17358.78
611.771	17417.99
612.127	17481.72
612.484	17459.34
612.841	17443.3
613.198	17455.05
613.554	17464.31
613.911	17627.25
614.267	17493.01
614.624	17552.45
614.98	17595.61
615.337	17535.05
615.693	17601.49
616.05	17562.62
616.406	17704.08
616.762	17620.69
617.118	17585.22
617.475	17546.8
617.831	17654.82
618.187	17700.01
618.543	17725.1
618.899	17833.34
619.255	17776.17
619.611	17796.74
619.967	17852.55
620.323	17776.85
620.678	17771.65
621.034	17633.8
621.39	17779.79
621.746	17756.28
622.101	17923.06
622.457	17765.78
622.812	17747.25
623.168	17891.42
623.523	17839.22
623.879	17898.65
624.234	17797.41
624.589	17772.33
624.945	17879.67
625.3	17941.59
625.655	17897.98
626.01	17881.93
626.365	17897.98
626.72	17989.05
627.075	17828.82
627.43	17862.27
627.785	17855.49
628.14	17792.67
628.495	17829.73
628.85	17855.26
629.205	17768.26
629.559	17863.4
629.914	17744.53
630.269	17779.33
630.623	17679.45
630.978	17652.78
631.332	17711.31
631.687	17900.91
632.041	17655.5
632.396	17815.94
632.75	17712.44
633.104	17769.84
633.459	17622.05
633.813	17589.96
634.167	17693.69
634.521	17651.65
634.875	17620.92
635.229	17691.2
635.583	17497.08
635.937	17540.7
636.291	17544.76
636.645	17502.05
636.999	17546.57
637.352	17599.23
637.706	17443.07
638.06	17447.82
638.413	17381.61
638.767	17370.76
639.121	17374.6
639.474	17354.49
639.828	17400.14
640.181	17372.34
640.534	17411.89
640.888	17239.24
641.241	17307.48
641.594	17264.09
641.947	17319.01
642.301	17218.22
642.654	17279.69
643.007	17250.31
643.36	17236.98
643.713	17171.22
644.066	17254.15
644.419	17062.52
644.771	16994.72
645.124	16885.12
645.477	16878.34
645.83	16744.11
646.182	16739.59
646.535	16606.48
646.888	16665.24
647.24	16543.21
647.593	16670.66
647.945	16638.12
648.298	16540.95
648.65	16468.18
649.002	16524
649.355	16617.78
649.707	16505.47
650.059	16646.03
650.411	16847.61
650.763	16799.93
651.115	17052.35
651.467	16981.62
651.819	17055.06
652.171	16986.59
652.523	16965.12
652.875	17038.79
653.227	16853.94
653.578	17046.02
653.93	16981.16
654.282	16929.87
654.633	16867.49
654.985	16932.13
655.337	16884.44
655.688	16903.43
656.039	16970.77
656.391	16804.45
656.742	16856.2
657.094	16813.94
657.445	16858
657.796	16943.2
658.147	16928.96
658.498	16962.86
658.849	16984.78
659.2	16970.99
659.551	16862.52
659.902	17026.13
660.253	16982.29
660.604	16932.8
660.955	16878.34
661.306	16863.2
661.656	16877.89
662.007	16959.02
662.358	16945.91
662.708	16907.27
663.059	16999.92
663.409	16824.56
663.76	17001.73
664.11	16950.43
664.461	17041.95
664.811	17006.02
665.161	17005.34
665.511	16922.63
665.862	16953.37
666.212	16971.22
666.562	16978
666.912	17027.26
667.262	16988.4
667.612	16921.28
667.962	16984.33
668.312	16874.27
668.662	17101.84
669.011	16916.31
669.361	16845.35
669.711	16914.5
670.06	16901.62
670.41	16805.8
670.76	16873.82
671.109	16885.57
671.459	16791.34
671.808	16777.55
672.157	16909.75
672.507	16734.62
672.856	16735.07
673.205	16829.76
673.554	16794.28
673.904	16905.01
674.253	16838.12
674.602	16809.19
674.951	16560.84
675.3	16501.4
675.649	16686.93
675.998	16781.62
676.346	16726.03
676.695	16803.32
677.044	16661.62
677.393	16617.11
677.741	16749.08
678.09	16642.42
678.438	16602.87
678.787	16598.57
679.135	16534.17
679.484	16509.31
679.832	16598.57
680.181	16439.93
680.529	16484.45
680.877	16464.12
681.225	16366.94
681.573	16545.92
681.922	16412.37
682.27	16375.98
682.618	16340.05
682.966	16319.49
683.314	16270.45
683.661	16198.59
684.009	16147.74
684.357	16108.64
684.705	16175.99
685.053	16156.78
685.4	16086.72
685.748	16048.53
686.095	16030
686.443	16002.21
686.79	15931.93
687.138	15999.49
687.485	15978.25
687.832	15785.04
688.18	15933.51
688.527	15863.23
688.874	15784.13
689.221	15732.83
689.568	15652.61
689.915	15656.9
690.262	15625.49
690.609	15560.41
690.956	15510.24
691.303	15463.46
691.65	15465.72
691.997	15389.34
692.344	15280.42
692.69	15261.89
693.037	15307.76
693.383	15176.01
693.73	15197.03
694.077	15068.9
694.423	15121.33
694.769	15055.56
695.116	14941.44
695.462	14886.3
695.808	14941.9
696.155	14992.74
696.501	14750.26
696.847	14736.7
697.193	14669.36
697.539	14703.94
697.885	14633.88
698.231	14541.91
698.577	14489.25
698.923	14483.83
699.269	14507.33
699.614	14307.11
699.96	14310.05
700.306	14310.95
700.651	14155.25
700.997	14172.65
701.342	14123.16
701.688	14102.37
702.033	14061.01
702.379	13976.95
702.724	13864.86
703.069	13970.17
703.415	13835.26
703.76	13818.53
704.105	13822.83
704.45	13794.81
704.795	13646.79
705.14	13582.16
705.485	13651.76
705.83	13711.19
706.175	13563.4
706.52	13539.9
706.865	13476.85
707.209	13431.43
707.554	13438.43
707.899	13422.16
708.243	13396.17
708.588	13302.16
708.932	13228.72
709.277	13203.18
709.621	13190.98
709.966	13159.12
710.31	13127.48
710.654	12997.54
710.998	13071.44
711.342	12998.22
711.687	12987.14
712.031	12963.42
712.375	12842.97
712.719	12932.23
713.063	12900.59
713.407	12834.61
713.75	12799.35
714.094	12848.62
714.438	12667.38
714.782	12775.17
715.125	12656.08
715.469	12672.58
715.812	12571.34
716.156	12596.87
716.499	12575.86
716.843	12607.95
717.186	12538.34
717.53	12478.23
717.873	12589.64
718.216	12531.56
718.559	12484.11
718.902	12401.85
719.246	12421.28
719.589	12409.08
719.932	12324.79
720.275	12381.28
720.617	12326.37
720.96	12295.41
721.303	12289.31
721.646	12310.1
721.989	12258.12
722.331	12225.36
722.674	12262.19
723.016	12276.88
723.359	12298.8
723.701	12248.63
724.044	12112.59
724.386	12060.16
724.729	12162.99
725.071	12101.29
725.413	12063.55
725.755	12108.98
726.097	12065.13
726.439	11960.05
726.782	12053.84
727.124	12108.98
727.465	12123.21
727.807	12006.61
728.149	12002.31
728.491	11951.69
728.833	12006.61
729.175	11951.69
729.516	11968.64
729.858	11941.52
730.199	11915.08
730.541	11830.34
730.882	11939.26
731.224	12027.62
731.565	11940.62
731.906	11862.65
732.248	11873.73
732.589	11873.95
732.93	11891.35
733.271	11853.84
733.612	11897.46
733.953	11892.03
734.294	11940.84
734.635	11835.08
734.976	11849.55
735.317	11797.35
735.658	11830.56
735.999	11842.99
736.339	11832.82
736.68	11896.55
737.021	11797.35
737.361	11794.86
737.702	11928.19
738.042	11885.25
738.383	11842.32
738.723	11875.76
739.063	11786.72
739.404	11936.1
739.744	11836.67
740.084	11843.9
740.424	11867.4
740.764	11849.1
741.104	11925.48
741.444	11885.48
741.784	11838.47
742.124	11895.65
742.464	11930.9
742.804	11912.14
743.143	11961.63
743.483	11998.02
743.823	11815.88
744.162	11924.12
744.502	12000.96
744.841	12034.4
745.181	12108.98
745.52	12054.97
745.86	12121.18
746.199	12088.18
746.538	12149.65
746.877	12262.42
747.216	12255.64
747.556	12157.11
747.895	12400.49
748.234	12391.23
748.573	12369.53
748.911	12485.91
749.25	12534.95
749.589	12497.21
749.928	12516.42
750.267	12653.14
750.605	12730.88
750.944	12690.43
751.283	12796.41
751.621	12871.44
751.96	12885.23
752.298	13036.18
752.636	13134.49
752.975	13120.7
753.313	13033.24
753.651	13324.76
753.989	13378.32
754.327	13404.53
754.666	13482.72
755.004	13664.87
755.342	13757.97
755.679	13907.35
756.017	13905.99
756.355	14023.5
