Data from hue_230_FLMS001491_00047.txt Node
Date: Tue Feb 07 16:37:17 GMT 2017
User: dcchb
Spectrometer: FLMS00149
Trigger mode: 0
Integration Time (sec): 2.000000E-2
Scans to average: 10
Electric dark correction enabled: true
Nonlinearity correction enabled: false
Boxcar width: 0
XAxis mode: Wavelengths
Number of Pixels in Spectrum: 2048
>>>>>Begin Spectral Data<<<<<
341.393	-13.84
341.776	-13.84
342.16	-13.84
342.543	-83.67
342.927	-60.39
343.31	-68.53
343.693	-65.14
344.077	-81.64
344.46	-51.13
344.843	-45.93
345.226	-49.55
345.61	-36.67
345.993	-17.46
346.376	11.47
346.759	20.96
347.142	13.5
347.525	39.26
347.908	47.85
348.291	78.81
348.674	96.66
349.057	107.51
349.44	136.21
349.823	141.18
350.206	146.83
350.588	193.84
350.971	210.79
351.354	214.63
351.737	234.97
352.119	234.06
352.502	256.66
352.884	253.27
353.267	268.64
353.65	270.67
354.032	284.23
354.414	288.75
354.797	280.61
355.179	304.34
355.562	311.57
355.944	313.38
356.326	315.19
356.709	330.1
357.091	329.88
357.473	342.53
357.855	333.95
358.238	319.71
358.62	324
359.002	333.72
359.384	332.59
359.766	326.71
360.148	312.7
360.53	351.8
360.912	322.65
361.294	310.67
361.676	332.82
362.057	327.17
362.439	285.36
362.821	326.49
363.203	325.81
363.584	284.46
363.966	329.2
364.348	305.25
364.729	299.14
365.111	307.28
365.493	325.58
365.874	313.38
366.256	306.6
366.637	318.35
367.019	308.18
367.4	303.89
367.781	321.52
368.163	298.69
368.544	288.98
368.925	295.3
369.306	304.12
369.688	295.3
370.069	303.21
370.45	310.9
370.831	320.84
371.212	307.28
371.593	305.47
371.974	297.34
372.355	291.01
372.736	315.19
373.117	305.25
373.498	303.44
373.879	299.14
374.26	291.24
374.641	284.46
375.021	305.02
375.402	326.04
375.783	300.95
376.163	315.87
376.544	327.62
376.925	300.95
377.305	317.22
377.686	276.09
378.066	317.68
378.447	308.86
378.827	318.13
379.208	339.14
379.588	309.99
379.968	298.69
380.349	325.81
380.729	321.74
381.109	325.58
381.489	315.19
381.87	317
382.25	336.88
382.63	328.97
383.01	310.9
383.39	304.12
383.77	325.81
384.15	335.98
384.53	327.62
384.91	326.49
385.29	322.65
385.67	334.4
386.049	327.17
386.429	335.75
386.809	327.39
387.189	327.17
387.568	338.69
387.948	340.05
388.328	342.08
388.707	330.56
389.087	347.96
389.466	358.13
389.846	343.66
390.225	343.66
390.605	349.76
390.984	361.29
391.363	339.6
391.743	352.25
392.122	360.61
392.501	339.14
392.881	357.45
393.26	354.96
393.639	364.91
394.018	354.28
394.397	369.43
394.776	340.73
395.155	368.52
395.534	366.49
395.913	373.94
396.292	369.65
396.671	375.98
397.05	390.44
397.429	376.2
397.808	391.57
398.186	380.95
398.565	359.03
398.944	372.14
399.323	368.3
399.701	392.7
400.08	391.12
400.458	394.74
400.837	386.83
401.215	394.74
401.594	413.27
401.972	403.55
402.351	403.1
402.729	408.52
403.107	391.12
403.486	416.43
403.864	414.62
404.242	406.49
404.62	427.28
404.999	404.9
405.377	447.16
405.755	423.66
406.133	428.18
406.511	403.55
406.889	438.8
407.267	440.16
407.645	432.47
408.023	436.32
408.401	453.72
408.779	467.5
409.156	475.41
409.534	460.95
409.912	455.07
410.29	481.74
410.667	495.98
411.045	462.08
411.422	484.22
411.8	506.82
412.178	508.63
412.555	507.5
412.933	537.78
413.31	517.22
413.687	521.51
414.065	536.88
414.442	547.5
414.819	551.57
415.197	539.82
415.574	552.92
415.951	559.48
416.328	551.57
416.705	581.62
417.082	570.1
417.46	582.3
417.837	624.56
418.214	606.26
418.591	589.76
418.967	625.24
419.344	616.65
419.721	628.85
420.098	626.37
420.475	634.5
420.852	634.28
421.228	650.55
421.605	665.69
421.982	675.18
422.358	691.9
422.735	700.94
423.111	698.46
423.488	706.59
423.864	717.66
424.241	729.19
424.617	749.75
424.994	735.07
425.37	751.34
425.746	759.25
426.123	748.85
426.499	764.22
426.875	786.59
427.251	794.27
427.627	821.16
428.003	842.63
428.379	823.65
428.756	844.44
429.132	855.51
429.507	868.4
429.883	866.81
430.259	889.19
430.635	886.02
431.011	897.55
431.387	915.4
431.763	959.24
432.138	963.99
432.514	979.35
432.89	947.04
433.265	997.21
433.641	997.43
434.016	1008.28
434.392	1030.2
434.767	1036.07
435.143	1035.17
435.518	1067.26
435.894	1076.07
436.269	1098.67
436.644	1126.69
437.02	1163.98
437.395	1149.97
437.77	1150.65
438.145	1166.69
438.52	1183.87
438.895	1193.13
439.271	1215.28
439.646	1218.89
440.021	1246.92
440.395	1278.55
440.77	1258.89
441.145	1295.28
441.52	1295.5
441.895	1312
442.27	1340.25
442.645	1350.87
443.019	1364.65
443.394	1360.59
443.769	1374.37
444.143	1380.02
444.518	1397.19
444.892	1388.16
445.267	1423.86
445.641	1416.63
446.016	1445.33
446.39	1425.89
446.764	1465.67
447.139	1459.34
447.513	1479
447.887	1490.75
448.262	1500.47
448.636	1534.37
449.01	1526.46
449.384	1520.81
449.758	1524.65
450.132	1563.97
450.506	1580.69
450.88	1574.37
451.254	1581.14
451.628	1619.79
452.002	1617.53
452.376	1644.19
452.75	1627.92
453.123	1613.69
453.497	1664.08
453.871	1660.01
454.244	1662.95
454.618	1719.9
454.992	1744.3
455.365	1750.41
455.739	1759.67
456.112	1783.17
456.486	1799.22
456.859	1815.26
457.232	1837.18
457.606	1874.24
457.979	1856.39
458.352	1928.48
458.725	1893.45
459.099	1921.7
459.472	1951.08
459.845	2001.92
460.218	2001.02
460.591	2010.96
460.964	2051.41
461.337	2061.13
461.71	2100.23
462.083	2140.45
462.456	2129.15
462.829	2147.91
463.201	2179.1
463.574	2144.29
463.947	2203.73
464.32	2228.59
464.692	2238.98
465.065	2267
465.438	2314.23
465.81	2333.44
466.183	2341.58
466.555	2390.84
466.928	2393.33
467.3	2426.32
467.672	2445.98
468.045	2513.78
468.417	2482.82
468.789	2475.58
469.161	2525.3
469.534	2554.45
469.906	2597.16
470.278	2618.63
470.65	2652.76
471.022	2692.53
471.394	2729.59
471.766	2764.84
472.138	2783.83
472.51	2817.27
472.882	2894.56
473.253	2892.07
473.625	2921.22
473.997	2996.47
474.369	3024.04
474.74	3028.34
475.112	3094.78
475.484	3097.94
475.855	3188.56
476.227	3205.96
476.598	3296.58
476.97	3309.46
477.341	3365.5
477.713	3404.37
478.084	3406.41
478.455	3482.11
478.827	3510.13
479.198	3599.85
479.569	3624.48
479.94	3692.95
480.311	3659.96
480.682	3766.17
481.053	3857.92
481.424	3917.81
481.795	3939.27
482.166	3995.54
482.537	4036.9
482.908	4090.23
483.279	4103.56
483.65	4152.38
484.021	4277.12
484.391	4283.67
484.762	4310.11
485.133	4330
485.503	4364.57
485.874	4523.44
486.244	4495.42
486.615	4594.17
486.985	4623.55
487.356	4684.11
487.726	4735.64
488.097	4810.89
488.467	4782.19
488.837	4892.7
489.207	4973.37
489.578	5009.76
489.948	5028.06
490.318	5080.71
490.688	5107.38
491.058	5125.68
491.428	5240.03
491.798	5269.18
492.168	5347.37
492.538	5344.66
492.908	5400.48
493.278	5444.32
493.648	5496.75
494.017	5563.19
494.387	5606.58
494.757	5585.79
495.126	5668.27
495.496	5644.31
495.866	5704.65
496.235	5733.8
496.605	5775.16
496.974	5840.92
497.344	5797.08
497.713	5875.72
498.082	5881.6
498.452	5942.16
498.821	5986.68
499.19	5979.45
499.559	6029.39
499.928	6040.01
500.298	6039.78
500.667	6123.85
501.036	6084.53
501.405	6136.51
501.774	6122.95
502.143	6189.61
502.512	6232.1
502.88	6242.04
503.249	6233.23
503.618	6187.13
503.987	6291.3
504.356	6265.09
504.724	6369.72
505.093	6329.95
505.462	6355.93
505.83	6400
506.199	6429.15
506.567	6481.58
506.936	6474.58
507.304	6475.48
507.672	6503.28
508.041	6496.95
508.409	6557.29
508.777	6619.88
509.145	6688.36
509.514	6604.06
509.882	6716.6
510.25	6630.96
510.618	6643.16
510.986	6663.5
511.354	6705.08
511.722	6717.28
512.09	6749.6
512.458	6718.64
512.826	6824.62
513.193	6832.53
513.561	6784.85
513.929	6824.17
514.297	6844.28
514.664	6945.75
515.032	6841.35
515.4	6878.63
515.767	6945.75
516.135	6917.05
516.502	6894.23
516.869	6948.91
517.237	6922.47
517.604	6904.39
517.972	6975.13
518.339	6964.28
518.706	6973.09
519.073	6984.39
519.44	6993.21
519.808	7007.22
520.175	7032.3
520.542	7125.63
520.909	7066.2
521.276	7050.38
521.643	7080.66
522.009	7052.41
522.376	7133.77
522.743	7148.23
523.11	7140.09
523.477	7193.88
523.843	7183.03
524.21	7220.77
524.577	7278.62
524.943	7275.68
525.31	7240.43
525.676	7282.24
526.043	7303.25
526.409	7255.57
526.776	7354.78
527.142	7317.49
527.508	7286.98
527.874	7372.18
528.241	7342.58
528.607	7348
528.973	7363.59
529.339	7322.69
529.705	7317.04
530.071	7388
530.437	7353.65
530.803	7382.57
531.169	7388.68
531.535	7357.04
531.901	7354.78
532.267	7384.83
532.632	7361.78
532.998	7391.84
533.364	7446.75
533.73	7375.57
534.095	7403.14
534.461	7370.37
534.826	7403.82
535.192	7321.56
535.557	7430.48
535.923	7311.62
536.288	7351.84
536.653	7358.39
537.019	7285.63
537.384	7290.6
537.749	7265.97
538.114	7238.62
538.479	7278.17
538.845	7200.66
539.21	7244.27
539.575	7321.11
539.94	7228.45
540.305	7281.33
540.67	7292.18
541.034	7198.4
541.399	7166.76
541.764	7222.58
542.129	7206.99
542.494	7146.42
542.858	7180.09
543.223	7175.57
543.587	7134.67
543.952	7143.26
544.316	7185.74
544.681	7098.29
545.045	7079.31
545.41	7112.3
545.774	7073.43
546.138	7038.85
546.503	7101.45
546.867	7059.42
547.231	7063.03
547.595	7017.16
547.959	7043.6
548.324	6999.08
548.688	7004.96
549.052	6949.59
549.416	6931.06
549.779	6960.66
550.143	6964.28
550.507	6967.44
550.871	6946.65
551.235	6879.99
551.599	6930.83
551.962	6906.65
552.326	6894.45
552.689	6891.74
553.053	6833.44
553.417	6829.82
553.78	6874.79
554.143	6832.53
554.507	6847.67
554.87	6833.21
555.234	6887.22
555.597	6809.48
555.96	6808.8
556.323	6810.39
556.686	6778.97
557.05	6844.06
557.413	6818.97
557.776	6914.11
558.139	6835.7
558.502	6824.4
558.865	6817.84
559.228	6807.22
559.59	6846.32
559.953	6785.08
560.316	6888.8
560.679	6896.71
561.041	6840.44
561.404	6826.43
561.767	6882.25
562.129	6890.61
562.492	6917.5
562.854	6863.49
563.217	6878.41
563.579	6900.78
563.941	6933.09
564.304	6910.95
564.666	6966.31
565.028	6970.61
565.39	6998.63
565.753	6943.94
566.115	6964.05
566.477	7010.83
566.839	7009.93
567.201	7026.2
567.563	7090.15
567.925	7042.24
568.287	7089.7
568.648	7074.79
569.01	7060.32
569.372	7160.43
569.734	7051.96
570.095	7122.47
570.457	7120.89
570.819	7135.35
571.18	7190.26
571.542	7167.66
571.903	7178.96
572.265	7161.79
572.626	7219.19
572.987	7196.59
573.349	7291.96
573.71	7233.43
574.071	7276.36
574.432	7300.09
574.794	7357.04
575.155	7334.21
575.516	7305.74
575.877	7333.76
576.238	7328.79
576.599	7349.35
576.96	7362.46
577.32	7408.34
577.681	7435
578.042	7397.49
578.403	7444.49
578.763	7457.6
579.124	7447.88
579.485	7509.12
579.845	7501.89
580.206	7547.77
580.566	7566.3
580.927	7523.36
581.287	7604.72
581.648	7556.58
582.008	7627.09
582.368	7541.44
582.728	7628.44
583.089	7592.96
583.449	7599.97
583.809	7658.27
584.169	7645.84
584.529	7666.86
584.889	7694.43
585.249	7632.74
585.609	7677.71
585.969	7710.7
586.329	7668.89
586.688	7798.16
587.048	7804.71
587.408	7697.82
587.768	7777.37
588.127	7723.13
588.487	7768.1
588.846	7792.06
589.206	7809
589.565	7791.6
589.925	7861.21
590.284	7836.57
590.643	7837.93
591.003	7843.58
591.362	7895.1
591.721	7867.31
592.08	7806.29
592.44	7875.44
592.799	7946.85
593.158	7865.5
593.517	7917.93
593.876	7835.22
594.235	7937.36
594.593	7907.76
594.952	7963.58
595.311	7909.79
595.67	7931.94
596.029	7962.45
596.387	8010.81
596.746	8022.11
597.104	7883.13
597.463	7978.04
597.822	8026.85
598.18	7951.37
598.538	7978.26
598.897	7986.17
599.255	7904.14
599.613	8060.3
599.972	7954.31
600.33	8018.49
600.688	8030.01
601.046	8081.09
601.404	8056.68
601.762	8045.83
602.12	8121.76
602.478	8082.22
602.836	8082.89
603.194	8122.22
603.552	8097.58
603.91	8063.69
604.268	8123.8
604.625	8046.96
604.983	8051.94
605.341	8060.52
605.698	8164.47
606.056	8107.75
606.413	8106.62
606.771	8100.07
607.128	8141.42
607.485	8111.14
607.843	8112.05
608.2	8194.98
608.557	8133.97
608.914	8107.98
609.272	8229.11
609.629	8171.93
609.986	8230.24
610.343	8249.9
610.7	8261.42
611.057	8242.44
611.414	8194.98
611.771	8264.81
612.127	8251.25
612.484	8240.63
612.841	8293.51
613.198	8277.69
613.554	8302.55
613.911	8349.78
614.267	8262.78
614.624	8324.92
614.98	8247.18
615.337	8334.64
615.693	8413.96
616.05	8333.96
616.406	8392.72
616.762	8337.35
617.118	8384.58
617.475	8349.1
617.831	8427.97
618.187	8385.26
618.543	8375.77
618.899	8432.72
619.255	8429.33
619.611	8427.97
619.967	8427.07
620.323	8492.38
620.678	8454.18
621.034	8371.93
621.39	8457.12
621.746	8449.66
622.101	8483.79
622.457	8399.95
622.812	8413.73
623.168	8509.55
623.523	8436.33
623.879	8534.86
624.234	8395.88
624.589	8415.77
624.945	8428.2
625.3	8428.87
625.655	8422.09
626.01	8467.29
626.365	8439.5
626.72	8458.7
627.075	8450.57
627.43	8458.7
627.785	8425.26
628.14	8419.84
628.495	8457.12
628.85	8426.39
629.205	8366.73
629.559	8406.05
629.914	8388.65
630.269	8446.5
630.623	8402.21
630.978	8411.47
631.332	8403.11
631.687	8389.33
632.041	8341.19
632.396	8309.56
632.75	8390.68
633.104	8329.22
633.459	8308.88
633.813	8281.99
634.167	8258.94
634.521	8300.74
634.875	8312.95
635.229	8317.24
635.583	8258.71
635.937	8247.41
636.291	8220.97
636.645	8292.83
636.999	8183.46
637.352	8293.96
637.706	8248.54
638.06	8210.12
638.413	8176.23
638.767	8211.03
639.121	8171.03
639.474	8146.4
639.828	8087.64
640.181	8153.4
640.534	8176.9
640.888	8052.84
641.241	8087.19
641.594	8093.06
641.947	8137.81
642.301	8097.81
642.654	8091.26
643.007	8124.48
643.36	8058.04
643.713	8065.27
644.066	8106.4
644.419	8057.81
644.771	8053.29
645.124	7905.05
645.477	7916.57
645.83	7872.28
646.182	7861.66
646.535	7896.69
646.888	7840.42
647.24	7731.72
647.593	7820.75
647.945	7828.89
648.298	7772.17
648.65	7751.15
649.002	7762.23
649.355	7802.9
649.707	7781.89
650.059	7794.31
650.411	7893.52
650.763	7920.87
651.115	7939.62
651.467	7950.24
651.819	7934.65
652.171	8018.94
652.523	7955.67
652.875	7951.15
653.227	7919.06
653.578	7960.64
653.93	7943.69
654.282	7875.89
654.633	7885.16
654.985	7951.6
655.337	7956.8
655.688	7943.92
656.039	7995.44
656.391	7903.01
656.742	7866.63
657.094	7917.02
657.445	7974.88
657.796	7890.81
658.147	7940.3
658.498	7931.71
658.849	7936.23
659.2	7959.28
659.551	7903.24
659.902	7961.99
660.253	7976.23
660.604	7925.84
660.955	7894.88
661.306	7936.91
661.656	7914.54
662.007	7971.49
662.358	7959.96
662.708	7917.25
663.059	7956.34
663.409	7902.11
663.76	7988.89
664.11	7879.06
664.461	7991.15
664.811	7984.14
665.161	7976.23
665.511	7919.06
665.862	7929.45
666.212	7960.64
666.562	8033.4
666.912	7969.9
667.262	7912.05
667.612	7925.61
667.962	7908.66
668.312	7921.54
668.662	7983.24
669.011	7907.53
669.361	7928.77
669.711	7919.51
670.06	7929.68
670.41	7932.84
670.76	7852.62
671.109	7961.32
671.459	7919.96
671.808	7862.34
672.157	7941.88
672.507	7810.59
672.856	7840.19
673.205	7910.92
673.554	7887.65
673.904	7782.56
674.253	7863.69
674.602	7830.02
674.951	7729.68
675.3	7713.86
675.649	7839.96
675.998	7814.43
676.346	7815.11
676.695	7866.63
677.044	7759.29
677.393	7802.22
677.741	7805.39
678.09	7813.07
678.438	7721.32
678.787	7728.55
679.135	7752.28
679.484	7657.82
679.832	7773.3
680.181	7724.03
680.529	7749.8
680.877	7721.55
681.225	7662.34
681.573	7736.92
681.922	7707.09
682.27	7643.81
682.618	7578.05
682.966	7618.5
683.314	7640.87
683.661	7571.5
684.009	7559.07
684.357	7522.01
684.705	7508.9
685.053	7478.84
685.4	7539.41
685.748	7495.34
686.095	7497.6
686.443	7442.01
686.79	7405.17
687.138	7459.86
687.485	7446.53
687.832	7409.69
688.18	7474.32
688.527	7361.33
688.874	7360.43
689.221	7314.33
689.568	7260.32
689.915	7268.45
690.262	7292.18
690.609	7291.5
690.956	7206.31
691.303	7256.93
691.65	7188.68
691.997	7239.98
692.344	7172.86
692.69	7121.34
693.037	7126.76
693.383	7035.24
693.73	7073.88
694.077	7030.49
694.423	7070.27
694.769	6999.31
695.116	6977.84
695.462	6960.66
695.808	6930.83
696.155	6980.32
696.501	6857.16
696.847	6855.36
697.193	6778.75
697.539	6837.05
697.885	6773.55
698.231	6786.66
698.577	6711.41
698.923	6743.72
699.269	6718.64
699.614	6639.09
699.96	6655.14
700.306	6585.53
700.651	6576.27
700.997	6568.58
701.342	6576.49
701.688	6505.08
702.033	6514.8
702.379	6486.1
702.724	6479.1
703.069	6499.43
703.415	6462.37
703.76	6401.81
704.105	6395.26
704.45	6386.67
704.795	6340.12
705.14	6373.34
705.485	6343.28
705.83	6250.85
706.175	6300.34
706.52	6244.75
706.865	6248.14
707.209	6260.57
707.554	6224.41
707.899	6214.7
708.243	6160.69
708.588	6159.56
708.932	6162.49
709.277	6150.52
709.621	6134.47
709.966	6091.53
710.31	6096.28
710.654	6064.42
710.998	6082.27
711.342	6066.68
711.687	6023.06
712.031	6007.7
712.375	6047.02
712.719	6037.07
713.063	5989.39
713.407	5998.66
713.75	5922.27
714.094	5977.19
714.438	5907.58
714.782	5966.79
715.125	5935.15
715.469	5910.3
715.812	5890.86
716.156	5869.39
716.499	5847.25
716.843	5871.65
717.186	5819.23
717.53	5896.74
717.873	5821.26
718.216	5827.59
718.559	5804.31
718.902	5746.46
719.246	5818.32
719.589	5803.63
719.932	5732.45
720.275	5770.64
720.617	5718.44
720.96	5753.01
721.303	5757.08
721.646	5802.28
721.989	5755.5
722.331	5765.89
722.674	5679.34
723.016	5695.61
723.359	5676.18
723.701	5646.12
724.044	5699.45
724.386	5642.96
724.729	5696.97
725.071	5666.91
725.413	5669.62
725.755	5703.07
726.097	5653.35
726.439	5677.76
726.782	5603.64
727.124	5659.68
727.465	5583.07
727.807	5632.56
728.149	5628.95
728.491	5637.08
728.833	5665.78
729.175	5635.73
729.516	5640.25
729.858	5631.66
730.199	5632.34
730.541	5643.86
730.882	5653.81
731.224	5640.7
731.565	5657.42
731.906	5668.27
732.248	5608.61
732.589	5572.23
732.93	5597.08
733.271	5622.17
733.612	5631.89
733.953	5597.54
734.294	5609.29
734.635	5552.34
734.976	5657.87
735.317	5546.01
735.658	5621.04
735.999	5637.08
736.339	5593.24
736.68	5634.6
737.021	5571.77
737.361	5560.7
737.702	5635.28
738.042	5647.25
738.383	5623.3
738.723	5670.08
739.063	5648.16
739.404	5626.91
739.744	5645.44
740.084	5610.87
740.424	5645.67
740.764	5640.02
741.104	5681.6
741.444	5660.36
741.784	5623.07
742.124	5761.6
742.464	5716.63
742.804	5689.74
743.143	5729.96
743.483	5742.17
743.823	5678.66
744.162	5790.53
744.502	5785.33
744.841	5804.99
745.181	5813.8
745.52	5813.58
745.86	5873.91
746.199	5861.03
746.538	5915.72
746.877	5959.11
747.216	6021.25
747.556	6014.47
747.895	6029.39
748.234	6058.54
748.573	6114.36
748.911	6159.1
749.25	6216.96
749.589	6175.15
749.928	6307.8
750.267	6298.76
750.605	6345.99
750.944	6423.05
751.283	6447.46
751.621	6473.9
751.96	6639.54
752.298	6613.33
752.636	6701.91
752.975	6695.59
753.313	6847
753.651	6960.89
753.989	6975.13
754.327	7065.75
754.666	7072.07
755.004	7219.87
755.342	7288.11
755.679	7348.68
756.017	7514.77
756.355	7616.92
756.693	7675.45
757.031	7799.74
757.368	7831.15
757.706	7954.08
758.044	8042.67
758.381	8171.03
758.719	8296.67
759.056	8399.27
759.394	8504.13
759.731	8586.84
760.068	8708.64
760.405	8853.95
760.743	8898.24
761.08	9082.64
761.417	9169.65
761.754	9265.24
762.091	9429.3
762.428	9530.77
762.765	9558.11
763.102	9792.68
763.438	9876.97
763.775	9956.07
764.112	10078.32
764.449	10265.66
764.785	10336.39
765.122	10408.48
765.458	10499.78
765.795	10576.84
766.131	10672.66
766.467	10789.26
766.804	10827.68
767.14	10978.19
767.476	11070.61
767.812	11086.21
768.148	11323.04
768.485	11294.79
768.821	11355.35
769.157	11475.8
769.492	11571.16
