Data from hue_130_FLMS001491_00087.txt Node
Date: Tue Feb 07 16:58:13 GMT 2017
User: dcchb
Spectrometer: FLMS00149
Trigger mode: 0
Integration Time (sec): 2.000000E-2
Scans to average: 10
Electric dark correction enabled: true
Nonlinearity correction enabled: false
Boxcar width: 0
XAxis mode: Wavelengths
Number of Pixels in Spectrum: 2048
>>>>>Begin Spectral Data<<<<<
341.393	-3.09
341.776	-3.09
342.16	-3.09
342.543	-62.3
342.927	-60.49
343.31	-62.07
343.693	-55.52
344.077	-53.71
344.46	-54.84
344.843	-66.59
345.226	-58.01
345.61	-34.05
345.993	-21.62
346.376	-14.17
346.759	13.63
347.142	32.39
347.525	42.33
347.908	56.57
348.291	57.47
348.674	102.67
349.057	115.55
349.44	125.27
349.823	160.29
350.206	153.06
350.588	192.38
350.971	201.65
351.354	213.17
351.737	222.44
352.119	241.87
352.502	268.09
352.884	270.35
353.267	275.54
353.65	286.39
354.032	305.15
354.414	294.53
354.797	324.58
355.179	322.1
355.562	318.03
355.944	330.46
356.326	320.51
356.709	333.85
357.091	316.67
357.473	326.62
357.855	340.4
358.238	339.27
358.62	320.97
359.002	336.56
359.384	347.41
359.766	334.07
360.148	344.69
360.53	337.24
360.912	329.78
361.294	331.36
361.676	334.3
362.057	347.86
362.439	323.68
362.821	318.25
363.203	329.78
363.584	321.64
363.966	317.8
364.348	316.45
364.729	330.68
365.111	315.54
365.493	313.51
365.874	311.7
366.256	313.96
366.637	313.28
367.019	324.81
367.4	319.84
367.781	300.63
368.163	309.67
368.544	308.31
368.925	317.58
369.306	320.29
369.688	318.48
370.069	311.25
370.45	308.31
370.831	317.35
371.212	322.1
371.593	321.87
371.974	296.79
372.355	303.79
372.736	298.59
373.117	309.22
373.498	315.54
373.879	322.55
374.26	304.7
374.641	332.94
375.021	312.6
375.402	291.59
375.783	324.58
376.163	326.39
376.544	333.85
376.925	345.15
377.305	316.67
377.686	306.28
378.066	333.4
378.447	325.94
378.827	317.12
379.208	319.38
379.588	330.91
379.968	328.2
380.349	333.85
380.729	328.88
381.109	346.95
381.489	332.94
381.87	343.11
382.25	330.46
382.63	342.66
383.01	343.79
383.39	346.73
383.77	335.43
384.15	360.06
384.53	352.83
384.91	352.83
385.29	339.27
385.67	355.99
386.049	327.29
386.429	349.44
386.809	367.74
387.189	365.26
387.568	357.12
387.948	334.98
388.328	354.19
388.707	361.19
389.087	354.19
389.466	360.97
389.846	351.25
390.225	373.17
390.605	368.65
390.984	370.46
391.363	379.04
391.743	380.17
392.122	363.9
392.501	373.39
392.881	347.86
393.26	362.32
393.639	350.8
394.018	373.39
394.397	383.11
394.776	389.44
395.155	385.6
395.534	377.01
395.913	354.86
396.292	389.44
396.671	402.55
397.05	390.57
397.429	398.03
397.808	381.98
398.186	393.73
398.565	385.6
398.944	380.63
399.323	396.67
399.701	397.8
400.08	401.19
400.458	400.29
400.837	412.94
401.215	418.36
401.594	417.01
401.972	405.03
402.351	401.19
402.729	401.42
403.107	407.07
403.486	414.52
403.864	425.14
404.242	434.64
404.62	422.43
404.999	443.67
405.377	436.22
405.755	418.59
406.133	417.46
406.511	424.47
406.889	427.86
407.267	428.08
407.645	466.27
408.023	454.3
408.401	435.54
408.779	455.2
409.156	461.75
409.534	443.45
409.912	435.77
410.29	452.71
410.667	458.82
411.045	472.15
411.422	458.14
411.8	455.88
412.178	477.12
412.555	468.31
412.933	478.02
413.31	474.63
413.687	486.16
414.065	483.45
414.442	498.14
414.819	514.86
415.197	492.04
415.574	510.11
415.951	524.58
416.328	497.46
416.705	518.7
417.082	522.32
417.46	513.28
417.837	520.51
418.214	537.46
418.591	526.16
418.967	552.82
419.344	522.77
419.721	538.36
420.098	527.74
420.475	545.14
420.852	545.37
421.228	555.99
421.605	560.28
421.982	551.24
422.358	560.96
422.735	553.73
423.111	577.46
423.488	581.75
423.864	563.45
424.241	569.32
424.617	567.29
424.994	540.62
425.37	574.97
425.746	580.85
426.123	592.6
426.499	582.43
426.875	588.3
427.251	600.96
427.627	602.31
428.003	632.82
428.379	633.95
428.756	619.04
429.132	612.71
429.507	617.68
429.883	647.51
430.259	650
430.635	643.22
431.011	657
431.387	661.3
431.763	674.86
432.138	703.1
432.514	669.43
432.89	695.19
433.265	700.84
433.641	685.02
434.016	691.58
434.392	691.13
434.767	713.5
435.143	706.27
435.518	713.5
435.894	734.51
436.269	742.42
436.644	718.24
437.02	748.53
437.395	745.14
437.77	756.66
438.145	780.62
438.52	759.6
438.895	767.28
439.271	806.83
439.646	786.04
440.021	801.86
440.395	802.76
440.77	814.96
441.145	800.05
441.52	831.69
441.895	806.6
442.27	828.07
442.645	815.64
443.019	832.59
443.394	840.05
443.769	873.49
444.143	857.68
444.518	836.21
444.892	875.3
445.267	873.72
445.641	879.6
446.016	878.24
446.39	866.94
446.764	877.79
447.139	901.52
447.513	878.24
447.887	897
448.262	930.89
448.636	905.36
449.01	908.52
449.384	908.97
449.758	929.76
450.132	929.09
450.506	949.2
450.88	946.71
451.254	967.05
451.628	996.88
452.002	994.85
452.376	980.61
452.75	993.72
453.123	1030.1
453.497	1009.08
453.871	1028.29
454.244	1026.26
454.618	1045.92
454.992	1043.21
455.365	1057.44
455.739	1091.12
456.112	1085.47
456.486	1065.81
456.859	1110.55
457.232	1129.76
457.606	1141.06
457.979	1139.93
458.352	1145.58
458.725	1160.27
459.099	1181.73
459.472	1189.64
459.845	1221.51
460.218	1221.51
460.591	1230.32
460.964	1254.27
461.337	1274.61
461.71	1276.87
462.083	1316.87
462.456	1305.57
462.829	1318.68
463.201	1357.78
463.574	1359.13
463.947	1350.54
464.32	1372.01
464.692	1395.97
465.065	1435.51
465.438	1435.51
465.81	1470.09
466.183	1473.03
466.555	1491.1
466.928	1518.9
467.3	1522.52
467.672	1565.45
468.045	1603.87
468.417	1605.45
468.789	1653.81
469.161	1682.96
469.534	1699.69
469.906	1740.59
470.278	1773.81
470.65	1769.29
471.022	1841.15
471.394	1838.89
471.766	1854.71
472.138	1921.15
472.51	1984.88
472.882	2021.03
473.253	2026.68
473.625	2089.73
473.997	2128.38
474.369	2180.35
474.74	2183.97
475.112	2254.02
475.484	2306.22
475.855	2344.64
476.227	2415.37
476.598	2491.08
476.97	2540.34
477.341	2603.39
477.713	2641.13
478.084	2752.09
478.455	2804.52
478.827	2833.44
479.198	2943.04
479.569	3013.32
479.94	3111.85
480.311	3162.93
480.682	3249.7
481.053	3387.55
481.424	3423.03
481.795	3494.22
482.166	3582.58
482.537	3693.08
482.908	3854.21
483.279	3900.08
483.65	4017.82
484.021	4161.54
484.391	4229.56
484.762	4331.26
485.133	4414.42
485.503	4514.3
485.874	4719.04
486.244	4755.43
486.615	4885.37
486.985	5034.74
487.356	5152.25
487.726	5257.33
488.097	5482.86
488.467	5483.09
488.837	5722.41
489.207	5816.41
489.578	5946.81
489.948	6090.31
490.318	6203.52
490.688	6284.88
491.058	6483.74
491.428	6613
491.798	6740.91
492.168	6883.96
492.538	7001.02
492.908	7181.12
493.278	7323.04
493.648	7432.64
494.017	7544.73
494.387	7660.21
494.757	7829.92
495.126	7945.4
495.496	8033.76
495.866	8124.6
496.235	8335.9
496.605	8481.2
496.974	8539.96
497.344	8736.11
497.713	8849.1
498.082	8953.06
498.452	9056.33
498.821	9195.76
499.19	9232.14
499.559	9373.84
499.928	9504.45
500.298	9580.16
500.667	9694.5
501.036	9757.1
501.405	9874.39
501.774	9927.95
502.143	10074.61
502.512	10129.52
502.88	10261.5
503.249	10287.03
503.618	10370.19
503.987	10493.81
504.356	10605.89
504.724	10702.61
505.093	10759.11
505.462	10766.12
505.83	10884.3
506.199	11031.64
506.567	11180.57
506.936	11128.37
507.304	11268.25
507.672	11355.93
508.041	11435.7
508.409	11510.28
508.777	11577.85
509.145	11664.85
509.514	11677.96
509.882	11774
510.25	11820.1
510.618	11882.47
510.986	11940.1
511.354	11989.81
511.722	12054.22
512.09	12225.74
512.458	12230.94
512.826	12286.53
513.193	12290.82
513.561	12337.6
513.929	12373.53
514.297	12508.67
514.664	12566.07
515.032	12643.35
515.4	12627.76
515.767	12724.71
516.135	12830.47
516.502	12686.06
516.869	12921.76
517.237	12926.74
517.604	12872.5
517.972	13044.7
518.339	12958.6
518.706	12997.92
519.073	13002.89
519.44	13199.05
519.808	13171.7
520.175	13145.94
520.542	13307.07
520.909	13312.71
521.276	13257.12
521.643	13318.14
522.009	13478.36
522.376	13479.04
522.743	13500.96
523.11	13650.33
523.477	13597.23
523.843	13600.62
524.21	13730.33
524.577	13836.09
524.943	13869.54
525.31	13822.08
525.676	13940.72
526.043	13898.46
526.409	13884.23
526.776	13972.36
527.142	13992.7
527.508	13995.18
527.874	13971.91
528.241	14017.56
528.607	14017.78
528.973	14055.29
529.339	14065.69
529.705	14169.42
530.071	14279.7
530.437	14112.69
530.803	14236.76
531.169	14193.37
531.535	14160.38
531.901	14157.21
532.267	14160.15
532.632	14185.23
532.998	14217.55
533.364	14204.44
533.73	14129.19
534.095	14239.7
534.461	14216.87
534.826	14198.57
535.192	14151.34
535.557	14231.33
535.923	14145.69
536.288	14111.34
536.653	14191.34
537.019	14098.46
537.384	14122.86
537.749	14040.15
538.114	14079.02
538.479	14110.89
538.845	14004.67
539.21	13982.08
539.575	13968.74
539.94	13942.75
540.305	13903.66
540.67	13869.99
541.034	13871.57
541.399	13837.45
541.764	13855.98
542.129	13723.55
542.494	13671.8
542.858	13729.65
543.223	13700.28
543.587	13687.39
543.952	13670.67
544.316	13677.23
544.681	13615.31
545.045	13680.84
545.41	13620.28
545.774	13541.18
546.138	13523.78
546.503	13491.92
546.867	13406.5
547.231	13533.05
547.595	13490.11
547.959	13427.97
548.324	13394.29
548.688	13298.03
549.052	13296.22
549.416	13342.77
549.779	13223.23
550.143	13227.97
550.507	13229.78
550.871	13227.52
551.235	13117.69
551.599	13218.93
551.962	13124.92
552.326	13152.27
552.689	13152.49
553.053	12992.95
553.417	12941.2
553.78	13125.15
554.143	13019.62
554.507	12985.04
554.87	12956.57
555.234	13079.73
555.597	12924.02
555.96	12994.76
556.323	12890.13
556.686	12933.52
557.05	12959.05
557.413	12935.78
557.776	12871.37
558.139	12895.1
558.502	12837.25
558.865	12838.38
559.228	12900.97
559.59	12846.74
559.953	12918.15
560.316	13009.67
560.679	12961.09
561.041	12928.09
561.404	13013.06
561.767	13048.09
562.129	12876.12
562.492	13058.26
562.854	12990.46
563.217	12900.97
563.579	12946.17
563.941	12944.59
564.304	12989.33
564.666	13087.64
565.028	13084.02
565.39	13026.17
565.753	13020.97
566.115	13042.67
566.477	13074.08
566.839	13144.13
567.201	13166.28
567.563	13146.84
567.925	13174.64
568.287	13175.54
568.648	13143.68
569.01	13199.27
569.372	13344.13
569.734	13204.47
570.095	13284.69
570.457	13319.49
570.819	13332.83
571.18	13217.8
571.542	13352.49
571.903	13297.57
572.265	13337.8
572.626	13356.56
572.987	13328.76
573.349	13417.34
573.71	13434.52
574.071	13414.63
574.432	13400.85
574.794	13470.22
575.155	13411.92
575.516	13416.22
575.877	13492.37
576.238	13383.45
576.599	13408.98
576.96	13412.83
577.32	13477.23
577.681	13481.07
578.042	13485.82
578.403	13455.76
578.763	13492.15
579.124	13484.91
579.485	13523.33
579.845	13582.09
580.206	13503.22
580.566	13536.89
580.927	13516.55
581.287	13447.85
581.648	13472.94
582.008	13569.88
582.368	13480.17
582.728	13471.35
583.089	13455.99
583.449	13455.99
583.809	13505.7
584.169	13532.37
584.529	13464.12
584.889	13512.94
585.249	13404.24
585.609	13407.4
585.969	13393.39
586.329	13414.63
586.688	13447.17
587.048	13366.5
587.408	13379.83
587.768	13395.88
588.127	13319.72
588.487	13321.75
588.846	13455.99
589.206	13238.82
589.565	13267.74
589.925	13396.78
590.284	13398.36
590.643	13344.13
591.003	13305.48
591.362	13330.12
591.721	13335.77
592.08	13352.94
592.44	13330.79
592.799	13319.95
593.158	13324.69
593.517	13243.79
593.876	13286.27
594.235	13202.44
594.593	13291.02
594.952	13280.4
595.311	13251.7
595.67	13234.3
596.029	13329.66
596.387	13226.62
596.746	13242.66
597.104	13275.2
597.463	13242.43
597.822	13236.78
598.18	13212.38
598.538	13173.96
598.897	13222.77
599.255	13180.29
599.613	13397.46
599.972	13203.79
600.33	13229.33
600.688	13221.87
601.046	13206.73
601.404	13254.19
601.762	13260.96
602.12	13269.1
602.478	13296.22
602.836	13228.2
603.194	13192.94
603.552	13324.69
603.91	13187.07
604.268	13157.92
604.625	13156.56
604.983	13213.96
605.341	13184.81
605.698	13267.07
606.056	13254.86
606.413	13229.33
606.771	13270.23
607.128	13258.03
607.485	13174.64
607.843	13187.97
608.2	13217.12
608.557	13271.36
608.914	13174.19
609.272	13356.56
609.629	13336.44
609.986	13349.78
610.343	13339.83
610.7	13401.53
611.057	13467.97
611.414	13347.97
611.771	13319.95
612.127	13383.9
612.484	13346.61
612.841	13421.41
613.198	13378.93
613.554	13382.54
613.911	13432.71
614.267	13379.38
614.624	13483.56
614.98	13415.76
615.337	13564.91
615.693	13496.66
616.05	13486.5
616.406	13544.57
616.762	13477.91
617.118	13556.1
617.475	13527.4
617.831	13595.42
618.187	13513.39
618.543	13539.6
618.899	13619.37
619.255	13584.35
619.611	13542.09
619.967	13683.33
620.323	13657.11
620.678	13643.78
621.034	13641.29
621.39	13626.15
621.746	13627.73
622.101	13731.23
622.457	13666.38
622.812	13560.62
623.168	13707.05
623.523	13744.79
623.879	13696.21
624.234	13707.73
624.589	13615.31
624.945	13710.9
625.3	13631.35
625.655	13657.11
626.01	13678.13
626.365	13559.49
626.72	13587.06
627.075	13643.1
627.43	13593.61
627.785	13558.81
628.14	13647.17
628.495	13620.96
628.85	13672.48
629.205	13617.57
629.559	13591.8
629.914	13557.68
630.269	13554.52
630.623	13514.52
630.978	13473.39
631.332	13558.36
631.687	13505.25
632.041	13502.31
632.396	13511.35
632.75	13483.78
633.104	13513.39
633.459	13461.64
633.813	13418.25
634.167	13446.5
634.521	13370.57
634.875	13387.97
635.229	13484.24
635.583	13392.94
635.937	13359.27
636.291	13358.59
636.645	13307.52
636.999	13311.13
637.352	13288.99
637.706	13222.77
638.06	13268.2
638.413	13220.51
638.767	13251.02
639.121	13287.63
639.474	13150.23
639.828	13123.79
640.181	13156.79
640.534	13118.6
640.888	13100.07
641.241	12991.82
641.594	12953.4
641.947	13156.33
642.301	12957.24
642.654	13016.23
643.007	13072.95
643.36	13124.02
643.713	13018.71
644.066	13060.97
644.419	13001.76
644.771	12877.25
645.124	12783.46
645.477	12750.7
645.83	12665.5
646.182	12675.67
646.535	12606.07
646.888	12672.73
647.24	12573.98
647.593	12676.57
647.945	12602
648.298	12533.53
648.65	12560.42
649.002	12465.28
649.355	12611.04
649.707	12577.59
650.059	12666.63
650.411	12853.52
650.763	12771.03
651.115	12890.58
651.467	12887.64
651.819	12902.1
652.171	12822.56
652.523	12816.46
652.875	12799.28
653.227	12824.82
653.578	12860.52
653.93	12821.65
654.282	12820.52
654.633	12830.02
654.985	12843.57
655.337	12846.74
655.688	12853.74
656.039	12846.06
656.391	12743.24
656.742	12832.5
657.094	12866.4
657.445	12895.55
657.796	12828.89
658.147	12824.37
658.498	12803.8
658.849	12804.93
659.2	12862.33
659.551	12910.47
659.902	12818.04
660.253	12805.84
660.604	12865.04
660.955	12828.66
661.306	12843.35
661.656	12806.29
662.007	12832.05
662.358	12844.7
662.708	12908.88
663.059	12896.45
663.409	12856.46
663.76	12866.4
664.11	12943.01
664.461	12918.15
664.811	12924.93
665.161	12919.5
665.511	12887.87
665.862	12839.96
666.212	12836.34
666.562	12920.41
666.912	12867.08
667.262	12850.35
667.612	12837.7
667.962	12949.33
668.312	12914.31
668.662	12940.07
669.011	12947.07
669.361	12940.75
669.711	12862.78
670.06	12934.42
670.41	12880.18
670.76	12734.88
671.109	12846.74
671.459	12822.33
671.808	12809.68
672.157	12842.9
672.507	12716.8
672.856	12729.23
673.205	12723.8
673.554	12787.08
673.904	12716.12
674.253	12808.32
674.602	12788.89
674.951	12564.26
675.3	12566.52
675.649	12727.42
675.998	12696.46
676.346	12709.11
676.695	12698.95
677.044	12676.57
677.393	12702.11
677.741	12720.19
678.09	12590.02
678.438	12602.68
678.787	12613.07
679.135	12650.13
679.484	12556.8
679.832	12644.48
680.181	12458.73
680.529	12555.67
680.877	12442
681.225	12469.12
681.573	12555.22
681.922	12532.17
682.27	12445.85
682.618	12422.79
682.966	12306.19
683.314	12343.25
683.661	12293.76
684.009	12335.79
684.357	12293.08
684.705	12209.92
685.053	12264.83
685.4	12202.69
685.748	12139.64
686.095	12059.87
686.443	12143.48
686.79	12073.43
687.138	12063.26
687.485	12086.76
687.832	12090.37
688.18	11986.42
688.527	11979.42
688.874	11984.39
689.221	11941.9
689.568	11873.43
689.915	11836.82
690.262	11783.72
690.609	11766.09
690.956	11690.16
691.303	11691.74
691.65	11712.53
691.997	11624.17
692.344	11576.49
692.69	11570.84
693.037	11551.86
693.383	11462.14
693.73	11425.08
694.077	11384.63
694.423	11412.88
694.769	11395.7
695.116	11303.95
695.462	11303.5
695.808	11281.13
696.155	11315.25
696.501	11133.11
696.847	11160.23
697.193	11001.14
697.539	11088.37
697.885	10876.17
698.231	10962.72
698.577	10955.04
698.923	10901.25
699.269	10866.45
699.614	10824.64
699.96	10827.81
700.306	10789.17
700.651	10710.75
700.997	10669.17
701.342	10659.45
701.688	10628.94
702.033	10600.47
702.379	10533.13
702.724	10555.5
703.069	10489.74
703.415	10394.15
703.76	10410.19
704.105	10287.71
704.45	10348.05
704.795	10316.18
705.14	10244.77
705.485	10242.74
705.83	10219.01
706.175	10196.86
706.52	10110.31
706.865	10109.18
707.209	10099.01
707.554	10011.33
707.899	10098.79
708.243	10033.25
708.588	10015.63
708.932	9915.29
709.277	9910.32
709.621	9944.22
709.966	9837.33
710.31	9878.45
710.654	9721.4
710.998	9708.97
711.342	9760.94
711.687	9747.16
712.031	9729.53
712.375	9709.19
712.719	9749.87
713.063	9677.1
713.407	9664
713.75	9603.43
714.094	9633.26
714.438	9597.11
714.782	9563.89
715.125	9507.62
715.469	9616.54
715.812	9508.75
716.156	9433.72
716.499	9415.87
716.843	9464.23
717.186	9491.35
717.53	9429.65
717.873	9463.1
718.216	9401.41
718.559	9348.53
718.902	9257.68
719.246	9319.15
719.589	9318.47
719.932	9292.26
720.275	9301.97
720.617	9257.68
720.96	9240.05
721.303	9282.54
721.646	9223.78
721.989	9217
722.331	9194.18
722.674	9243.22
723.016	9118.93
723.359	9206.16
723.701	9208.19
724.044	9147.4
724.386	9078.48
724.729	9203.67
725.071	9068.53
725.413	9092.03
725.755	9172.71
726.097	9075.76
726.439	9051.36
726.782	9044.35
727.124	9112.37
727.465	9042.77
727.807	9075.54
728.149	9053.62
728.491	9055.88
728.833	9059.72
729.175	9022.21
729.516	9032.15
729.858	9048.65
730.199	9058.82
730.541	9027.63
730.882	9059.04
731.224	9055.88
731.565	8987.4
731.906	9018.82
732.248	9038.48
732.589	8948.31
732.93	8945.37
733.271	8998.48
733.612	9015.43
733.953	9039.83
734.294	8999.61
734.635	8977.91
734.976	8998.7
735.317	8986.5
735.658	8939.04
735.999	8966.16
736.339	8965.71
736.68	9026.05
737.021	9035.54
737.361	8946.95
737.702	8973.39
738.042	9015.43
738.383	8928.65
738.723	9061.75
739.063	8988.31
739.404	9002.32
739.744	9031.92
740.084	9086.16
740.424	9103.33
740.764	9082.54
741.104	9143.56
741.444	9105.82
741.784	9111.47
742.124	9093.16
742.464	9147.4
742.804	9122.09
743.143	9151.02
743.483	9181.75
743.823	9144.24
744.162	9258.36
744.502	9241.64
744.841	9284.57
745.181	9281.41
745.52	9334.74
745.86	9398.02
746.199	9371.35
746.538	9400.5
746.877	9518.01
747.216	9531.57
747.556	9528.18
747.895	9629.87
748.234	9678.91
748.573	9657.22
748.911	9771.79
749.25	9752.13
749.589	9843.2
749.928	9928.85
750.267	10035.74
750.605	10020.15
750.944	10126.36
751.283	10219.01
751.621	10322.74
751.96	10389.18
752.298	10498.1
752.636	10518.21
752.975	10636.18
753.313	10698.09
753.651	10855.83
753.989	10879.56
754.327	10963.62
754.666	11049.95
755.004	11202.26
755.342	11310.28
755.679	11483.61
756.017	11541.69
756.355	11729.48
756.693	11766.54
757.031	11952.98
757.368	12119.75
757.706	12258.96
758.044	12333.08
758.381	12533.98
758.719	12678.83
