Data from hue_340_FLMS001491_50.txt Node
Date: Mon Feb 06 15:43:11 GMT 2017
User: dcchb
Spectrometer: FLMS00149
Trigger mode: 0
Integration Time (sec): 2.000000E-2
Scans to average: 10
Electric dark correction enabled: true
Nonlinearity correction enabled: false
Boxcar width: 0
XAxis mode: Wavelengths
Number of Pixels in Spectrum: 2048
>>>>>Begin Spectral Data<<<<<
341.393	-27.82
341.776	-27.82
342.16	-27.82
342.543	-80.48
342.927	-79.12
343.31	-59.91
343.693	-82.74
344.077	-64.89
344.46	-68.28
344.843	-44.09
345.226	-37.32
345.61	-30.08
345.993	-10.88
346.376	4.49
346.759	-15.17
347.142	46.75
347.525	51.04
347.908	57.6
348.291	81.1
348.674	73.64
349.057	98.73
349.44	128.78
349.823	157.48
350.206	174.2
350.588	185.96
350.971	199.06
351.354	216.69
351.737	211.27
352.119	251.26
352.502	252.85
352.884	270.47
353.267	288.1
353.65	286.97
354.032	280.87
354.414	288.1
354.797	301.66
355.179	333.52
355.562	327.87
355.944	319.06
356.326	312.28
356.709	352.5
357.091	334.88
357.473	333.97
357.855	322.45
358.238	330.58
358.62	325.39
359.002	326.97
359.384	328.1
359.766	331.26
360.148	348.89
360.53	320.64
360.912	324.48
361.294	333.52
361.676	322
362.057	325.61
362.439	320.87
362.821	318.16
363.203	322.45
363.584	329.23
363.966	324.48
364.348	309.79
364.729	322.22
365.111	325.16
365.493	297.82
365.874	316.35
366.256	320.64
366.637	293.98
367.019	323.58
367.4	335.33
367.781	328.78
368.163	314.54
368.544	309.34
368.925	290.36
369.306	307.76
369.688	310.02
370.069	315.9
370.45	298.49
370.831	316.35
371.212	301.21
371.593	325.39
371.974	317.03
372.355	317.25
372.736	304.6
373.117	307.99
373.498	305.73
373.879	329.23
374.26	295.11
374.641	300.08
375.021	307.99
375.402	310.02
375.783	338.72
376.163	324.48
376.544	320.87
376.925	303.92
377.305	294.65
377.686	340.75
378.066	334.2
378.447	319.74
378.827	320.19
379.208	322.68
379.588	320.64
379.968	322
380.349	323.81
380.729	326.97
381.109	313.64
381.489	333.07
381.87	322
382.25	326.06
382.63	321.09
383.01	348.21
383.39	338.04
383.77	316.8
384.15	336.46
384.53	346.86
384.91	336.69
385.29	338.49
385.67	339.4
386.049	337.14
386.429	360.64
386.809	327.87
387.189	340.53
387.568	342.34
387.948	344.82
388.328	347.99
388.707	340.08
389.087	337.14
389.466	336.91
389.846	355.44
390.225	344.82
390.605	349.12
390.984	340.08
391.363	360.19
391.743	327.42
392.122	347.76
392.501	363.35
392.881	374.88
393.26	360.19
393.639	364.48
394.018	380.3
394.397	362.9
394.776	376.01
395.155	367.19
395.534	359.51
395.913	370.81
396.292	350.92
396.671	366.29
397.05	364.71
397.429	385.05
397.808	338.27
398.186	366.97
398.565	356.12
398.944	378.27
399.323	370.58
399.701	355.67
400.08	371.04
400.458	376.91
400.837	390.92
401.215	396.8
401.594	378.94
401.972	384.82
402.351	369.23
402.729	387.31
403.107	369.45
403.486	396.8
403.864	397.93
404.242	394.31
404.62	395.44
404.999	399.51
405.377	394.31
405.755	399.28
406.133	388.21
406.511	423.46
406.889	427.53
407.267	396.12
407.645	408.1
408.023	422.56
408.401	411.71
408.779	418.94
409.156	420.75
409.534	414.42
409.912	437.25
410.29	442.22
410.667	435.67
411.045	448.1
411.422	442.45
411.8	446.97
412.178	446.74
412.555	462.33
412.933	462.78
413.31	487.87
413.687	456.46
414.065	451.26
414.442	474.54
414.819	474.31
415.197	473.41
415.574	466.63
415.951	515.21
416.328	489
416.705	518.6
417.082	497.13
417.46	505.27
417.837	526.06
418.214	488.77
418.591	523.12
418.967	545.04
419.344	531.94
419.721	531.71
420.098	533.29
420.475	526.06
420.852	556.79
421.228	548.66
421.605	547.3
421.982	539.62
422.358	570.58
422.735	570.58
423.111	564.25
423.488	566.28
423.864	576
424.241	577.36
424.617	583.69
424.994	592.5
425.37	617.81
425.746	628.2
426.123	587.3
426.499	620.75
426.875	602.67
427.251	625.04
427.627	618.49
428.003	621.42
428.379	647.19
428.756	626.85
429.132	647.86
429.507	667.07
429.883	659.84
430.259	664.81
430.635	673.63
431.011	665.94
431.387	676.79
431.763	682.67
432.138	680.18
432.514	699.16
432.89	693.96
433.265	712.04
433.641	720.63
434.016	705.26
434.392	734.19
434.767	741.42
435.143	737.81
435.518	748.65
435.894	760.63
436.269	761.76
436.644	765.15
437.02	764.47
437.395	770.8
437.77	772.83
438.145	806.73
438.52	782.1
438.895	827.75
439.271	801.08
439.646	813.74
440.021	814.41
440.395	811.48
440.77	812.38
441.145	832.49
441.52	842.21
441.895	848.54
442.27	833.4
442.645	832.49
443.019	856.45
443.394	842.89
443.769	848.31
444.143	864.81
444.518	869.55
444.892	879.72
445.267	862.55
445.641	867.75
446.016	867.29
446.39	895.54
446.764	919.72
447.139	882.43
447.513	897.8
447.887	905.26
448.262	872.49
448.636	911.59
449.01	895.32
449.384	938.25
449.758	918.82
450.132	949.55
450.506	941.42
450.88	924.02
451.254	928.08
451.628	926.5
452.002	964.01
452.376	957.46
452.75	967.18
453.123	968.76
453.497	963.11
453.871	964.01
454.244	980.96
454.618	993.39
454.992	990.23
455.365	980.96
455.739	998.82
456.112	1020.51
456.486	1022.77
456.859	1032.94
457.232	1053.5
457.606	1040.62
457.979	1054.86
458.352	1061.19
458.725	1105.93
459.099	1080.4
459.472	1093.95
459.845	1077.46
460.218	1112.94
460.591	1117.23
460.964	1133.95
461.337	1136.89
461.71	1155.42
462.083	1195.87
462.456	1164.23
462.829	1175.08
463.201	1206.72
463.574	1200.39
463.947	1203.1
464.32	1210.79
464.692	1228.64
465.065	1254.85
465.438	1274.51
465.81	1281.52
466.183	1263.89
466.555	1307.06
466.928	1291.01
467.3	1314.06
467.672	1333.5
468.045	1313.38
468.417	1338.69
468.789	1369.65
469.161	1365.36
469.534	1369.88
469.906	1408.52
470.278	1413.27
470.65	1404.91
471.022	1447.84
471.394	1466.15
471.766	1489.65
472.138	1511.8
472.51	1499.59
472.882	1555.41
473.253	1553.15
473.625	1578.69
473.997	1570.1
474.369	1613.94
474.74	1619.36
475.112	1676.76
475.484	1631.12
475.855	1684.22
476.227	1694.62
476.598	1726.71
476.97	1752.24
477.341	1761.73
477.713	1845.8
478.084	1796.99
478.455	1839.92
478.827	1896.65
479.198	1942.52
479.569	1913.59
479.94	1975.74
480.311	1967.6
480.682	2033.36
481.053	2081.05
481.424	2093.25
481.795	2105.68
482.166	2165.56
482.537	2150.2
482.908	2200.59
483.279	2220.03
483.65	2244.43
484.021	2264.54
484.391	2334.15
484.762	2328.27
485.133	2301.61
485.503	2357.2
485.874	2423.18
486.244	2442.39
486.615	2450.98
486.985	2492.79
487.356	2530.98
487.726	2545.89
488.097	2607.36
488.467	2634.25
488.837	2671.09
489.207	2715.38
489.578	2738.88
489.948	2758.77
490.318	2825.21
490.688	2826.56
491.058	2831.08
491.428	2847.13
491.798	2955.6
492.168	2941.59
492.538	2935.26
492.908	2994.47
493.278	3010.51
493.648	2999.21
494.017	3057.07
494.387	3085.77
494.757	3114.24
495.126	3105.88
495.496	3143.39
495.866	3170.96
496.235	3205.09
496.605	3208.7
496.974	3227.01
497.344	3258.19
497.713	3317.17
498.082	3340.45
498.452	3349.04
498.821	3355.36
499.19	3381.13
499.559	3342.48
499.928	3405.76
500.298	3396.72
500.667	3457.96
501.036	3481.46
501.405	3451.41
501.774	3485.3
502.143	3513.78
502.512	3479.88
502.88	3588.8
503.249	3524.4
503.618	3565.3
503.987	3574.34
504.356	3613.21
504.724	3623.15
505.093	3638.75
505.462	3595.58
505.83	3664.96
506.199	3680.33
506.567	3701.12
506.936	3727.56
507.304	3716.03
507.672	3807.1
508.041	3764.17
508.409	3781.79
508.777	3791.74
509.145	3827.89
509.514	3802.81
509.882	3822.47
510.25	3829.7
510.618	3852.98
510.986	3860.66
511.354	3915.58
511.722	3912.19
512.09	3948.34
512.458	3946.76
512.826	3945.18
513.193	3969.36
513.561	3950.15
513.929	4009.58
514.297	4008.91
514.664	3987.44
515.032	4045.74
515.4	4069.92
515.767	4085.51
516.135	4100.2
516.502	4029.02
516.869	4130.03
517.237	4116.93
517.604	4143.37
517.972	4109.69
518.339	4144.95
518.706	4124.16
519.073	4134.78
519.44	4200.99
519.808	4204.61
520.175	4200.54
520.542	4203.25
520.909	4232.63
521.276	4248.22
521.643	4240.99
522.009	4274.89
522.376	4247.77
522.743	4272.63
523.11	4350.59
523.477	4332.06
523.843	4388.56
524.21	4356.24
524.577	4429.91
524.943	4413.19
525.31	4441.44
525.676	4502.9
526.043	4526.86
526.409	4497.93
526.776	4548.78
527.142	4572.73
527.508	4571.15
527.874	4634.43
528.241	4634.65
528.607	4643.92
528.973	4666.06
529.339	4666.29
529.705	4754.87
530.071	4735.89
530.437	4730.69
530.803	4746.51
531.169	4829
531.535	4801.43
531.901	4817.7
532.267	4786.96
532.632	4882.33
532.998	4897.7
533.364	4889.56
533.73	4874.65
534.095	4920.29
534.461	4929.56
534.826	4994.42
535.192	4968.65
535.557	5048.43
535.923	5036
536.288	5028.09
536.653	5066.96
537.019	5089.1
537.384	5090.01
537.749	5111.93
538.114	5147.63
538.479	5167.52
538.845	5182.43
539.21	5167.75
539.575	5242.09
539.94	5238.48
540.305	5272.6
540.67	5265.82
541.034	5305.14
541.399	5282.54
541.764	5381.07
542.129	5358.93
542.494	5410.22
542.858	5435.76
543.223	5437.57
543.587	5475.53
543.952	5433.5
544.316	5452.71
544.681	5466.04
545.045	5514.18
545.41	5562.31
545.774	5569.77
546.138	5629.43
546.503	5596.43
546.867	5600.73
547.231	5685.47
547.595	5701.97
547.959	5694.29
548.324	5688.41
548.688	5713.49
549.052	5729.31
549.416	5796.88
549.779	5753.49
550.143	5812.25
550.507	5910.55
550.871	5856.99
551.235	5806.82
551.599	5881.63
551.962	5932.47
552.326	5909.65
552.689	5979.48
553.053	5933.15
553.417	5967.95
553.78	6018.12
554.143	6002.53
554.507	5995.52
554.87	6080.04
555.234	6126.82
555.597	6078.23
555.96	6078.46
556.323	6099.92
556.686	6133.82
557.05	6173.14
557.413	6176.98
557.776	6231.9
558.139	6191.22
558.502	6231.45
558.865	6220.37
559.228	6253.37
559.59	6278.22
559.953	6285.46
560.316	6383.31
560.679	6367.04
561.041	6388.28
561.404	6320.26
561.767	6449.75
562.129	6408.62
562.492	6452.23
562.854	6453.14
563.217	6451.78
563.579	6461.27
563.941	6475.51
564.304	6532.91
564.666	6539.46
565.028	6565.45
565.39	6617.88
565.753	6650.64
566.115	6602.74
566.477	6692
566.839	6728.61
567.201	6715.95
567.563	6770.64
567.925	6733.35
568.287	6731.32
568.648	6828.04
569.01	6846.57
569.372	6884.99
569.734	6888.38
570.095	6948.94
570.457	6946.68
570.819	7011.09
571.18	6992.56
571.542	7056.96
571.903	7026.91
572.265	7070.29
572.626	7156.85
572.987	7142.83
573.349	7199.78
573.71	7254.02
574.071	7373.56
574.432	7291.08
574.794	7430.96
575.155	7472.09
575.516	7529.72
575.877	7583.28
576.238	7628.25
576.599	7666.21
576.96	7779.88
577.32	7785.53
577.681	7922.25
578.042	8033.88
578.403	8027.56
578.763	8070.04
579.124	8164.05
579.485	8263.71
579.845	8387.55
580.206	8484.27
580.566	8557.94
580.927	8690.59
581.287	8840.19
581.648	8925.39
582.008	9068.43
582.368	9103.91
582.728	9358.6
583.089	9400.85
583.449	9541.42
583.809	9691.02
584.169	9917.68
584.529	10035.41
584.889	10241.51
585.249	10378.91
585.609	10448.74
585.969	10752.68
586.329	10867.71
586.688	11123.3
587.048	11289.17
587.408	11417.3
587.768	11651.87
588.127	11969.15
588.487	12131.18
588.846	12494.78
589.206	12538.63
589.565	12805.96
589.925	13128.21
590.284	13297.93
590.643	13510.35
591.003	13834.41
591.362	14096.32
591.721	14328.41
592.08	14589.19
592.44	14880.03
592.799	15150.31
593.158	15436.18
593.517	15683.85
593.876	15927.69
594.235	16210.84
594.593	16506.43
594.952	16768.34
595.311	16907.1
595.67	17307.31
596.029	17778.26
596.387	17992.94
596.746	18416.66
597.104	18442.88
597.463	18782.3
597.822	19048.28
598.18	19302.52
598.538	19515.62
598.897	19920.58
599.255	19924.65
599.613	20572.99
599.972	20769.14
600.33	21002.81
600.688	21291.39
601.046	21509.01
601.404	21864.48
601.762	22178.82
602.12	22471.25
602.478	22728.87
602.836	23009.54
603.194	23083.88
603.552	23427.6
603.91	23665.56
604.268	23971.54
604.625	24191.65
604.983	24503.51
605.341	24583.96
605.698	24967.22
606.056	25073.66
606.413	25360.43
606.771	25729.92
607.128	25925.84
607.485	25985.05
607.843	26165.84
608.2	26680.63
608.557	26838.81
608.914	26917.68
609.272	27217.56
609.629	27415.07
609.986	27733.48
610.343	27842.18
610.7	28147.48
611.057	28307.7
611.414	28460.24
611.771	28558.99
612.127	28906.78
612.484	29059.77
612.841	29305.42
613.198	29276.94
613.554	29483.49
613.911	29900.88
614.267	29901.56
614.624	30153.08
614.98	30225.39
615.337	30498.15
615.693	30574.76
616.05	30703.35
616.406	31018.82
616.762	30970.23
617.118	31254.74
617.475	31256.55
617.831	31536.32
618.187	31504.23
618.543	31757.1
618.899	32181.05
619.255	32116.42
619.611	32103.31
619.967	32470.3
620.323	32614.03
620.678	32540.36
621.034	32511.21
621.39	32664.2
621.746	32685.44
622.101	33219.44
622.457	32933.12
622.812	33259.66
623.168	33427.34
623.523	33344.18
623.879	33564.06
624.234	33440.9
624.589	33723.83
624.945	33756.82
625.3	33989.13
625.655	33881.79
626.01	34067.32
626.365	34177.83
626.72	34115.46
627.075	34124.5
627.43	34171.28
627.785	34230.94
628.14	34406.3
628.495	34338.5
628.85	34349.13
629.205	34360.2
629.559	34607.42
629.914	34375.57
630.269	34515.22
630.623	34543.92
630.978	34444.26
631.332	34709.79
631.687	34669.57
632.041	34644.48
632.396	34711.83
632.75	34709.79
633.104	34742.11
633.459	34657.37
633.813	34742.11
634.167	34753.63
634.521	34921.99
634.875	34853.97
635.229	34673.18
635.583	34703.01
635.937	34773.07
636.291	34851.94
636.645	34841.77
636.999	34685.61
637.352	34853.29
637.706	34681.77
638.06	34769.23
638.413	34723.8
638.767	34693.3
639.121	34816.91
639.474	34601.55
639.828	34666.18
640.181	34703.01
640.534	34817.59
640.888	34677.03
641.241	34627.99
641.594	34712.96
641.947	34786.63
642.301	34662.34
642.654	34792.5
643.007	34796.34
643.36	34743.24
643.713	34751.15
644.066	34776.68
644.419	34639.96
644.771	34378.95
645.124	34206.08
645.477	34079.08
645.83	33903.71
646.182	33653.1
646.535	33674.79
646.888	33808.57
647.24	33580.78
647.593	33769.48
647.945	33732.42
648.298	33518.64
648.65	33544.85
649.002	33519.09
649.355	33622.82
649.707	33697.39
650.059	33816.48
650.411	34101.22
650.763	34246.08
651.115	34485.39
651.467	34398.39
651.819	34340.99
652.171	34357.71
652.523	34216.25
652.875	34265.51
653.227	34095.35
653.578	34485.62
653.93	34244.72
654.282	34256.92
654.633	34043.6
654.985	34162.24
655.337	34275.91
655.688	34201.78
656.039	34355.45
656.391	34009.02
656.742	34086.31
657.094	34079.3
657.445	34190.03
657.796	33927.67
658.147	34054.44
658.498	34211.5
658.849	34123.37
659.2	34032.3
659.551	33892.41
659.902	34089.7
660.253	33965.63
660.604	34161.33
660.955	33823.04
661.306	34026.2
661.656	33946.65
662.007	34035.46
662.358	34030.26
662.708	34040.88
663.059	33928.57
663.409	33894.22
663.76	33956.82
664.11	34040.43
664.461	34021.9
664.811	34040.66
665.161	33992.98
665.511	33978.29
665.862	34028.91
666.212	34053.99
666.562	34008.57
666.912	34085.4
667.262	33922.7
667.612	34020.09
667.962	33966.31
668.312	33907.33
668.662	34051.51
669.011	33960.66
669.361	33895.13
669.711	33821
670.06	33716.15
670.41	33719.54
670.76	33714.57
671.109	33901.91
671.459	33850.83
671.808	33748.01
672.157	33865.07
672.507	33583.95
672.856	33722.47
673.205	33774.22
673.554	33819.2
673.904	33722.02
674.253	33936.71
674.602	33740.55
674.951	33287.46
675.3	32941.25
675.649	33725.86
675.998	33545.3
676.346	33651.29
676.695	33562.71
677.044	33494.23
677.393	33387.12
677.741	33562.03
678.09	33465.98
678.438	33423.95
678.787	33494.23
679.135	33531.97
679.484	33256.95
679.832	33469.6
680.181	33123.85
680.529	33418.08
680.877	33056.73
681.225	33276.61
681.573	33315.25
681.922	33161.81
682.27	33064.41
682.618	33056.5
682.966	33056.96
683.314	32978.77
683.661	32859.9
684.009	32770.18
684.357	32679.34
684.705	32739
685.053	32699
685.4	32632.11
685.748	32534.48
686.095	32530.87
686.443	32318.22
686.79	32448.38
687.138	32526.8
687.485	32438.67
687.832	32362.96
688.18	32372.68
688.527	32047.26
688.874	32101.73
689.221	32126.81
689.568	31948.28
689.915	31910.32
690.262	31921.17
690.609	31812.47
690.956	31819.02
691.303	31734.73
691.65	31508.07
691.997	31597.11
692.344	31389.65
692.69	31302.88
693.037	31468.75
693.383	31142.88
693.73	31285.48
694.077	30959.38
694.423	31091.36
694.769	31035.99
695.116	30948.08
695.462	30910.35
695.808	30709.67
696.155	30861.99
696.501	30571.37
696.847	30570.47
697.193	30434.88
697.539	30393.07
697.885	30306.97
698.231	30265.16
698.577	30239.63
698.923	30026.98
699.269	29938.85
699.614	29785.86
699.96	29875.12
700.306	29809.36
700.651	29720.32
700.997	29718.51
701.342	29650.49
701.688	29567.56
702.033	29520.1
702.379	29428.8
702.724	29357.84
703.069	29307
703.415	29097.51
703.76	29035.37
704.105	29119.21
704.45	28921.7
704.795	28823.62
705.14	28646.68
705.485	28642.83
705.83	28620.91
706.175	28683.74
706.52	28535.04
706.865	28377.98
707.209	28470.18
707.554	28310.19
707.899	28383.18
708.243	28206.69
708.588	28141.38
708.932	27968.73
709.277	27948.16
709.621	28060.25
709.966	27749.52
710.31	27807.15
710.654	27626.14
710.998	27738.9
711.342	27679.92
711.687	27620.26
712.031	27651.22
712.375	27386.6
712.719	27410.1
713.063	27428.4
713.407	27360.38
713.75	27298.24
714.094	27303.89
714.438	27058.47
714.782	27196.77
715.125	27024.12
715.469	27100.95
715.812	27042.88
716.156	26834.75
716.499	26852.6
716.843	26970.11
717.186	26644.92
717.53	26901.41
717.873	26801.53
718.216	26674.3
718.559	26574.41
718.902	26431.59
719.246	26448.99
719.589	26416.45
719.932	26291.26
720.275	26540.29
720.617	26368.54
720.96	26096.01
721.303	26087.2
721.646	26234.99
721.989	25973.53
722.331	26135.56
722.674	26054.88
723.016	25990.7
723.359	25999.97
723.701	25991.15
724.044	25804.72
724.386	25779.18
724.729	25794.1
725.071	25712.74
725.413	25677.94
725.755	25673.87
726.097	25651.95
726.439	25430.94
726.782	25425.97
727.124	25415.57
727.465	25506.42
727.807	25390.94
728.149	25369.7
728.491	25279.76
728.833	25251.51
729.175	25215.35
729.516	25192.98
729.858	25169.93
730.199	25251.96
730.541	25146.43
730.882	25135.58
731.224	25104.4
731.565	24924.74
731.906	24946.43
732.248	24927.68
732.589	24891.29
732.93	24723.84
733.271	24763.16
733.612	24797.29
733.953	24809.04
734.294	24605.2
734.635	24598.65
734.976	24721.58
735.317	24540.57
735.658	24560.91
735.999	24579.44
736.339	24486.33
736.68	24556.39
737.021	24443.62
737.361	24359.78
737.702	24519.1
738.042	24314.81
738.383	24251.54
738.723	24308.26
739.063	24346.68
739.404	24188.49
739.744	24192.33
740.084	24044.54
740.424	24055.16
740.764	24050.41
741.104	24008.38
741.444	23965.22
741.784	23928.16
742.124	24029.85
742.464	23947.14
742.804	23924.77
743.143	23770.42
743.483	23878.89
743.823	23782.85
744.162	23688.39
744.502	23767.71
744.841	23654.04
745.181	23758.22
745.52	23562.74
745.86	23624.89
746.199	23606.81
746.538	23528.62
746.877	23458.11
747.216	23466.25
747.556	23379.02
747.895	23281.62
748.234	23378.34
748.573	23281.17
748.911	23332.24
749.25	23230.77
749.589	23031.91
749.928	23179.48
750.267	23161.17
750.605	23068.74
750.944	23005.92
751.283	22867.17
751.621	23087.05
751.96	22833.27
752.298	22899.26
752.636	22831.24
752.975	22774.74
753.313	22618.36
753.651	22799.82
753.989	22646.83
754.327	22633.95
754.666	22552.15
755.004	22586.95
755.342	22520.28
755.679	22547.4
756.017	22345.37
756.355	22472.15
756.693	22225.15
757.031	22261.31
757.368	22177.92
757.706	22133.18
758.044	22109.45
758.381	22073.52
758.719	22006.85
759.056	22005.04
759.394	21893.63
759.731	21789.23
760.068	21806.86
760.405	21805.27
760.743	21445.06
761.08	21584.26
