Data from hue_40_FLMS001491_15.txt Node
Date: Mon Feb 06 15:07:31 GMT 2017
User: dcchb
Spectrometer: FLMS00149
Trigger mode: 0
Integration Time (sec): 2.000000E-2
Scans to average: 10
Electric dark correction enabled: true
Nonlinearity correction enabled: false
Boxcar width: 0
XAxis mode: Wavelengths
Number of Pixels in Spectrum: 2048
>>>>>Begin Spectral Data<<<<<
341.393	-11.23
341.776	-11.23
342.16	-11.23
342.543	-47.84
342.927	-70.44
343.31	-67.05
343.693	-69.76
344.077	-80.83
344.46	-40.15
344.843	-39.25
345.226	-48.52
345.61	-25.92
345.993	-19.14
346.376	-5.35
346.759	-8.97
347.142	35.32
347.525	47.53
347.908	37.36
348.291	79.39
348.674	97.02
349.057	108.32
349.44	124.36
349.823	134.3
350.206	140.86
350.588	188.99
350.971	215.88
351.354	217.01
351.737	223.79
352.119	259.05
352.502	257.92
352.884	251.36
353.267	294.3
353.65	297.92
354.032	285.26
354.414	306.5
354.797	305.6
355.179	301.98
355.562	315.99
355.944	319.84
356.326	345.82
356.709	333.17
357.091	340.4
357.473	326.16
357.855	334.98
358.238	333.62
358.62	349.67
359.002	325.71
359.384	339.5
359.766	345.37
360.148	341.08
360.53	334.07
360.912	337.24
361.294	339.27
361.676	315.32
362.057	339.04
362.439	346.95
362.821	323.9
363.203	327.52
363.584	340.17
363.966	341.08
364.348	338.14
364.729	318.48
365.111	320.29
365.493	317.35
365.874	330.46
366.256	318.48
366.637	292.72
367.019	299.95
367.4	320.97
367.781	311.7
368.163	333.62
368.544	304.02
368.925	313.51
369.306	294.98
369.688	295.43
370.069	314.19
370.45	320.74
370.831	309.89
371.212	313.51
371.593	323.68
371.974	294.53
372.355	327.07
372.736	301.08
373.117	321.19
373.498	322.55
373.879	325.26
374.26	310.12
374.641	317.12
375.021	321.42
375.402	306.5
375.783	316.9
376.163	332.04
376.544	314.64
376.925	325.94
377.305	299.05
377.686	325.94
378.066	323.45
378.447	308.76
378.827	337.01
379.208	332.49
379.588	326.84
379.968	347.63
380.349	328.42
380.729	328.42
381.109	315.77
381.489	326.16
381.87	351.93
382.25	335.88
382.63	336.78
383.01	363.68
383.39	329.55
383.77	318.93
384.15	325.94
384.53	325.49
384.91	337.91
385.29	342.43
385.67	332.94
386.049	345.6
386.429	333.62
386.809	335.43
387.189	348.99
387.568	342.89
387.948	350.57
388.328	357.12
388.707	352.38
389.087	358.48
389.466	357.12
389.846	369.55
390.225	369.55
390.605	377.01
390.984	366.61
391.363	346.5
391.743	352.38
392.122	364.35
392.501	353.06
392.881	369.55
393.26	382.21
393.639	352.15
394.018	357.12
394.397	349.67
394.776	376.11
395.155	363
395.534	360.29
395.913	353.51
396.292	368.42
396.671	374.52
397.05	406.16
397.429	386.05
397.808	375.88
398.186	377.24
398.565	373.85
398.944	386.28
399.323	379.72
399.701	379.5
400.08	381.53
400.458	397.57
400.837	377.01
401.215	398.03
401.594	395.99
401.972	398.93
402.351	388.31
402.729	408.87
403.107	383.11
403.486	393.51
403.864	408.65
404.242	404.35
404.62	424.69
404.999	398.7
405.377	409.55
405.755	419.27
406.133	436.9
406.511	419.72
406.889	421.08
407.267	424.24
407.645	433.51
408.023	421.3
408.401	407.74
408.779	415.43
409.156	422.66
409.534	426.73
409.912	435.77
410.29	411.81
410.667	450.68
411.045	437.57
411.422	454.97
411.8	466.95
412.178	468.31
412.555	461.75
412.933	459.49
413.31	457.23
413.687	472.83
414.065	469.44
414.442	480.06
414.819	467.4
415.197	467.18
415.574	469.89
415.951	473.28
416.328	480.06
416.705	492.71
417.082	478.93
417.46	481.64
417.837	479.38
418.214	498.81
418.591	495.65
418.967	498.36
419.344	518.25
419.721	517.12
420.098	505.59
420.475	500.17
420.852	523.22
421.228	511.7
421.605	515.76
421.982	517.12
422.358	543.56
422.735	531.58
423.111	506.5
423.488	525.03
423.864	533.39
424.241	559.83
424.617	555.08
424.994	535.65
425.37	526.16
425.746	546.5
426.123	568.19
426.499	541.3
426.875	567.06
427.251	561.64
427.627	576.1
428.003	583.56
428.379	567.06
428.756	585.14
429.132	589.89
429.507	596.67
429.883	603.9
430.259	611.13
430.635	625.59
431.011	630.79
431.387	636.44
431.763	656.55
432.138	628.98
432.514	625.82
432.89	625.59
433.265	637.57
433.641	644.12
434.016	647.06
434.392	657
434.767	657.23
435.143	658.58
435.518	676.21
435.894	677.79
436.269	669.43
436.644	696.32
437.02	682.76
437.395	700.84
437.77	716.89
438.145	710.56
438.52	724.8
438.895	714.4
439.271	719.15
439.646	727.51
440.021	733.16
440.395	723.89
440.77	729.54
441.145	716.44
441.52	734.74
441.895	748.07
442.27	723.22
442.645	747.4
443.019	752.82
443.394	776.1
443.769	744.01
444.143	768.86
444.518	778.13
444.892	763.44
445.267	772.25
445.641	775.64
446.016	785.13
446.39	795.08
446.764	792.59
447.139	802.76
447.513	802.54
447.887	805.7
448.262	804.12
448.636	808.18
449.01	842.99
449.384	814.74
449.758	832.82
450.132	833.27
450.506	845.02
450.88	861.29
451.254	859.71
451.628	866.71
452.002	857.45
452.376	861.06
452.75	869.2
453.123	896.54
453.497	910.33
453.871	883.21
454.244	913.72
454.618	917.56
454.992	922.98
455.365	939.48
455.739	943.32
456.112	987.39
456.486	983.32
456.859	965.02
457.232	950.1
457.606	985.36
457.979	988.07
458.352	1005.69
458.725	1053.38
459.099	1013.15
459.472	1043.66
459.845	1059.25
460.218	1067.61
460.591	1097.22
460.964	1095.64
461.337	1135.41
461.71	1124.33
462.083	1138.8
462.456	1133.83
462.829	1159.59
463.201	1151.45
463.574	1174.5
463.947	1195.29
464.32	1194.62
464.692	1203.43
465.065	1224.22
465.438	1247.5
465.81	1285.46
466.183	1311
466.555	1286.14
466.928	1304.9
467.3	1325.69
467.672	1352.58
468.045	1358.45
468.417	1337.89
468.789	1388.06
469.161	1403.88
469.534	1433.93
469.906	1466.47
470.278	1465.79
470.65	1516.41
471.022	1528.84
471.394	1560.48
471.766	1593.93
472.138	1614.72
472.51	1663.3
472.882	1670.31
473.253	1679.8
473.625	1757.54
473.997	1759.57
474.369	1775.62
474.74	1853.58
475.112	1889.96
475.484	1941.71
475.855	1952.34
476.227	1958.44
476.598	2037.31
476.97	2068.26
477.341	2145.55
477.713	2209.28
478.084	2230.52
478.455	2305.32
478.827	2363.4
479.198	2398.43
479.569	2433.9
479.94	2545.54
480.311	2589.16
480.682	2638.65
481.053	2773.56
481.424	2797.96
481.795	2865.98
482.166	2964.51
482.537	3020.33
482.908	3125.86
483.279	3179.65
483.65	3263.71
484.021	3364.05
484.391	3466.65
484.762	3506.42
485.133	3565.17
485.503	3663.03
485.874	3758.16
486.244	3877.71
486.615	3966.07
486.985	4069.34
487.356	4224.14
487.726	4261.65
488.097	4344.14
488.467	4396.11
488.837	4576
489.207	4633.62
489.578	4747.74
489.948	4863.9
490.318	4965.36
490.688	5080.84
491.058	5159.48
491.428	5314.51
491.798	5384.34
492.168	5495.75
492.538	5602.86
492.908	5729.41
493.278	5869.52
493.648	5916.75
494.017	6031.78
494.387	6116.97
494.757	6307.25
495.126	6370.52
495.496	6453.23
495.866	6528.94
496.235	6626.56
496.605	6850.51
496.974	6899.78
497.344	6923.73
497.713	6984.52
498.082	7120.11
498.452	7285.98
498.821	7244.4
499.19	7438.29
499.559	7542.47
499.928	7574.11
500.298	7704.5
500.667	7853.65
501.036	7854.33
501.405	7982.91
501.774	8012.97
502.143	8161.44
502.512	8194.21
502.88	8341.32
503.249	8316.24
503.618	8489.11
503.987	8576.12
504.356	8643.91
504.724	8734.98
505.093	8752.83
505.462	8881.19
505.83	8908.76
506.199	9030.79
506.567	9113.5
506.936	9230.34
507.304	9310.33
507.672	9370.67
508.041	9431.69
508.409	9532.7
508.777	9681.62
509.145	9723.43
509.514	9713.04
509.882	9784.67
510.25	9841.17
510.618	10002.97
510.986	9970.88
511.354	10114.61
511.722	10136.75
512.09	10294.94
512.458	10274.83
512.826	10442.51
513.193	10501.26
513.561	10542.39
513.929	10653.8
514.297	10650.86
514.664	10751.65
515.032	10919.56
515.4	10984.64
515.767	10946
516.135	11137.86
516.502	11057.63
516.869	11249.72
517.237	11260.79
517.604	11208.14
517.972	11474.35
518.339	11511.18
518.706	11485.42
519.073	11569.71
519.44	11682.25
519.808	11756.37
520.175	11841.34
520.542	11942.81
520.909	12017.38
521.276	12022.35
521.643	12188
522.009	12255.57
522.376	12270.71
522.743	12416.24
523.11	12420.76
523.477	12608.1
523.843	12641.77
524.21	12772.84
524.577	12838.6
524.943	12941.43
525.31	12997.02
525.676	13184.58
526.043	13185.49
526.409	13250.57
526.776	13366.5
527.142	13437.68
527.508	13560.39
527.874	13543.22
528.241	13693.5
528.607	13757.45
528.973	13907.95
529.339	13880.84
529.705	14032.24
530.071	14064.56
530.437	14195.86
530.803	14208.28
531.169	14345.91
531.535	14296.64
531.901	14365.12
532.267	14481.72
532.632	14500.71
532.998	14611.89
533.364	14667.03
533.73	14783.41
534.095	14954.03
534.461	14924.65
534.826	15074.02
535.192	14963.97
535.557	15098.88
535.923	15082.39
536.288	15216.17
536.653	15302.04
537.019	15256.84
537.384	15370.06
537.749	15439.44
538.114	15449.16
538.479	15516.72
538.845	15636.72
539.21	15607.8
539.575	15740.45
539.94	15831.74
540.305	16036.26
540.67	15803.5
541.034	15958.75
541.399	15941.57
541.764	16214.33
542.129	16101.57
542.494	16230.38
542.858	16215.92
543.223	16345.18
543.587	16383.82
543.952	16390.6
544.316	16500.2
544.681	16509.92
545.045	16633.08
545.41	16693.87
545.774	16684.6
546.138	16800.08
546.503	16847.54
546.867	16815.9
547.231	16982
547.595	17019.96
547.959	17033.3
548.324	17002.79
548.688	17101.09
549.052	17235.55
549.416	17232.61
549.779	17306.06
550.143	17344.02
550.507	17501.76
550.871	17553.06
551.235	17600.29
551.599	17669.66
551.962	17807.51
552.326	17776.55
552.689	17853.39
553.053	17777.68
553.417	17847.74
553.78	18061.97
554.143	18118.01
554.507	18077.56
554.87	18195.3
555.234	18412.69
555.597	18235.98
555.96	18384.9
556.323	18428.29
556.686	18415.86
557.05	18629.19
557.413	18612.46
557.776	18629.64
558.139	18781.72
558.502	18767.94
558.865	18927.48
559.228	19055.61
559.59	19099.68
559.953	19127.03
560.316	19283.86
560.679	19220.36
561.041	19375.15
561.404	19527.24
561.767	19644.75
562.129	19474.59
562.492	19733.34
562.854	19739.44
563.217	19776.05
563.579	19795.71
563.941	19924.52
564.304	20011.3
564.666	20166.55
565.028	20254.91
565.39	20238.18
565.753	20388.46
566.115	20372.87
566.477	20576.48
566.839	20648.34
567.201	20712.07
567.563	20662.8
567.925	20892.18
568.287	20733.76
568.648	20947.09
569.01	21098.5
569.372	21111.83
569.734	21130.59
570.095	21310.92
570.457	21317.25
570.819	21491.48
571.18	21472.27
571.542	21601.08
571.903	21612.61
572.265	21818.25
572.626	21808.76
572.987	21864.13
573.349	22053.05
573.71	21983.9
574.071	22253.72
574.432	22369.2
574.794	22542.53
575.155	22428.86
575.516	22429.99
575.877	22674.28
576.238	22776.19
576.599	23000.82
576.96	22940.03
577.32	23067.49
577.681	23211.89
578.042	23236.75
578.403	23413.24
578.763	23490.98
579.124	23683.29
579.485	23861.82
579.845	23941.81
580.206	24039.66
580.566	24105.65
580.927	24230.85
581.287	24423.84
581.648	24482.59
582.008	24748.57
582.368	24768.23
582.728	25004.84
583.089	25108.11
583.449	25269.01
583.809	25389.69
584.169	25767.98
584.529	25597.36
584.889	26007.3
585.249	26022.89
585.609	26211.13
585.969	26506.04
586.329	26546.49
586.688	26716.66
587.048	26993.03
587.408	26998.23
587.768	27276.19
588.127	27444.32
588.487	27638.67
588.846	27903.97
589.206	27883.86
589.565	28211.08
589.925	28542.14
590.284	28502.15
590.643	28736.49
591.003	29011.29
591.362	29214.9
591.721	29418.51
592.08	29434.55
592.44	29818.04
592.799	29962.22
593.158	30172.61
593.517	30303.68
593.876	30500.06
594.235	30632.49
594.593	30823.67
594.952	31033.38
595.311	31137.78
595.67	31432.69
596.029	31808.05
596.387	31904.54
596.746	32201.48
597.104	32129.85
597.463	32260.01
597.822	32574.36
598.18	32634.92
598.538	32786.55
598.897	33126.21
599.255	33097.73
599.613	33586.31
599.972	33579.75
600.33	33772.74
600.688	33634.67
601.046	34025.62
601.404	34271.71
601.762	34300.41
602.12	34549.67
602.478	34647.75
602.836	34873.96
603.194	34671.48
603.552	35003.44
603.91	34951.69
604.268	35354.17
604.625	35246.83
604.983	35616.08
605.341	35563.88
605.698	35791.45
606.056	36125.67
606.413	36058.11
606.771	36182.4
607.128	36310.3
607.485	36074.15
607.843	36447.02
608.2	36731.76
608.557	36990.06
608.914	36823.96
609.272	37142.37
609.629	37199.77
609.986	37423.72
610.343	37520.21
610.7	37832.52
611.057	37801.11
611.414	37826.65
611.771	37866.42
612.127	38234.09
612.484	38090.37
612.841	38318.84
613.198	38221.66
613.554	38509.11
613.911	38600.64
614.267	38786.85
614.624	38665.49
614.98	38952.72
615.337	39223.45
615.693	39041.3
616.05	39116.78
616.406	39453.5
616.762	39420.73
617.118	39377.11
617.475	39399.03
617.831	39616.88
618.187	39657.56
618.543	39719.48
618.899	40050.32
619.255	40039.02
619.611	40118.56
619.967	40249.63
620.323	40249.86
620.678	40119.92
621.034	40189.75
621.39	40243.98
621.746	40089.86
622.101	40763.74
622.457	40482.85
622.812	40624.77
623.168	40726.91
623.523	40630.41
623.879	40835.83
624.234	40583.18
624.589	40966.68
624.945	40782.05
625.3	40925.55
625.655	40930.29
626.01	40962.61
626.365	40950.63
626.72	41045.09
627.075	41001.7
627.43	41022.95
627.785	41036.05
628.14	41157.86
628.495	41167.58
628.85	41255.03
629.205	41064.53
629.559	41428.13
629.914	41208.25
630.269	41255.48
630.623	41156.05
630.978	41019.11
631.332	41193.11
631.687	41160.8
632.041	41222.72
632.396	41344.29
632.75	41061.36
633.104	41254.58
633.459	41160.57
633.813	41189.95
634.167	40979.33
634.521	41145.43
634.875	41184.52
635.229	41139.55
635.583	41024.3
635.937	40935.49
636.291	40956.51
636.645	41083.28
636.999	41048.48
637.352	41060.69
637.706	40860.01
638.06	41024.98
638.413	40866.57
638.767	40897.98
639.121	40857.53
639.474	40672.9
639.828	40710.86
640.181	40813.91
640.534	40791.09
640.888	40727.59
641.241	40519.23
641.594	40600.58
641.947	40899.56
642.301	40720.81
642.654	40747.25
643.007	40691.88
643.36	40603.52
643.713	40622.96
644.066	40625.22
644.419	40524.65
644.771	40151.56
645.124	39824.56
645.477	39885.8
645.83	39627.28
646.182	39461.18
646.535	39407.62
646.888	39474.29
647.24	39223.45
647.593	39422.99
647.945	39388.87
648.298	39326.49
648.65	39244.01
649.002	38993.17
649.355	39365.82
649.707	39112.71
650.059	39383.22
650.411	39712.47
650.763	39816.88
651.115	40141.39
651.467	40136.64
651.819	40026.14
652.171	39943.88
652.523	39928.29
652.875	39908.17
653.227	39729.2
653.578	40008.74
653.93	39829.31
654.282	39740.72
654.633	39639.25
654.985	39793.6
655.337	39714.51
655.688	39725.35
656.039	39866.37
656.391	39380.96
656.742	39507.28
657.094	39607.39
657.445	39748.63
657.796	39546.38
658.147	39467.28
658.498	39628.63
658.849	39625.24
659.2	39578.69
659.551	39534.17
659.902	39602.42
660.253	39659.37
660.604	39576.21
660.955	39519.71
661.306	39539.6
661.656	39433.61
662.007	39528.97
662.358	39359.49
662.708	39427.96
663.059	39512.93
663.409	39153.39
663.76	39535.53
664.11	39496.21
664.461	39407.4
664.811	39526.49
665.161	39412.82
665.511	39422.31
665.862	39470.45
666.212	39554.28
666.562	39601.29
666.912	39389.32
667.262	39333.05
667.612	39334.18
667.962	39364.01
668.312	39342.99
668.662	39489.88
669.011	39374.18
669.361	39354.52
669.711	39278.13
670.06	39150.23
670.41	39134.86
670.76	39130.79
671.109	39221.41
671.459	39167.63
671.808	39126.5
672.157	39205.14
672.507	38838.6
672.856	38938.26
673.205	38864.81
673.554	39016.67
673.904	38935.77
674.253	39270.22
674.602	38935.09
674.951	38492.17
675.3	38332.85
675.649	38929.44
675.998	38858.48
676.346	38899.39
676.695	38969.44
677.044	38737.58
677.393	38776.9
677.741	38795.89
678.09	38718.37
678.438	38775.32
678.787	38685.61
679.135	38693.29
679.484	38446.52
679.832	38605.84
680.181	38383.92
680.529	38602.45
680.877	38432.28
681.225	38463.01
681.573	38615.55
681.922	38208.56
682.27	38219.63
682.618	38324.49
682.966	38226.64
683.314	38246.75
683.661	38228.67
684.009	37920.88
684.357	38017.15
684.705	37862.13
685.053	37930.15
685.4	37674.33
685.748	37622.13
686.095	37661.91
686.443	37474.11
686.79	37565.64
687.138	37537.16
687.485	37473.89
687.832	37261.92
688.18	37481.34
688.527	37203.39
688.874	37108.93
689.221	37014.92
689.568	36910.96
689.915	36886.78
690.262	36720.69
690.609	36850.4
690.956	36664.64
691.303	36624.42
691.65	36428.49
691.997	36483.86
692.344	36153.92
692.69	36269.85
693.037	36161.38
693.383	36048.16
693.73	36170.87
694.077	35872.8
694.423	35872.8
694.769	35756.64
695.116	35736.98
695.462	35709.19
695.808	35596.42
696.155	35572.02
696.501	35389.87
696.847	35347.62
697.193	34991.47
697.539	35297.67
697.885	34934.07
698.231	34881.64
698.577	35024.23
698.923	34938.14
699.269	34697.01
699.614	34483.01
699.96	34337.92
700.306	34451.82
700.651	34366.62
700.997	34243.92
701.342	34167.99
701.688	34050.7
702.033	33972.74
702.379	34082.79
702.724	33864.49
703.069	33880.08
703.415	33538.17
703.76	33580.88
704.105	33621.79
704.45	33581.56
704.795	33276.94
705.14	33186.77
705.485	33220.67
705.83	33024.51
706.175	33196.71
706.52	33020.9
706.865	33017.51
707.209	33006.21
707.554	32750.62
707.899	32906.78
708.243	32709.72
708.588	32514.7
708.932	32399.9
709.277	32342.5
709.621	32423.85
709.966	32219.79
710.31	32293.23
710.654	32122.39
710.998	32078.55
711.342	32123.52
711.687	31892.57
712.031	31796.52
712.375	31803.98
712.719	31759.24
713.063	31778.22
713.407	31742.51
713.75	31551.11
714.094	31431.79
714.438	31358.79
714.782	31524.67
715.125	31324.67
715.469	31416.87
715.812	31174.17
716.156	30979.82
716.499	31099.37
716.843	31061.85
717.186	30833.84
717.53	30979.14
717.873	31011.91
718.216	30940.95
718.559	30726.49
718.902	30318.37
719.246	30721.07
719.589	30432.49
719.932	30361.08
720.275	30380.97
720.617	30408.76
720.96	30318.14
721.303	30275.43
721.646	30387.07
721.989	30004.48
722.331	30251.48
722.674	30136.91
723.016	30140.75
723.359	30027.3
723.701	30077.25
724.044	29820.3
724.386	29645.39
724.729	29877.03
725.071	29750.02
725.413	29740.76
725.755	29717.48
726.097	29634.32
726.439	29492.63
726.782	29484.49
727.124	29634.55
727.465	29443.82
727.807	29297.38
728.149	29247.66
728.491	29238.4
728.833	29383.25
729.175	29133.54
729.516	29104.16
729.858	29043.15
730.199	29108.91
730.541	29030.27
730.882	29078.4
731.224	29133.99
731.565	28861.01
731.906	28885.86
732.248	29002.02
732.589	28740.56
732.93	28762.03
733.271	28704.63
733.612	28731.29
733.953	28791.4
734.294	28567.46
734.635	28301.25
734.976	28539.21
735.317	28356.61
735.658	28393.67
735.999	28374.92
736.339	28447.01
736.68	28385.31
737.021	28212.44
737.361	28178.31
737.702	28272.32
738.042	28141.7
738.383	28129.73
738.723	28039.11
739.063	28108.26
739.404	27986.45
739.744	27814.71
740.084	27885.89
740.424	27930.86
740.764	27811.54
741.104	27810.41
741.444	27732.45
741.784	27614.26
742.124	27640.93
742.464	27602.73
742.804	27615.16
743.143	27487.71
743.483	27604.77
743.823	27347.37
744.162	27452.46
744.502	27398.67
744.841	27204.33
745.181	27442.29
745.52	27199.36
745.86	27294.27
746.199	27161.62
746.538	27136.31
746.877	27212.24
747.216	27165.01
747.556	27019.25
747.895	27016.54
748.234	26881.4
748.573	26870.1
748.911	26894.96
749.25	26817.44
749.589	26586.72
749.928	26682.98
750.267	26685.7
750.605	26576.32
750.944	26502.42
751.283	26488.41
751.621	26420.39
751.96	26372.03
752.298	26390.79
752.636	26299.49
752.975	26264.46
753.313	26086.84
753.651	26278.93
753.989	26138.14
754.327	26102.89
754.666	25974.08
755.004	26001.87
755.342	25924.59
755.679	25926.62
756.017	25749.68
756.355	25799.84
756.693	25603.47
