Data from hue_170_FLMS001491_00045.txt Node
Date: Tue Feb 07 16:48:44 GMT 2017
User: dcchb
Spectrometer: FLMS00149
Trigger mode: 0
Integration Time (sec): 2.000000E-2
Scans to average: 10
Electric dark correction enabled: true
Nonlinearity correction enabled: false
Boxcar width: 0
XAxis mode: Wavelengths
Number of Pixels in Spectrum: 2048
>>>>>Begin Spectral Data<<<<<
341.393	-13.91
341.776	-13.91
342.16	-13.91
342.543	-76.06
342.927	-68.37
343.31	-67.47
343.693	-72.22
344.077	-57.75
344.46	-58.88
344.843	-35.83
345.226	-20.69
345.61	-16.17
345.993	-29.28
346.376	-16.85
346.759	12.98
347.142	30.38
347.525	30.61
347.908	60.44
348.291	65.63
348.674	78.97
349.057	96.14
349.44	123.94
349.823	147.89
350.206	167.78
350.588	189.25
350.971	194.67
351.354	221.79
351.737	235.12
352.119	256.14
352.502	276.02
352.884	264.5
353.267	281.45
353.65	287.1
354.032	301.33
354.414	310.37
354.797	289.58
355.179	305.4
355.562	309.24
355.944	318.73
356.326	311.05
356.709	326.87
357.091	334.1
357.473	326.42
357.855	340.43
358.238	299.07
358.62	323.48
359.002	330.71
359.384	351.95
359.766	342.46
360.148	334.78
360.53	336.81
360.912	339.07
361.294	321.9
361.676	311.96
362.057	306.31
362.439	314.44
362.821	301.11
363.203	321.22
363.584	322.8
363.966	317.6
364.348	318.51
364.729	317.15
365.111	335.46
365.493	324.61
365.874	357.15
366.256	306.98
366.637	305.85
367.019	301.79
367.4	309.92
367.781	297.94
368.163	316.47
368.544	316.93
368.925	304.05
369.306	323.93
369.688	317.6
370.069	300.66
370.45	309.92
370.831	304.95
371.212	286.19
371.593	305.63
371.974	320.77
372.355	320.77
372.736	309.24
373.117	292.75
373.498	328.45
373.879	316.25
374.26	331.62
374.641	305.63
375.021	311.28
375.402	303.59
375.783	332.52
376.163	334.33
376.544	330.26
376.925	316.25
377.305	324.84
377.686	338.4
378.066	328.45
378.447	330.71
378.827	322.35
379.208	322.8
379.588	319.64
379.968	317.6
380.349	347.21
380.729	331.16
381.109	329.58
381.489	335.46
381.87	316.47
382.25	333.88
382.63	354.89
383.01	342.01
383.39	350.37
383.77	355.34
384.15	352.41
384.53	333.65
384.91	331.84
385.29	350.82
385.67	352.18
386.049	354.44
386.429	379.75
386.809	341.78
387.189	346.53
387.568	345.17
387.948	371.39
388.328	334.78
388.707	373.42
389.087	343.37
389.466	346.53
389.846	363.93
390.225	340.65
390.605	360.99
390.984	375.23
391.363	365.06
391.743	328.45
392.122	380.65
392.501	375.23
392.881	363.03
393.26	368
393.639	382.24
394.018	359.41
394.397	380.2
394.776	400.09
395.155	374.78
395.534	368.68
395.913	387.21
396.292	426.53
396.671	386.98
397.05	405.74
397.429	390.15
397.808	400.09
398.186	377.49
398.565	396.02
398.944	386.98
399.323	411.84
399.701	394.66
400.08	398.73
400.458	386.08
400.837	409.81
401.215	426.98
401.594	400.09
401.972	399.41
402.351	430.82
402.729	410.03
403.107	441.9
403.486	410.03
403.864	431.05
404.242	428.34
404.62	431.05
404.999	440.54
405.377	442.12
405.755	427.43
406.133	417.26
406.511	463.14
406.889	461.1
407.267	443.93
407.645	437.15
408.023	449.8
408.401	474.21
408.779	485.51
409.156	490.26
409.534	478.5
409.912	476.47
410.29	487.32
410.667	496.13
411.045	503.59
411.422	509.01
411.8	526.64
412.178	498.84
412.555	504.49
412.933	510.14
413.31	518.05
413.687	535.45
414.065	541.55
414.442	529.12
414.819	550.82
415.197	557.6
415.574	563.25
415.951	563.02
416.328	556.02
416.705	575
417.082	568.22
417.46	574.32
417.837	603.7
418.214	566.86
418.591	598.28
418.967	599.41
419.344	591.72
419.721	608.9
420.098	619.07
420.475	596.47
420.852	627.43
421.228	618.16
421.605	650.7
421.982	633.53
422.358	647.99
422.735	667.88
423.111	672.17
423.488	665.62
423.864	688.22
424.241	694.77
424.617	692.74
424.994	681.21
425.37	706.29
425.746	748.78
426.123	723.47
426.499	714.66
426.875	704.26
427.251	765.05
427.627	743.13
428.003	758.27
428.379	777.25
428.756	784.03
429.132	758.95
429.507	783.36
429.883	801.89
430.259	802.56
430.635	809.57
431.011	825.39
431.387	837.36
431.763	847.53
432.138	850.7
432.514	854.77
432.89	893.18
433.265	883.01
433.641	869.91
434.016	881.43
434.392	910.58
434.767	926.85
435.143	940.41
435.518	956.91
435.894	939.74
436.269	974.31
436.644	979.51
437.02	991.03
437.395	976.57
437.77	999.17
438.145	1026.74
438.52	1030.35
438.895	1044.59
439.271	1046.4
439.646	1075.78
440.021	1074.87
440.395	1092.05
440.77	1085.49
441.145	1123.23
441.52	1136.57
441.895	1131.59
442.27	1139.05
442.645	1148.54
443.019	1152.16
443.394	1149.67
443.769	1163.23
444.143	1178.15
444.518	1217.24
444.892	1190.12
445.267	1195.77
445.641	1221.76
446.016	1213.85
446.39	1216.79
446.764	1259.27
447.139	1239.16
447.513	1293.85
447.887	1263.12
448.262	1280.52
448.636	1289.56
449.01	1311.93
449.384	1314.87
449.758	1337.24
450.132	1341.08
450.506	1343.34
450.88	1363
451.254	1350.35
451.628	1389.67
452.002	1407.75
452.376	1423.56
452.75	1407.75
453.123	1451.59
453.497	1448.65
453.871	1450
454.244	1473.28
454.618	1484.58
454.992	1533.17
455.365	1515.99
455.739	1560.06
456.112	1579.04
456.486	1610.23
456.859	1626.95
457.232	1628.98
457.606	1634.86
457.979	1665.82
458.352	1693.84
458.725	1704.91
459.099	1759.6
459.472	1738.58
459.845	1785.14
460.218	1795.76
460.591	1852.25
460.964	1818.81
461.337	1839.6
461.71	1913.04
462.083	1942.87
462.456	1947.62
462.829	1960.95
463.201	2020.38
463.574	1994.85
463.947	2046.15
464.32	2091.57
464.692	2087.05
465.065	2151
465.438	2162.08
465.81	2209.08
466.183	2201.62
466.555	2274.16
466.928	2276.2
467.3	2316.2
467.672	2345.35
468.045	2424.22
468.417	2402.3
468.789	2441.84
469.161	2483.88
469.534	2525.23
469.906	2582.4
470.278	2616.3
470.65	2640.48
471.022	2681.16
471.394	2772.68
471.766	2845.45
472.138	2871.21
472.51	2927.71
472.882	2982.17
473.253	3035.95
473.625	3071.2
473.997	3164.76
474.369	3235.72
474.74	3253.8
475.112	3328.6
475.484	3386.9
475.855	3507.58
476.227	3541.93
476.598	3658.53
476.97	3665.31
477.341	3807.46
477.713	3867.12
478.084	3958.86
478.455	4053.78
478.827	4107.11
479.198	4260.55
479.569	4254.45
479.94	4391.62
480.311	4470.72
480.682	4638.62
481.053	4774.89
481.424	4873.87
481.795	4927.65
482.166	5030.93
482.537	5153.86
482.908	5265.05
483.279	5359.73
483.65	5446.06
484.021	5620.06
484.391	5710.68
484.762	5860.74
485.133	5934.41
485.503	6037.68
485.874	6198.58
486.244	6309.31
486.615	6446.48
486.985	6599.25
487.356	6751.33
487.726	6777.77
488.097	6977.77
488.467	7048.05
488.837	7208.95
489.207	7409.17
489.578	7531.2
489.948	7590.18
490.318	7773.23
490.688	7834.7
491.058	8056.61
491.428	8159.66
491.798	8291.63
492.168	8446.2
492.538	8554.68
492.908	8594
493.278	8772.52
493.648	8849.36
494.017	8996.25
494.387	9130.48
494.757	9262
495.126	9387.65
495.496	9478.72
495.866	9532.96
496.235	9612.73
496.605	9746.51
496.974	9881.87
497.344	9906.51
497.713	10058.59
498.082	10116.22
498.452	10277.57
498.821	10281.18
499.19	10337.45
499.559	10456.32
499.928	10529.54
500.298	10614.06
500.667	10717.11
501.036	10763.66
501.405	10842.75
501.774	10931.34
502.143	11065.12
502.512	11099.02
502.88	11169.97
503.249	11223.31
503.618	11260.59
503.987	11332.46
504.356	11360.7
504.724	11472.11
505.093	11488.16
505.462	11587.59
505.83	11583.75
506.199	11680.47
506.567	11887.24
506.936	11832.33
507.304	11906.45
507.672	11996.85
508.041	11967.47
508.409	12099.67
508.777	12148.03
509.145	12271.87
509.514	12165.65
509.882	12333.79
510.25	12322.94
510.618	12354.12
510.986	12364.07
511.354	12490.62
511.722	12481.8
512.09	12651.29
512.458	12628.02
512.826	12616.72
513.193	12648.13
513.561	12741.01
513.929	12811.06
514.297	12811.29
514.664	12935.8
515.032	12908.69
515.4	12995.01
515.767	13101
516.135	13087.21
516.502	12921.12
516.869	13113.2
517.237	13113.65
517.604	13079.53
517.972	13158.62
518.339	13288.79
518.706	13255.34
519.073	13277.49
519.44	13244.5
519.808	13343.25
520.175	13292.63
520.542	13399.07
520.909	13480.2
521.276	13423.47
521.643	13521.55
522.009	13539.18
522.376	13599.74
522.743	13610.14
523.11	13662.56
523.477	13710.7
523.843	13729.23
524.21	13791.83
524.577	13896
524.943	13785.95
525.31	13851.71
525.676	13904.14
526.043	13971.93
526.409	13972.84
526.776	14025.04
527.142	14084.7
527.508	13988.43
527.874	14060.97
528.241	14022.56
528.607	14057.13
528.973	14109.11
529.339	14092.16
529.705	14144.36
530.071	14163.12
530.437	14146.62
530.803	14131.7
531.169	14145.26
531.535	14051.48
531.901	14027.53
532.267	14082.89
532.632	14112.72
532.998	14001.31
533.364	14070.46
533.73	14169.22
534.095	14102.1
534.461	14056.68
534.826	14074.53
535.192	14036.11
535.557	14076.79
535.923	14042.89
536.288	13986.4
536.653	13947.3
537.019	13837.7
537.384	13920.64
537.749	13924.7
538.114	13798.83
538.479	13849
538.845	13795.89
539.21	13777.59
539.575	13757.7
539.94	13711.6
540.305	13764.71
540.67	13697.59
541.034	13612.4
541.399	13588.22
541.764	13670.7
542.129	13641.77
542.494	13465.73
542.858	13507.77
543.223	13382.8
543.587	13449.46
543.952	13272.52
544.316	13321.78
544.681	13257.83
545.045	13307.32
545.41	13320.2
545.774	13199.75
546.138	13131.51
546.503	13077.5
546.867	13132.41
547.231	13134.67
547.595	13082.24
547.959	13058.96
548.324	12945.07
548.688	13017.16
549.052	12970.83
549.416	12936.03
549.779	12818.52
550.143	12816.94
550.507	12855.35
550.871	12799.99
551.235	12767.22
551.599	12727.45
551.962	12720.89
552.326	12662.36
552.689	12715.24
553.053	12596.38
553.417	12579.88
553.78	12688.8
554.143	12508.24
554.507	12537.17
554.87	12538.07
555.234	12578.75
555.597	12340.34
555.96	12474.12
556.323	12501.69
556.686	12473.9
557.05	12503.27
557.413	12487.45
557.776	12440.68
558.139	12516.61
558.502	12461.01
558.865	12397.51
559.228	12465.76
559.59	12420.11
559.953	12423.28
560.316	12465.76
560.679	12342.37
561.041	12400.45
561.404	12432.54
561.767	12431.18
562.129	12355.48
562.492	12483.16
562.854	12448.36
563.217	12320.68
563.579	12408.13
563.941	12411.75
564.304	12422.6
564.666	12504.85
565.028	12365.2
565.39	12437.51
565.753	12531.97
566.115	12517.96
566.477	12480
566.839	12525.19
567.201	12563.16
567.563	12530.62
567.925	12573.33
568.287	12658.3
568.648	12518.19
569.01	12588.47
569.372	12593.89
569.734	12539.66
570.095	12661.69
570.457	12621.69
570.819	12665.53
571.18	12593.67
571.542	12621.24
571.903	12708.47
572.265	12695.13
572.626	12762.7
572.987	12730.16
573.349	12715.24
573.71	12657.85
574.071	12695.81
574.432	12750.95
574.794	12787.11
575.155	12731.97
575.516	12795.69
575.877	12777.39
576.238	12776.94
576.599	12795.02
576.96	12798.18
577.32	12858.74
577.681	12820.33
578.042	12835.92
578.403	12772.42
578.763	12839.76
579.124	12862.36
579.485	12797.05
579.845	12806.09
580.206	12795.02
580.566	12793.89
580.927	12835.92
581.287	12723.61
581.648	12766.32
582.008	12821
582.368	12851.74
582.728	12844.05
583.089	12672.76
583.449	12744.17
583.809	12786.43
584.169	12785.98
584.529	12746.2
584.889	12816.03
585.249	12722.48
585.609	12653.78
585.969	12805.41
586.329	12685.87
586.688	12712.08
587.048	12739.42
587.408	12579.43
587.768	12592.99
588.127	12695.81
588.487	12725.64
588.846	12756.37
589.206	12582.82
589.565	12622.59
589.925	12686.77
590.284	12653.55
590.643	12580.11
591.003	12669.6
591.362	12562.93
591.721	12661.23
592.08	12592.54
592.44	12637.73
592.799	12530.62
593.158	12511.18
593.517	12560.9
593.876	12588.92
594.235	12561.12
594.593	12538.98
594.952	12555.7
595.311	12460.11
595.67	12512.99
596.029	12595.7
596.387	12526.55
596.746	12519.77
597.104	12459.43
597.463	12417.4
597.822	12532.2
598.18	12393.22
598.538	12440.45
598.897	12498.75
599.255	12370.17
599.613	12555.93
599.972	12508.47
600.33	12475.93
600.688	12414.69
601.046	12548.02
601.404	12508.24
601.762	12514.12
602.12	12541.46
602.478	12549.6
602.836	12506.21
603.194	12510.73
603.552	12502.14
603.91	12451.97
604.268	12465.76
604.625	12490.62
604.983	12443.39
605.341	12421.69
605.698	12428.47
606.056	12504.85
606.413	12520.45
606.771	12556.15
607.128	12577.4
607.485	12502.59
607.843	12465.53
608.2	12522.26
608.557	12592.54
608.914	12505.76
609.272	12540.11
609.629	12609.48
609.986	12591.63
610.343	12652.2
610.7	12644.51
611.057	12646.55
611.414	12612.65
611.771	12601.8
612.127	12687.9
612.484	12600.67
612.841	12698.52
613.198	12647.68
613.554	12656.72
613.911	12664.17
614.267	12638.18
614.624	12664.4
614.98	12641.8
615.337	12682.93
615.693	12660.33
616.05	12782.59
616.406	12772.19
616.762	12761.8
617.118	12784.17
617.475	12738.97
617.831	12786.2
618.187	12723.38
618.543	12827.11
618.899	12842.93
619.255	12819.42
619.611	12700.1
619.967	12824.85
620.323	12859.65
620.678	12815.58
621.034	12839.08
621.39	12748.24
621.746	12780.33
622.101	12990.94
622.457	12753.21
622.812	12875.01
623.168	12815.58
623.523	12878.4
623.879	12787.33
624.234	12777.39
624.589	12865.52
624.945	12842.93
625.3	12818.97
625.655	12851.29
626.01	12863.26
626.365	12871.62
626.72	12785.53
627.075	12738.07
627.43	12823.26
627.785	12807.9
628.14	12804.73
628.495	12861.91
628.85	12802.25
629.205	12792.76
629.559	12776.26
629.914	12672.76
630.269	12731.97
630.623	12715.47
630.978	12639.31
631.332	12733.32
631.687	12727
632.041	12634.57
632.396	12762.48
632.75	12665.08
633.104	12610.84
633.459	12526.55
633.813	12570.16
634.167	12555.93
634.521	12536.04
634.875	12554.8
635.229	12526.32
635.583	12475.03
635.937	12513.89
636.291	12464.63
636.645	12473.22
636.999	12428.47
637.352	12509.37
637.706	12300.11
638.06	12483.16
638.413	12393.67
638.767	12374.01
639.121	12414.24
639.474	12347.57
639.828	12330.85
640.181	12360.23
640.534	12378.08
640.888	12286.1
641.241	12228.03
641.594	12287.23
641.947	12310.51
642.301	12246.1
642.654	12354.12
643.007	12290.17
643.36	12274.13
643.713	12213.79
644.066	12249.49
644.419	12214.02
644.771	12144.86
645.124	12045.88
645.477	12042.27
645.83	11889.5
646.182	11837.08
646.535	11919.11
646.888	11801.6
647.24	11819
647.593	11819.22
647.945	11840.47
648.298	11761.37
648.65	11809.51
649.002	11746.46
649.355	11832.56
649.707	11822.16
650.059	11851.99
650.411	12005.66
650.763	12049.5
651.115	12155.26
651.467	12101.25
651.819	12154.81
652.171	12066.67
652.523	12054.25
652.875	12099.89
653.227	12024.19
653.578	12120.46
653.93	12040.91
654.282	12080.01
654.633	11938.09
654.985	12069.84
655.337	12021.93
655.688	11969.5
656.039	11993.68
656.391	12037.07
656.742	12035.94
657.094	12037.97
657.445	12098.31
657.796	12104.41
658.147	12021.48
658.498	11976.28
658.849	12077.52
659.2	11960.24
659.551	12018.31
659.902	11997.52
660.253	12055.38
660.604	12097.63
660.955	12027.81
661.306	12124.75
661.656	12073.68
662.007	12086.79
662.358	12103.51
662.708	12114.58
663.059	12033.91
663.409	11978.31
663.76	12161.36
664.11	12066.9
664.461	12128.59
664.811	12111.87
665.161	12194.35
665.511	12079.56
665.862	12074.58
666.212	12153.45
666.562	12178.08
666.912	12139.21
667.262	12083.4
667.612	12099.22
667.962	12146.45
668.312	12131.53
668.662	12144.41
669.011	12105.77
669.361	12013.79
669.711	12089.95
670.06	12048.6
670.41	12040.69
670.76	12035.94
671.109	12116.39
671.459	11976.96
671.808	11994.81
672.157	12120.23
672.507	11951.2
672.856	11983.51
673.205	12037.07
673.554	11990.07
673.904	12061.02
674.253	12053.57
674.602	11978.54
674.951	11830.75
675.3	11772.67
675.649	11950.52
675.998	11970.63
676.346	11939.67
676.695	11964.98
677.044	11805.66
677.393	11950.75
677.741	11954.81
678.09	11946.23
678.438	11793.46
678.787	11819.45
679.135	11883.63
679.484	11740.36
679.832	11753.24
680.181	11747.13
680.529	11809.05
680.877	11737.64
681.225	11706.01
681.573	11806.57
681.922	11707.59
682.27	11591.88
682.618	11647.48
682.966	11582.85
683.314	11630.53
683.661	11567.93
684.009	11469.4
684.357	11515.73
684.705	11482.73
685.053	11446.35
685.4	11473.92
685.748	11444.77
686.095	11431.21
686.443	11374.49
686.79	11323.87
687.138	11314.38
687.485	11318.9
687.832	11336.75
688.18	11252.68
688.527	11262.4
688.874	11224.21
689.221	11133.14
689.568	11139.02
689.915	11087.04
690.262	11098.56
690.609	11014.5
690.956	10987.61
691.303	10959.36
691.65	10882.98
691.997	10901.96
692.344	10861.96
692.69	10788.52
693.037	10792.81
693.383	10751
693.73	10717.33
694.077	10656.54
694.423	10638.69
694.769	10664.9
695.116	10621.29
695.462	10640.05
695.808	10525.25
696.155	10554.85
696.501	10495.19
696.847	10456.55
697.193	10409.77
697.539	10384.68
697.885	10331.8
698.231	10288.87
698.577	10272.37
698.923	10262.43
699.269	10218.59
699.614	10131.58
699.96	10082.32
700.306	10147.18
700.651	9994.64
700.997	9962.55
701.342	10052.94
701.688	9916.9
702.033	9906.05
702.379	9912.15
702.724	9881.42
703.069	9815.89
703.415	9763.46
703.76	9744.93
704.105	9752.38
704.45	9708.32
704.795	9591.71
705.14	9629
705.485	9590.81
705.83	9456.35
706.175	9541.77
706.52	9562.11
706.865	9431.04
707.209	9440.53
707.554	9404.82
707.899	9414.54
708.243	9375.22
708.588	9337.71
708.932	9302.23
709.277	9270.82
709.621	9291.61
709.966	9210.93
710.31	9233.08
710.654	9167.54
710.998	9204.38
711.342	9177.71
711.687	9086.64
712.031	9129.8
712.375	9071.05
712.719	9097.71
713.063	9095
713.407	9053.19
713.75	8966.64
714.094	8993.99
714.438	8938.17
714.782	8932.29
715.125	8941.78
715.469	8942.91
715.812	8840.32
716.156	8837.15
716.499	8866.53
716.843	8830.15
717.186	8782.24
717.53	8858.62
717.873	8811.84
718.216	8793.77
718.559	8745.41
718.902	8670.83
719.246	8728.91
719.589	8671.06
719.932	8727.55
720.275	8689.36
720.617	8676.48
720.96	8696.59
721.303	8654.79
721.646	8636.03
721.989	8598.97
722.331	8633.09
722.674	8653.66
723.016	8606.2
723.359	8596.71
723.701	8620.21
724.044	8570.27
724.386	8562.36
724.729	8534.34
725.071	8541.12
725.413	8558.29
725.755	8523.49
726.097	8504.06
726.439	8512.42
726.782	8517.62
727.124	8523.94
727.465	8532.08
727.807	8499.54
728.149	8471.74
728.491	8434.45
728.833	8445.3
729.175	8466.99
729.516	8481.23
729.858	8471.29
730.199	8467.67
730.541	8441.91
730.882	8482.36
731.224	8494.34
731.565	8435.81
731.906	8488.46
732.248	8423.83
732.589	8420.89
732.93	8401.23
733.271	8413.89
733.612	8494.79
733.953	8383.83
734.294	8387.67
734.635	8494.79
734.976	8427.67
735.317	8395.36
735.658	8415.92
735.999	8459.54
736.339	8382.7
736.68	8455.7
737.021	8465.19
737.361	8402.82
737.702	8468.35
738.042	8464.96
738.383	8413.66
738.723	8459.99
739.063	8466.09
739.404	8510.38
739.744	8472.64
740.084	8416.15
740.424	8476.71
740.764	8548.12
741.104	8521.68
741.444	8517.16
741.784	8555.81
742.124	8574.79
742.464	8606.43
742.804	8621.34
743.143	8557.84
743.483	8598.06
743.823	8629.48
744.162	8666.54
744.502	8762.58
744.841	8712.86
745.181	8836.93
745.52	8806.87
745.86	8829.25
746.199	8791.96
746.538	8944.72
746.877	8938.17
747.216	8968.45
747.556	9098.39
747.895	9077.15
748.234	9072.4
748.573	9154.89
748.911	9224.94
749.25	9295.22
749.589	9341.1
749.928	9445.05
750.267	9480.08
750.605	9535.89
750.944	9573.41
751.283	9623.8
751.621	9787.19
751.96	9826.73
752.298	9889.78
752.636	10078.48
752.975	10102.88
753.313	10167.74
753.651	10306.49
753.989	10341.97
754.327	10451.8
754.666	10571.8
755.004	10661.51
755.342	10796.43
755.679	10950.77
756.017	11017.21
756.355	11187.15
756.693	11357.99
757.031	11473.7
757.368	11593.47
757.706	11738.1
758.044	11856.96
758.381	12072.55
758.719	12160.68
