Data from hue_26_FLMS001491_00004.txt Node
Date: Tue Feb 07 17:13:28 GMT 2017
User: dcchb
Spectrometer: FLMS00149
Trigger mode: 0
Integration Time (sec): 2.000000E-2
Scans to average: 10
Electric dark correction enabled: true
Nonlinearity correction enabled: false
Boxcar width: 0
XAxis mode: Wavelengths
Number of Pixels in Spectrum: 2048
>>>>>Begin Spectral Data<<<<<
341.393	2.13
341.776	2.13
342.16	2.13
342.543	-63.18
342.927	-59.11
343.31	-74.02
343.693	-65.21
344.077	-67.24
344.46	-60.69
344.843	-65.44
345.226	-31.99
345.61	-41.93
345.993	-34.93
346.376	-1.03
346.759	15.47
347.142	28.12
347.525	58.63
347.908	55.01
348.291	89.81
348.674	79.19
349.057	116.25
349.44	118.29
349.823	144.28
350.206	154.67
350.588	203.03
350.971	200.32
351.354	220.21
351.737	235.57
352.119	255.46
352.502	279.64
352.884	256.82
353.267	273.99
353.65	282.35
354.032	300.2
354.414	305.63
354.797	301.56
355.179	319.41
355.562	325.51
355.944	323.93
356.326	338.17
356.709	335.91
357.091	334.55
357.473	338.62
357.855	317.6
358.238	340.2
358.62	333.42
359.002	345.4
359.384	336.59
359.766	356.47
360.148	325.74
360.53	342.46
360.912	335.01
361.294	351.5
361.676	337.49
362.057	333.88
362.439	336.14
362.821	336.14
363.203	324.16
363.584	321.9
363.966	340.65
364.348	339.07
364.729	337.27
365.111	315.34
365.493	317.83
365.874	326.64
366.256	307.44
366.637	313.31
367.019	313.31
367.4	325.97
367.781	309.92
368.163	312.63
368.544	302.46
368.925	317.6
369.306	323.25
369.688	312.18
370.069	317.15
370.45	321.9
370.831	304.95
371.212	323.03
371.593	311.5
371.974	308.34
372.355	313.08
372.736	337.49
373.117	330.26
373.498	341.56
373.879	310.37
374.26	334.55
374.641	301.11
375.021	309.02
375.402	335.01
375.783	318.06
376.163	337.72
376.544	317.83
376.925	309.92
377.305	325.29
377.686	305.18
378.066	346.3
378.447	321.22
378.827	338.4
379.208	350.6
379.588	311.73
379.968	317.6
380.349	337.27
380.729	346.98
381.109	345.4
381.489	316.47
381.87	334.33
382.25	324.84
382.63	337.72
383.01	345.85
383.39	362.35
383.77	327.1
384.15	343.14
384.53	355.8
384.91	339.75
385.29	347.43
385.67	336.81
386.049	341.11
386.429	356.7
386.809	347.89
387.189	340.43
387.568	364.38
387.948	360.09
388.328	366.42
388.707	353.54
389.087	355.12
389.466	363.93
389.846	351.95
390.225	346.08
390.605	371.16
390.984	373.65
391.363	366.19
391.743	376.81
392.122	367.55
392.501	366.87
392.881	357.6
393.26	385.4
393.639	361.22
394.018	398.51
394.397	385.85
394.776	392.86
395.155	389.24
395.534	392.86
395.913	378.62
396.292	362.35
396.671	387.89
397.05	407.55
397.429	399.41
397.808	383.82
398.186	377.94
398.565	394.44
398.944	406.64
399.323	384.5
399.701	404.61
400.08	382.01
400.458	401.9
400.837	399.64
401.215	401.44
401.594	410.48
401.972	418.62
402.351	393.31
402.729	378.17
403.107	402.12
403.486	425.4
403.864	391.5
404.242	402.35
404.62	414.1
404.999	407.55
405.377	420.2
405.755	405.74
406.133	423.82
406.511	401.9
406.889	438.28
407.267	415.46
407.645	433.53
408.023	430.82
408.401	429.92
408.779	448.45
409.156	463.14
409.534	439.18
409.912	437.38
410.29	450.48
410.667	442.8
411.045	447.54
411.422	467.43
411.8	449.58
412.178	469.69
412.555	453.42
412.933	469.47
413.31	474.21
413.687	478.28
414.065	474.21
414.442	460.88
414.819	479.18
415.197	486.64
415.574	478.28
415.951	480.76
416.328	491.39
416.705	491.16
417.082	494.78
417.46	503.59
417.837	512.63
418.214	508.56
418.591	484.83
418.967	505.17
419.344	519.41
419.721	502.23
420.098	514.21
420.475	524.6
420.852	541.78
421.228	515.11
421.605	523.7
421.982	507.43
422.358	527.54
422.735	526.19
423.111	534.1
423.488	549.24
423.864	530.71
424.241	557.82
424.617	536.13
424.994	546.98
425.37	567.09
425.746	557.6
426.123	559.63
426.499	569.58
426.875	569.58
427.251	559.18
427.627	571.16
428.003	565.06
428.379	605.51
428.756	609.8
429.132	586.3
429.507	600.08
429.883	594.66
430.259	634.88
430.635	608.9
431.011	622.91
431.387	638.05
431.763	616.35
432.138	633.98
432.514	646.41
432.89	615.9
433.265	636.24
433.641	673.98
434.016	675.34
434.392	676.92
434.767	667.2
435.143	670.36
435.518	687.76
435.894	673.98
436.269	690.02
436.644	704.26
437.02	697.03
437.395	688.67
437.77	709.46
438.145	751.27
438.52	713.3
438.895	715.11
439.271	719.18
439.646	754.2
440.021	734.99
440.395	730.93
440.77	749.91
441.145	738.84
441.52	769.57
441.895	761.89
442.27	761.66
442.645	764.15
443.019	779.51
443.394	780.42
443.769	766.41
444.143	786.74
444.518	790.59
444.892	777.93
445.267	778.61
445.641	801.66
446.016	782
446.39	806.63
446.764	791.94
447.139	796.01
447.513	815.22
447.887	830.36
448.262	832.39
448.636	824.71
449.01	810.47
449.384	851.15
449.758	842.11
450.132	819.06
450.506	864.71
450.88	859.06
451.254	851.38
451.628	866.97
452.002	865.84
452.376	892.96
452.75	896.35
453.123	910.36
453.497	888.89
453.871	903.13
454.244	913.3
454.618	943.12
454.992	916.23
455.365	948.55
455.739	977.47
456.112	957.14
456.486	946.97
456.859	977.02
457.232	1005.5
457.606	1004.82
457.979	1008.43
458.352	1033.07
458.725	1039.39
459.099	1030.13
459.472	1033.74
459.845	1047.08
460.218	1070.58
460.591	1060.64
460.964	1086.4
461.337	1102.44
461.71	1110.8
462.083	1143.8
462.456	1145.38
462.829	1122.1
463.201	1152.38
463.574	1172.27
463.947	1158.71
464.32	1193.74
464.692	1209.11
465.065	1204.81
465.438	1214.3
465.81	1261.31
466.183	1254.3
466.555	1295.21
466.928	1280.97
467.3	1315.54
467.672	1306.28
468.045	1341.31
468.417	1341.53
468.789	1340.18
469.161	1384.24
469.534	1392.6
469.906	1435.32
470.278	1428.54
470.65	1428.54
471.022	1489.55
471.394	1480.06
471.766	1495.65
472.138	1528.87
472.51	1536.78
472.882	1574.29
473.253	1593.05
473.625	1610
473.997	1643.9
474.369	1639.83
474.74	1654.52
475.112	1704.91
475.484	1761.41
475.855	1781.75
476.227	1793.05
476.598	1822.88
476.97	1837.11
477.341	1905.36
477.713	1919.37
478.084	1964.79
478.455	1995.75
478.827	2038.92
479.198	2098.35
479.569	2087.5
479.94	2157.78
480.311	2177.89
480.682	2231
481.053	2260.15
481.424	2318.91
481.795	2336.99
482.166	2396.65
482.537	2449.75
482.908	2475.06
483.279	2500.6
483.65	2584.66
484.021	2608.84
484.391	2662.85
484.762	2695.4
485.133	2739.46
485.503	2762.51
485.874	2821.72
486.244	2855.62
486.615	2918.67
486.985	2963.18
487.356	3013.35
487.726	3097.19
488.097	3147.81
488.467	3131.09
488.837	3213.12
489.207	3271.43
489.578	3342.61
489.948	3367.24
490.318	3408.6
490.688	3423.74
491.058	3464.41
491.428	3536.96
491.798	3577.86
492.168	3664.86
492.538	3687.91
492.908	3747.12
493.278	3796.38
493.648	3788.47
494.017	3859.43
494.387	3915.25
494.757	3955.25
495.126	4030.5
495.496	4035.92
495.866	4087
496.235	4154.57
496.605	4148.69
496.974	4211.06
497.344	4270.27
497.713	4243.38
498.082	4298.52
498.452	4348.91
498.821	4368.35
499.19	4389.36
499.559	4412.41
499.928	4468.46
500.298	4527.44
500.667	4535.35
501.036	4541
501.405	4640.2
501.774	4619.64
502.143	4716.36
502.512	4674.55
502.88	4710.71
503.249	4728.56
503.618	4776.24
503.987	4805.85
504.356	4836.58
504.724	4870.93
505.093	4877.26
505.462	4900.08
505.83	4943.25
506.199	4948.67
506.567	5026.63
506.936	5048.55
507.304	5061.89
507.672	5104.15
508.041	5111.38
508.409	5172.84
508.777	5223.24
509.145	5248.77
509.514	5223.46
509.882	5276.8
510.25	5295.55
510.618	5335.78
510.986	5346.85
511.354	5399.5
511.722	5415.78
512.09	5430.46
512.458	5413.06
512.826	5455.32
513.193	5459.16
513.561	5541.65
513.929	5596.56
514.297	5617.8
514.664	5636.79
515.032	5660.74
515.4	5659.61
515.767	5684.92
516.135	5710.46
516.502	5706.16
516.869	5779.83
517.237	5761.98
517.604	5789.1
517.972	5884.69
518.339	5907.29
518.706	5924.46
519.073	5927.85
519.44	5908.42
519.808	5944.12
520.175	5955.42
520.542	6037.68
520.909	6075.42
521.276	6047.85
521.643	6135.98
522.009	6153.16
522.376	6183.21
522.743	6231.8
523.11	6279.48
523.477	6285.13
523.843	6299.14
524.21	6360.38
524.577	6403.77
524.943	6400.61
525.31	6463.88
525.676	6512.92
526.043	6582.3
526.409	6570.32
526.776	6578.46
527.142	6654.39
527.508	6686.93
527.874	6722.63
528.241	6805.12
528.607	6777.1
528.973	6816.19
529.339	6858.68
529.705	6884.89
530.071	6963.31
530.437	6936.41
530.803	7027.94
531.169	7043.53
531.535	7010.99
531.901	7107.03
532.267	7096.64
532.632	7148.39
532.998	7185.45
533.364	7203.3
533.73	7244.2
534.095	7314.93
534.461	7288.95
534.826	7375.5
535.192	7366.68
535.557	7420.69
535.923	7386.8
536.288	7462.5
536.653	7462.5
537.019	7433.8
537.384	7519.45
537.749	7575.94
538.114	7591.31
538.479	7605.1
538.845	7654.59
539.21	7617.98
539.575	7665.66
539.94	7793.11
540.305	7775.26
540.67	7764.64
541.034	7818.65
541.399	7896.61
541.764	7866.78
542.129	7934.35
542.494	7936.16
542.858	8019.78
543.223	7976.84
543.587	8093.9
543.952	8126.66
544.316	8063.84
544.681	8138.19
545.045	8165.53
545.41	8213.89
545.774	8156.95
546.138	8224.97
546.503	8255.7
546.867	8319.65
547.231	8357.17
547.595	8435.81
547.959	8404.85
548.324	8440.78
548.688	8495.47
549.052	8458.63
549.416	8492.98
549.779	8534.79
550.143	8612.08
550.507	8604.17
550.871	8625.41
551.235	8638.29
551.599	8663.6
551.962	8710.83
552.326	8767.78
552.689	8812.75
553.053	8740.43
553.417	8776.14
553.78	8945.4
554.143	8883.93
554.507	8938.62
554.87	8953.31
555.234	8989.69
555.597	8978.85
555.96	9012.29
556.323	9075.34
556.686	9074.89
557.05	9149.91
557.413	9149.24
557.776	9162.57
558.139	9254.09
558.502	9217.71
558.865	9233.3
559.228	9346.52
559.59	9331.83
559.953	9337.48
560.316	9443.01
560.679	9410.25
561.041	9423.13
561.404	9524.82
561.767	9631.94
562.129	9523.46
562.492	9627.87
562.854	9625.16
563.217	9690.47
563.579	9732.5
563.941	9681.2
564.304	9811.82
564.666	9870.12
565.028	9772.5
565.39	9828.99
565.753	9980.63
566.115	9981.31
566.477	9982.21
566.839	10050
567.201	10134.97
567.563	10099.72
567.925	10208.64
568.287	10150.34
568.648	10184.24
569.01	10273.73
569.372	10297
569.734	10334.29
570.095	10343.1
570.457	10425.36
570.819	10497.68
571.18	10494.74
571.542	10595.98
571.903	10638.24
572.265	10699.03
572.626	10742.87
572.987	10713.26
573.349	10813.15
573.71	10838.68
574.071	10903.54
574.432	10997.55
574.794	11122.07
575.155	11016.53
575.516	11097.43
575.877	11187.38
576.238	11227.15
576.599	11360.03
576.96	11391.21
577.32	11464.66
577.681	11559.34
578.042	11615.16
578.403	11701.26
578.763	11778.77
579.124	11886.79
579.485	12015.6
579.845	12148.25
580.206	12187.12
580.566	12305.99
580.927	12490.39
581.287	12679.99
581.648	12747.11
582.008	12941.45
582.368	13025.52
582.728	13164.27
583.089	13269.58
583.449	13462.57
583.809	13638.61
584.169	13825.05
584.529	14007.19
584.889	14324.02
585.249	14407.86
585.609	14550
585.969	14772.59
586.329	14968.74
586.688	15173.03
587.048	15406.47
587.408	15583.42
587.768	15813.02
588.127	15998.77
588.487	16253.68
588.846	16588.82
589.206	16732.77
589.565	17111.29
589.925	17325.97
590.284	17553.99
590.643	17890.93
591.003	18175.67
591.362	18470.35
591.721	18727.29
592.08	18975.65
592.44	19270.33
592.799	19608.62
593.158	19801.16
593.517	20091.55
593.876	20385.55
594.235	20649.27
594.593	20951.86
594.952	21296.71
595.311	21558.18
595.67	21924.72
596.029	22320.42
596.387	22684.02
596.746	22919.27
597.104	23096.67
597.463	23452.14
597.822	23756.54
598.18	23980.71
598.538	24431.77
598.897	24676.74
599.255	24751.54
599.613	25403.27
599.972	25620.89
600.33	25932.3
600.688	25963.94
601.046	26490.25
601.404	26895.89
601.762	26999.39
602.12	27526.15
602.478	27748.97
602.836	27994.17
603.194	28231.45
603.552	28412.01
603.91	28594.83
604.268	29090.63
604.625	29239.1
604.983	29708.7
605.341	29688.81
605.698	30143.04
606.056	30439.3
606.413	30723.36
606.771	30926.07
607.128	31292.84
607.485	31273.4
607.843	31618.48
608.2	32117.67
608.557	32318.8
608.914	32410.09
609.272	32780.03
609.629	33111.77
609.986	33367.58
610.343	33403.06
610.7	33848.93
611.057	33934.12
611.414	34139.99
611.771	34343.83
612.127	34573.43
612.484	34726.19
612.841	35020.65
613.198	35057.71
613.554	35387.87
613.911	35678.26
614.267	35814.98
614.624	35769.55
614.98	36109.43
615.337	36559.36
615.693	36611.79
616.05	36698.12
616.406	37162.74
616.762	37035.51
617.118	37135.39
617.475	37286.35
617.831	37546.68
618.187	37749.61
618.543	37818.99
618.899	38298.75
619.255	38223.73
619.611	38257.4
619.967	38511.63
620.323	38764.05
620.678	38561.8
621.034	38752.07
621.39	38856.7
621.746	38962.46
622.101	39390.25
622.457	39115.91
622.812	39251.27
623.168	39485.84
623.523	39652.84
623.879	39747.75
624.234	39677.47
624.589	39801.54
624.945	39897.81
625.3	40200.17
625.655	40194.52
626.01	40248.76
626.365	40280.62
626.72	40234.3
627.075	40396.55
627.43	40485.59
627.785	40519.49
628.14	40581.18
628.495	40773.26
628.85	40666.37
629.205	40527.62
629.559	41036.31
629.914	40699.82
630.269	40870.44
630.623	40720.61
630.978	40801.74
631.332	41139.58
631.687	41100.94
632.041	41013.48
632.396	41180.26
632.75	41026.14
633.104	41260.48
633.459	40981.17
633.813	41013.26
634.167	41120.15
634.521	41181.61
634.875	41223.65
635.229	41143.42
635.583	40983.65
635.937	41005.57
636.291	40942.75
636.645	41070.43
636.999	41015.52
637.352	41239.92
637.706	40941.17
638.06	41149.3
638.413	41188.62
638.767	41087.38
639.121	41239.24
639.474	40903.43
639.828	41083.76
640.181	41172.12
640.534	41152.46
640.888	41006.03
641.241	40752.47
641.594	40943.2
641.947	41166.02
642.301	41032.24
642.654	41107.72
643.007	40963.54
643.36	41018
643.713	41017.33
644.066	41082.18
644.419	40830.44
644.771	40639.26
645.124	40319.94
645.477	40248.31
645.83	40035.43
646.182	39899.16
646.535	39784.36
646.888	39968.54
647.24	39701.88
647.593	39875.43
647.945	39903.23
648.298	39670.24
648.65	39720.41
649.002	39564.71
649.355	39743.01
649.707	39673.41
650.059	39961.76
650.411	40368.08
650.763	40368.98
651.115	40714.96
651.467	40572.37
651.819	40573.5
652.171	40548.86
652.523	40529.2
652.875	40455.98
653.227	40321.98
653.578	40642.42
653.93	40492.82
654.282	40400.84
654.633	40495.08
654.985	40433.39
655.337	40476.77
655.688	40431.13
656.039	40589.54
656.391	40201.75
656.742	40447.17
657.094	40367.63
657.445	40512.71
657.796	40491.24
658.147	40397
658.498	40453.5
658.849	40421.18
659.2	40355.42
659.551	40155.43
659.902	40388.64
660.253	40290.56
660.604	40552.03
660.955	40151.13
661.306	40379.15
661.656	40303.22
662.007	40075.88
662.358	40152.94
662.708	40190.23
663.059	40203.11
663.409	40019.39
663.76	40257.12
664.11	40257.12
664.461	40241.3
664.811	40231.13
665.161	40331.92
665.511	40132.83
665.862	40222.54
666.212	40170.57
666.562	40172.83
666.912	40190
667.262	40040.18
667.612	40146.16
667.962	40211.02
668.312	40162.21
668.662	40319.94
669.011	40199.49
669.361	40083.11
669.711	40140.51
670.06	40086.28
670.41	39972.61
670.76	39888.77
671.109	40137.8
671.459	40082.43
671.808	39928.99
672.157	40135.31
672.507	39750.47
672.856	39952.95
673.205	39872.72
673.554	40108.2
673.904	39812.61
674.253	39980.06
674.602	39898.03
674.951	39312.06
675.3	39275.22
675.649	39886.96
675.998	39772.84
676.346	39761.77
676.695	39773.06
677.044	39616.46
677.393	39763.35
677.741	39662.78
678.09	39558.38
678.438	39647.64
678.787	39687.87
679.135	39654.88
679.484	39346.63
679.832	39573.75
680.181	39331.95
680.529	39297.82
680.877	39297.82
681.225	39293.98
681.573	39586.85
681.922	39152.97
682.27	38980.54
682.618	39080.2
682.966	38999.75
683.314	39085.17
683.661	38933.76
684.009	38791.85
684.357	38715.24
684.705	38827.78
685.053	38862.35
685.4	38759.98
685.748	38675.24
686.095	38704.84
686.443	38427.11
686.79	38365.64
687.138	38526.77
687.485	38526.54
687.832	38334.91
688.18	38340.56
688.527	38124.75
688.874	38105.54
689.221	37958.42
689.568	37875.71
689.915	37903.74
690.262	37708.71
690.609	37623.29
690.956	37520.92
691.303	37531.99
691.65	37339
691.997	37303.98
692.344	36957.77
692.69	37173.13
693.037	37267.14
693.383	36772.92
693.73	37012.91
694.077	36676.2
694.423	36708.96
694.769	36747.83
695.116	36594.62
695.462	36536.77
695.808	36554.84
696.155	36609.08
696.501	36329.99
696.847	36373.83
697.193	36051.35
697.539	36196.21
697.885	35980.62
698.231	35886.61
698.577	35786.95
698.923	35832.15
699.269	35692.49
699.614	35380.19
699.96	35347.42
700.306	35456.57
700.651	35237.14
700.997	35099.51
701.342	35116.92
701.688	35135.9
702.033	34786.53
702.379	34884.15
702.724	34908.56
703.069	34944.49
703.415	34610.04
703.76	34652.07
704.105	34594.44
704.45	34513.09
704.795	34212.31
705.14	34227.22
705.485	34126.89
705.83	34054.34
706.175	34099.99
706.52	33931.41
706.865	33901.58
707.209	33772.09
707.554	33698.2
707.899	33772.09
708.243	33596.96
708.588	33530.06
708.932	33388.6
709.277	33265.44
709.621	33292.78
709.966	32969.85
710.31	33273.57
710.654	32885.56
710.998	32945.67
711.342	32937.99
711.687	32817.32
712.031	32622.07
712.375	32629.07
712.719	32675.4
713.063	32585
713.407	32546.14
713.75	32465.69
714.094	32490.54
714.438	32275.63
714.782	32260.95
715.125	32206.48
715.469	32281.28
715.812	32051.69
716.156	31896.44
716.499	31902.08
716.843	32051.69
717.186	31819.15
717.53	31954.06
717.873	32019.82
718.216	31732.82
718.559	31741.64
718.902	31452.38
719.246	31652.37
719.589	31438.14
719.932	31389.1
720.275	31261.42
720.617	31324.7
720.96	31123.35
721.303	31129.9
721.646	31151.6
721.989	30981.88
722.331	31095.55
722.674	31025.72
723.016	31030.7
723.359	31088.32
723.701	30933.75
724.044	30793.64
724.386	30745.73
724.729	30804.03
725.071	30667.09
725.413	30755
725.755	30591.16
726.097	30590.71
726.439	30308.45
726.782	30416.25
727.124	30576.02
727.465	30396.81
727.807	30325.86
728.149	30315.46
728.491	30175.35
728.833	30253.09
729.175	30151.85
729.516	30038.86
729.858	30006.77
730.199	29959.54
730.541	29891.06
730.882	29936.71
731.224	30063.04
731.565	29767.9
731.906	29751.41
732.248	29817.39
732.589	29715.7
732.93	29564.52
733.271	29593.67
733.612	29582.37
733.953	29579.66
734.294	29450.85
734.635	29367.46
734.976	29525.65
735.317	29322.94
735.658	29271.19
735.999	29272.78
736.339	29237.97
736.68	29371.3
737.021	29175.6
737.361	29036.4
737.702	29102.16
738.042	29011.54
738.383	29073.91
738.723	29146.23
739.063	28863.52
739.404	28949.17
739.744	28872.56
740.084	28774.94
740.424	28798.44
740.764	28706.46
741.104	28799.12
741.444	28675.05
741.784	28630.53
742.124	28699.91
742.464	28590.08
742.804	28453.36
743.143	28506.24
743.483	28500.59
743.823	28371.1
744.162	28381.73
744.502	28442.51
744.841	28167.72
745.181	28324.78
745.52	28125.69
745.86	28213.82
746.199	28182.86
746.538	28045.01
746.877	28201.62
747.216	28012.02
747.556	28085.91
747.895	28027.38
748.234	27944.67
748.573	27864.22
748.911	27833.27
749.25	27888.86
749.589	27785.13
749.928	27765.92
750.267	27859.93
750.605	27690.67
750.944	27541.75
751.283	27563.89
751.621	27511.24
751.96	27347.63
752.298	27419.72
752.636	27445.03
752.975	27316.22
753.313	27271.47
753.651	27310.79
753.989	27131.14
754.327	27122.32
754.666	27029.22
755.004	27074.64
755.342	27109.89
755.679	26984.02
756.017	26897.92
756.355	26825.61
756.693	26781.32
757.031	26795.1
757.368	26607.99
757.706	26782.9
758.044	26525.28
758.381	26626.97
758.719	26409.12
759.056	26400.08
759.394	26307.2
759.731	26111.73
760.068	26133.65
760.405	26097.94
