Data from hue_330_FLMS001491_45.txt Node
Date: Mon Feb 06 15:45:27 GMT 2017
User: dcchb
Spectrometer: FLMS00149
Trigger mode: 0
Integration Time (sec): 2.000000E-2
Scans to average: 10
Electric dark correction enabled: true
Nonlinearity correction enabled: false
Boxcar width: 0
XAxis mode: Wavelengths
Number of Pixels in Spectrum: 2048
>>>>>Begin Spectral Data<<<<<
341.393	-25.89
341.776	-25.89
342.16	-25.89
342.543	-54.14
342.927	-52.1
343.31	-100.69
343.693	-65.44
344.077	-77.87
344.46	-80.58
344.843	-63.85
345.226	-30.18
345.61	-20.24
345.993	-32.44
346.376	1.68
346.759	4.62
347.142	24.51
347.525	61.79
347.908	66.99
348.291	86.65
348.674	112.41
349.057	112.64
349.44	108.8
349.823	142.92
350.206	164.61
350.588	188.57
350.971	203.48
351.354	207.55
351.737	238.51
352.119	254.78
352.502	269.24
352.884	256.36
353.267	272.63
353.65	294.33
354.032	288
354.414	309.7
354.797	319.64
355.179	342.91
355.562	326.64
355.944	327.1
356.326	324.84
356.709	330.03
357.091	338.4
357.473	334.33
357.855	324.38
358.238	345.4
358.62	346.08
359.002	323.71
359.384	318.51
359.766	311.73
360.148	349.47
360.53	344.5
360.912	330.49
361.294	329.58
361.676	325.06
362.057	332.75
362.439	322.12
362.821	331.16
363.203	310.83
363.584	323.71
363.966	320.09
364.348	313.76
364.729	318.06
365.111	320.99
365.493	308.11
365.874	311.73
366.256	313.76
366.637	311.5
367.019	304.05
367.4	321.45
367.781	294.33
368.163	322.12
368.544	305.85
368.925	302.46
369.306	306.98
369.688	318.06
370.069	300.43
370.45	315.8
370.831	290.26
371.212	303.37
371.593	312.41
371.974	309.24
372.355	318.73
372.736	324.16
373.117	315.57
373.498	307.21
373.879	318.73
374.26	323.48
374.641	297.72
375.021	304.72
375.402	299.98
375.783	311.28
376.163	307.21
376.544	313.99
376.925	307.89
377.305	305.85
377.686	342.24
378.066	321.67
378.447	322.35
378.827	327.32
379.208	335.01
379.588	308.79
379.968	315.57
380.349	348.34
380.729	304.95
381.109	317.6
381.489	334.33
381.87	325.97
382.25	317.6
382.63	306.53
383.01	326.19
383.39	320.77
383.77	330.71
384.15	328.45
384.53	329.13
384.91	327.1
385.29	332.29
385.67	342.01
386.049	340.88
386.429	352.18
386.809	349.02
387.189	335.68
387.568	356.7
387.948	351.05
388.328	335.68
388.707	359.41
389.087	344.5
389.466	349.47
389.846	355.12
390.225	361.67
390.605	346.98
390.984	354.89
391.363	368
391.743	346.08
392.122	352.63
392.501	362.8
392.881	365.29
393.26	370.03
393.639	353.54
394.018	371.61
394.397	366.19
394.776	376.81
395.155	378.39
395.534	363.03
395.913	367.77
396.292	376.13
396.671	384.95
397.05	381.78
397.429	385.17
397.808	365.74
398.186	377.04
398.565	391.28
398.944	376.59
399.323	377.94
399.701	410.26
400.08	373.2
400.458	405.29
400.837	413.2
401.215	392.4
401.594	370.26
401.972	388.79
402.351	399.41
402.729	405.51
403.107	413.65
403.486	427.88
403.864	415.68
404.242	401.22
404.62	399.41
404.999	429.47
405.377	415.23
405.755	433.76
406.133	431.73
406.511	424.49
406.889	442.12
407.267	414.78
407.645	426.08
408.023	432.86
408.401	440.31
408.779	450.26
409.156	459.3
409.534	467.88
409.912	441.67
410.29	480.76
410.667	468.34
411.045	470.37
411.422	477.6
411.8	464.49
412.178	476.47
412.555	509.01
412.933	477.6
413.31	501.33
413.687	487.09
414.065	531.38
414.442	519.63
414.819	514.89
415.197	542.91
415.574	547.88
415.951	527.54
416.328	543.36
416.705	546.53
417.082	553.3
417.46	579.07
417.837	565.73
418.214	558.05
418.591	579.97
418.967	571.16
419.344	564.6
419.721	606.86
420.098	614.77
420.475	604.38
420.852	621.55
421.228	610.93
421.605	610.93
421.982	613.87
422.358	605.05
422.735	643.7
423.111	637.82
423.488	641.89
423.864	662.68
424.241	671.95
424.617	649.8
424.994	680.53
425.37	674.21
425.746	670.14
426.123	678.05
426.499	670.36
426.875	692.74
427.251	705.39
427.627	715.56
428.003	719.63
428.379	716.01
428.756	719.4
429.132	717.37
429.507	735.45
429.883	752.62
430.259	756.01
430.635	765.95
431.011	767.08
431.387	771.83
431.763	801.43
432.138	793.07
432.514	798.72
432.89	824.48
433.265	817.25
433.641	821.55
434.016	843.69
434.392	830.36
434.767	858.38
435.143	880.3
435.518	900.41
435.894	862.68
436.269	879.62
436.644	894.09
437.02	896.35
437.395	912.39
437.77	922.33
438.145	947.42
438.52	930.24
438.895	948.32
439.271	950.81
439.646	962.56
440.021	979.51
440.395	965.5
440.77	940.64
441.145	963.46
441.52	987.64
441.895	1006.17
442.27	1000.3
442.645	1020.86
443.019	996.68
443.394	986.51
443.769	994.65
444.143	1007.53
444.518	1035.55
444.892	1021.77
445.267	1030.58
445.641	1050.47
446.016	1050.47
446.39	1049.79
446.764	1057.7
447.139	1046.85
447.513	1058.6
447.887	1046.4
448.262	1068.77
448.636	1059.51
449.01	1084.36
449.384	1059.96
449.758	1100.41
450.132	1090.01
450.506	1085.27
450.88	1105.61
451.254	1106.28
451.628	1098.83
452.002	1137.47
452.376	1113.97
452.75	1139.5
453.123	1115.78
453.497	1153.74
453.871	1156
454.244	1181.54
454.618	1181.54
454.992	1160.07
455.365	1188.09
455.739	1224.02
456.112	1209.78
456.486	1222.67
456.859	1255.89
457.232	1224.7
457.606	1264.7
457.979	1250.24
458.352	1272.38
458.725	1292.49
459.099	1291.36
459.472	1313.74
459.845	1333.62
460.218	1325.71
460.591	1339.5
460.964	1359.39
461.337	1358.03
461.71	1349.44
462.083	1351.93
462.456	1373.62
462.829	1361.87
463.201	1391.02
463.574	1406.16
463.947	1427.18
464.32	1433.06
464.692	1453.62
465.065	1450.46
465.438	1475.99
465.81	1481.87
466.183	1483.45
466.555	1510.57
466.928	1520.51
467.3	1515.77
467.672	1548.53
468.045	1599.38
468.417	1581.3
468.789	1560.96
469.161	1607.06
469.534	1625.37
469.906	1640.51
470.278	1654.74
470.65	1690
471.022	1671.47
471.394	1700.39
471.766	1710.56
472.138	1730.67
472.51	1737.23
472.882	1787.85
473.253	1803.89
473.625	1841.63
473.997	1844.12
474.369	1844.34
474.74	1853.61
475.112	1914.62
475.484	1919.14
475.855	1979.93
476.227	1983.78
476.598	1985.36
476.97	1992.36
477.341	2048.63
477.713	2084.56
478.084	2091.12
478.455	2117.56
478.827	2145.35
479.198	2201.17
479.569	2232.13
479.94	2272.13
480.311	2251.57
480.682	2326.37
481.053	2351.9
481.424	2398.91
481.795	2379.47
482.166	2383.31
482.537	2436.19
482.908	2476.42
483.279	2476.64
483.65	2551.44
484.021	2564.55
484.391	2611.33
484.762	2605.68
485.133	2660.82
485.503	2636.87
485.874	2732.23
486.244	2711.89
486.615	2798.22
486.985	2829.4
487.356	2829.4
487.726	2840.7
488.097	2881.38
488.467	2907.14
488.837	2989.4
489.207	3003.86
489.578	3014.93
489.948	3051.77
490.318	3077.53
490.688	3096.51
491.058	3133.58
491.428	3162.5
491.798	3187.13
492.168	3253.12
492.538	3287.92
492.908	3320.92
493.278	3340.8
493.648	3333.34
494.017	3335.38
494.387	3399.56
494.757	3376.06
495.126	3440.23
495.496	3452.89
495.866	3447.01
496.235	3496.73
496.605	3496.73
496.974	3525.66
497.344	3561.81
497.713	3608.14
498.082	3605.65
498.452	3645.88
498.821	3654.69
499.19	3666.22
499.559	3691.98
499.928	3699.44
500.298	3745.54
500.667	3751.41
501.036	3790.06
501.405	3820.79
501.774	3763.16
502.143	3794.58
502.512	3781.02
502.88	3867.57
503.249	3860.11
503.618	3876.83
503.987	3853.33
504.356	3914.35
504.724	3914.8
505.093	3909.37
505.462	3969.94
505.83	3976.04
506.199	4005.64
506.567	3980.79
506.936	4017.39
507.304	4004.29
507.672	4090.61
508.041	4076.15
508.409	4082.7
508.777	4086.32
509.145	4128.35
509.514	4141.91
509.882	4119.99
510.25	4145.75
510.618	4175.13
510.986	4159.31
511.354	4188.24
511.722	4256.48
512.09	4262.59
512.458	4256.94
512.826	4275.92
513.193	4265.52
513.561	4245.18
513.929	4315.92
514.297	4337.84
514.664	4378.97
515.032	4363.83
515.4	4356.37
515.767	4369.93
516.135	4399.31
516.502	4357.95
516.869	4457.83
517.237	4452.86
517.604	4456.25
517.972	4457.38
518.339	4429.36
518.706	4453.32
519.073	4505.52
519.44	4498.29
519.808	4523.14
520.175	4555.91
520.542	4569.24
520.909	4595.91
521.276	4589.36
521.643	4569.24
522.009	4609.24
522.376	4632.07
522.743	4663.71
523.11	4705.74
523.477	4721.56
523.843	4684.04
524.21	4736.25
524.577	4805.4
524.943	4777.37
525.31	4818.5
525.676	4852.4
526.043	4880.2
526.409	4857.6
526.776	4938.73
527.142	4913.42
527.508	5013.3
527.874	5001.55
528.241	4978.95
528.607	5013.98
528.973	5076.8
529.339	5036.58
529.705	5095.78
530.071	5157.03
530.437	5157.48
530.803	5206.52
531.169	5218.49
531.535	5221.88
531.901	5260.3
532.267	5212.62
532.632	5281.32
532.998	5264.14
533.364	5304.59
533.73	5347.08
534.095	5376.23
534.461	5380.75
534.826	5436.57
535.192	5424.59
535.557	5417.81
535.923	5561.76
536.288	5479.95
536.653	5498.26
537.019	5540.74
537.384	5533.51
537.749	5569.9
538.114	5616.22
538.479	5560.18
538.845	5629.1
539.21	5641.31
539.575	5667.29
539.94	5677.01
540.305	5741.64
540.67	5732.38
541.034	5774.86
541.399	5779.38
541.764	5822.32
542.129	5857.8
542.494	5873.39
542.858	5831.13
543.223	5926.95
543.587	5927.4
543.952	5916.1
544.316	5968.3
544.681	5950.9
545.045	6031.58
545.41	6061.41
545.774	6087.62
546.138	6104.12
546.503	6043.56
546.867	6079.26
547.231	6204.23
547.595	6183.67
547.959	6264.57
548.324	6207.17
548.688	6255.08
549.052	6275.19
549.416	6298.24
549.779	6302.08
550.143	6322.64
550.507	6364.45
550.871	6352.93
551.235	6362.64
551.599	6426.6
551.962	6431.79
552.326	6480.83
552.689	6507.72
553.053	6481.74
553.417	6506.82
553.78	6570.32
554.143	6564.45
554.507	6568.51
554.87	6586.59
555.234	6661.17
555.597	6585.01
555.96	6680.83
556.323	6695.52
556.686	6665.46
557.05	6713.14
557.413	6761.5
557.776	6775.29
558.139	6761.73
558.502	6755.18
558.865	6815.74
559.228	6846.02
559.59	6889.86
559.953	6851.44
560.316	6935.96
560.679	6918.79
561.041	7015.96
561.404	7005.56
561.767	7048.5
562.129	6994.04
562.492	7128.5
562.854	7066.35
563.217	7090.76
563.579	7081.95
563.941	7189.51
564.304	7147.71
564.666	7212.34
565.028	7192.23
565.39	7221.83
565.753	7274.71
566.115	7262.73
566.477	7234.48
566.839	7291.21
567.201	7370.3
567.563	7353.8
567.925	7414.37
568.287	7364.2
568.648	7446.91
569.01	7542.27
569.372	7516.96
569.734	7479.9
570.095	7594.93
570.457	7692.33
570.819	7638.32
571.18	7732.1
571.542	7730.29
571.903	7743.62
572.265	7803.06
572.626	7815.94
572.987	7836.5
573.349	7926.44
573.71	7989.27
574.071	8029.94
574.432	8070.17
574.794	8075.82
575.155	8163.27
575.516	8204.4
575.877	8285.53
576.238	8322.59
576.599	8413.66
576.96	8473.77
577.32	8497.28
577.681	8628.35
578.042	8650.72
578.403	8706.99
578.763	8852.75
579.124	8925.97
579.485	9055.91
579.845	9134.1
580.206	9210.93
580.566	9293.87
580.927	9421.77
581.287	9526.4
581.648	9683.91
582.008	9831.93
582.368	9936.79
582.728	10111.02
583.089	10306.95
583.449	10394.18
583.809	10485.47
584.169	10686.82
584.529	10881.85
584.889	11082.29
585.249	11193.93
585.609	11384.88
585.969	11626.01
586.329	11776.74
586.688	12044.98
587.048	12261.25
587.408	12470.96
587.768	12717.05
588.127	12848.57
588.487	13080.43
588.846	13488.56
589.206	13526.3
589.565	13743.24
589.925	14124.93
590.284	14319.04
590.643	14631.8
591.003	14864.57
591.362	15129.87
591.721	15393.14
592.08	15651.21
592.44	15915.39
592.799	16202.61
593.158	16478.99
593.517	16794.01
593.876	17067.45
594.235	17304.95
594.593	17582.91
594.952	17891.61
595.311	18140.86
595.67	18588.76
596.029	18855.2
596.387	19153.95
596.746	19550.55
597.104	19708.51
597.463	19958.44
597.822	20236.18
598.18	20440.92
598.538	20765.88
598.897	21150.73
599.255	21229.15
599.613	21817.83
599.972	21892.4
600.33	22284.94
600.688	22367.65
601.046	22878.59
601.404	23162.2
601.762	23357.68
602.12	23736.88
602.478	23980.03
602.836	24250.31
603.194	24446.46
603.552	24781.82
603.91	24837.19
604.268	25299.32
604.625	25476.27
604.983	25737.05
605.341	25898.4
605.698	26330.48
606.056	26522.79
606.413	26874.42
606.771	27087.75
607.128	27297.69
607.485	27557.34
607.843	27667.39
608.2	27982.87
608.557	28258.34
608.914	28327.26
609.272	28672.57
609.629	28942.61
609.986	29154.36
610.343	29190.29
610.7	29694.01
611.057	29813.78
611.414	29930.84
611.771	30213.54
612.127	30466.42
612.484	30591.84
612.841	30778.72
613.198	30969.23
613.554	31075.67
613.911	31429.33
614.267	31399.5
614.624	31649.89
614.98	31900.28
615.337	32141.85
615.693	32223.43
616.05	32295.97
616.406	32564.44
616.762	32585.23
617.118	32750.2
617.475	32792.68
617.831	33141.15
618.187	33313.57
618.543	33504.75
618.899	33722.83
619.255	33776.84
619.611	33846.89
619.967	34037.85
620.323	34141.57
620.678	34210.72
621.034	34275.36
621.39	34368.01
621.746	34505.86
622.101	34793.53
622.457	34838.5
622.812	34920.99
623.168	35075.79
623.523	35133.86
623.879	35286.85
624.234	35195.78
624.589	35330.7
624.945	35491.37
625.3	35562.78
625.655	35574.08
626.01	35687.75
626.365	35733.4
626.72	35745.37
627.075	35892.71
627.43	35971.81
627.785	35907.18
628.14	35924.8
628.495	36069.43
628.85	36069.21
629.205	36148.07
629.559	36453.6
629.914	36235.53
630.269	36321.63
630.623	36181.75
630.978	36325.47
631.332	36497.67
631.687	36508.07
632.041	36290.67
632.396	36627.38
632.75	36287.05
633.104	36508.74
633.459	36446.6
633.813	36372.02
634.167	36537.9
634.521	36396.66
634.875	36551.45
635.229	36621.51
635.583	36485.24
635.937	36548.52
636.291	36482.98
636.645	36524.34
636.999	36421.51
637.352	36494.73
637.706	36345.13
638.06	36582.41
638.413	36477.78
638.767	36542.19
639.121	36565.01
639.474	36425.58
639.828	36385.81
640.181	36501.51
640.534	36440.95
640.888	36381.97
641.241	36272.82
641.594	36398.92
641.947	36548.74
642.301	36358.46
642.654	36497.44
643.007	36411.57
643.36	36464.9
643.713	36435.75
644.066	36482.3
644.419	36280.73
644.771	36104.23
645.124	35759.84
645.477	35779.95
645.83	35494.08
646.182	35412.5
646.535	35322.79
646.888	35424.25
647.24	35263.8
647.593	35476
647.945	35246.18
648.298	35317.81
648.65	35229.91
649.002	35182.22
649.355	35397.81
649.707	35203.02
650.059	35342.45
650.411	35737.69
650.763	35705.83
651.115	36139.26
651.467	36140.62
651.819	36033.95
652.171	36053.84
652.523	35910.57
652.875	36024.01
653.227	35872.38
653.578	36103.33
653.93	35861.3
654.282	35798.93
654.633	35737.46
654.985	35864.69
655.337	35858.82
655.688	35809.1
656.039	35900.17
656.391	35634.42
656.742	35766.39
657.094	35814.52
657.445	35871.7
657.796	35784.02
658.147	35811.81
658.498	35693.62
658.849	35859.27
659.2	35851.36
659.551	35666.28
659.902	35723.68
660.253	35749.44
660.604	35832.6
660.955	35742.89
661.306	35682.32
661.656	35652.27
662.007	35631.25
662.358	35614.98
662.708	35667.86
663.059	35638.03
663.409	35271.04
663.76	35771.81
664.11	35674.19
664.461	35682.78
664.811	35659.27
665.161	35607.52
665.511	35508.09
665.862	35565.04
666.212	35599.84
666.562	35626.73
666.912	35629.44
667.262	35548.09
667.612	35561.88
667.962	35489.79
668.312	35527.53
668.662	35617.24
669.011	35502.89
669.361	35469.67
669.711	35447.53
670.06	35503.57
670.41	35497.92
670.76	35334.54
671.109	35352.62
671.459	35419.05
671.808	35268.55
672.157	35468.77
672.507	35231.04
672.856	35221.77
673.205	35417.02
673.554	35379.51
673.904	35227.87
674.253	35356.01
674.602	35237.14
674.951	34925.28
675.3	34620.21
675.649	35295.67
675.998	35189.23
676.346	35203.24
676.695	35356.23
677.044	34955.34
677.393	35191.49
677.741	35153.98
678.09	35094.32
678.438	35090.02
678.787	35192.62
679.135	35216.35
679.484	34889.35
679.832	35078.27
680.181	34803.03
680.529	34906.3
680.877	34743.14
681.225	34674.44
681.573	34857.04
681.922	34757.38
682.27	34560.32
682.618	34634.67
682.966	34539.08
683.314	34570.04
683.661	34390.38
684.009	34315.35
684.357	34259.76
684.705	34278.52
685.053	34318.07
685.4	34115.36
685.748	34037.17
686.095	34107.68
686.443	33924.63
686.79	33970.05
687.138	33939.32
687.485	33891.86
687.832	33993.78
688.18	33889.83
688.527	33607.35
688.874	33708.14
689.221	33653.68
689.568	33568.48
689.915	33466.34
690.262	33419.11
690.609	33285.78
690.956	33298.66
691.303	33332.56
691.65	33178.21
691.997	33096.63
692.344	32885.56
692.69	32797.65
693.037	32994.03
693.383	32656.64
693.73	32703.87
694.077	32474.95
694.423	32513.14
694.769	32412.81
695.116	32453.03
695.462	32312.92
695.808	32224.79
696.155	32237.44
696.501	31958.35
696.847	32103.21
697.193	31782.99
697.539	31908.19
697.885	31718.36
698.231	31646.27
698.577	31688.98
698.923	31597.01
699.269	31462.55
699.614	31232.5
699.96	31206.28
700.306	31346.85
700.651	31097.36
700.997	31196.57
701.342	31024.82
701.688	30928.55
702.033	30961.54
702.379	30762
702.724	30814.66
703.069	30762.45
703.415	30422.58
703.76	30462.35
704.105	30391.16
704.45	30369.7
704.795	30217.61
705.14	30058.74
705.485	30095.13
705.83	30079.31
706.175	30043.83
706.52	29963.6
706.865	29756.6
707.209	29823.72
707.554	29687.45
707.899	29688.58
708.243	29590.51
708.588	29520.68
708.932	29324.07
709.277	29270.29
709.621	29286.79
709.966	29160.01
710.31	29181.93
710.654	29029.84
710.998	29078.43
711.342	29001.82
711.687	28955.72
712.031	28852.45
712.375	28747.37
712.719	28865.33
713.063	28807.03
713.407	28906.68
713.75	28531.1
714.094	28636.41
714.438	28509.86
714.782	28564.55
715.125	28402.29
715.469	28435.96
715.812	28188.96
716.156	28138.79
716.499	28218.57
716.843	28137.21
717.186	27928.86
717.53	28245.46
717.873	28040.94
718.216	27969.98
718.559	27832.59
718.902	27830.33
719.246	27694.06
719.589	27731.12
719.932	27582.88
720.275	27615.42
720.617	27640.5
720.96	27510.79
721.303	27521.18
721.646	27537.91
721.989	27447.29
722.331	27408.42
722.674	27262.43
723.016	27353.5
723.359	27195.99
723.701	27257.91
724.044	26983.57
724.386	26959.39
724.729	27181.31
725.071	27051.14
725.413	26948.77
725.755	27052.72
726.097	26821.99
726.439	26777.47
726.782	26770.02
727.124	26746.51
727.465	26678.27
727.807	26673.52
728.149	26466.3
728.491	26465.84
728.833	26538.61
729.175	26479.18
729.516	26391.72
729.858	26384.04
730.199	26252.97
730.541	26304.49
730.882	26288.45
731.224	26345.85
731.565	26144.04
731.906	26120.54
732.248	26120.09
732.589	26049.13
732.93	25960.55
733.271	25937.95
733.612	26034.44
733.953	26120.32
734.294	25876.03
734.635	25806.65
734.976	25808.23
735.317	25802.36
735.658	25713.1
735.999	25769.14
736.339	25604.85
736.68	25686.66
737.021	25671.97
737.361	25526.43
737.702	25563.72
738.042	25615.92
738.383	25498.64
738.723	25572.76
739.063	25397.17
739.404	25382.48
739.744	25369.83
740.084	25306.78
740.424	25225.88
740.764	25257.97
741.104	25248.7
741.444	25109.04
741.784	25084.86
742.124	25117.86
742.464	25044.41
742.804	24984.98
743.143	24980.01
743.483	24961.25
743.823	24917.18
744.162	24870.86
744.502	24945.21
744.841	24725.32
745.181	24951.99
745.52	24688.04
745.86	24752.89
746.199	24572.79
746.538	24585.89
746.877	24682.16
747.216	24531.66
747.556	24550.19
747.895	24572.11
748.234	24383.19
748.573	24356.97
748.911	24365.56
749.25	24365.79
749.589	24180.25
749.928	24281.27
750.267	24192.68
750.605	24185
750.944	24069.75
751.283	24119.46
751.621	24106.13
751.96	23851.22
752.298	23928.51
752.636	23966.93
752.975	23912.01
753.313	23757.89
753.651	23828.85
753.989	23614.17
754.327	23582.76
754.666	23518.35
755.004	23621.85
755.342	23559.25
755.679	23516.77
756.017	23355.87
756.355	23479.03
756.693	23208.08
757.031	23287.85
757.368	23092.83
757.706	23128.3
758.044	23037.69
758.381	23121.52
758.719	22936.67
759.056	22943.68
759.394	22963.56
759.731	22655.32
760.068	22739.61
