Data from hue_90_FLMS001491_21.txt Node
Date: Mon Feb 06 15:24:53 GMT 2017
User: dcchb
Spectrometer: FLMS00149
Trigger mode: 0
Integration Time (sec): 2.000000E-2
Scans to average: 10
Electric dark correction enabled: true
Nonlinearity correction enabled: false
Boxcar width: 0
XAxis mode: Wavelengths
Number of Pixels in Spectrum: 2048
>>>>>Begin Spectral Data<<<<<
341.393	-14.43
341.776	-14.43
342.16	-14.43
342.543	-57.82
342.927	-56.47
343.31	-60.54
343.693	-62.79
344.077	-69.57
344.46	-60.54
344.843	-41.1
345.226	-57.37
345.61	-25.96
345.993	-18.5
346.376	-19.63
346.759	12.68
347.142	27.15
347.525	22.85
347.908	70.08
348.291	80.48
348.674	100.14
349.057	102.62
349.44	146.92
349.823	132.68
350.206	148.72
350.588	176.52
350.971	196.63
351.354	232.11
351.737	227.82
352.119	255.39
352.502	262.17
352.884	267.59
353.267	278.89
353.65	272.11
354.032	292.68
354.414	296.97
354.797	299.46
355.179	311.66
355.562	328.16
355.944	309.17
356.326	315.95
356.709	327.7
357.091	310.98
357.473	342.17
357.855	324.09
358.238	324.99
358.62	356.63
359.002	332
359.384	350.98
359.766	340.13
360.148	313.92
360.53	324.54
360.912	330.64
361.294	335.39
361.676	343.07
362.057	342.17
362.439	338.32
362.821	327.25
363.203	329.74
363.584	318.21
363.966	330.42
364.348	299
364.729	317.53
365.111	308.27
365.493	320.92
365.874	306.01
366.256	310.08
366.637	320.47
367.019	317.31
367.4	328.83
367.781	299
368.163	304.43
368.544	317.76
368.925	328.38
369.306	332.22
369.688	318.44
370.069	306.91
370.45	292.22
370.831	323.86
371.212	325.44
371.593	314.37
371.974	309.85
372.355	315.95
372.736	318.21
373.117	302.62
373.498	308.72
373.879	309.85
374.26	302.62
374.641	324.99
375.021	301.49
375.402	327.25
375.783	297.2
376.163	338.32
376.544	332.9
376.925	322.51
377.305	329.51
377.686	308.95
378.066	323.86
378.447	319.79
378.827	328.38
379.208	311.43
379.588	327.7
379.968	330.42
380.349	321.83
380.729	323.18
381.109	341.49
381.489	338.1
381.87	332.67
382.25	337.87
382.63	334.03
383.01	346.23
383.39	341.49
383.77	353.24
384.15	351.43
384.53	324.31
384.91	335.61
385.29	348.49
385.67	360.92
386.049	335.84
386.429	348.49
386.809	351.88
387.189	359.79
387.568	358.21
387.948	355.95
388.328	370.41
388.707	367.02
389.087	340.81
389.466	349.62
389.846	379.68
390.225	340.36
390.605	367.48
390.984	363.41
391.363	376.06
391.743	371.09
392.122	372.22
392.501	371.32
392.881	386.01
393.26	350.75
393.639	381.26
394.018	387.36
394.397	391.2
394.776	391.88
395.155	396.4
395.534	371.54
395.913	373.58
396.292	392.33
396.671	394.82
397.05	397.98
397.429	384.88
397.808	384.2
398.186	417.64
398.565	406.8
398.944	403.41
399.323	407.7
399.701	384.2
400.08	416.74
400.458	423.75
400.837	413.8
401.215	409.51
401.594	411.54
401.972	426.68
402.351	406.35
402.729	440.47
403.107	422.84
403.486	444.31
403.864	441.82
404.242	434.59
404.62	430.3
404.999	438.66
405.377	432.56
405.755	441.82
406.133	430.53
406.511	446.8
406.889	454.48
407.267	438.21
407.645	451.09
408.023	459.68
408.401	471.65
408.779	437.76
409.156	449.96
409.534	465.1
409.912	475.5
410.29	475.72
410.667	452.9
411.045	472.33
411.422	484.31
411.8	489.96
412.178	474.14
412.555	501.26
412.933	480.47
413.31	484.54
413.687	495.61
414.065	508.72
414.442	508.94
414.819	513.24
415.197	499
415.574	533.8
415.951	516.4
416.328	510.52
416.705	524.76
417.082	528.15
417.46	534.93
417.837	518.66
418.214	518.21
418.591	544.65
418.967	537.42
419.344	544.19
419.721	549.17
420.098	523.4
420.475	529.73
420.852	558.43
421.228	573.57
421.605	561.37
421.982	549.84
422.358	561.6
422.735	564.08
423.111	569.05
423.488	592.78
423.864	592.1
424.241	588.49
424.617	584.65
424.994	593.01
425.37	626.45
425.746	589.84
426.123	595.49
426.499	615.15
426.875	619.9
427.251	621.25
427.627	636.17
428.003	634.59
428.379	625.1
428.756	654.93
429.132	660.12
429.507	663.06
429.883	651.31
430.259	681.59
430.635	677.3
431.011	667.58
431.387	691.31
431.763	686.11
432.138	699.22
432.514	703.74
432.89	698.77
433.265	687.47
433.641	723.63
434.016	722.04
434.392	767.24
434.767	753
435.143	734.25
435.518	730.86
435.894	764.98
436.269	769.5
436.644	794.36
437.02	785.32
437.395	764.53
437.77	789.16
438.145	807.24
438.52	787.13
438.895	793
439.271	815.83
439.646	819.22
440.021	834.13
440.395	835.71
440.77	836.39
441.145	819.44
441.52	826.67
441.895	868.25
442.27	882.49
442.645	876.62
443.019	862.83
443.394	876.39
443.769	890.17
444.143	864.86
444.518	889.95
444.892	905.99
445.267	901.25
445.641	884.98
446.016	920.91
446.39	898.31
446.764	940.12
447.139	927.69
447.513	920.68
447.887	945.99
448.262	925.2
448.636	960.91
449.01	954.13
449.384	957.52
449.758	970.4
450.132	990.51
450.506	970.17
450.88	995.93
451.254	994.35
451.628	991.87
452.002	1023.73
452.376	1037.97
452.75	1036.39
453.123	1026.89
453.497	1045.65
453.871	1074.35
454.244	1083.84
454.618	1078.64
454.992	1089.27
455.365	1099.21
455.739	1135.14
456.112	1147.12
456.486	1156.83
456.859	1155.25
457.232	1159.77
457.606	1144.63
457.979	1211.3
458.352	1174.91
458.725	1229.37
459.099	1225.98
459.472	1235.48
459.845	1284.97
460.218	1298.75
460.591	1266.66
460.964	1285.19
461.337	1319.77
461.71	1317.96
462.083	1351.41
462.456	1396.15
462.829	1374.91
463.201	1411.52
463.574	1417.39
463.947	1436.37
464.32	1464.4
464.692	1485.86
465.065	1502.59
465.438	1540.33
465.81	1575.13
466.183	1551.63
466.555	1611.96
466.928	1586.65
467.3	1569.93
467.672	1618.06
468.045	1698.97
468.417	1708.91
468.789	1702.58
469.161	1731.73
469.534	1776.48
469.906	1828.91
470.278	1846.53
470.65	1840.88
471.022	1881.11
471.394	1931.28
471.766	1976.93
472.138	1990.94
472.51	2033.87
472.882	2084.27
473.253	2140.31
473.625	2158.62
473.997	2235.22
474.369	2232.51
474.74	2270.03
475.112	2307.09
475.484	2368.1
475.855	2436.35
476.227	2459.85
476.598	2547.08
476.97	2620.07
477.341	2694.42
477.713	2754.08
478.084	2826.85
478.455	2859.61
478.827	2909.56
479.198	3027.52
479.569	3082.66
479.94	3212.15
480.311	3256.44
480.682	3340.96
481.053	3468.64
481.424	3526.04
481.795	3623.44
482.166	3669.99
482.537	3774.39
482.908	3902.52
483.279	3988.17
483.65	4089.41
484.021	4156.76
484.391	4302.74
484.762	4335.28
485.133	4435.84
485.503	4576.63
485.874	4734.82
486.244	4795.16
486.615	5004.42
486.985	5034.92
487.356	5231.53
487.726	5264.75
488.097	5424.29
488.467	5525.08
488.837	5662.03
489.207	5822.93
489.578	5946.31
489.948	6071.28
490.318	6138.4
490.688	6312.86
491.058	6429.92
491.428	6582.91
491.798	6698.16
492.168	6941.09
492.538	6936.34
492.908	7065.61
493.278	7241.65
493.648	7305.6
494.017	7475.99
494.387	7635.99
494.757	7755.08
495.126	7868.3
495.496	7907.39
495.866	8096.09
496.235	8195.29
496.605	8321.84
496.974	8367.27
497.344	8609.07
497.713	8656.52
498.082	8751.21
498.452	8902.85
498.821	9032.11
499.19	9054.03
499.559	9162.5
499.928	9231.2
500.298	9345.32
500.667	9514.35
501.036	9541.02
501.405	9715.03
501.774	9759.32
502.143	9851.07
502.512	9952.08
502.88	9981.01
503.249	10052.65
503.618	10183.49
503.987	10247.22
504.356	10385.52
504.724	10452.18
505.093	10466.19
505.462	10565.85
505.83	10651.27
506.199	10825.28
506.567	10935.33
506.936	10960.19
507.304	11091.71
507.672	11105.5
508.041	11132.62
508.409	11179.17
508.777	11322.89
509.145	11417.81
509.514	11437.92
509.882	11460.97
510.25	11520.63
510.618	11621.64
510.986	11662.77
511.354	11737.12
511.722	11850.11
512.09	11932.82
512.458	11830.45
512.826	12051.01
513.193	12084
513.561	12122.2
513.929	12130.1
514.297	12263.43
514.664	12262.98
515.032	12291.91
515.4	12362.87
515.767	12399.93
516.135	12483.99
516.502	12395.86
516.869	12533.48
517.237	12655.06
517.604	12583.43
517.972	12726.7
518.339	12813.48
518.706	12720.82
519.073	12735.29
519.44	12867.03
519.808	12953.59
520.175	12862.74
520.542	13068.84
520.909	12963.08
521.276	13019.57
521.643	13137.54
522.009	13173.47
522.376	13218.66
522.743	13291.2
523.11	13321.26
523.477	13407.59
523.843	13364.65
524.21	13446.45
524.577	13530.97
524.943	13547.47
525.31	13605.77
525.676	13693.23
526.043	13731.42
526.409	13688.03
526.776	13883.05
527.142	13789.04
527.508	13872.43
527.874	13825.2
528.241	13875.82
528.607	14015.25
528.973	13950.85
529.339	13890.74
529.705	13962.6
530.071	13969.6
530.437	14063.16
530.803	14147
531.169	14082.82
531.535	14028.13
531.901	14027
532.267	14055.7
532.632	14134.35
532.998	14101.13
533.364	14144.97
533.73	14091.86
534.095	14093.67
534.461	14157.4
534.826	14168.24
535.192	14177.51
535.557	14193.1
535.923	14109.94
536.288	14214.34
536.653	14102.26
537.019	14067
537.384	14100.9
537.749	14016.16
538.114	14083.05
538.479	14080.79
538.845	14039.89
539.21	13912.2
539.575	13965.08
539.94	13985.88
540.305	13972.99
540.67	13909.27
541.034	13909.27
541.399	13905.43
541.764	13863.62
542.129	13824.07
542.494	13900.91
542.858	13962.6
543.223	13851.64
543.587	13788.59
543.952	13780.46
544.316	13789.27
544.681	13734.81
545.045	13779.55
545.41	13784.98
545.774	13719.67
546.138	13713.34
546.503	13666.34
546.867	13683.96
547.231	13772.32
547.595	13657.52
547.959	13596.73
548.324	13540.24
548.688	13620.24
549.052	13563.74
549.416	13518.09
549.779	13540.46
550.143	13508.15
550.507	13503.4
550.871	13488.94
551.235	13431.54
551.599	13522.16
551.962	13496.62
552.326	13406.23
552.689	13499.33
553.053	13331.2
553.417	13302.05
553.78	13529.84
554.143	13416.4
554.507	13382.5
554.87	13325.33
555.234	13436.74
555.597	13238.32
555.96	13353.35
556.323	13362.16
556.686	13380.24
557.05	13346.57
557.413	13344.31
557.776	13377.08
558.139	13356.06
558.502	13357.64
558.865	13280.58
559.228	13446.23
559.59	13413.23
559.953	13344.31
560.316	13389.05
560.679	13374.82
561.041	13399
561.404	13495.49
561.767	13437.64
562.129	13456.62
562.492	13472.67
562.854	13419.56
563.217	13520.12
563.579	13517.86
563.941	13563.51
564.304	13522.38
564.666	13583.85
565.028	13672.89
565.39	13583.63
565.753	13601.03
566.115	13666.56
566.477	13634.7
566.839	13655.04
567.201	13786.11
567.563	13680.57
567.925	13760.12
568.287	13654.58
568.648	13730.29
569.01	13723.51
569.372	13810.96
569.734	13759.67
570.095	13829.5
570.457	13880.57
570.819	13875.82
571.18	13866.1
571.542	13992.88
571.903	13975.48
572.265	13931.41
572.626	14076.04
572.987	13979.77
573.349	14040.11
573.71	13978.87
574.071	13955.82
574.432	14037.63
574.794	14102.48
575.155	14039.21
575.516	14041.47
575.877	14156.72
576.238	14151.07
576.599	14203.04
576.96	14141.58
577.32	14146.1
577.681	14274.46
578.042	14204.17
578.403	14200.78
578.763	14172.31
579.124	14273.1
579.485	14243.5
579.845	14242.59
580.206	14254.79
580.566	14172.31
580.927	14199.2
581.287	14280.56
581.648	14270.39
582.008	14255.02
582.368	14151.29
582.728	14214.12
583.089	14192.88
583.449	14200.11
583.809	14181.8
584.169	14217.28
584.529	14113.78
584.889	14302.25
585.249	14215.25
585.609	14160.56
585.969	14235.81
586.329	14115.82
586.688	14167.79
587.048	14182.03
587.408	14115.14
587.768	14147.23
588.127	14134.12
588.487	14100.22
588.846	14098.64
589.206	14074.69
589.565	14063.39
589.925	14169.83
590.284	14077.4
590.643	14134.57
591.003	14117.85
591.362	14126.66
591.721	14054.57
592.08	14095.02
592.44	14224.74
592.799	14103.84
593.158	14061.35
593.517	13977.74
593.876	14015.48
594.235	13939.55
594.593	13996.95
594.952	14053.44
595.311	13982.26
595.67	13983.62
596.029	14053.9
596.387	14051.18
596.746	14057.74
597.104	14059.09
597.463	14003.95
597.822	14055.48
598.18	13984.29
598.538	13928.02
598.897	14016.83
599.255	13927.8
599.613	14173.21
599.972	13996.72
600.33	13991.98
600.688	13945.42
601.046	14063.61
601.404	14030.62
601.762	13986.33
602.12	14027.91
602.478	13954.24
602.836	14134.8
603.194	13984.52
603.552	13960.11
603.91	13944.52
604.268	14080.79
604.625	14048.47
604.983	14072.65
605.341	13945.65
605.698	14088.25
606.056	14042.37
606.413	14043.95
606.771	14064.52
607.128	13990.62
607.485	13957.4
607.843	14069.04
608.2	14176.83
608.557	14185.87
608.914	14104.97
609.272	14112.43
609.629	14213.67
609.986	14248.69
610.343	14179.54
610.7	14215.02
611.057	14176.38
611.414	14210.73
611.771	14254.57
612.127	14130.73
612.484	14230.84
612.841	14261.12
613.198	14274
613.554	14181.35
613.911	14332.31
614.267	14285.53
614.624	14252.08
614.98	14308.13
615.337	14345.19
615.693	14311.06
616.05	14270.39
616.406	14384.06
616.762	14258.41
617.118	14305.87
617.475	14355.13
617.831	14439.87
618.187	14388.12
618.543	14412.3
618.899	14506.31
619.255	14490.49
619.611	14420.21
619.967	14628.8
620.323	14572.53
620.678	14467.67
621.034	14457.95
621.39	14458.18
621.746	14389.03
622.101	14570.27
622.457	14412.08
622.812	14480.33
623.168	14459.76
623.523	14453.66
623.879	14509.7
624.234	14448.01
624.589	14523.71
624.945	14421.12
625.3	14490.04
625.655	14441
626.01	14417.28
626.365	14554.45
626.72	14575.46
627.075	14419.31
627.43	14421.12
627.785	14457.5
628.14	14414.34
628.495	14391.51
628.85	14471.51
629.205	14405.98
629.559	14449.82
629.914	14350.16
630.269	14471.06
630.623	14389.71
630.978	14356.49
631.332	14379.76
631.687	14428.58
632.041	14369.82
632.396	14400.1
632.75	14282.14
633.104	14250.05
633.459	14238.3
633.813	14262.03
634.167	14267.45
634.521	14187
634.875	14248.47
635.229	14195.81
635.583	14136.15
635.937	14137.96
636.291	14045.08
636.645	14129.83
636.999	14076.72
637.352	14175.47
637.706	14008.47
638.06	14134.8
638.413	13981.58
638.767	13978.42
639.121	14034.91
639.474	13972.99
639.828	13885.54
640.181	13885.31
640.534	13935.48
640.888	13871.75
641.241	13815.71
641.594	13912.66
641.947	13890.06
642.301	13856.61
642.654	13839.21
643.007	13853.9
643.36	13871.98
643.713	13888.7
644.066	13946.55
644.419	13794.02
644.771	13767.12
645.124	13619.78
645.477	13565.1
645.83	13524.42
646.182	13449.17
646.535	13394.25
646.888	13426.12
647.24	13349.28
647.593	13451.2
647.945	13395.83
648.298	13350.64
648.65	13349.06
649.002	13337.08
649.355	13301.6
649.707	13308.83
650.059	13268.15
650.411	13566.9
650.763	13562.16
651.115	13720.8
651.467	13706.56
651.819	13708.59
652.171	13645.09
652.523	13671.53
652.875	13590.63
653.227	13598.54
653.578	13616.39
653.93	13535.27
654.282	13528.26
654.633	13564.19
654.985	13615.94
655.337	13543.17
655.688	13617.3
656.039	13648.03
656.391	13570.74
656.742	13607.81
657.094	13626.11
657.445	13630.86
657.796	13573.23
658.147	13586.56
658.498	13580.01
658.849	13671.31
659.2	13657.52
659.551	13561.25
659.902	13638.77
660.253	13566.45
660.604	13535.94
660.955	13565.32
661.306	13527.81
661.656	13585.43
662.007	13602.61
662.358	13541.59
662.708	13637.86
663.059	13582.5
663.409	13580.91
663.76	13644.87
664.11	13582.95
664.461	13654.36
664.811	13686.22
665.161	13695.49
665.511	13675.83
665.862	13619.78
666.212	13716.05
666.562	13634.92
666.912	13705.88
667.262	13684.87
667.612	13637.18
667.962	13617.52
668.312	13747.01
668.662	13658.2
669.011	13697.97
669.361	13604.42
669.711	13585.43
670.06	13644.19
670.41	13540.92
670.76	13500.92
671.109	13604.64
671.459	13542.95
671.808	13520.58
672.157	13592.21
672.507	13497.75
672.856	13411.2
673.205	13566.9
673.554	13587.47
673.904	13466.11
674.253	13518.99
674.602	13485.1
674.951	13319.45
675.3	13293.24
675.649	13448.49
675.998	13375.72
676.346	13359.45
676.695	13387.7
677.044	13293.92
677.393	13412.1
677.741	13373.24
678.09	13350.41
678.438	13323.07
678.787	13349.51
679.135	13345.44
679.484	13228.83
679.832	13296.18
680.181	13266.12
680.529	13211.88
680.877	13261.15
681.225	13128.5
681.573	13299.34
681.922	13205.1
682.27	13095.96
682.618	13132.56
682.966	13042.62
683.314	13116.97
683.661	13012.79
684.009	12992.91
684.357	12951.78
684.705	12956.98
685.053	12863.19
685.4	12835.4
685.748	12843.98
686.095	12803.76
686.443	12707.72
686.79	12712.01
687.138	12815.28
687.485	12840.82
687.832	12790.88
688.18	12699.58
688.527	12642.63
688.874	12634.95
689.221	12637.66
689.568	12593.6
689.915	12585.46
690.262	12540.72
690.609	12508.4
690.956	12437.89
691.303	12435.41
691.65	12355.41
691.997	12322.64
692.344	12308.63
692.69	12212.14
693.037	12240.84
693.383	12131.69
693.73	12162.19
694.077	12069.54
694.423	12061.63
694.769	12008.07
695.116	11933.05
695.462	11925.82
695.808	11902.54
696.155	11961.52
696.501	11788.64
696.847	11779.15
697.193	11696.22
697.539	11758.14
697.885	11649.67
698.231	11604.47
698.577	11604.02
698.923	11537.35
699.269	11402.89
699.614	11423.46
699.96	11338.26
700.306	11328.09
700.651	11357.92
700.997	11323.8
701.342	11214.87
701.688	11253.07
702.033	11229.11
702.379	11104.37
702.724	11140.07
703.069	11119.51
703.415	11015.56
703.76	11029.34
704.105	11016.46
704.45	10927.2
704.795	11001.32
705.14	10837.94
705.485	10827.99
705.83	10802
706.175	10824.15
706.52	10773.76
706.865	10784.83
707.209	10743.02
707.554	10676.13
707.899	10682.91
708.243	10703.93
708.588	10581.9
708.932	10471.39
709.277	10517.27
709.621	10526.98
709.966	10446.08
710.31	10544.84
710.654	10336.71
710.998	10387.33
711.342	10378.06
711.687	10344.62
712.031	10251.74
712.375	10261.45
712.719	10279.98
713.063	10254.9
713.407	10256.93
713.75	10150.04
714.094	10218.97
714.438	10172.42
714.782	10103.49
715.125	10133.55
715.469	10073.66
715.812	9987.79
716.156	10057.84
716.499	10016.04
716.843	9999.77
717.186	9861.69
717.53	9943.27
717.873	9989.37
718.216	9991.18
718.559	9859.2
718.902	9847.9
719.246	9920.9
719.589	9854.23
719.932	9832.99
720.275	9764.29
720.617	9871.41
720.96	9855.59
721.303	9844.06
721.646	9849.49
721.989	9740.34
722.331	9742.6
722.674	9827.57
723.016	9780.79
723.359	9724.97
723.701	9677.74
724.044	9721.58
724.386	9635.26
724.729	9714.12
725.071	9630.96
725.413	9635.93
725.755	9611.75
726.097	9661.24
726.439	9578.99
726.782	9600.45
727.124	9570.85
727.465	9575.82
727.807	9605.88
728.149	9576.27
728.491	9550.51
728.833	9607.23
729.175	9561.58
729.516	9578.99
729.858	9471.19
730.199	9569.72
730.541	9547.57
730.882	9524.3
731.224	9577.86
731.565	9552.32
731.906	9486.56
732.248	9526.33
732.589	9499.21
732.93	9409.72
733.271	9399.78
733.612	9492.66
733.953	9505.77
734.294	9398.2
734.635	9413.57
734.976	9527.91
735.317	9447.01
735.658	9413.57
735.999	9453.79
736.339	9474.13
736.68	9518.65
737.021	9469.61
737.361	9461.47
737.702	9490.85
738.042	9481.13
738.383	9393.91
738.723	9437.52
739.063	9470.29
739.404	9508.7
739.744	9459.21
740.084	9444.07
740.424	9484.52
740.764	9510.29
741.104	9507.8
741.444	9510.51
741.784	9453.11
742.124	9575.37
742.464	9508.03
742.804	9535.6
743.143	9523.39
743.483	9573.11
743.823	9617.85
744.162	9595.48
744.502	9696.04
744.841	9671.19
745.181	9629.38
745.52	9734.69
745.86	9728.81
746.199	9756.16
746.538	9778.3
746.877	9883.16
747.216	9863.72
747.556	9854.68
747.895	9954.34
748.234	9917.51
748.573	10021.91
748.911	10099.42
749.25	10080.89
749.589	10045.19
749.928	10209.7
750.267	10229.59
750.605	10271.85
750.944	10343.71
751.283	10403.82
751.621	10508.45
751.96	10526.31
752.298	10689.46
752.636	10680.88
752.975	10741.67
753.313	10817.14
753.651	11029.57
753.989	11042.22
754.327	11078.83
754.666	11138.27
755.004	11341.65
755.342	11423.23
755.679	11542.32
756.017	11579.38
756.355	11645.82
756.693	11832.71
757.031	11961.97
757.368	12045.81
757.706	12167.39
758.044	12299.14
758.381	12468.17
