Data from hue_270_FLMS001491_00018.txt Node
Date: Tue Feb 07 15:56:50 GMT 2017
User: dcchb
Spectrometer: FLMS00149
Trigger mode: 0
Integration Time (sec): 2.000000E-2
Scans to average: 10
Electric dark correction enabled: true
Nonlinearity correction enabled: false
Boxcar width: 0
XAxis mode: Wavelengths
Number of Pixels in Spectrum: 2048
>>>>>Begin Spectral Data<<<<<
341.393	-19.36
341.776	-19.36
342.16	-19.36
342.543	-73.15
342.927	-55.75
343.31	-55.3
343.693	-72.24
344.077	-59.59
344.46	-54.17
344.843	-55.07
345.226	-53.94
345.61	-48.74
345.993	-15.07
346.376	-12.58
346.759	17.7
347.142	25.38
347.525	23.8
347.908	50.69
348.291	99.73
348.674	87.75
349.057	121.65
349.44	104.7
349.823	153.96
350.206	156.9
350.588	197.35
350.971	203.91
351.354	232.38
351.737	209.78
352.119	236.9
352.502	242.1
352.884	261.98
353.267	275.77
353.65	286.84
354.032	304.24
354.414	308.99
354.797	315.77
355.179	302.44
355.562	307.63
355.944	318.48
356.326	312.83
356.709	317.58
357.091	324.81
357.473	315.09
357.855	329.55
358.238	341.98
358.62	334.53
359.002	311.93
359.384	333.4
359.766	332.72
360.148	330.23
360.53	317.8
360.912	335.2
361.294	334.3
361.676	344.47
362.057	319.16
362.439	354.19
362.821	314.86
363.203	308.76
363.584	311.93
363.966	320.97
364.348	318.71
364.729	297.46
365.111	312.83
365.493	306.96
365.874	298.37
366.256	301.76
366.637	315.09
367.019	297.92
367.4	315.09
367.781	313.73
368.163	314.19
368.544	297.69
368.925	299.95
369.306	310.8
369.688	303.34
370.069	306.05
370.45	291.36
370.831	304.7
371.212	310.34
371.593	292.94
371.974	300.4
372.355	304.47
372.736	297.01
373.117	309.67
373.498	311.47
373.879	333.62
374.26	318.25
374.641	316.22
375.021	316.9
375.402	288.88
375.783	331.14
376.163	312.83
376.544	325.03
376.925	314.41
377.305	323.45
377.686	317.58
378.066	341.53
378.447	332.04
378.827	330.91
379.208	324.58
379.588	323.45
379.968	329.33
380.349	336.56
380.729	345.82
381.109	337.69
381.489	350.57
381.87	357.35
382.25	312.38
382.63	322.32
383.01	332.04
383.39	338.59
383.77	349.44
384.15	325.03
384.53	319.61
384.91	346.73
385.29	334.98
385.67	330.23
386.049	334.3
386.429	363.9
386.809	344.47
387.189	328.42
387.568	338.37
387.948	361.64
388.328	342.43
388.707	352.38
389.087	356.9
389.466	383.56
389.846	372.04
390.225	371.36
390.605	350.8
390.984	372.72
391.363	372.49
391.743	353.06
392.122	372.49
392.501	385.37
392.881	383.79
393.26	369.78
393.639	363.45
394.018	380.85
394.397	371.36
394.776	388.76
395.155	392.15
395.534	404.58
395.913	413.39
396.292	415.43
396.671	384.69
397.05	383.34
397.429	402.09
397.808	406.39
398.186	417.01
398.565	419.49
398.944	409.33
399.323	416.1
399.701	407.52
400.08	427.63
400.458	419.72
400.837	415.2
401.215	431.25
401.594	417.69
401.972	419.27
402.351	431.92
402.729	412.94
403.107	419.04
403.486	435.77
403.864	417.01
404.242	455.43
404.62	461.75
404.999	457.91
405.377	443.22
405.755	459.49
406.133	458.36
406.511	446.39
406.889	460.85
407.267	467.18
407.645	445.71
408.023	475.76
408.401	458.59
408.779	483.22
409.156	491.36
409.534	506.72
409.912	515.54
410.29	511.24
410.667	521.41
411.045	532.26
411.422	530.45
411.8	537.68
412.178	537.01
412.555	546.72
412.933	556.21
413.31	554.41
413.687	552.37
414.065	559.6
414.442	596.67
414.819	593.95
415.197	573.16
415.574	614.52
415.951	626.27
416.328	618.81
416.705	617.91
417.082	615.2
417.46	618.13
417.837	619.04
418.214	629.43
418.591	631.01
418.967	670.11
419.344	663.1
419.721	683.67
420.098	677.11
420.475	674.63
420.852	688.41
421.228	684.35
421.605	713.95
421.982	714.4
422.358	747.85
422.735	744.68
423.111	744.01
423.488	761.63
423.864	778.13
424.241	772.25
424.617	784.68
424.994	775.87
425.37	813.38
425.746	808.41
426.123	817.45
426.499	828.75
426.875	834.17
427.251	878.69
427.627	883.89
428.003	896.54
428.379	919.59
428.756	932.25
429.132	911.01
429.507	934.74
429.883	927.5
430.259	958.46
430.635	972.47
431.011	951.46
431.387	976.99
431.763	957.11
432.138	995.3
432.514	1024.45
432.89	1024.22
433.265	1066.71
433.641	1052.25
434.016	1117.1
434.392	1107.39
434.767	1126.82
435.143	1131.79
435.518	1138.35
435.894	1164.33
436.269	1162.53
436.644	1186.25
437.02	1186.48
437.395	1224.45
437.77	1245.01
438.145	1258.57
438.52	1292.24
438.895	1314.61
439.271	1298.57
439.646	1333.82
440.021	1332.01
440.395	1346.93
440.77	1384.89
441.145	1383.31
441.52	1378.11
441.895	1416.76
442.27	1400.94
442.645	1398.9
443.019	1455.85
443.394	1454.27
443.769	1454.27
444.143	1440.48
444.518	1468.96
444.892	1482.07
445.267	1488.39
445.641	1528.62
446.016	1492.01
446.39	1536.53
446.764	1518.67
447.139	1525
447.513	1538.79
447.887	1552.12
448.262	1584.44
448.636	1552.57
449.01	1610.88
449.384	1602.51
449.758	1595.06
450.132	1645.9
450.506	1641.61
450.88	1627.15
451.254	1646.36
451.628	1682.74
452.002	1699.69
452.376	1669.18
452.75	1705.11
453.123	1707.37
453.497	1736.07
453.871	1754.15
454.244	1781.27
454.618	1772
454.992	1801.61
455.365	1807.93
455.739	1839.57
456.112	1879.34
456.486	1896.74
456.859	1859.68
457.232	1922.28
457.606	1907.37
457.979	1948.95
458.352	1969.06
458.725	1964.99
459.099	1978.32
459.472	1995.05
459.845	2037.98
460.218	2045.44
460.591	2085.21
460.964	2091.54
461.337	2113.01
461.71	2133.8
462.083	2170.18
462.456	2154.82
462.829	2174.7
463.201	2199.33
463.574	2207.02
463.947	2205.89
464.32	2306.9
464.692	2300.8
465.065	2294.02
465.438	2314.13
465.81	2312.55
466.183	2406.11
466.555	2401.59
466.928	2422.83
467.3	2404.98
467.672	2445.88
468.045	2486.11
468.417	2501.02
468.789	2516.39
469.161	2541.25
469.534	2617.63
469.906	2657.85
470.278	2641.81
470.65	2656.05
471.022	2692.66
471.394	2767.23
471.766	2766.78
472.138	2776.49
472.51	2844.29
472.882	2875.25
473.253	2887.23
473.625	2928.36
473.997	2976.26
474.369	2967.22
474.74	3042.93
475.112	3075.7
475.484	3100.33
475.855	3123.6
476.227	3174.22
476.598	3237.27
476.97	3263.26
477.341	3297.16
477.713	3326.54
478.084	3385.29
478.455	3399.98
478.827	3479.3
479.198	3519.98
479.569	3522.92
479.94	3634.33
480.311	3639.07
480.682	3698.28
481.053	3795.68
481.424	3794.77
481.795	3813.3
482.166	3902.57
482.537	3905.96
482.908	4004.26
483.279	4037.93
483.65	4073.86
484.021	4115.44
484.391	4175.33
484.762	4171.26
485.133	4204.71
485.503	4258.49
485.874	4346.85
486.244	4357.47
486.615	4421.42
486.985	4464.13
487.356	4543.68
487.726	4542.32
488.097	4641.76
488.467	4589.1
488.837	4719.04
489.207	4808.53
489.578	4763.11
489.948	4865.25
490.318	4873.39
490.688	4897.12
491.058	4995.87
491.428	5027.06
491.798	5078.58
492.168	5168.3
492.538	5153.38
492.908	5146.38
493.278	5214.17
493.648	5239.25
494.017	5313.6
494.387	5322.87
494.757	5371.45
495.126	5356.54
495.496	5420.04
495.866	5432.92
496.235	5484.67
496.605	5549.08
496.974	5575.07
497.344	5618.91
497.713	5631.56
498.082	5643.09
498.452	5674.27
498.821	5668.4
499.19	5663.65
499.559	5753.59
499.928	5764.21
500.298	5747.04
500.667	5869.52
501.036	5790.65
501.405	5885.34
501.774	5876.53
502.143	5877.88
502.512	5925.56
502.88	5925.56
503.249	5918.11
503.618	5976.41
503.987	5950.65
504.356	6010.08
504.724	6028.16
505.093	6073.81
505.462	6037.43
505.83	6091.44
506.199	6137.54
506.567	6217.53
506.936	6153.36
507.304	6220.25
507.672	6232
508.041	6287.36
508.409	6232.9
508.777	6277.65
509.145	6332.79
509.514	6352.45
509.882	6373.46
510.25	6316.74
510.618	6379.56
510.986	6395.61
511.354	6418.43
511.722	6440.35
512.09	6490.52
512.458	6481.48
512.826	6466.57
513.193	6523.51
513.561	6509.05
513.929	6516.96
514.297	6550.41
514.664	6593.12
515.032	6615.94
515.4	6549.5
515.767	6603.29
516.135	6672.21
516.502	6606.9
516.869	6650.74
517.237	6661.36
517.604	6653.23
517.972	6657.52
518.339	6683.06
518.706	6682.83
519.073	6700.46
519.44	6726.22
519.808	6758.54
520.175	6751.08
520.542	6828.59
520.909	6850.96
521.276	6783.17
521.643	6907.91
522.009	6892.77
522.376	6928.02
522.743	6869.49
523.11	6970.28
523.477	6987.01
523.843	6940.68
524.21	6998.08
524.577	7120.79
524.943	7049.38
525.31	7115.82
525.676	7157.62
526.043	7117.17
526.409	7096.83
526.776	7207.79
527.142	7214.8
527.508	7216.83
527.874	7260.22
528.241	7251.86
528.607	7237.62
528.973	7271.52
529.339	7259.54
529.705	7341.57
530.071	7308.13
530.437	7399.42
530.803	7393.32
531.169	7431.97
531.535	7405.3
531.901	7379.09
532.267	7424.73
532.632	7429.03
532.998	7454.56
533.364	7512.42
533.73	7468.57
534.095	7532.53
534.461	7468.8
534.826	7553.77
535.192	7570.49
535.557	7601.9
535.923	7575.46
536.288	7571.4
536.653	7605.29
537.019	7503.15
537.384	7588.12
537.749	7584.5
538.114	7600.32
538.479	7571.17
538.845	7636.71
539.21	7633.77
539.575	7618.4
539.94	7635.8
540.305	7630.15
540.67	7598.29
541.034	7668.57
541.399	7657.72
541.764	7652.52
542.129	7701.79
542.494	7631.73
542.858	7761.45
543.223	7638.74
543.587	7751.51
543.952	7707.44
544.316	7726.87
544.681	7735.69
545.045	7677.61
545.41	7876.93
545.774	7714.22
546.138	7759.41
546.503	7812.52
546.867	7729.81
547.231	7802.8
547.595	7792.18
547.959	7825.85
548.324	7797.38
548.688	7781.79
549.052	7802.58
549.416	7816.81
549.779	7812.29
550.143	7831.96
550.507	7877.15
550.871	7846.19
551.235	7868.56
551.599	7880.09
551.962	7898.85
552.326	7963.7
552.689	7912.63
553.053	7838.51
553.417	7848
553.78	7938.17
554.143	8003.93
554.507	7991.05
554.87	7930.94
555.234	7996.7
555.597	7971.39
555.96	7942.23
556.323	8024.72
556.686	7946.08
557.05	8026.3
557.413	8011.16
557.776	8039.41
558.139	8099.29
558.502	8082.8
558.865	8081.21
559.228	8181.1
559.59	8136.13
559.953	8100.87
560.316	8186.75
560.679	8200.98
561.041	8260.42
561.404	8277.37
561.767	8340.87
562.129	8308.55
562.492	8346.74
562.854	8382.68
563.217	8340.19
563.579	8384.26
563.941	8396.69
564.304	8492.95
564.666	8462.67
565.028	8462.22
565.39	8538.15
565.753	8555.55
566.115	8518.04
566.477	8641.43
566.839	8582.67
567.201	8641.2
567.563	8703.57
567.925	8734.98
568.287	8706.06
568.648	8704.25
569.01	8756.45
569.372	8803.68
569.734	8836.67
570.095	8835.32
570.457	8871.02
570.819	8861.08
571.18	8941.3
571.542	8908.76
571.903	8974.75
572.265	8979.72
572.626	9007.97
572.987	9037.57
573.349	9100.85
573.71	9080.74
574.071	9122.77
574.432	9177.91
574.794	9230.56
575.155	9215.42
575.516	9239.38
575.877	9200.28
576.238	9320.73
576.599	9310.33
576.96	9312.59
577.32	9413.16
577.681	9421.29
578.042	9410.67
578.403	9493.15
578.763	9501.74
579.124	9457.68
579.485	9541.29
579.845	9526.83
580.206	9601.63
580.566	9575.64
580.927	9637.78
581.287	9651.34
581.648	9667.61
582.008	9677.78
582.368	9747.84
582.728	9759.59
583.089	9779.7
583.449	9805.46
583.809	9771.57
584.169	9891.34
584.529	9766.59
584.889	9979.7
585.249	10001.84
585.609	10004.1
585.969	10018.79
586.329	10008.85
586.688	10025.12
587.048	10077.09
587.408	10108.05
587.768	10129.3
588.127	10177.2
588.487	10112.35
588.846	10126.58
589.206	10158.9
589.565	10154.15
589.925	10284.77
590.284	10264.43
590.643	10324.54
591.003	10341.27
591.362	10322.29
591.721	10364.77
592.08	10348.73
592.44	10427.82
592.799	10385.11
593.158	10402.73
593.517	10404.09
593.876	10484.54
594.235	10470.98
594.593	10539.23
594.952	10547.14
595.311	10526.57
595.67	10533.8
596.029	10574.03
596.387	10603.86
596.746	10581.49
597.104	10547.82
597.463	10617.87
597.822	10676.85
598.18	10644.99
598.538	10702.16
598.897	10728.38
599.255	10642.05
599.613	10854.93
599.972	10749.39
600.33	10823.51
600.688	10782.61
601.046	10831.2
601.404	10964.53
601.762	10827.81
602.12	10965.21
602.478	10877.52
602.836	10893.57
603.194	10805.66
603.552	10905.09
603.91	10847.92
604.268	10891.99
604.625	10857.41
604.983	10884.3
605.341	10879.78
605.698	10951.65
606.056	10963.85
606.413	10978.54
606.771	11024.41
607.128	11002.49
607.485	10971.99
607.843	10973.12
608.2	10974.92
608.557	11108.93
608.914	10988.71
609.272	11076.39
609.629	11114.35
609.986	11141.25
610.343	11127.24
610.7	11160.68
611.057	11211.53
611.414	11179.89
611.771	11165.43
612.127	11153.22
612.484	11228.93
612.841	11222.6
613.198	11233.22
613.554	11240.68
613.911	11294.69
614.267	11211.75
614.624	11241.81
614.98	11275.03
615.337	11352.31
615.693	11283.16
616.05	11260.34
616.406	11336.72
616.762	11288.14
617.118	11335.59
617.475	11290.17
617.831	11345.99
618.187	11276.84
618.543	11395.7
618.899	11401.13
619.255	11345.08
619.611	11426.89
619.967	11455.59
620.323	11398.87
620.678	11361.35
621.034	11394.57
621.39	11495.81
621.746	11356.83
622.101	11543.04
622.457	11409.71
622.812	11436.38
623.168	11465.08
623.523	11435.48
623.879	11458.98
624.234	11440.9
624.589	11418.53
624.945	11457.17
625.3	11439.77
625.655	11493.1
626.01	11449.26
626.365	11392.99
626.72	11430.73
627.075	11490.84
627.43	11513.89
627.785	11464.4
628.14	11474.12
628.495	11385.99
628.85	11385.08
629.205	11403.39
629.559	11408.58
629.914	11333.78
630.269	11427.79
630.623	11372.43
630.978	11287.68
631.332	11390.05
631.687	11307.34
632.041	11304.41
632.396	11305.31
632.75	11292.43
633.104	11330.62
633.459	11211.08
633.813	11276.38
634.167	11237.52
634.521	11250.4
634.875	11233.22
635.229	11226.22
635.583	11216.72
635.937	11224.18
636.291	11268.93
636.645	11157.52
636.999	11237.52
637.352	11205.2
637.706	11088.82
638.06	11170.85
638.413	11178.99
638.767	11079.1
639.121	11134.02
639.474	10990.97
639.828	11068.71
640.181	11081.14
640.534	11114.35
640.888	10959.78
641.241	10993.45
641.594	10953.23
641.947	11028.93
642.301	10947.13
642.654	11019.22
643.007	10961.59
643.36	10931.08
643.713	10976.51
644.066	10957.75
644.419	10916.39
644.771	10837.07
645.124	10810.63
645.477	10725.66
645.83	10610.19
646.182	10585.55
646.535	10604.31
646.888	10553.69
647.24	10491.55
647.593	10578.32
647.945	10572.9
648.298	10506.46
648.65	10478.89
649.002	10544.88
649.355	10560.47
649.707	10543.07
650.059	10618.77
650.411	10637.98
650.763	10758.66
651.115	10825.32
651.467	10841.59
651.819	10789.62
652.171	10745.32
652.523	10816.28
652.875	10807.24
653.227	10694.48
653.578	10776.74
653.93	10761.82
654.282	10735.83
654.633	10736.96
654.985	10700.35
655.337	10765.66
655.688	10802.27
656.039	10776.74
656.391	10687.7
656.742	10787.58
657.094	10801.37
657.445	10839.11
657.796	10768.38
658.147	10776.51
658.498	10788.04
658.849	10807.92
659.2	10781.03
659.551	10768.83
659.902	10801.59
660.253	10765.44
660.604	10754.59
660.955	10804.08
661.306	10781.93
661.656	10731.77
662.007	10757.98
662.358	10792.1
662.708	10791.2
663.059	10736.06
663.409	10760.24
663.76	10792.1
664.11	10829.39
664.461	10774.7
664.811	10754.82
665.161	10765.44
665.511	10779.22
665.862	10709.39
666.212	10763.63
666.562	10782.39
666.912	10757.75
667.262	10781.48
667.612	10800.69
667.962	10782.84
668.312	10778.32
668.662	10824.42
669.011	10776.06
669.361	10735.38
669.711	10751.43
670.06	10747.13
670.41	10772.89
670.76	10769.28
671.109	10730.86
671.459	10730.64
671.808	10765.66
672.157	10736.51
672.507	10676.17
672.856	10670.3
673.205	10673.69
673.554	10672.11
673.904	10643.41
674.253	10778.54
674.602	10656.06
674.951	10543.75
675.3	10524.77
675.649	10622.84
675.998	10590.98
676.346	10546.01
676.695	10708.04
677.044	10561.15
677.393	10597.53
677.741	10550.3
678.09	10593.69
678.438	10538.32
678.787	10545.33
679.135	10510.75
679.484	10411.1
679.832	10502.17
680.181	10447.03
680.529	10463.52
680.877	10387.14
681.225	10375.39
681.573	10425.79
681.922	10318.9
682.27	10361.15
682.618	10393.7
682.966	10335.39
683.314	10366.13
683.661	10234.15
684.009	10220.37
684.357	10254.04
684.705	10210.88
685.053	10229.86
685.4	10233.02
685.748	10122.74
686.095	10182.85
686.443	10110.99
686.79	10123.42
687.138	10149.63
687.485	10100.82
687.832	10074.83
688.18	10110.54
688.527	10052.91
688.874	10102.63
689.221	10017.66
689.568	9950.54
689.915	9889.3
690.262	9900.38
690.609	9891.11
690.956	9842.07
691.303	9773.37
691.65	9779.02
691.997	9682.98
692.344	9681.4
692.69	9688.86
693.037	9671.45
693.383	9612.47
693.73	9594.85
694.077	9540.61
694.423	9501.06
694.769	9491.57
695.116	9479.82
695.462	9464
695.808	9464
696.155	9391.46
696.501	9365.47
696.847	9304.01
697.193	9205.93
697.539	9327.73
697.885	9219.49
698.231	9179.26
698.577	9199.6
698.923	9145.14
699.269	9145.59
699.614	9031.7
699.96	9036.44
700.306	8992.15
700.651	8972.26
700.997	8969.1
701.342	8979.72
701.688	8897.24
702.033	8816.79
702.379	8797.81
702.724	8814.08
703.069	8783.57
703.415	8713.06
703.76	8716
704.105	8706.28
704.45	8684.59
704.795	8602.1
705.14	8572.73
705.485	8649.79
705.83	8568.43
706.175	8575.44
706.52	8510.81
706.865	8515.78
707.209	8515.78
707.554	8452.05
707.899	8512.16
708.243	8384.71
708.588	8432.39
708.932	8297.93
709.277	8366.4
709.621	8357.36
709.966	8276.24
710.31	8343.81
710.654	8164.6
710.998	8209.8
711.342	8223.13
711.687	8169.35
712.031	8129.12
712.375	8172.06
712.719	8115.79
713.063	8139.52
713.407	8105.39
713.75	8115.56
714.094	8128.44
714.438	8014.55
714.782	8076.24
715.125	8032.85
715.469	8008.9
715.812	7981.33
716.156	7901.11
716.499	7936.59
716.843	7933.2
717.186	7925.74
717.53	7916.7
717.873	7966.41
718.216	7934.55
718.559	7890.48
718.902	7852.52
719.246	7856.81
719.589	7838.28
719.932	7745.4
720.275	7815.68
720.617	7757.61
720.96	7748.79
721.303	7779.98
721.646	7750.15
721.989	7734.56
722.331	7769.36
722.674	7784.5
723.016	7718.96
723.359	7763.93
723.701	7681.9
724.044	7660.89
724.386	7653.43
724.729	7702.24
725.071	7673.09
725.413	7684.61
725.755	7650.26
726.097	7663.15
726.439	7659.98
726.782	7646.42
727.124	7620.44
727.465	7590.83
727.807	7616.14
728.149	7591.96
728.491	7634.45
728.833	7628.34
729.175	7567.1
729.516	7549.48
729.858	7581.11
730.199	7587.67
730.541	7535.47
730.882	7537.95
731.224	7512.19
731.565	7529.14
731.906	7568.01
732.248	7527.1
732.589	7503.6
732.93	7534.79
733.271	7565.07
733.612	7599.42
733.953	7501.12
734.294	7546.76
734.635	7501.57
734.976	7561.91
735.317	7543.38
735.658	7556.03
735.999	7506.99
736.339	7519.87
736.68	7528.46
737.021	7571.85
737.361	7503.38
737.702	7520.1
738.042	7553.77
738.383	7527.33
738.723	7597.61
739.063	7539.76
739.404	7577.5
739.744	7552.87
740.084	7536.37
740.424	7546.76
740.764	7570.94
741.104	7627.89
741.444	7577.5
741.784	7682.81
742.124	7646.2
742.464	7717.61
742.804	7679.19
743.143	7656.14
743.483	7710.38
743.823	7632.41
744.162	7688.46
744.502	7707.21
744.841	7731.17
745.181	7840.99
745.52	7798.74
745.86	7838.06
746.199	7874.44
746.538	7901.78
746.877	7975.45
747.216	7970.48
747.556	7963.03
747.895	8038.73
748.234	8045.06
748.573	8038.5
748.911	8197.37
749.25	8225.62
749.589	8223.36
749.928	8346.52
750.267	8374.99
750.605	8384.48
750.944	8505.16
751.283	8506.74
751.621	8562.78
751.96	8665.15
752.298	8763.91
752.636	8850.69
752.975	8931.14
753.313	8917.58
753.651	9091.81
753.989	9145.59
754.327	9221.07
754.666	9395.76
755.004	9504.68
755.342	9684.34
755.679	9709.19
756.017	9748.06
756.355	9967.72
756.693	10028.51
757.031	10221.72
757.368	10290.42
757.706	10449.74
758.044	10574.03
758.381	10687.7
758.719	10803.63
759.056	11031.87
759.394	11104.41
759.731	11151.87
760.068	11428.47
760.405	11542.14
760.743	11663.94
761.08	11833.21
761.417	11927.21
761.754	12141.9
762.091	12204.72
762.428	12433.42
762.765	12482.45
763.102	12688.32
