Data from hue_330_FLMS001491_79.txt Node
Date: Mon Feb 06 15:45:53 GMT 2017
User: dcchb
Spectrometer: FLMS00149
Trigger mode: 0
Integration Time (sec): 2.000000E-2
Scans to average: 10
Electric dark correction enabled: true
Nonlinearity correction enabled: false
Boxcar width: 0
XAxis mode: Wavelengths
Number of Pixels in Spectrum: 2048
>>>>>Begin Spectral Data<<<<<
341.393	-29.84
341.776	-29.84
342.16	-29.84
342.543	-67.81
342.927	-63.29
343.31	-77.75
343.693	-61.26
344.077	-40.47
344.46	-58.77
344.843	-60.8
345.226	-37.53
345.61	-45.21
345.993	-21.93
346.376	-0.47
346.759	12.87
347.142	31.62
347.525	41.57
347.908	54.9
348.291	55.58
348.674	103.71
349.057	103.94
349.44	131.51
349.823	133.77
350.206	169.47
350.588	178.74
350.971	196.36
351.354	217.38
351.737	229.81
352.119	258.06
352.502	264.84
352.884	278.17
353.267	285.85
353.65	285.18
354.032	315.23
354.414	304.38
354.797	301.22
355.179	321.33
355.562	318.17
355.944	322.01
356.326	325.18
356.709	311.16
357.091	337.15
357.473	337.15
357.855	339.19
358.238	339.41
358.62	338.28
359.002	324.05
359.384	338.96
359.766	325.63
360.148	318.4
360.53	328.11
360.912	317.04
361.294	315.23
361.676	318.17
362.057	335.12
362.439	353.65
362.821	329.69
363.203	321.79
363.584	323.59
363.966	314.1
364.348	334.21
364.729	332.18
365.111	299.19
365.493	328.11
365.874	312.75
366.256	301.67
366.637	286.31
367.019	300.54
367.4	324.05
367.781	299.86
368.163	293.54
368.544	293.76
368.925	298.96
369.306	319.3
369.688	309.36
370.069	319.3
370.45	309.36
370.831	318.4
371.212	289.24
371.593	310.49
371.974	319.07
372.355	320.88
372.736	302.35
373.117	325.18
373.498	308.45
373.879	296.48
374.26	317.94
374.641	326.3
375.021	313.2
375.402	321.56
375.783	315.46
376.163	322.01
376.544	319.07
376.925	301.22
377.305	317.94
377.686	319.3
378.066	321.33
378.447	340.09
378.827	327.43
379.208	350.03
379.588	303.25
379.968	321.33
380.349	319.98
380.729	325.18
381.109	334.21
381.489	319.53
381.87	345.74
382.25	330.6
382.63	329.24
383.01	347.55
383.39	343.71
383.77	329.24
384.15	348.68
384.53	328.56
384.91	326.76
385.29	350.71
385.67	343.71
386.049	363.37
386.429	333.08
386.809	356.36
387.189	350.03
387.568	367.43
387.948	340.32
388.328	345.29
388.707	337.15
389.087	356.59
389.466	352.07
389.846	368.11
390.225	349.36
390.605	343.25
390.984	345.29
391.363	374.44
391.743	357.72
392.122	366.76
392.501	342.58
392.881	387.32
393.26	358.85
393.639	373.31
394.018	373.31
394.397	365.4
394.776	382.12
395.155	379.41
395.534	378.73
395.913	369.47
396.292	399.07
396.671	376.47
397.05	383.48
397.429	378.96
397.808	389.35
398.186	381.9
398.565	384.83
398.944	388.68
399.323	404.5
399.701	402.69
400.08	381.67
400.458	383.25
400.837	398.62
401.215	406.3
401.594	393.65
401.972	399.3
402.351	397.04
402.729	420.31
403.107	389.13
403.486	416.7
403.864	409.01
404.242	383.48
404.62	441.1
404.999	412.86
405.377	401.11
405.755	461.89
406.133	451.05
406.511	454.66
406.889	449.01
407.267	437.94
407.645	429.13
408.023	448.79
408.401	452.4
408.779	442.69
409.156	489.69
409.534	478.62
409.912	469.35
410.29	460.99
410.667	462.35
411.045	498.73
411.422	493.53
411.8	465.06
412.178	517.26
412.555	503.02
412.933	508.22
413.31	531.05
413.687	517.26
414.065	524.94
414.442	521.1
414.819	532.85
415.197	548.67
415.574	546.64
415.951	540.99
416.328	568.56
416.705	560.65
417.082	560.65
417.46	565.85
417.837	573.76
418.214	593.19
418.591	578.05
418.967	601.33
419.344	618.05
419.721	610.82
420.098	592.29
420.475	631.61
420.852	645.17
421.228	638.61
421.605	615.56
421.982	644.49
422.358	686.3
422.735	647.43
423.111	664.38
423.488	676.58
423.864	660.76
424.241	641.55
424.617	670.48
424.994	724.71
425.37	701.44
425.746	687.65
426.123	683.58
426.499	699.4
426.875	717.03
427.251	712.96
427.627	752.28
428.003	771.94
428.379	744.15
428.756	765.39
429.132	769.46
429.507	782.79
429.883	784.6
430.259	801.77
430.635	804.48
431.011	798.61
431.387	829.57
431.763	827.08
432.138	831.15
432.514	841.09
432.89	855.56
433.265	859.62
433.641	873.64
434.016	882.45
434.392	886.06
434.767	892.62
435.143	895.1
435.518	908.21
435.894	914.54
436.269	945.95
436.644	934.42
437.02	959.73
437.395	954.09
437.77	954.99
438.145	1006.97
438.52	982.11
438.895	1010.35
439.271	985.95
439.646	1010.13
440.021	1010.35
440.395	1012.61
440.77	1014.65
441.145	1045.16
441.52	1024.82
441.895	1076.34
442.27	1060.3
442.645	1067.98
443.019	1049.68
443.394	1060.97
443.769	1097.13
444.143	1085.61
444.518	1071.6
444.892	1082.22
445.267	1100.3
445.641	1099.84
446.016	1117.24
446.39	1114.53
446.764	1117.92
447.139	1119.5
447.513	1125.83
447.887	1126.96
448.262	1121.09
448.636	1134.19
449.01	1153.18
449.384	1133.74
449.758	1147.75
450.132	1139.84
450.506	1150.69
450.88	1177.81
451.254	1167.19
451.628	1162.89
452.002	1171.03
452.376	1201.76
452.75	1212.61
453.123	1208.77
453.497	1198.6
453.871	1231.14
454.244	1232.95
454.618	1267.75
454.992	1271.14
455.365	1261.65
455.739	1290.12
456.112	1304.58
456.486	1283.57
456.859	1296.67
457.232	1317.24
457.606	1290.12
457.979	1342.1
458.352	1368.09
458.725	1376.67
459.099	1393.85
459.472	1394.3
459.845	1403.11
460.218	1398.59
460.591	1400.63
460.964	1437.46
461.337	1444.47
461.71	1456.9
462.083	1504.35
462.456	1494.64
462.829	1480.85
463.201	1491.02
463.574	1513.17
463.947	1521.3
464.32	1553.17
464.692	1564.24
465.065	1566.95
465.438	1581.19
465.81	1599.94
466.183	1581.41
466.555	1635.65
466.928	1606.27
467.3	1619.83
467.672	1668.42
468.045	1696.66
468.417	1710.22
468.789	1729.88
469.161	1705.93
469.534	1740.51
469.906	1789.77
470.278	1776.44
470.65	1801.29
471.022	1826.6
471.394	1877.45
471.766	1838.81
472.138	1877
472.51	1936.66
472.882	1954.06
473.253	1957.67
473.625	1976.21
473.997	1992.93
474.369	2044.9
474.74	1997.67
475.112	2071.57
475.484	2115.41
475.855	2156.31
476.227	2148.86
476.598	2158.8
476.97	2205.35
477.341	2219.14
477.713	2261.85
478.084	2250.77
478.455	2354.95
478.827	2338
479.198	2405.35
479.569	2408.96
479.94	2437.66
480.311	2448.28
480.682	2543.87
481.053	2549.3
481.424	2605.12
481.795	2588.84
482.166	2665
482.537	2661.84
482.908	2715.85
483.279	2716.98
483.65	2756.3
484.021	2825.45
484.391	2867.48
484.762	2871.55
485.133	2876.29
485.503	2887.14
485.874	2975.05
486.244	2994.71
486.615	3063.41
486.985	3054.37
487.356	3168.94
487.726	3184.53
488.097	3197.64
488.467	3212.78
488.837	3261.37
489.207	3268.83
489.578	3400.8
489.948	3393.34
490.318	3431.99
490.688	3401.03
491.058	3441.93
491.428	3489.39
491.798	3513.79
492.168	3601.7
492.538	3623.17
492.908	3615.94
493.278	3664.07
493.648	3675.82
494.017	3745.65
494.387	3744.29
494.757	3758.76
495.126	3832.2
495.496	3811.86
495.866	3834.69
496.235	3899.32
496.605	3907
496.974	3898.87
497.344	3959.66
497.713	3947.68
498.082	3968.92
498.452	3991.97
498.821	4031.97
499.19	4030.61
499.559	4085.53
499.928	4071.74
500.298	4068.58
500.667	4113.1
501.036	4125.75
501.405	4155.13
501.774	4156.71
502.143	4210.72
502.512	4242.59
502.88	4250.72
503.249	4232.19
503.618	4314.45
503.987	4323.71
504.356	4388.57
504.724	4349.25
505.093	4379.31
505.462	4369.59
505.83	4431.73
506.199	4382.47
506.567	4464.95
506.936	4413.43
507.304	4501.11
507.672	4488.68
508.041	4516.25
508.409	4536.59
508.777	4539.75
509.145	4623.14
509.514	4571.62
509.882	4559.41
510.25	4612.97
510.618	4593.31
510.986	4650.03
511.354	4671.95
511.722	4712.86
512.09	4677.83
512.458	4750.82
512.826	4723.7
513.193	4781.56
513.561	4758.5
513.929	4791.72
514.297	4816.81
514.664	4823.14
515.032	4876.69
515.4	4891.16
515.767	4877.6
516.135	4844.6
516.502	4812.97
516.869	4941.55
517.237	4891.16
517.604	4908.78
517.972	4931.83
518.339	4938.61
518.706	4935.22
519.073	4958.5
519.44	4982
519.808	5074.2
520.175	5037.14
520.542	5090.93
520.909	5095.67
521.276	5087.76
521.643	5130.47
522.009	5123.92
522.376	5134.99
522.743	5189.23
523.11	5186.97
523.477	5242.79
523.843	5255.89
524.21	5273.29
524.577	5321.65
524.943	5355.78
525.31	5354.65
525.676	5421.09
526.043	5405.04
526.409	5445.49
526.776	5480.07
527.142	5466.28
527.508	5543.12
527.874	5493.17
528.241	5505.15
528.607	5583.34
528.973	5617.01
529.339	5683.68
529.705	5642.78
530.071	5737.24
530.437	5694.3
530.803	5756.44
531.169	5766.61
531.535	5788.76
531.901	5796.44
532.267	5860.4
532.632	5862.88
532.998	5890.68
533.364	5913.28
533.73	5966.16
534.095	5949.89
534.461	6024.91
534.826	6071.24
535.192	6019.71
535.557	6083.22
535.923	6080.96
536.288	6113.05
536.653	6150.11
537.019	6133.84
537.384	6159.6
537.749	6240.73
538.114	6223.33
538.479	6284.11
538.845	6286.83
539.21	6249.09
539.575	6338.58
539.94	6348.75
540.305	6348.29
540.67	6369.31
541.034	6400.72
541.399	6447.5
541.764	6491.57
542.129	6483.21
542.494	6518.46
542.858	6482.53
543.223	6565.24
543.587	6603.88
543.952	6605.46
544.316	6604.11
544.681	6703.76
545.045	6722.75
545.41	6791.45
545.774	6750.54
546.138	6812.24
546.503	6827.38
546.867	6829.86
547.231	6892.69
547.595	6896.53
547.959	6917.09
548.324	6980.14
548.688	6964.1
549.052	6998.9
549.416	6988.28
549.779	7048.39
550.143	7038.9
550.507	7116.86
550.871	7073.92
551.235	7133.36
551.599	7188.72
551.962	7178.33
552.326	7174.26
552.689	7195.5
553.053	7150.98
553.417	7248.16
553.78	7316.4
554.143	7282.28
554.507	7273.47
554.87	7292.9
555.234	7386.23
555.597	7367.7
555.96	7385.33
556.323	7380.58
556.686	7444.31
557.05	7512.33
557.413	7465.33
557.776	7551.43
558.139	7538.77
558.502	7551.43
558.865	7583.06
559.228	7591.88
559.59	7680.46
559.953	7694.02
560.316	7748.48
560.679	7737.86
561.041	7751.65
561.404	7796.39
561.767	7813.11
562.129	7870.06
562.492	7847.24
562.854	7892.89
563.217	7844.98
563.579	7936.5
563.941	7955.93
564.304	7955.48
564.666	8044.52
565.028	8070.51
565.39	8085.2
565.753	8065.99
566.115	8144.86
566.477	8195.93
566.839	8184.4
567.201	8215.36
567.563	8202.26
567.925	8256.04
568.287	8335.13
568.648	8277.51
569.01	8383.04
569.372	8409.93
569.734	8374
570.095	8434.34
570.457	8506.43
570.819	8512.76
571.18	8599.99
571.542	8605.41
571.903	8653.77
572.265	8753.65
572.626	8742.13
572.987	8783.48
573.349	8808.12
573.71	8834.56
574.071	8931.73
574.432	8942.8
574.794	9069.35
575.155	9128.56
575.516	9062.12
575.877	9183.93
576.238	9216.24
576.599	9410.36
576.96	9398.83
577.32	9486.29
577.681	9613.29
578.042	9721.31
578.403	9736.68
578.763	9870.69
579.124	9911.59
579.485	10002.21
579.845	10159.04
580.206	10244.46
580.566	10352.71
580.927	10523.78
581.287	10631.12
581.648	10777.1
582.008	10890.32
582.368	11040.83
582.728	11314.94
583.089	11361.5
583.449	11542.51
583.809	11703.63
584.169	11944.76
584.529	12068.37
584.889	12318.76
585.249	12447.57
585.609	12600.11
585.969	12909.02
586.329	13064.28
586.688	13310.82
587.048	13525.73
587.408	13663.36
587.768	13987.64
588.127	14155.55
588.487	14435.31
588.846	14665.59
589.206	14864.23
589.565	15101.74
589.925	15375.17
590.284	15681.38
590.643	15950.07
591.003	16238.2
591.362	16566.56
591.721	16742.37
592.08	17009.26
592.44	17395.23
592.799	17580.31
593.158	17872.06
593.517	18150.02
593.876	18506.39
594.235	18692.38
594.593	19085.13
594.952	19425.01
595.311	19638.79
595.67	19832.23
596.029	20286.46
596.387	20604.87
596.746	20850.29
597.104	21149.03
597.463	21351.74
597.822	21761.45
598.18	21948.56
598.538	22193.07
598.897	22610.92
599.255	22688.65
599.613	23259.71
599.972	23439.14
600.33	23724.56
600.688	23890.66
601.046	24282.51
601.404	24588.94
601.762	24722.27
602.12	25154.8
602.478	25411.52
602.836	25711.85
603.194	25749.14
603.552	26108.45
603.91	26271.16
604.268	26757.25
604.625	26725.16
604.983	27094.41
605.341	27281.98
605.698	27529.43
606.056	27914.51
606.413	28101.85
606.771	28301.16
607.128	28529.41
607.485	28682.85
607.843	28868.83
608.2	29271.31
608.557	29474.24
608.914	29650.51
609.272	29993.32
609.629	30163.49
609.986	30351.5
610.343	30472.63
610.7	30951.04
611.057	30991.94
611.414	31240.07
611.771	31502.89
612.127	31685.03
612.484	31871.69
612.841	32155.07
613.198	32256.54
613.554	32313.71
613.911	32610.65
614.267	32739.24
614.624	32815.85
614.98	33011.1
615.337	33367.7
615.693	33444.76
616.05	33551.65
616.406	33856.5
616.762	33946.21
617.118	33920.45
617.475	34163.38
617.831	34364.51
618.187	34353.88
618.543	34660.32
618.899	34857.15
619.255	34891.95
619.611	34994.55
619.967	35190.47
620.323	35298.04
620.678	35297.81
621.034	35382.11
621.39	35360.64
621.746	35498.04
622.101	36078.36
622.457	35773.73
622.812	35895.31
623.168	36119.71
623.523	36213.72
623.879	36285.81
624.234	36324
624.589	36486.26
624.945	36508.18
625.3	36703.88
625.655	36674.73
626.01	36789.75
626.365	36903.87
626.72	36959.24
627.075	37067.94
627.43	36956.75
627.785	37142.96
628.14	37166.92
628.495	37325.78
628.85	37311.77
629.205	37225.67
629.559	37383.64
629.914	37266.8
630.269	37428.83
630.623	37403.97
630.978	37272.68
631.332	37488.27
631.687	37555.83
632.041	37479
632.396	37658.43
632.75	37500.69
633.104	37641.03
633.459	37549.06
633.813	37582.05
634.167	37543.86
634.521	37587.7
634.875	37706.57
635.229	37708.6
635.583	37542.05
635.937	37657.53
636.291	37547.47
636.645	37685.32
636.999	37604.65
637.352	37639.9
637.706	37507.7
638.06	37624.76
638.413	37500.69
638.767	37526.46
639.121	37566.46
639.474	37482.16
639.828	37501.37
640.181	37623.4
640.534	37598.32
640.888	37594.48
641.241	37549.51
641.594	37454.59
641.947	37542.28
642.301	37341.83
642.654	37763.06
643.007	37540.24
643.36	37584.76
643.713	37505.44
644.066	37713.8
644.419	37425.22
644.771	37240.36
645.124	37046.24
645.477	36846.25
645.83	36628.18
646.182	36549.76
646.535	36355.64
646.888	36450.78
647.24	36321.06
647.593	36634.95
647.945	36455.3
648.298	36479.25
648.65	36342.76
649.002	36237.23
649.355	36328.3
649.707	36411.68
650.059	36471.8
650.411	36931.9
650.763	36839.24
651.115	37310.64
651.467	37198.78
651.819	37095.28
652.171	37156.75
652.523	37013.7
652.875	37116.98
653.227	36988.17
653.578	37138.44
653.93	37157.43
654.282	36880.37
654.633	36855.06
654.985	36984.55
655.337	37018.9
655.688	37074.49
656.039	37178.44
656.391	36776.87
656.742	36832.92
657.094	36796.98
657.445	37065.68
657.796	36873.37
658.147	36881.28
658.498	36688.51
658.849	36921.27
659.2	36759.7
659.551	36754.27
659.902	36960.37
660.253	36916.53
660.604	36943.42
660.955	36817.77
661.306	36879.24
661.656	36840.15
662.007	36735.29
662.358	36704.33
662.708	36799.02
663.059	36778.68
663.409	36559.93
663.76	36732.81
664.11	36764.67
664.461	36784.1
664.811	36795.63
665.161	36786.59
665.511	36665.69
665.862	36773.26
666.212	36907.49
666.562	36781.17
666.912	36729.64
667.262	36657.55
667.612	36792.24
667.962	36802.41
668.312	36623.66
668.662	36798.57
669.011	36667.04
669.361	36638.12
669.711	36711.79
670.06	36521.74
670.41	36557.89
670.76	36529.87
671.109	36546.82
671.459	36507.95
671.808	36399.71
672.157	36702.52
672.507	36469.76
672.856	36397.67
673.205	36549.31
673.554	36591.57
673.904	36327.62
674.253	36704.56
674.602	36512.47
674.951	35970.34
675.3	35749.1
675.649	36332.82
675.998	36465.69
676.346	36390.22
676.695	36411.68
677.044	36031.81
677.393	36281.74
677.741	36281.07
678.09	36188.41
678.438	36121.97
678.787	36204.68
679.135	36281.07
679.484	35948.19
679.832	36008.53
680.181	35915.43
680.529	35978.7
680.877	35944.13
681.225	35969.66
681.573	36110.45
681.922	35726.5
682.27	35709.1
682.618	35742.32
682.966	35639.95
683.314	35715.66
683.661	35713.17
684.009	35495.1
684.357	35492.39
684.705	35391.37
685.053	35415.78
685.4	35244.93
685.748	35148.89
686.095	35194.54
686.443	35080.87
686.79	35031.16
687.138	35171.49
687.485	35133.75
687.832	34956.13
688.18	34932.85
688.527	34748.9
688.874	34748.22
689.221	34703.71
689.568	34683.37
689.915	34586.2
690.262	34524.28
690.609	34459.19
690.956	34394.11
691.303	34288.8
691.65	34127.9
691.997	34261.46
692.344	33961.35
692.69	33840
693.037	34010.39
693.383	33760.45
693.73	33727.91
694.077	33650.85
694.423	33685.43
694.769	33573.11
695.116	33659.44
695.462	33498.99
695.808	33304.19
696.155	33436.39
696.501	33074.6
696.847	33145.1
697.193	32890.19
697.539	32960.93
697.885	32949.4
698.231	32649.3
698.577	32677.77
698.923	32699.92
699.269	32427.83
699.614	32414.5
699.96	32350.77
700.306	32428.74
700.651	32282.53
700.997	32122.98
701.342	32170.67
701.688	32073.72
702.033	31964.12
702.379	31986.04
702.724	31927.96
703.069	31858.58
703.415	31567.74
703.76	31553.05
704.105	31606.61
704.45	31513.06
704.795	31368.2
705.14	31211.82
705.485	31152.84
705.83	31118.04
706.175	31088.89
706.52	30996.91
706.865	30930.92
707.209	30849.34
707.554	30758.95
707.899	30864.03
708.243	30730.7
708.588	30637.15
708.932	30346.98
709.277	30341.56
709.621	30335.91
709.966	30211.17
710.31	30214.33
710.654	30052.98
710.998	30098.18
711.342	30029.48
711.687	30034
712.031	29832.65
712.375	29860.67
712.719	29873.1
713.063	29746.77
713.407	29907.9
713.75	29614.35
714.094	29631.52
714.438	29554.24
714.782	29581.35
715.125	29441.92
715.469	29498.19
715.812	29312.21
716.156	29178.88
716.499	29259.1
716.843	29213
717.186	28963.74
717.53	29146.79
717.873	29170.74
718.216	28995.16
718.559	28992.9
718.902	28737.99
719.246	28756.07
719.589	28620.25
719.932	28581.38
720.275	28534.6
720.617	28531.89
720.96	28464.32
721.303	28476.07
721.646	28469.97
721.989	28329.64
722.331	28413.93
722.674	28312.01
723.016	28228.62
723.359	28207.61
723.701	28342.52
724.044	28088.51
724.386	27934.62
724.729	28068.17
725.071	27966.71
725.413	27996.54
725.755	28060.72
726.097	27907.05
726.439	27773.27
726.782	27597.23
727.124	27806.26
727.465	27591.58
727.807	27619.37
728.149	27605.59
728.491	27520.39
728.833	27559.94
729.175	27491.92
729.516	27380.73
729.858	27318.59
730.199	27418.93
730.541	27394.52
730.882	27220.51
731.224	27223.22
731.565	27203.11
731.906	27043.57
732.248	27106.39
732.589	26926.74
732.93	26981.2
733.271	26899.17
733.612	26987.52
733.953	27000.63
734.294	26898.71
734.635	26716.35
734.976	26840.18
735.317	26688.32
735.658	26665.73
735.999	26680.41
736.339	26639.29
736.68	26713.86
737.021	26593.86
737.361	26476.8
737.702	26594.54
738.042	26534.43
738.383	26510.25
738.723	26409.01
739.063	26434.09
739.404	26317.94
739.744	26373.53
740.084	26248.79
740.424	26270.26
740.764	26222.57
741.104	26213.53
741.444	26108.9
741.784	25983.26
742.124	26034.33
742.464	26076.36
742.804	25988
743.143	25919.98
743.483	25938.74
743.823	25785.52
744.162	25766.99
744.502	25742.13
744.841	25649.48
745.181	25728.8
745.52	25548.24
745.86	25711.17
746.199	25633.21
746.538	25515.02
746.877	25556.38
747.216	25493.1
747.556	25408.36
747.895	25427.11
748.234	25358.19
748.573	25266.89
748.911	25378.08
749.25	25296.04
749.589	25092.21
749.928	25153
750.267	25177.18
750.605	25127.23
750.944	25155.03
751.283	24978.09
751.621	24935.38
751.96	24871.87
752.298	24927.01
752.636	24851.76
752.975	24811.76
753.313	24637.98
753.651	24752.33
753.989	24515.95
754.327	24558.89
754.666	24470.08
755.004	24489.51
755.342	24430.3
755.679	24369.51
756.017	24259.46
756.355	24212.68
756.693	24233.02
757.031	24181.04
757.368	23998.22
757.706	24127.49
758.044	23902.63
758.381	23990.77
758.719	23892.24
759.056	23943.31
759.394	23735.41
759.731	23644.79
760.068	23686.37
