Data from hue_34_FLMS001491_00068.txt Node
Date: Tue Feb 07 17:25:59 GMT 2017
User: dcchb
Spectrometer: FLMS00149
Trigger mode: 0
Integration Time (sec): 2.000000E-2
Scans to average: 10
Electric dark correction enabled: true
Nonlinearity correction enabled: false
Boxcar width: 0
XAxis mode: Wavelengths
Number of Pixels in Spectrum: 2048
>>>>>Begin Spectral Data<<<<<
341.393	8.57
341.776	8.57
342.16	8.57
342.543	-58.54
342.927	-62.16
343.31	-64.42
343.693	-78.66
344.077	-57.64
344.46	-82.27
344.843	-61.71
345.226	-27.36
345.61	-35.95
345.993	-14.25
346.376	-2.95
346.759	8.35
347.142	25.07
347.525	30.49
347.908	54.45
348.291	84.96
348.674	94.22
349.057	127.67
349.44	125.63
349.823	147.1
350.206	166.31
350.588	167.67
350.971	224.61
351.354	215.57
351.737	239.75
352.119	226.87
352.502	258.28
352.884	284.27
353.267	305.51
353.65	299.41
354.032	299.19
354.414	306.64
354.797	325.18
355.179	316.14
355.562	324.72
355.944	330.15
356.326	331.5
356.709	334.44
357.091	333.31
357.473	352.74
357.855	355.46
358.238	349.58
358.62	343.48
359.002	337.83
359.384	351.62
359.766	339.19
360.148	362.91
360.53	355.91
360.912	338.96
361.294	318.17
361.676	350.03
362.057	340.54
362.439	340.54
362.821	327.21
363.203	349.13
363.584	321.33
363.966	317.94
364.348	328.79
364.729	335.57
365.111	316.36
365.493	333.31
365.874	319.3
366.256	305.51
366.637	317.49
367.019	307.32
367.4	308.45
367.781	299.19
368.163	329.92
368.544	329.02
368.925	317.27
369.306	313.2
369.688	317.49
370.069	340.09
370.45	310.49
370.831	328.56
371.212	333.99
371.593	324.72
371.974	319.98
372.355	320.43
372.736	335.57
373.117	316.36
373.498	293.76
373.879	341.45
374.26	324.27
374.641	321.56
375.021	313.42
375.402	333.08
375.783	326.76
376.163	321.79
376.544	308.9
376.925	320.43
377.305	308
377.686	350.03
378.066	333.54
378.447	350.26
378.827	348.23
379.208	346.19
379.588	341.67
379.968	331.28
380.349	340.09
380.729	332.86
381.109	323.37
381.489	332.41
381.87	348.68
382.25	317.04
382.63	337.6
383.01	349.36
383.39	365.4
383.77	347.1
384.15	355.68
384.53	336.25
384.91	348.45
385.29	337.38
385.67	338.51
386.049	367.66
386.429	328.79
386.809	329.92
387.189	355.46
387.568	345.51
387.948	372.18
388.328	360.2
388.707	369.24
389.087	380.54
389.466	382.35
389.846	363.59
390.225	353.65
390.605	367.66
390.984	359.3
391.363	371.95
391.743	366.3
392.122	356.81
392.501	383.48
392.881	396.81
393.26	368.56
393.639	367.89
394.018	374.44
394.397	380.54
394.776	382.57
395.155	371.28
395.534	386.64
395.913	378.51
396.292	388.68
396.671	411.27
397.05	413.08
397.429	379.64
397.808	388.45
398.186	397.72
398.565	400.43
398.944	377.83
399.323	394.1
399.701	379.18
400.08	396.13
400.458	414.44
400.837	392.29
401.215	415.79
401.594	406.53
401.972	399.52
402.351	411.27
402.729	409.01
403.107	419.86
403.486	393.87
403.864	411.73
404.242	409.24
404.62	414.89
404.999	442.46
405.377	423.93
405.755	406.53
406.133	440.2
406.511	426.87
406.889	440.43
407.267	422.57
407.645	443.59
408.023	442.23
408.401	435.68
408.779	455.34
409.156	449.47
409.534	456.92
409.912	452.4
410.29	459.41
410.667	453.53
411.045	475
411.422	453.08
411.8	460.09
412.178	476.13
412.555	488.56
412.933	467.77
413.31	483.81
413.687	467.77
414.065	490.82
414.442	493.31
414.819	478.62
415.197	487.88
415.574	492.85
415.951	503.7
416.328	506.87
416.705	512.29
417.082	510.48
417.46	513.19
417.837	495.57
418.214	529.24
418.591	512.29
418.967	503.02
419.344	505.96
419.721	524.49
420.098	528.33
420.475	513.87
420.852	520.65
421.228	515.9
421.605	558.39
421.982	560.2
422.358	555.68
422.735	549.8
423.111	544.83
423.488	551.84
423.864	564.72
424.241	567.2
424.617	583.25
424.994	562.46
425.37	570.59
425.746	542.12
426.123	564.26
426.499	598.39
426.875	615.79
427.251	574.43
427.627	606.52
428.003	586.41
428.379	588.22
428.756	607.88
429.132	584.83
429.507	612.85
429.883	612.4
430.259	629.12
430.635	613.98
431.011	623.92
431.387	650.59
431.763	659.86
432.138	668.22
432.514	659.4
432.89	641.78
433.265	666.41
433.641	661.66
434.016	675
434.392	688.56
434.767	692.4
435.143	693.98
435.518	700.08
435.894	686.3
436.269	720.64
436.644	710.02
437.02	714.77
437.395	724.94
437.77	702.79
438.145	722.9
438.52	730.59
438.895	731.72
439.271	723.13
439.646	771.94
440.021	783.69
440.395	744.6
440.77	752.51
441.145	762.68
441.52	782.11
441.895	785.28
442.27	793.19
442.645	782.56
443.019	786.63
443.394	783.92
443.769	790.47
444.143	810.81
444.518	804.26
444.892	798.38
445.267	805.16
445.641	829.34
446.016	834.54
446.39	814.65
446.764	854.65
447.139	845.84
447.513	867.31
447.887	821.21
448.262	851.26
448.636	848.78
449.01	847.2
449.384	857.82
449.758	887.87
450.132	834.31
450.506	876.8
450.88	909.57
451.254	889.68
451.628	882.67
452.002	900.75
452.376	921.09
452.75	940.75
453.123	956.34
453.497	944.59
453.871	936.91
454.244	968.77
454.618	957.02
454.992	971.49
455.365	962.9
455.739	992.5
456.112	986.85
456.486	990.92
456.859	1025.27
457.232	1038.6
457.606	1044.93
457.979	1027.76
458.352	1063.01
458.725	1081.77
459.099	1067.3
459.472	1102.78
459.845	1094.87
460.218	1103.23
460.591	1134.87
460.964	1118.6
461.337	1125.15
461.71	1177.13
462.083	1174.64
462.456	1155.21
462.829	1180.07
463.201	1198.15
463.574	1214.19
463.947	1217.58
464.32	1281.99
464.692	1236.79
465.065	1284.92
465.438	1287.18
465.81	1306.17
466.183	1313.85
466.555	1352.04
466.928	1329.67
467.3	1366.73
467.672	1400.4
468.045	1424.81
468.417	1410.57
468.789	1426.16
469.161	1458.48
469.534	1450.34
469.906	1517.23
470.278	1531.02
470.65	1551.58
471.022	1578.7
471.394	1609.21
471.766	1662.32
472.138	1636.33
472.51	1682.65
472.882	1702.77
473.253	1762.88
473.625	1788.87
473.997	1824.12
474.369	1838.36
474.74	1848.52
475.112	1880.39
475.484	1955.41
475.855	1964
476.227	1981.85
476.598	2079.25
476.97	2096.88
477.341	2133.72
477.713	2201.28
478.084	2195.63
478.455	2305.01
478.827	2298
479.198	2385.23
479.569	2390.21
479.94	2514.95
480.311	2535.51
480.682	2575.74
481.053	2682.4
481.424	2726.02
481.795	2789.29
482.166	2832.91
482.537	2931.66
482.908	3019.34
483.279	3053.01
483.65	3092.56
484.021	3213.46
484.391	3244.19
484.762	3331.65
485.133	3411.65
485.503	3493.45
485.874	3554.92
486.244	3659.1
486.615	3736.61
486.985	3796.72
487.356	3889.6
487.726	3962.37
488.097	4037.17
488.467	4163.94
488.837	4249.82
489.207	4299.99
489.578	4411.62
489.948	4492.52
490.318	4551.96
490.688	4645.06
491.058	4762.57
491.428	4821.78
491.798	4947.43
492.168	5042.11
492.538	5103.81
492.908	5247.98
493.278	5267.64
493.648	5323.69
494.017	5460.41
494.387	5541.08
494.757	5577.47
495.126	5726.16
495.496	5763.68
495.866	5825.37
496.235	5941.3
496.605	6028.53
496.974	6095.87
497.344	6188.3
497.713	6214.74
498.082	6300.61
498.452	6437.33
498.821	6421.06
499.19	6536.31
499.559	6541.51
499.928	6667.16
500.298	6760.94
500.667	6861.05
501.036	6794.61
501.405	6980.37
501.774	6943.98
502.143	7057.65
502.512	7090.19
502.88	7163.64
503.249	7218.1
503.618	7306.01
503.987	7329.51
504.356	7396.63
504.724	7444.99
505.093	7494.93
505.462	7520.24
505.83	7632.55
506.199	7725.66
506.567	7801.14
506.936	7832.1
507.304	7908.48
507.672	7989.38
508.041	8063.95
508.409	8127
508.777	8169.94
509.145	8170.84
509.514	8193.67
509.882	8333.78
510.25	8373.33
510.618	8401.8
510.986	8428.01
511.354	8549.59
511.722	8620.78
512.09	8620.55
512.458	8652.19
512.826	8756.82
513.193	8825.74
513.561	8858.96
513.929	8889.92
514.297	9046.98
514.664	9067.77
515.032	9128.33
515.4	9145.06
515.767	9206.52
516.135	9280.42
516.502	9234.09
516.869	9426.63
517.237	9340.76
517.604	9361.1
517.972	9423.01
518.339	9487.42
518.706	9520.64
519.073	9640.41
519.44	9599.96
519.808	9749.33
520.175	9703.46
520.542	9879.73
520.909	9883.79
521.276	9835.43
521.643	10009.67
522.009	10124.92
522.376	10181.87
522.743	10155.88
523.11	10284.91
523.477	10334.86
523.843	10409.43
524.21	10463.44
524.577	10584.34
524.943	10601.06
525.31	10696.2
525.676	10759.25
526.043	10797.67
526.409	10814.16
526.776	10979.36
527.142	10949.53
527.508	11077.89
527.874	11108.17
528.241	11140.03
528.607	11180.93
528.973	11274.27
529.339	11285.79
529.705	11444.2
530.071	11454.15
530.437	11564.43
530.803	11585.22
531.169	11676.74
531.535	11685.55
531.901	11747.25
532.267	11690.3
532.632	11843.52
532.998	11921.71
533.364	11945.66
533.73	11995.83
534.095	12037.86
534.461	12145.88
534.826	12164.41
535.192	12243.05
535.557	12264.97
535.923	12358.76
536.288	12335.48
536.653	12461.35
537.019	12438.98
537.384	12515.81
537.749	12552.42
538.114	12680.1
538.479	12668.13
538.845	12702.7
539.21	12680.33
539.575	12747.9
539.94	12859.31
540.305	12961.23
540.67	12923.49
541.034	12979.76
541.399	13002.81
541.764	13021.34
542.129	13095.01
542.494	13125.74
542.858	13279.41
543.223	13212.07
543.587	13318.05
543.952	13366.19
544.316	13349.69
544.681	13360.54
545.045	13492.06
545.41	13492.29
545.774	13521.44
546.138	13629.91
546.503	13699.74
546.867	13680.98
547.231	13831.94
547.595	13864.93
547.959	13984.7
548.324	13924.59
548.688	13994.65
549.052	14047.98
549.416	14133.63
549.779	14076
550.143	14191.93
550.507	14293.62
550.871	14342.43
551.235	14240.74
551.599	14415.43
551.962	14392.15
552.326	14476.89
552.689	14563.9
553.053	14528.42
553.417	14543.78
553.78	14682.31
554.143	14682.31
554.507	14752.82
554.87	14805.7
555.234	14923.21
555.597	14896.32
555.96	14887.96
556.323	15014.96
556.686	15040.72
557.05	15068.74
557.413	15143.99
557.776	15204.33
558.139	15268.74
558.502	15325.01
558.865	15383.99
559.228	15414.5
559.59	15534.94
559.953	15470.99
560.316	15638.9
560.679	15709.4
561.041	15714.83
561.404	15809.97
561.767	15933.35
562.129	15878.44
562.492	16011.77
562.854	16046.8
563.217	16071.65
563.579	16108.49
563.941	16225.77
564.304	16251.54
564.666	16320.46
565.028	16361.82
565.39	16388.71
565.753	16458.08
566.115	16628.7
566.477	16711.86
566.839	16618.31
567.201	16793.22
567.563	16800.9
567.925	16937.39
568.287	16827.11
568.648	16990.95
569.01	17087.45
569.372	17085.64
569.734	17088.35
570.095	17191.62
570.457	17282.24
570.819	17365.63
571.18	17446.76
571.542	17534.67
571.903	17602.46
572.265	17623.7
572.626	17760.65
572.987	17800.42
573.349	17805.17
573.71	17966.52
574.071	18008.1
574.432	18082.45
574.794	18216
575.155	18411.03
575.516	18357.7
575.877	18485.6
576.238	18612.6
576.599	18763.79
576.96	18793.84
577.32	18910.45
577.681	19020.95
578.042	19133.04
578.403	19311.34
578.763	19353.15
579.124	19600.83
579.485	19674.04
579.845	19895.73
580.206	19914.04
580.566	20008.27
580.927	20220.7
581.287	20383.18
581.648	20455.49
582.008	20638.54
582.368	20912.88
582.728	21113.78
583.089	21204.4
583.449	21312.65
583.809	21530.27
584.169	21785.4
584.529	21856.59
584.889	22182.23
585.249	22290.7
585.609	22421.32
585.969	22828.31
586.329	22856.11
586.688	23231.69
587.048	23340.62
587.408	23496.77
587.768	23694.73
588.127	23975.63
588.487	24157.09
588.846	24511.21
589.206	24680.69
589.565	24785.77
589.925	25167.69
590.284	25298.08
590.643	25579.43
591.003	25876.14
591.362	26133.08
591.721	26457.14
592.08	26599.06
592.44	26945.72
592.799	27146.39
593.158	27353.16
593.517	27542.76
593.876	27949.08
594.235	28098
594.593	28323.99
594.952	28656.41
595.311	28700.25
595.67	28995.83
596.029	29470.17
596.387	29591.3
596.746	29864.96
597.104	30017.05
597.463	30340.66
597.822	30577.71
598.18	30649.8
598.538	30993.75
598.897	31323
599.255	31351.93
599.613	31833.5
599.972	31947.62
600.33	32159.37
600.688	32287.27
601.046	32653.14
601.404	32931.32
601.762	33026.24
602.12	33346.68
602.478	33657.86
602.836	33645.43
603.194	33743.28
603.552	33961.58
603.91	34233.21
604.268	34645.4
604.625	34554.78
604.983	34860.31
605.341	34804.72
605.698	35124.71
606.056	35440.64
606.413	35501.2
606.771	35720.85
607.128	35928.98
607.485	35978.93
607.843	36091.01
608.2	36396.77
608.557	36549.76
608.914	36715.18
609.272	36982.29
609.629	37185.67
609.986	37327.37
610.343	37368.04
610.7	37798.09
611.057	37880.57
611.414	38000.57
611.771	38022.94
612.127	38329.15
612.484	38499.76
612.841	38554.9
613.198	38588.8
613.554	38791.51
613.911	38918.96
614.267	39020.65
614.624	39010.71
614.98	39275.79
615.337	39487.54
615.693	39468.55
616.05	39600.07
616.406	39801.65
616.762	39777.7
617.118	39899.5
617.475	39956.68
617.831	40106.5
618.187	40353.28
618.543	40522.08
618.899	40622.87
619.255	40660.61
619.611	40618.58
619.967	41003.2
620.323	41151.9
620.678	41034.16
621.034	40934.05
621.39	41047.04
621.746	41147.38
622.101	41687.93
622.457	41296.75
622.812	41510.76
623.168	41625.78
623.523	41613.58
623.879	41722.73
624.234	41619.91
624.589	41757.76
624.945	41840.24
625.3	41953.01
625.655	41941.03
626.01	42174.92
626.365	42047.47
626.72	42125.43
627.075	42190.74
627.43	42145.77
627.785	42167.01
628.14	42321.36
628.495	42245.2
628.85	42141.48
629.205	42164.98
629.559	42402.03
629.914	42176.28
630.269	42325.2
630.623	42117.97
630.978	42092.89
631.332	42321.36
631.687	42281.13
632.041	42187.13
632.396	42337.63
632.75	42302.83
633.104	42470.51
633.459	42181.93
633.813	42314.81
634.167	42232.32
634.521	42183.06
634.875	42303.73
635.229	42449.04
635.583	42211.98
635.937	42324.52
636.291	42187.58
636.645	42211.31
636.999	42180.35
637.352	42284.3
637.706	42124.3
638.06	42303.96
638.413	42175.6
638.767	42116.39
639.121	42142.15
639.474	42060.12
639.828	42162.04
640.181	42102.16
640.534	42171.76
640.888	42047.47
641.241	41886.79
641.594	42084.3
641.947	41940.35
642.301	42004.76
642.654	41962.72
643.007	42023.29
643.36	41811.99
643.713	41904.65
644.066	42136.73
644.419	41660.36
644.771	41740.58
645.124	41248.39
645.477	41144.67
645.83	40841.4
646.182	40797.56
646.535	40703.1
646.888	40758.91
647.24	40517.34
647.593	40827.16
647.945	40663.78
648.298	40406.83
648.65	40498.81
649.002	40332.03
649.355	40588.3
649.707	40378.81
650.059	40672.14
650.411	41091.56
650.763	41144.21
651.115	41499.46
651.467	41210.65
651.819	41432.79
652.171	41259.47
652.523	41156.64
652.875	41292.91
653.227	40975.86
653.578	41342.18
653.93	41328.62
654.282	41037.32
654.633	41166.81
654.985	41118.23
655.337	41131.11
655.688	41111.67
656.039	41264.89
656.391	41016.76
656.742	41139.47
657.094	41036.65
657.445	41199.81
657.796	41058.79
658.147	40974.73
658.498	41070.54
658.849	41056.53
659.2	41146.47
659.551	40920.49
659.902	41109.64
660.253	41066.93
660.604	41001.39
660.955	40792.13
661.306	41102.63
661.656	41007.95
662.007	40883.2
662.358	40852.02
662.708	40892.92
663.059	40893.83
663.409	40636.43
663.76	40900.61
664.11	40770.67
664.461	40782.64
664.811	40994.39
665.161	40994.84
665.511	40594.17
665.862	40697.45
666.212	40734.96
666.562	41065.8
666.912	40645.47
667.262	40715.98
667.612	40805.24
667.962	40905.8
668.312	40554.17
668.662	40868.06
669.011	40756.2
669.361	40761.85
669.711	40632.59
670.06	40664.68
670.41	40566.6
670.76	40436.44
671.109	40641.86
671.459	40574.96
671.808	40542.2
672.157	40649.31
672.507	40300.85
672.856	40564.57
673.205	40371.58
673.554	40556.89
673.904	40417.68
674.253	40593.72
674.602	40362.09
674.951	40064.7
675.3	39675.78
675.649	40386.49
675.998	40314.63
676.346	40310.56
676.695	40391.01
677.044	40190.12
677.393	40297.91
677.741	40385.36
678.09	40172.71
678.438	40120.74
678.787	40205.93
679.135	40215.88
679.484	39995.09
679.832	40074.41
680.181	39842.1
680.529	39967.75
680.877	39913.96
681.225	39875.1
681.573	40138.37
681.922	39717.81
682.27	39598.72
682.618	39694.54
682.966	39565.73
683.314	39631.71
683.661	39566.18
684.009	39372.51
684.357	39354.21
684.705	39300.2
685.053	39418.38
685.4	39251.84
685.748	39040.32
686.095	39158.05
686.443	38856.14
686.79	39016.81
687.138	38957.38
687.485	38946.53
687.832	38761.23
688.18	38872.18
688.527	38595.81
688.874	38680.32
689.221	38555.36
689.568	38421.8
689.915	38404.4
690.262	38248.25
690.609	38197.4
690.956	38149.72
691.303	38109.49
691.65	37993.11
691.997	37998.76
692.344	37725.55
692.69	37731.42
693.037	37603.97
693.383	37307.71
693.73	37575.72
694.077	37236.07
694.423	37385.9
694.769	37220.93
695.116	37180.7
695.462	37172.79
695.808	36893.48
696.155	37053.25
696.501	36846.25
696.847	36743.2
697.193	36425.92
697.539	36677.44
697.885	36429.76
698.231	36427.05
698.577	36335.3
698.923	36142.54
699.269	36061.18
699.614	35915.2
699.96	35854.41
700.306	35847.4
700.651	35746.84
700.997	35613.51
701.342	35452.16
701.688	35436.12
702.033	35371.94
702.379	35392.28
702.724	35165.16
703.069	35164.26
703.415	34931.95
703.76	34809.69
704.105	34932.85
704.45	34795.46
704.795	34602.24
705.14	34570.83
705.485	34732.18
705.83	34376.03
706.175	34548.46
706.52	34356.6
706.865	34218.75
707.209	34244.96
707.554	34084.97
707.899	34156.6
708.243	34004.06
708.588	33844.29
708.932	33513.23
709.277	33722.94
709.621	33697.18
709.966	33443.63
710.31	33670.96
710.654	33267.81
710.998	33260.58
711.342	33335.15
711.687	33207.02
712.031	33073.24
712.375	33035.73
712.719	33080.47
713.063	32923.19
713.407	32989.4
713.75	32850.2
714.094	32841.38
714.438	32721.61
714.782	32757.54
715.125	32531.79
715.469	32653.14
715.812	32428.29
716.156	32269.87
716.499	32233.71
716.843	32243.43
717.186	32066.04
717.53	32222.64
717.873	32208.63
718.216	32115.07
718.559	32056.32
718.902	31774.29
719.246	31814.74
719.589	31740.62
719.932	31745.59
720.275	31666.72
720.617	31726.38
720.96	31520.96
721.303	31571.13
721.646	31597.12
721.989	31288.2
722.331	31327.3
722.674	31404.13
723.016	31388.54
723.359	31341.08
723.701	31355.09
724.044	31259.05
724.386	31058.38
724.729	31091.82
725.071	31137.25
725.413	30848.21
725.755	30965.5
726.097	30889.34
726.439	30703.59
726.782	30717.82
727.124	30834.88
727.465	30682.12
727.807	30591.72
728.149	30492.29
728.491	30506.53
728.833	30635.11
729.175	30361.45
729.516	30375.01
729.858	30361.22
730.199	30441.9
730.541	30210.49
730.882	30201.68
731.224	30353.54
731.565	29939.54
731.906	30184.95
732.248	30144.28
732.589	29889.82
732.93	29707
733.271	29908.35
733.612	29864.96
733.953	29874.68
734.294	29786.55
734.635	29686.89
734.976	29838.75
735.317	29639.21
735.658	29652.77
735.999	29591.98
736.339	29622.94
736.68	29571.19
737.021	29524.41
737.361	29297.07
737.702	29560.11
738.042	29302.49
738.383	29322.38
738.723	29293.23
739.063	29316.73
739.404	29194.47
739.744	29091.88
740.084	29124.87
740.424	29121.93
740.764	29134.81
741.104	29110.86
741.444	29003.29
741.784	28908.15
742.124	28940.92
742.464	28867.93
742.804	28766.46
743.143	28660.48
743.483	28738.44
743.823	28603.75
744.162	28690.3
744.502	28635.62
744.841	28533.25
745.181	28646.92
745.52	28623.64
745.86	28525.11
746.199	28433.14
746.538	28431.33
746.877	28457.77
747.216	28384.32
747.556	28290.32
747.895	28301.61
748.234	28147.72
748.573	28065.91
748.911	27985.24
749.25	28124.9
749.589	27942.53
749.928	27954.51
750.267	28000.61
750.605	27960.83
750.944	27919.7
751.283	27787.5
751.621	27735.98
751.96	27661.18
752.298	27630.22
752.636	27663.21
752.975	27558.58
753.313	27456.21
753.651	27608.98
753.989	27356.1
754.327	27343.67
754.666	27243.79
755.004	27192.27
755.342	27188.88
755.679	27051.93
756.017	26978.71
756.355	27177.8
756.693	26986.39
757.031	26875.89
757.368	26782.78
757.706	26777.81
758.044	26700.75
