Data from hue_34_FLMS001491_00001.txt Node
Date: Tue Feb 07 17:25:06 GMT 2017
User: dcchb
Spectrometer: FLMS00149
Trigger mode: 0
Integration Time (sec): 2.000000E-2
Scans to average: 10
Electric dark correction enabled: true
Nonlinearity correction enabled: false
Boxcar width: 0
XAxis mode: Wavelengths
Number of Pixels in Spectrum: 2048
>>>>>Begin Spectral Data<<<<<
341.393	-16.21
341.776	-16.21
342.16	-16.21
342.543	-77.91
342.927	-62.54
343.31	-63.22
343.693	-78.81
344.077	-55.54
344.46	-60.28
344.843	-62.77
345.226	-21.86
345.61	-31.58
345.993	-21.64
346.376	6.61
346.759	7.51
347.142	10.45
347.525	40.28
347.908	49.09
348.291	77.57
348.674	82.77
349.057	121.41
349.44	136.1
349.823	136.55
350.206	162.31
350.588	187.85
350.971	203.44
351.354	242.31
351.737	241.86
352.119	256.09
352.502	282.99
352.884	276.66
353.267	275.3
353.65	299.26
354.032	302.87
354.414	301.29
354.797	315.75
355.179	325.92
355.562	322.53
355.944	323.66
356.326	332.93
356.709	354.85
357.091	370.44
357.473	345.58
357.855	318.69
358.238	349.2
358.62	348.97
359.002	353.04
359.384	363.66
359.766	357.79
360.148	335.87
360.53	342.19
360.912	327.96
361.294	332.03
361.676	346.26
362.057	345.13
362.439	322.99
362.821	315.98
363.203	336.77
363.584	320.73
363.966	323.89
364.348	323.21
364.729	339.03
365.111	318.24
365.493	326.38
365.874	329.77
366.256	334.28
366.637	313.95
367.019	329.09
367.4	327.05
367.781	310.78
368.163	309.2
368.544	324.34
368.925	303.78
369.306	338.35
369.688	315.98
370.069	313.49
370.45	330.22
370.831	329.31
371.212	320.73
371.593	313.27
371.974	323.44
372.355	322.31
372.736	319.82
373.117	322.31
373.498	310.1
373.879	318.47
374.26	306.94
374.641	316.43
375.021	307.39
375.402	328.18
375.783	323.89
376.163	332.48
376.544	346.94
376.925	338.35
377.305	318.69
377.686	328.18
378.066	339.03
378.447	337.67
378.827	345.13
379.208	341.74
379.588	326.15
379.968	344.45
380.349	335.19
380.729	323.66
381.109	339.48
381.489	347.62
381.87	329.77
382.25	338.8
382.63	328.86
383.01	351.91
383.39	348.52
383.77	362.76
384.15	349.88
384.53	336.77
384.91	346.71
385.29	348.3
385.67	351.69
386.049	366.6
386.429	354.85
386.809	361.85
387.189	349.43
387.568	360.95
387.948	381.06
388.328	348.07
388.707	348.97
389.087	370.22
389.466	365.02
389.846	358.01
390.225	376.09
390.605	373.38
390.984	370.22
391.363	374.06
391.743	362.53
392.122	362.31
392.501	372.93
392.881	369.54
393.26	393.27
393.639	378.8
394.018	398.92
394.397	384.45
394.776	366.6
395.155	374.28
395.534	376.77
395.913	384.68
396.292	386.04
396.671	416.54
397.05	387.39
397.429	393.49
397.808	377
398.186	374.06
398.565	391.23
398.944	387.84
399.323	412.48
399.701	417.67
400.08	399.82
400.458	385.58
400.837	413.6
401.215	401.4
401.594	397.33
401.972	393.94
402.351	402.08
402.729	431.23
403.107	408.86
403.486	410.89
403.864	397.56
404.242	413.83
404.62	418.8
404.999	433.27
405.377	437.33
405.755	451.57
406.133	417.67
406.511	427.62
406.889	445.92
407.267	451.34
407.645	440.5
408.023	443.89
408.401	436.66
408.779	451.57
409.156	433.72
409.534	459.25
409.912	449.99
410.29	446.6
410.667	460.61
411.045	452.25
411.422	449.99
411.8	482.3
412.178	481.4
412.555	465.81
412.933	479.59
413.31	465.35
413.687	501.51
414.065	520.27
414.442	482.3
414.819	483.66
415.197	485.47
415.574	510.33
415.951	489.08
416.328	496.77
416.705	495.41
417.082	507.61
417.46	505.35
417.837	518.23
418.214	514.85
418.591	532.02
418.967	537.22
419.344	526.37
419.721	532.92
420.098	548.52
420.475	521.62
420.852	542.19
421.228	551.23
421.605	534.73
421.982	537.22
422.358	532.7
422.735	562.75
423.111	568.18
423.488	549.87
423.864	530.89
424.241	560.27
424.617	571.57
424.994	574.73
425.37	566.6
425.746	564.79
426.123	575.86
426.499	579.25
426.875	583.32
427.251	580.15
427.627	581.28
428.003	609.08
428.379	613.15
428.756	590.78
429.132	632.36
429.507	642.07
429.883	623.54
430.259	657.44
430.635	619.93
431.011	642.07
431.387	645.01
431.763	661.51
432.138	652.24
432.514	654.05
432.89	665.58
433.265	692.69
433.641	691.34
434.016	668.74
434.392	698.8
434.767	725.69
435.143	699.02
435.518	725.46
435.894	696.54
436.269	718
436.644	724.78
437.02	746.03
437.395	725.01
437.77	715.74
438.145	749.42
438.52	744.9
438.895	774.5
439.271	759.58
439.646	761.17
440.021	762.75
440.395	760.26
440.77	770.43
441.145	779.47
441.52	782.41
441.895	794.16
442.27	793.48
442.645	795.06
443.019	810.2
443.394	794.84
443.769	807.04
444.143	803.65
444.518	813.82
444.892	836.19
445.267	846.14
445.641	847.94
446.016	847.72
446.39	854.72
446.764	857.66
447.139	857.66
447.513	858.34
447.887	855.85
448.262	878.45
448.636	863.76
449.01	867.83
449.384	906.02
449.758	898.34
450.132	894.04
450.506	896.08
450.88	917.77
451.254	903.99
451.628	883.88
452.002	922.97
452.376	959.13
452.75	948.05
453.123	919.81
453.497	970.2
453.871	985.34
454.244	988.51
454.618	989.63
454.992	995.74
455.365	1003.19
455.739	1011.78
456.112	1026.7
456.486	1029.86
456.859	1037.09
457.232	1043.19
457.606	1059.24
457.979	1067.15
458.352	1068.73
458.725	1115.28
459.099	1081.84
459.472	1119.8
459.845	1134.26
460.218	1138.11
460.591	1161.38
460.964	1141.5
461.337	1176.75
461.71	1178.33
462.083	1222.17
462.456	1197.09
462.829	1221.49
463.201	1243.64
463.574	1239.35
463.947	1254.03
464.32	1268.72
464.692	1311.89
465.065	1306.91
465.438	1316.18
465.81	1340.36
466.183	1343.3
466.555	1374.94
466.928	1388.27
467.3	1407.48
467.672	1441.6
468.045	1450.19
468.417	1459
468.789	1464.65
469.161	1463.29
469.534	1515.04
469.906	1529.06
470.278	1574.25
470.65	1594.82
471.022	1596.85
471.394	1635.27
471.766	1656.51
472.138	1669.39
472.51	1730.18
472.882	1759.56
473.253	1774.25
473.625	1794.59
473.997	1818.09
474.369	1869.84
474.74	1872.32
475.112	1950.97
475.484	1946.45
475.855	1993.68
476.227	2052.21
476.598	2082.49
476.97	2118.64
477.341	2172.88
477.713	2233.44
478.084	2240.45
478.455	2320
478.827	2335.81
479.198	2415.59
479.569	2475.25
479.94	2556.83
480.311	2550.05
480.682	2641.12
481.053	2715.24
481.424	2778.51
481.795	2816.25
482.166	2892.18
482.537	2931.05
482.908	3044.72
483.279	3079.07
483.65	3153.87
484.021	3251.95
484.391	3282
484.762	3355.67
485.133	3416.01
485.503	3495.33
485.874	3592.5
486.244	3645.16
486.615	3759.96
486.985	3806.96
487.356	3919.05
487.726	3971.93
488.097	4037.24
488.467	4118.37
488.837	4262.77
489.207	4312.71
489.578	4457.79
489.948	4467.28
490.318	4601.52
490.688	4643.55
491.058	4729.88
491.428	4810.33
491.798	4930.77
492.168	5024.56
492.538	5086.25
492.908	5194.5
493.278	5275.17
493.648	5323.98
494.017	5421.16
494.387	5533.7
494.757	5599.46
495.126	5696.18
495.496	5758.78
495.866	5816.17
496.235	5871.54
496.605	5995.61
496.974	6050.97
497.344	6110.63
497.713	6147.01
498.082	6280.57
498.452	6320.12
498.821	6464.75
499.19	6534.8
499.559	6603.5
499.928	6638.53
500.298	6711.97
500.667	6788.58
501.036	6826.09
501.405	6860.89
501.774	6941.12
502.143	6997.39
502.512	7064.96
502.88	7159.64
503.249	7179.53
503.618	7244.84
503.987	7325.51
504.356	7412.06
504.724	7504.27
505.093	7556.92
505.462	7568.45
505.83	7623.13
506.199	7749.23
506.567	7779.74
506.936	7850.47
507.304	7953.75
507.672	7948.1
508.041	8046.85
508.409	8089.56
508.777	8173.85
509.145	8251.36
509.514	8227.64
509.882	8335.2
510.25	8343.57
510.618	8450.91
510.986	8513.73
511.354	8533.39
511.722	8611.58
512.09	8734.52
512.458	8710.79
512.826	8829.88
513.193	8775.19
513.561	8844.8
513.929	8885.47
514.297	8999.59
514.664	9032.14
515.032	9100.16
515.4	9125.69
515.767	9155.97
516.135	9295.63
516.502	9189.87
516.869	9405.91
517.237	9377.44
517.604	9413.14
517.972	9544.44
518.339	9612.23
518.706	9571.56
519.073	9567.04
519.44	9639.8
519.808	9794.6
520.175	9687.49
520.542	9915.73
520.909	9947.14
521.276	9916.86
521.643	9989.85
522.009	10099.45
522.376	10164.31
522.743	10154.82
523.11	10271.65
523.477	10388.26
523.843	10405.88
524.21	10520.01
524.577	10553.68
524.943	10609.72
525.31	10685.2
525.676	10745.76
526.043	10856.72
526.409	10897.4
526.776	11020.33
527.142	10939.2
527.508	11032.76
527.874	11139.65
528.241	11167.67
528.607	11163.6
528.973	11372.41
529.339	11375.12
529.705	11481.56
530.071	11579.64
530.437	11556.81
530.803	11626.64
531.169	11657.38
531.535	11694.66
531.901	11743.93
532.267	11815.34
532.632	11921.78
532.998	11842.68
533.364	12015.56
533.73	12040.19
534.095	12159.74
534.461	12202.22
534.826	12234.31
535.192	12272.73
535.557	12396.57
535.923	12376
536.288	12406.96
536.653	12480.18
537.019	12488.54
537.384	12566.28
537.749	12567.41
538.114	12717.46
538.479	12616.45
538.845	12766.95
539.21	12714.07
539.575	12815.76
539.94	12910.9
540.305	13010.34
540.67	12972.82
541.034	13045.59
541.399	13032.71
541.764	13120.39
542.129	13157.22
542.494	13265.92
542.858	13311.34
543.223	13345.02
543.587	13371.23
543.952	13451.45
544.316	13481.06
544.681	13453.04
545.045	13551.56
545.41	13650.32
545.774	13638.79
546.138	13694.61
546.503	13813.25
546.867	13769.64
547.231	13936.87
547.595	13958.79
547.959	13974.83
548.324	14043.08
548.688	14084.66
549.052	14156.29
549.416	14185.9
549.779	14176.86
550.143	14198.78
550.507	14274.71
550.871	14387.93
551.235	14330.98
551.599	14506.57
551.962	14459.56
552.326	14547.24
552.689	14555.38
553.053	14572.33
553.417	14643.74
553.78	14782.72
554.143	14782.04
554.507	14863.85
554.87	14909.49
555.234	14941.36
555.597	14889.83
555.96	15013.67
556.323	15110.39
556.686	15092.09
557.05	15174.8
557.413	15169.6
557.776	15210.73
558.139	15388.8
558.502	15370.05
558.865	15388.35
559.228	15528.24
559.59	15602.58
559.953	15558.97
560.316	15706.76
560.679	15738.63
561.041	15814.78
561.404	15717.61
561.767	16012.52
562.129	15915.8
562.492	16098.84
562.854	16054.78
563.217	16099.07
563.579	16125.73
563.941	16300.64
564.304	16336.12
564.666	16362.11
565.028	16370.7
565.39	16419.29
565.753	16528.89
566.115	16515.33
566.477	16592.16
566.839	16737.02
567.201	16845.72
567.563	16879.61
567.925	16932.04
568.287	16987.86
568.648	17066.5
569.01	17148.31
569.372	17190.34
569.734	17247.29
570.095	17343.33
570.457	17337
570.819	17488.86
571.18	17454.96
571.542	17759.59
571.903	17684.34
572.265	17754.62
572.626	17882.3
572.987	17887.72
573.349	17905.35
573.71	17991.22
574.071	18139.92
574.432	18144.66
574.794	18354.83
575.155	18395.73
575.516	18392.57
575.877	18620.58
576.238	18677.08
576.599	18763.86
576.96	18884.98
577.32	19000.91
577.681	19125.2
578.042	19267.35
578.403	19465.31
578.763	19457.17
579.124	19584.4
579.485	19856.03
579.845	20002.24
580.206	19983.03
580.566	20098.06
580.927	20269.13
581.287	20531.95
581.648	20562
582.008	20908.21
582.368	21004.7
582.728	21079.28
583.089	21330.34
583.449	21480.17
583.809	21690.11
584.169	21919.93
584.529	22032.47
584.889	22410.54
585.249	22516.07
585.609	22659.8
585.969	23027.93
586.329	23061.6
586.688	23521.25
587.048	23653.22
587.408	23807.79
587.768	24004.62
588.127	24236.93
588.487	24328.91
588.846	24812.06
589.206	24904.26
589.565	25207.53
589.925	25522.78
590.284	25687.74
590.643	25842.99
591.003	26240.04
591.362	26484.56
591.721	26795.28
592.08	26925.9
592.44	27268.27
592.799	27548.94
593.158	27778.08
593.517	28099.43
593.876	28225.08
594.235	28347.56
594.593	28713.2
594.952	28979.18
595.311	29052.63
595.67	29486.74
596.029	29889.44
596.387	30057.8
596.746	30342.76
597.104	30375.75
597.463	30595.64
597.822	31155.85
598.18	31226.35
598.538	31442.62
598.897	31773.01
599.255	31791.99
599.613	32485.3
599.972	32442.14
600.33	32800.32
600.688	32723.26
601.046	33114.67
601.404	33498.16
601.762	33507.2
602.12	33846.17
602.478	33946.06
602.836	34311.02
603.194	34213.17
603.552	34531.13
603.91	34577.45
604.268	35063.32
604.625	35048.85
604.983	35304.66
605.341	35455.17
605.698	35757.99
606.056	35758.44
606.413	36092.89
606.771	36231.42
607.128	36514.8
607.485	36545.76
607.843	36789.6
608.2	37055.13
608.557	37211.28
608.914	37268
609.272	37548.67
609.629	37707.09
609.986	38064.59
610.343	37979.85
610.7	38389.1
611.057	38329.67
611.414	38537.8
611.771	38643.11
612.127	38836.32
612.484	39057.11
612.841	39267.5
613.198	39215.07
613.554	39330.32
613.911	39721.27
614.267	39738.9
614.624	39763.53
614.98	39885.56
615.337	40220.69
615.693	40373.46
616.05	40269.28
616.406	40554.92
616.762	40483.06
617.118	40660.46
617.475	40663.62
617.831	40806.22
618.187	41092.08
618.543	41293.21
618.899	41431.74
619.255	41335.47
619.611	41329.82
619.967	41601.45
620.323	41765.06
620.678	41654.55
621.034	41554.44
621.39	41782.46
621.746	41721.67
622.101	42264.48
622.457	42097.03
622.812	41992.62
623.168	42257.25
623.523	42378.6
623.879	42627.41
624.234	42265.16
624.589	42470.8
624.945	42518.26
625.3	42698.59
625.655	42634.64
626.01	42602.1
626.365	42890.45
626.72	42688.43
627.075	42770.01
627.43	42847.52
627.785	42850.91
628.14	42928.19
628.495	42945.82
628.85	42931.58
629.205	42799.84
629.559	43017.68
629.914	42880.06
630.269	42961.41
630.623	43090.45
630.978	42918.48
631.332	42981.75
631.687	43224.23
632.041	43117.11
632.396	43169.77
632.75	42933.62
633.104	43154.85
633.459	42948.98
633.813	42925.93
634.167	43002.32
634.521	43191.46
634.875	42983.79
635.229	42939.27
635.583	43010.45
635.937	42924.35
636.291	42923.22
636.645	42952.6
636.999	42806.84
637.352	43093.39
637.706	42882.32
638.06	42972.94
638.413	42982.66
638.767	42832.15
639.121	42981.3
639.474	42734.53
639.828	42921.87
640.181	42925.26
640.534	42932.94
640.888	42791.25
641.241	42715.77
641.594	42678.03
641.947	42795.32
642.301	42682.32
642.654	42690.69
643.007	42633.06
643.36	42708.99
643.713	42564.36
644.066	42745.15
644.419	42435.32
644.771	42195.33
645.124	42028.33
645.477	41835.34
645.83	41605.74
646.182	41440.55
646.535	41317.16
646.888	41436.26
647.24	41243.49
647.593	41528
647.945	41391.28
648.298	41215.47
648.65	41162.14
649.002	41082.37
649.355	41366.88
649.707	41257.5
650.059	41516.48
650.411	41829.24
650.763	41887.54
651.115	42381.99
651.467	42150.36
651.819	42141.55
652.171	42074.88
652.523	41996.24
652.875	42038.95
653.227	41744.95
653.578	42158.95
653.93	42092.96
654.282	41897.71
654.633	41680.09
654.985	41868.56
655.337	41859.75
655.688	41910.82
656.039	41983.81
656.391	41798.28
656.742	41874.66
657.094	41776.36
657.445	41916.47
657.796	41894.1
658.147	41718.06
658.498	41741.11
658.849	41885.28
659.2	41766.64
659.551	41648
659.902	41798.73
660.253	41801.67
660.604	41679.19
660.955	41521.45
661.306	41687.32
661.656	41731.84
662.007	41757.83
662.358	41756.25
662.708	41611.62
663.059	41693.2
663.409	41465.63
663.76	41810.26
664.11	41629.47
664.461	41705.85
664.811	41628.57
665.161	41639.19
665.511	41551.28
665.862	41627.66
666.212	41675.57
666.562	41577.72
666.912	41605.29
667.262	41661.11
667.612	41483.71
667.962	41538.85
668.312	41506.99
668.662	41802.8
669.011	41605.06
669.361	41471.06
669.711	41488.01
670.06	41451.62
670.41	41370.95
670.76	41261.12
671.109	41514.67
671.459	41444.84
671.808	41362.81
672.157	41469.25
672.507	41117.39
672.856	41159.2
673.205	41167.56
673.554	41301.34
673.904	41156.94
674.253	41400.55
674.602	41194
674.951	40864.74
675.3	40548.82
675.649	41127.79
675.998	41019.32
676.346	41013.44
676.695	41167.79
677.044	41066.55
677.393	41064.29
677.741	41186.32
678.09	40972.99
678.438	40858.87
678.787	41112.2
679.135	40956.27
679.484	40708.36
679.832	40913.33
680.181	40610.06
680.529	40761.02
680.877	40679.21
681.225	40560.57
681.573	40947
681.922	40509.27
682.27	40529.61
682.618	40534.13
682.966	40415.72
683.314	40446.45
683.661	40227.93
684.009	40191.32
684.357	40049.17
684.705	40045.11
685.053	40332.1
685.4	40093.24
685.748	40057.53
686.095	39873.36
686.443	39718.56
686.79	39648.96
687.138	39776.86
687.485	39673.82
687.832	39677.88
688.18	39541.62
688.527	39299.14
688.874	39362.19
689.221	39320.15
689.568	39222.3
689.915	39136.65
690.262	39176.88
690.609	38974.62
690.956	38897.34
691.303	38769.66
691.65	38696.44
691.997	38773.5
692.344	38595.65
692.69	38381.87
693.037	38317.24
693.383	38131.94
693.73	38143.91
694.077	38083.8
694.423	38016.01
694.769	37877.48
695.116	37821.66
695.462	37751.61
695.808	37745.5
696.155	37808.55
696.501	37373.09
696.847	37468.22
697.193	37271.62
697.539	37352.07
697.885	37153.66
698.231	37047.9
698.577	37072.08
698.923	37112.98
699.269	36832.53
699.614	36707.11
699.96	36609.49
700.306	36614.91
700.651	36520.68
700.997	36349.16
701.342	36259.44
701.688	36150.07
702.033	36114.36
702.379	36045.66
702.724	35922.05
703.069	36036.85
703.415	35451.1
703.76	35687.93
704.105	35652
704.45	35584.21
704.795	35230.99
705.14	35327.94
705.485	35273.03
705.83	35186.25
706.175	35064.45
706.52	35045.69
706.865	34825.81
707.209	34942.87
707.554	34745.58
707.899	34736.77
708.243	34650.9
708.588	34634.85
708.932	34275.31
709.277	34460.85
709.621	34569.09
709.966	34307.18
710.31	34326.84
710.654	34113.96
710.998	34035.32
711.342	34004.36
711.687	33925.04
712.031	33732.95
712.375	33717.36
712.719	33736.34
713.063	33645.73
713.407	33728.66
713.75	33579.06
714.094	33489.12
714.438	33203.7
714.782	33427.65
715.125	33242.35
715.469	33297.03
715.812	33171.84
716.156	32952.18
716.499	32939.08
716.843	33020.21
717.186	32768.01
717.53	32956.03
717.873	32940.66
718.216	32888.01
718.559	32712.87
718.902	32512.2
719.246	32410.73
719.589	32443.72
719.932	32400.33
720.275	32404.63
720.617	32351.52
720.96	32351.52
721.303	32370.5
721.646	32177.74
721.989	32009.16
722.331	32135.03
722.674	31997.18
723.016	32075.6
723.359	31998.54
723.701	31982.72
724.044	31760.35
724.386	31655.72
724.729	31808.94
725.071	31662.05
725.413	31619.79
725.755	31568.49
726.097	31523.97
726.439	31429.96
726.782	31332.79
727.124	31460.02
727.465	31337.99
727.807	31386.8
728.149	31164.66
728.491	31200.82
728.833	31234.04
729.175	31025.23
729.516	31032.91
729.858	30979.35
730.199	30914.95
730.541	30897.55
730.882	30852.35
731.224	30980.26
731.565	30733.26
731.906	30800.6
732.248	30822.3
732.589	30643.77
732.93	30439.93
733.271	30493.04
733.612	30582.3
733.953	30528.29
734.294	30347.73
734.635	30341.86
734.976	30366.72
735.317	30218.92
735.658	30213.05
735.999	30287.62
736.339	30119.72
736.68	30186.83
737.021	30084.69
737.361	30022.32
737.702	30117.46
738.042	29928.76
738.383	30001.3
738.723	29884.92
739.063	29849.22
739.404	29784.58
739.744	29720.4
740.084	29610.35
740.424	29721.99
740.764	29598.83
741.104	29753.62
741.444	29550.92
741.784	29489
742.124	29417.36
742.464	29427.53
742.804	29398.83
743.143	29279.06
743.483	29442.67
743.823	29213.75
744.162	29146.63
744.502	29292.17
744.841	29086.75
745.181	29202
745.52	29153.87
745.86	29135.56
746.199	29173.98
746.538	28946.87
746.877	28966.53
747.216	28995.68
747.556	28947.09
747.895	28960.65
748.234	28832.52
748.573	28760.66
748.911	28658.29
749.25	28672.07
749.589	28539.65
749.928	28695.57
750.267	28559.31
750.605	28564.5
750.944	28455.35
751.283	28433.21
751.621	28329.93
751.96	28254.45
752.298	28207
752.636	28201.8
752.975	28081.8
753.313	28075.48
753.651	28164.51
753.989	27896.95
754.327	27948.93
754.666	27784.18
755.004	27920.23
755.342	27852.66
755.679	27760.91
756.017	27574.47
756.355	27807.01
756.693	27556.17
757.031	27664.19
757.368	27369.73
757.706	27343.52
