Data from hue_240_FLMS001491_00073.txt Node
Date: Tue Feb 07 16:35:55 GMT 2017
User: dcchb
Spectrometer: FLMS00149
Trigger mode: 0
Integration Time (sec): 2.000000E-2
Scans to average: 10
Electric dark correction enabled: true
Nonlinearity correction enabled: false
Boxcar width: 0
XAxis mode: Wavelengths
Number of Pixels in Spectrum: 2048
>>>>>Begin Spectral Data<<<<<
341.393	-9.67
341.776	-9.67
342.16	-9.67
342.543	-72.95
342.927	-70.46
343.31	-62.55
343.693	-79.73
344.077	-66.4
344.46	-57.81
344.843	-60.3
345.226	-31.14
345.61	-9.9
345.993	-12.16
346.376	-4.48
346.759	-2.44
347.142	22.87
347.525	30.55
347.908	49.98
348.291	75.29
348.674	94.5
349.057	113.71
349.44	127.95
349.823	143.54
350.206	169.3
350.588	188.06
350.971	210.21
351.354	195.29
351.737	246.14
352.119	264.89
352.502	226.93
352.884	265.12
353.267	259.92
353.65	281.16
354.032	295.63
354.414	301.28
354.797	313.25
355.179	302.63
355.562	307.6
355.944	336.08
356.326	319.58
356.709	316.42
357.091	328.4
357.473	335.85
357.855	331.56
358.238	296.31
358.62	334.95
359.002	319.58
359.384	319.36
359.766	332.91
360.148	330.2
360.53	329.53
360.912	312.8
361.294	323.2
361.676	324.1
362.057	321.39
362.439	327.94
362.821	322.52
363.203	330.88
363.584	313.93
363.966	317.32
364.348	315.29
364.729	298.11
365.111	312.58
365.493	302.41
365.874	319.58
366.256	303.54
366.637	308.28
367.019	290.2
367.4	307.6
367.781	297.44
368.163	295.4
368.544	300.83
368.925	282.29
369.306	299.47
369.688	299.92
370.069	303.76
370.45	312.35
370.831	303.99
371.212	302.63
371.593	313.25
371.974	306.93
372.355	296.31
372.736	298.57
373.117	299.24
373.498	328.85
373.879	311.22
374.26	308.96
374.641	295.63
375.021	319.13
375.402	311.45
375.783	325.91
376.163	309.64
376.544	325.68
376.925	309.19
377.305	327.94
377.686	326.36
378.066	318.68
378.447	314.38
378.827	327.04
379.208	330.43
379.588	311.22
379.968	319.13
380.349	315.29
380.729	330.88
381.109	339.24
381.489	320.49
381.87	337.21
382.25	330.88
382.63	335.17
383.01	347.38
383.39	345.12
383.77	337.89
384.15	324.55
384.53	318.68
384.91	333.82
385.29	333.14
385.67	354.61
386.049	338.34
386.429	355.74
386.809	342.63
387.189	325.68
387.568	323.65
387.948	348.51
388.328	341.5
388.707	340.6
389.087	354.16
389.466	366.36
389.846	347.38
390.225	359.81
390.605	366.81
390.984	366.36
391.363	349.64
391.743	367.26
392.122	355.74
392.501	363.65
392.881	365
393.26	383.76
393.639	365.23
394.018	374.95
394.397	381.5
394.776	372.46
395.155	371.78
395.534	389.18
395.913	358.9
396.292	398.22
396.671	386.92
397.05	388.96
397.429	367.72
397.808	376.08
398.186	393.25
398.565	405.23
398.944	387.38
399.323	409.07
399.701	407.04
400.08	388.73
400.458	402.07
400.837	398.68
401.215	397.32
401.594	424.89
401.972	408.85
402.351	409.98
402.729	413.14
403.107	409.07
403.486	411.78
403.864	419.92
404.242	437.54
404.62	409.3
404.999	437.09
405.377	459.01
405.755	454.04
406.133	449.75
406.511	446.81
406.889	447.94
407.267	434.38
407.645	442.52
408.023	458.79
408.401	463.31
408.779	462.63
409.156	481.16
409.534	486.81
409.912	487.49
410.29	480.71
410.667	504.89
411.045	508.05
411.422	535.4
411.8	538.79
412.178	513.93
412.555	529.75
412.933	521.38
413.31	531.55
413.687	535.4
414.065	549.18
414.442	555.96
414.819	550.08
415.197	567.49
415.574	580.82
415.951	588.73
416.328	599.8
416.705	603.42
417.082	602.29
417.46	615.85
417.837	602.06
418.214	641.38
418.591	606.13
418.967	627.82
419.344	637.54
419.721	658.56
420.098	643.64
420.475	638.22
420.852	675.05
421.228	663.3
421.605	677.09
421.982	679.57
422.358	689.52
422.735	696.07
423.111	694.49
423.488	719.35
423.864	742.17
424.241	738.78
424.617	763.19
424.994	749.85
425.37	783.75
425.746	759.57
426.123	791.89
426.499	796.63
426.875	798.44
427.251	825.78
427.627	821.49
428.003	823.98
428.379	854.71
428.756	843.64
429.132	861.26
429.507	876.63
429.883	898.1
430.259	906.69
430.635	904.43
431.011	886.35
431.387	899
431.763	894.48
432.138	942.39
432.514	931.54
432.89	937.87
433.265	958.66
433.641	982.84
434.016	993.46
434.392	1005.67
434.767	1070.07
435.143	1035.95
435.518	1074.82
435.894	1035.5
436.269	1087.25
436.644	1100.13
437.02	1109.17
437.395	1136.96
437.77	1157.3
438.145	1147.36
438.52	1184.87
438.895	1148.71
439.271	1191.88
439.646	1223.96
440.021	1243.4
440.395	1237.52
440.77	1255.15
441.145	1223.51
441.52	1304.41
441.895	1273
442.27	1292.21
442.645	1296.73
443.019	1319.78
443.394	1322.49
443.769	1346.9
444.143	1333.11
444.518	1364.75
444.892	1372.66
445.267	1389.84
445.641	1388.93
446.016	1400.91
446.39	1413.56
446.764	1434.58
447.139	1404.3
447.513	1454.69
447.887	1434.81
448.262	1468.25
448.636	1472.09
449.01	1477.07
449.384	1472.09
449.758	1505.99
450.132	1523.39
450.506	1534.92
450.88	1540.34
451.254	1551.87
451.628	1576.5
452.002	1574.24
452.376	1577.63
452.75	1597.06
453.123	1590.51
453.497	1668.02
453.871	1657.63
454.244	1718.19
454.618	1692.43
454.992	1683.16
455.365	1698.75
455.739	1760
456.112	1746.66
456.486	1786.44
456.859	1805.87
457.232	1819.43
457.606	1790.05
457.979	1834.57
458.352	1894.91
458.725	1896.94
459.099	1908.24
459.472	1909.6
459.845	1905.98
460.218	1936.26
460.591	1990.5
460.964	1958.63
461.337	2013.1
461.71	2083.6
462.083	2091.29
462.456	2094.22
462.829	2088.12
463.201	2129.48
463.574	2126.09
463.947	2144.84
464.32	2229.36
464.692	2211.06
465.065	2224.39
465.438	2246.76
465.81	2315.46
466.183	2311.62
466.555	2354.78
466.928	2318.4
467.3	2355.23
467.672	2411.5
468.045	2467.32
468.417	2462.35
468.789	2484.04
469.161	2474.33
469.534	2536.47
469.906	2579.86
470.278	2604.04
470.65	2603.14
471.022	2659.86
471.394	2722
471.766	2714.77
472.138	2751.83
472.51	2848.78
472.882	2904.37
473.253	2837.48
473.625	2912.73
473.997	2964.03
474.369	2969.46
474.74	3029.57
475.112	3051.04
475.484	3072.28
475.855	3145.95
476.227	3179.39
476.598	3229.34
476.97	3246.28
477.341	3343.01
477.713	3366.28
478.084	3389.78
478.455	3458.93
478.827	3453.28
479.198	3571.02
479.569	3591.36
479.94	3673.62
480.311	3695.99
480.682	3767.4
481.053	3834.29
481.424	3891.24
481.795	3937.79
482.166	3957.45
482.537	3960.62
482.908	4108.63
483.279	4137.56
483.65	4148.41
484.021	4244.68
484.391	4321.28
484.762	4341.85
485.133	4335.75
485.503	4432.47
485.874	4486.7
486.244	4512.69
486.615	4569.64
486.985	4665.46
487.356	4712.69
487.726	4733.93
488.097	4857.54
488.467	4862.06
488.837	4931.21
489.207	4939.8
489.578	5025.45
489.948	5089.17
490.318	5112
490.688	5110.19
491.058	5226.57
491.428	5274.25
491.798	5316.29
492.168	5392.44
492.538	5427.47
492.908	5463.85
493.278	5530.07
493.648	5562.83
494.017	5602.83
494.387	5650.74
494.757	5690.06
495.126	5740.23
495.496	5770.06
495.866	5811.64
496.235	5845.76
496.605	5849.15
496.974	5919.66
497.344	5943.84
497.713	5971.64
498.082	5987.91
498.452	6071.75
498.821	6125.31
499.19	6108.81
499.559	6134.57
499.928	6139.09
500.298	6180.67
500.667	6253.89
501.036	6246.88
501.405	6235.58
501.774	6278.97
502.143	6302.48
502.512	6332.08
502.88	6393.77
503.249	6351.97
503.618	6463.6
503.987	6470.38
504.356	6398.29
504.724	6483.04
505.093	6499.76
505.462	6530.94
505.83	6508.8
506.199	6579.3
506.567	6671.05
506.936	6671.05
507.304	6692.52
507.672	6759.64
508.041	6763.03
508.409	6782.24
508.777	6838.28
509.145	6827.66
509.514	6805.51
509.882	6852.52
510.25	6895.68
510.618	6932.97
510.986	6893.87
511.354	6940.65
511.722	6948.56
512.09	7076.24
512.458	7006.19
512.826	7038.05
513.193	7061.55
513.561	7033.76
513.929	7132.06
514.297	7208.89
514.664	7174.54
515.032	7174.54
515.4	7240.3
515.767	7261.32
516.135	7247.08
516.502	7209.12
516.869	7334.54
517.237	7332.28
517.604	7267.42
517.972	7351.49
518.339	7338.38
518.706	7363.92
519.073	7325.27
519.44	7412.5
519.808	7495.21
520.175	7419.73
520.542	7490.47
520.909	7546.51
521.276	7516
521.643	7551.93
522.009	7598.94
522.376	7561.43
522.743	7540.41
523.11	7650.01
523.477	7620.86
523.843	7743.57
524.21	7710.8
524.577	7763
524.943	7757.13
525.31	7776.34
525.676	7828.54
526.043	7901.53
526.409	7830.12
526.776	7939.04
527.142	7952.83
527.508	7875.99
527.874	8008.19
528.241	7985.37
528.607	7988.76
528.973	7989.21
529.339	8020.62
529.705	8008.42
530.071	8016.55
530.437	8059.72
530.803	8101.75
531.169	8086.16
531.535	8041.64
531.901	8042.99
532.267	8084.12
532.632	8094.07
532.998	8153.95
533.364	8134.52
533.73	8174.74
534.095	8136.55
534.461	8149.88
534.826	8168.19
535.192	8200.73
535.557	8189.43
535.923	8193.27
536.288	8185.14
536.653	8256.32
537.019	8175.65
537.384	8208.19
537.749	8201.63
538.114	8149.66
538.479	8136.55
538.845	8208.87
539.21	8161.64
539.575	8152.6
539.94	8138.59
540.305	8209.77
540.67	8164.8
541.034	8175.42
541.399	8151.47
541.764	8183.1
542.129	8170.9
542.494	8153.05
542.858	8166.38
543.223	8117.8
543.587	8181.75
543.952	8151.92
544.316	8135.65
544.681	8159.38
545.045	8087.06
545.41	8148.08
545.774	8124.57
546.138	8151.92
546.503	8095.42
546.867	8148.53
547.231	8153.27
547.595	8130.68
547.959	8142.88
548.324	8126.16
548.688	8115.08
549.052	8141.07
549.416	8106.5
549.779	8134.29
550.143	8103.78
550.507	8081.86
550.871	8132.26
551.235	8094.97
551.599	8080.96
551.962	8089.77
552.326	8094.07
552.689	8117.57
553.053	8054.29
553.417	8151.47
553.78	8186.04
554.143	8152.82
554.507	8154.63
554.87	8143.11
555.234	8167.06
555.597	8130.45
555.96	8141.07
556.323	8124.12
556.686	8173.61
557.05	8200.05
557.413	8083.67
557.776	8152.82
558.139	8228.75
558.502	8251.8
558.865	8228.75
559.228	8267.17
559.59	8249.77
559.953	8249.77
560.316	8294.97
560.679	8276.89
561.041	8400.95
561.404	8294.51
561.767	8299.71
562.129	8299.03
562.492	8363.66
562.854	8300.84
563.217	8392.36
563.579	8330.44
563.941	8433.94
564.304	8434.62
564.666	8471.91
565.028	8497.22
565.39	8498.12
565.753	8513.26
566.115	8485.02
566.477	8543.55
566.839	8585.58
567.201	8580.16
567.563	8623.77
567.925	8617.44
568.287	8642.3
568.648	8726.59
569.01	8636.88
569.372	8725.24
569.734	8648.63
570.095	8753.48
570.457	8787.16
570.819	8817.21
571.18	8747.61
571.542	8826.7
571.903	8805.46
572.265	8828.96
572.626	8951.67
572.987	8857.66
573.349	8882.75
573.71	8944.67
574.071	8981.5
574.432	8929.3
574.794	9011.78
575.155	9029.64
575.516	8998
575.877	9021.05
576.238	9095.62
576.599	9103.76
576.96	9123.42
577.32	9103.31
577.681	9112.35
578.042	9176.75
578.403	9122.51
578.763	9214.72
579.124	9269.4
579.485	9242.51
579.845	9207.94
580.206	9261.72
580.566	9352.79
580.927	9240.25
581.287	9329.06
581.648	9365.45
582.008	9389.63
582.368	9373.81
582.728	9389.4
583.089	9383.07
583.449	9409.06
583.809	9415.16
584.169	9438.89
584.529	9416.29
584.889	9520.92
585.249	9466.91
585.609	9400.47
585.969	9455.61
586.329	9430.98
586.688	9466.69
587.048	9496.29
587.408	9459.45
587.768	9466.01
588.127	9497.65
588.487	9490.87
588.846	9633.01
589.206	9474.6
589.565	9472.34
589.925	9605.89
590.284	9575.38
590.643	9600.69
591.003	9631.65
591.362	9642.73
591.721	9616.51
592.08	9576.06
592.44	9675.27
592.799	9572.22
593.158	9584.88
593.517	9574.93
593.876	9677.75
594.235	9651.09
594.593	9682.27
594.952	9656.74
595.311	9605.21
595.67	9630.75
596.029	9732.67
596.387	9732.89
596.746	9725.21
597.104	9711.88
597.463	9725.44
597.822	9743.51
598.18	9687.47
598.538	9714.14
598.897	9788.26
599.255	9685.21
599.613	9771.54
599.972	9757.98
600.33	9764.31
600.688	9754.36
601.046	9841.37
601.404	9780.58
601.762	9784.42
602.12	9844.98
602.478	9790.29
602.836	9869.84
603.194	9839.56
603.552	9814.47
603.91	9775.6
604.268	9822.38
604.625	9832.55
604.983	9854.25
605.341	9772.21
605.698	9886.11
606.056	9862.83
606.413	9909.39
606.771	9972.21
607.128	9813.57
607.485	9892.66
607.843	9905.32
608.2	9927.92
608.557	9959.1
608.914	9930.85
609.272	9954.58
609.629	9901.48
609.986	10004.75
610.343	9913.68
610.7	10085.2
611.057	10044.98
611.414	10014.92
611.771	10090.4
612.127	10052.21
612.484	9988.03
612.841	10121.81
613.198	10017.41
613.554	10025.32
613.911	10127.69
614.267	10106.67
614.624	10098.08
614.98	10073.45
615.337	10145.76
615.693	10119.1
616.05	10136.27
616.406	10104.64
616.762	10099.89
617.118	10136.72
617.475	10074.58
617.831	10125.2
618.187	10142.83
618.543	10169.94
618.899	10155.71
619.255	10223.05
619.611	10230.06
619.967	10201.81
620.323	10208.36
620.678	10212.88
621.034	10185.99
621.39	10183.5
621.746	10208.59
622.101	10299.21
622.457	10204.07
622.812	10251.07
623.168	10233.67
623.523	10232.32
623.879	10229.83
624.234	10207.68
624.589	10234.12
624.945	10247
625.3	10271.64
625.655	10193.22
626.01	10218.76
626.365	10296.72
626.72	10188.48
627.075	10216.95
627.43	10199.55
627.785	10188.25
628.14	10160.45
628.495	10226.21
628.85	10144.86
629.205	10225.31
629.559	10213.79
629.914	10191.19
630.269	10194.35
630.623	10192.77
630.978	10098.31
631.332	10169.94
631.687	10128.59
632.041	10118.42
632.396	10065.77
632.75	10056.28
633.104	10132.43
633.459	10075.94
633.813	10014.02
634.167	10049.27
634.521	10014.02
634.875	10056.73
635.229	10001.59
635.583	9968.37
635.937	9945.09
636.291	9961.81
636.645	9946
636.999	9934.02
637.352	9937.18
637.706	9878.88
638.06	9921.36
638.413	9875.26
638.767	9936.73
639.121	9903.06
639.474	9848.82
639.828	9812.44
640.181	9858.09
640.534	9846.56
640.888	9824.87
641.241	9785.32
641.594	9795.27
641.947	9897.64
642.301	9780.58
642.654	9797.07
643.007	9782.16
643.36	9767.02
643.713	9767.02
644.066	9766.11
644.419	9714.36
644.771	9641.6
645.124	9598.66
645.477	9629.85
645.83	9519.34
646.182	9550.53
646.535	9449.29
646.888	9456.29
647.24	9404.31
647.593	9398.21
647.945	9410.19
648.298	9358.89
648.65	9329.29
649.002	9340.81
649.355	9399.34
649.707	9437.53
650.059	9452.68
650.411	9562.28
650.763	9554.82
651.115	9685.66
651.467	9632.56
651.819	9695.83
652.171	9587.36
652.523	9622.16
652.875	9539.45
653.227	9495.84
653.578	9639.34
653.93	9581.94
654.282	9559.79
654.633	9506.01
654.985	9529.96
655.337	9520.7
655.688	9579
656.039	9528.15
656.391	9478.89
656.742	9543.97
657.094	9533.13
657.445	9599.11
657.796	9536.29
658.147	9539.9
658.498	9588.72
658.849	9562.95
659.2	9461.26
659.551	9508.04
659.902	9585.1
660.253	9522.96
660.604	9586.23
660.955	9482.05
661.306	9577.64
661.656	9544.65
662.007	9505.1
662.358	9517.98
662.708	9496.74
663.059	9600.92
663.409	9471.66
663.76	9553.24
664.11	9533.58
664.461	9552.11
664.811	9575.84
665.161	9569.51
665.511	9524.31
665.862	9554.14
666.212	9552.33
666.562	9521.15
666.912	9529.74
667.262	9470.75
667.612	9528.83
667.962	9499.68
668.312	9460.58
668.662	9536.51
669.011	9550.53
669.361	9522.05
669.711	9463.75
670.06	9455.61
670.41	9451.09
670.76	9510.3
671.109	9531.77
671.459	9477.76
671.808	9452
672.157	9506.23
672.507	9394.6
672.856	9366.8
673.205	9367.71
673.554	9439.79
673.904	9363.41
674.253	9481.83
674.602	9431.66
674.951	9247.03
675.3	9254.04
675.649	9419.68
675.998	9339.68
676.346	9409.51
676.695	9408.38
677.044	9316.86
677.393	9306.92
677.741	9367.93
678.09	9296.52
678.438	9246.8
678.787	9247.93
679.135	9325.9
679.484	9255.84
679.832	9274.6
680.181	9239.57
680.529	9255.17
680.877	9194.6
681.225	9190.31
681.573	9241.16
681.922	9156.64
682.27	9109.41
682.618	9177.43
682.966	9061.05
683.314	9080.71
683.661	9072.35
684.009	9045.68
684.357	9031.22
684.705	9129.07
685.053	9005.91
685.4	9014.72
685.748	8899.24
686.095	8958.9
686.443	8869.64
686.79	8910.54
687.138	8979.69
687.485	8941.28
687.832	8907.38
688.18	8885.91
688.527	8837.78
688.874	8772.24
689.221	8878.45
689.568	8792.13
689.915	8730.21
690.262	8690.44
690.609	8728.17
690.956	8625.13
691.303	8628.29
691.65	8598.69
691.997	8639.59
692.344	8620.15
692.69	8544.9
693.037	8568.63
693.383	8451.12
693.73	8463.55
694.077	8433.72
694.423	8367.28
694.769	8419.26
695.116	8373.38
695.462	8388.07
695.808	8325.47
696.155	8332.48
696.501	8261.97
696.847	8331.35
697.193	8245.7
697.539	8192.82
697.885	8172.93
698.231	8189.88
698.577	8156.44
698.923	8088.64
699.269	8043.9
699.614	8060.85
699.96	7960.96
700.306	8013.84
700.651	7948.31
700.997	7932.94
701.342	7880.97
701.688	7889.33
702.033	7918.7
702.379	7829.89
702.724	7829.67
703.069	7798.26
703.415	7679.16
703.76	7710.35
704.105	7730.46
704.45	7726.39
704.795	7633.74
705.14	7603.91
705.485	7581.99
705.83	7573.4
706.175	7630.35
706.52	7566.17
706.865	7520.75
707.209	7486.63
707.554	7473.07
707.899	7523.23
708.243	7389.23
708.588	7501.31
708.932	7407.31
709.277	7368.21
709.621	7411.6
709.966	7334.54
710.31	7394.65
710.654	7249.34
710.998	7285.5
711.342	7334.09
711.687	7217.93
712.031	7279.17
712.375	7224.94
712.719	7259.51
713.063	7189.23
713.407	7243.92
713.75	7219.06
714.094	7140.65
714.438	7136.8
714.782	7173.64
715.125	7116.69
715.469	7097.93
715.812	7105.62
716.156	7055
716.499	7090.7
716.843	7062.23
717.186	6993.53
717.53	7044.38
717.873	7051.83
718.216	7003.25
718.559	6995.79
718.902	6926.87
719.246	6923.48
719.589	6985.62
719.932	6939.75
720.275	6978.39
720.617	6909.24
720.96	6910.6
721.303	6928
721.646	6923.02
721.989	6919.18
722.331	6903.14
722.674	6903.82
723.016	6882.12
723.359	6804.16
723.701	6915.34
724.044	6857.26
724.386	6813.42
724.729	6831.95
725.071	6861.1
725.413	6791.28
725.755	6756.25
726.097	6780.66
726.439	6735.01
726.782	6730.94
727.124	6782.46
727.465	6787.89
727.807	6777.94
728.149	6732.52
728.491	6716.93
728.833	6725.06
729.175	6724.61
729.516	6742.92
729.858	6679.19
730.199	6734.1
730.541	6725.29
730.882	6669.25
731.224	6692.07
731.565	6630.38
731.906	6720.09
732.248	6734.55
732.589	6646.87
732.93	6670.6
733.271	6635.12
733.612	6612.3
733.953	6621.56
734.294	6669.25
734.635	6639.42
734.976	6728.45
735.317	6652.52
735.658	6617.5
735.999	6655.23
736.339	6619.53
736.68	6675.35
737.021	6627.44
737.361	6629.7
737.702	6680.54
738.042	6670.6
738.383	6671.05
738.723	6677.83
739.063	6704.05
739.404	6702.92
739.744	6702.69
740.084	6686.65
740.424	6709.24
740.764	6675.57
741.104	6754.89
741.444	6687.1
741.784	6707.89
742.124	6738.4
742.464	6693.88
742.804	6741.11
743.143	6751.28
743.483	6715.8
743.823	6722.58
744.162	6784.5
744.502	6790.15
744.841	6765.74
745.181	6824.04
745.52	6830.37
745.86	6788.34
746.199	6840.54
746.538	6879.86
746.877	6930.26
747.216	6939.07
747.556	6907.66
747.895	6992.85
748.234	6976.58
748.573	7009.12
748.911	7070.14
749.25	7095.22
749.589	7078.05
749.928	7142.45
750.267	7224.03
750.605	7233.07
750.944	7206.41
751.283	7256.35
751.621	7331.15
751.96	7388.1
752.298	7387.19
752.636	7488.43
752.975	7480.52
753.313	7611.59
753.651	7701.76
753.989	7729.78
754.327	7805.94
754.666	7863.79
755.004	7861.76
755.342	8038.93
755.679	7985.82
756.017	8113.05
756.355	8214.52
756.693	8297
757.031	8395.53
757.368	8416.54
757.706	8545.81
758.044	8612.7
758.381	8718.23
758.719	8785.12
759.056	8928.62
759.394	8934.5
759.731	9047.26
760.068	9148.28
760.405	9223.98
760.743	9357.31
761.08	9410.42
761.417	9456.29
761.754	9612.44
762.091	9724.76
762.428	9818.54
762.765	9837.75
763.102	9962.27
763.438	10038.2
763.775	10107.57
764.112	10176.27
764.449	10340.56
764.785	10438.19
765.122	10413.55
765.458	10547.34
765.795	10594.34
766.131	10635.92
766.467	10772.19
766.804	10797.72
767.14	10908.23
767.476	11013.54
767.812	11050.83
768.148	11106.19
768.485	11072.29
